###################################################################
## OUTPUT of StarlightChains_v04.for    [Cid@UFSC - 01/Apr/2007] ##
###################################################################

## Some input info
2007gr.txt                               [arq_obs]
Base.CB07.vall.4m                        [arq_base]
Masks.EmLines.NEW.gm                     [arq_masks]
StCv04.C11.config                        [arq_config]
   66                                    [N_base]
    0                                    [N_YAV_components = # of components with extra extinction!]
    0                                    [i_FitPowerLaw (1/0 = Yes/No)]
-9.99                                    [alpha_PowerLaw]
CCM                                      [red_law_option]
 1.458241                                [q_norm = A(l_norm)/A(V)]

## (Re)Sampling Parameters
 3741.00                                 [l_ini (A)]
 7218.00                                 [l_fin (A)]
    1.00                                 [dl    (A)]     (OBS: dl_cushion =    50.00 A)

## Normalization info
 4020.00                                 [l_norm (A) - for base]
 4010.00                                 [llow_norm (A) - window for f_obs]
 4060.00                                 [lupp_norm (A) - window for f_obs]
1.087087E-14                             [fobs_norm (in input units)]

## S/N
 3691.00                                 [llow_SN (A) - window for S/N]
 7268.00                                 [lupp_SN (A) - window for S/N]
   7.701                                 [S/N in S/N window]
   9.556                                 [S/N in norm. window]
  10.000                                 [S/N_err in S/N window]
  12.409                                 [S/N_err in norm. window]
  1.0000                                 [fscale_chi2]

## etc...
    -2007334                             [idum_orig]
  2403                                   [NOl_eff]
  2403                                   [Nl_eff]
     0    NSIGMA                         [Ntot_cliped & clip_method]
  1296750                                [Nglobal_steps]
   7                                     [N_chains]
  24                                     [NEX0s_base = N_base in EX0s-fits]
 0   0   1       49   2.0   1.597E+01    [Clip-Bug, RC-Crash & Burn-In warning-flags, n_censored_weights, wei_nsig_threshold & wei_limit]
    12     12.115     11.609      0.505  [idt_all, wdt_TotTime, wdt_UsrTime & wdt_SysTime (sec)]

## Synthesis Results - Best model ##

 3.21634E-02                             [chi2/Nl_eff]
     1.21391                             [adev (%)]

   104.15001                             [sum-of-x (%)]
 1.19500E-14                             [Flux_tot (units of input spectrum!)]
 7.65802E-11                             [Mini_tot (???)]
 4.30209E-11                             [Mcor_tot (???)]

 -74.54                                  [v0_min  (km/s)]
 354.08                                  [vd_min  (km/s)]
 0.0402                                  [AV_min  (mag)]
 0.0000                                  [YAV_min (mag)]

# j     x_j(%)      Mini_j(%)     Mcor_j(%)     age_j(yr)     Z_j      (L/M)_j    YAV?  Mstars   component_j        a/Fe...       SSP_chi2r SSP_adev(%)   SSP_AV   SSP_x(%)
  1      2.2559     3.0896E-02    5.4997E-02    1.000000E+06  0.00400  1.094E-02    0   1.0000   age020_m42            0.0000     4.4814E-01     4.6132   2.6105    86.5592
  2      1.8094     6.7657E-03    1.2042E-02    3.160000E+06  0.00400  4.007E-02    0   0.9999   age045_m42            0.0000     2.1665E-01     3.1840   1.8471    94.1232
  3      0.0000     0.0000E+00    0.0000E+00    5.010000E+06  0.00400  2.539E-02    0   0.9488   age055_m42            0.0000     2.9547E-01     3.7385   2.1825    91.1558
  4      1.1922     6.8177E-03    1.1189E-02    6.610000E+06  0.00400  2.620E-02    0   0.9220   age061_m42            0.0000     2.1678E-01     3.0262   1.7703    94.4477
  5      0.0000     0.0000E+00    0.0000E+00    1.000000E+07  0.00400  1.322E-02    0   0.8862   age070_m42            0.0000     2.5612E-01     3.0856   1.4968    95.8809
  6      0.5025     9.5512E-03    1.4572E-02    1.445000E+07  0.00400  7.883E-03    0   0.8571   age078_m42            0.0000     3.0135E-01     3.4117   1.8335    93.0501
  7      0.0000     0.0000E+00    0.0000E+00    2.512000E+07  0.00400  5.251E-03    0   0.8174   age090_m42            0.0000     2.6529E-01     3.2133   1.3657    96.4309
  8      0.0000     0.0000E+00    0.0000E+00    4.000000E+07  0.00400  3.649E-03    0   0.7851   age104_m42            0.0000     2.2072E-01     2.8492   1.1300    97.6464
  9      0.0214     1.0360E-03    1.4070E-03    5.500000E+07  0.00400  3.098E-03    0   0.7629   age110_m42            0.0000     2.0500E-01     2.4622   1.2743    98.1640
 10      0.0000     0.0000E+00    0.0000E+00    1.015200E+08  0.00400  2.228E-03    0   0.7207   age116_m42            0.0000     2.2397E-01     2.5135   1.2867    98.7639
 11      0.0000     0.0000E+00    0.0000E+00    2.861200E+08  0.00400  1.093E-03    0   0.6648   age125_m42            0.0000     2.2836E-01     2.6934   0.7060   102.1716
 12      0.0000     0.0000E+00    0.0000E+00    5.088000E+08  0.00400  6.597E-04    0   0.6365   age130_m42            0.0000     2.5282E-01     2.6838   0.6849   103.6833
 13      2.2787     1.6014E+00    1.6528E+00    1.434000E+09  0.00400  2.132E-04    0   0.5798   age139_m42            0.0000     1.5678E-01     2.3706  -0.2986   106.4897
 14      5.8744     1.4930E+01    1.4291E+01    4.250000E+09  0.00400  5.895E-05    0   0.5377   age158_m42            0.0000     1.3533E-01     2.7678  -0.7352   102.3784
 15      7.6249     3.2548E+01    3.0197E+01    7.500000E+09  0.00400  3.510E-05    0   0.5212   age171_m42            0.0000     2.1582E-01     3.4092  -0.9264   101.9037
 16      0.0000     0.0000E+00    0.0000E+00    1.300000E+10  0.00400  2.005E-05    0   0.5034   age193_m42            0.0000     3.4978E-01     4.0058  -1.0000    98.1184
 17      0.0000     0.0000E+00    0.0000E+00    1.800000E+10  0.00400  1.525E-05    0   0.4967   age213_m42            0.0000     3.5134E-01     4.0370  -1.0000    96.8331
 18      3.6652     4.4357E-02    7.8959E-02    1.000000E+06  0.00800  1.238E-02    0   1.0000   age020_m52            0.0000     4.4823E-01     4.6202   2.6068    86.7298
 19      3.6732     1.7903E-02    3.1761E-02    3.160000E+06  0.00800  3.074E-02    0   0.9966   age045_m52            0.0000     4.2288E-01     4.5261   2.5269    87.6431
 20      0.0000     0.0000E+00    0.0000E+00    5.010000E+06  0.00800  2.668E-02    0   0.9443   age055_m52            0.0000     3.2311E-01     3.8813   2.2706    90.1073
 21     16.9894     1.1917E-01    1.9467E-01    6.610000E+06  0.00800  2.136E-02    0   0.9177   age061_m52            0.0000     1.8398E-01     2.7650   0.9979    97.0019
 22      0.1881     2.3197E-03    3.6448E-03    1.000000E+07  0.00800  1.215E-02    0   0.8827   age070_m52            0.0000     3.1391E-01     3.6214   1.6836    95.2579
 23      0.0000     0.0000E+00    0.0000E+00    1.445000E+07  0.00800  8.717E-03    0   0.8552   age078_m52            0.0000     2.7926E-01     3.2458   1.7955    94.4914
 24      0.0000     0.0000E+00    0.0000E+00    2.512000E+07  0.00800  5.592E-03    0   0.8162   age090_m52            0.0000     2.6236E-01     3.2304   1.4273    97.6662
 25      0.0000     0.0000E+00    0.0000E+00    4.000000E+07  0.00800  3.896E-03    0   0.7841   age104_m52            0.0000     2.1995E-01     2.7985   1.3296    98.9225
 26      0.0000     0.0000E+00    0.0000E+00    1.015200E+08  0.00800  2.148E-03    0   0.7226   age116_m52            0.0000     1.8430E-01     2.3285   1.2556    99.4442
 27      0.0000     0.0000E+00    0.0000E+00    2.861200E+08  0.00800  9.925E-04    0   0.6683   age125_m52            0.0000     2.6013E-01     2.6316   0.7486   104.6937
 28      8.3171     3.9673E+00    4.3347E+00    9.047900E+08  0.00800  3.141E-04    0   0.6138   age135_m52            0.0000     2.4489E-01     3.0675  -0.0735   110.4411
 29      0.0000     0.0000E+00    0.0000E+00    1.434000E+09  0.00800  1.719E-04    0   0.5853   age139_m52            0.0000     1.5604E-01     2.8053  -0.6463   107.8890
 30      0.0000     0.0000E+00    0.0000E+00    2.500000E+09  0.00800  7.872E-05    0   0.5600   age150_m52            0.0000     2.5781E-01     3.7295  -0.9168   105.2759
 31      2.5079     8.6659E+00    8.3701E+00    4.250000E+09  0.00800  4.336E-05    0   0.5426   age158_m52            0.0000     2.7752E-01     3.7801  -0.9307   104.2315
 32      0.0000     0.0000E+00    0.0000E+00    6.250000E+09  0.00800  3.159E-05    0   0.5319   age166_m52            0.0000     5.2246E-01     4.8439  -1.0000    99.4427
 33      0.0000     0.0000E+00    0.0000E+00    1.300000E+10  0.00800  1.361E-05    0   0.5073   age193_m52            0.0000     2.1646E+00    10.5424  -1.0000    81.9091
 34      0.0000     0.0000E+00    0.0000E+00    1.800000E+10  0.00800  9.886E-06    0   0.4990   age213_m52            0.0000     2.8892E+00    12.1149  -1.0000    77.8426
 35      0.0000     0.0000E+00    0.0000E+00    1.000000E+06  0.02000  1.544E-02    0   1.0000   age020_m62            0.0000     4.5554E-01     4.6610   2.6031    86.9151
 36      3.7063     1.4761E-02    2.5902E-02    3.160000E+06  0.02000  3.762E-02    0   0.9858   age045_m62            0.0000     4.4716E-01     4.6499   2.5410    87.7380
 37      0.0000     0.0000E+00    0.0000E+00    5.010000E+06  0.02000  3.296E-02    0   0.9342   age055_m62            0.0000     2.6382E-01     3.5418   2.1331    92.7111
 38      0.0000     0.0000E+00    0.0000E+00    8.710000E+06  0.02000  1.154E-02    0   0.8861   age067_m62            0.0000     8.8168E-01     7.3749   1.1602    96.2374
 39      0.0000     0.0000E+00    0.0000E+00    1.445000E+07  0.02000  7.663E-03    0   0.8472   age078_m62            0.0000     3.9909E-01     4.5810   1.3333    97.1441
 40      0.0000     0.0000E+00    0.0000E+00    2.512000E+07  0.02000  4.532E-03    0   0.8099   age090_m62            0.0000     4.3144E-01     4.7916   1.3223    96.9827
 41      0.0000     0.0000E+00    0.0000E+00    5.500000E+07  0.02000  2.733E-03    0   0.7595   age110_m62            0.0000     2.2698E-01     2.8668   1.3150    98.0996
 42      0.0000     0.0000E+00    0.0000E+00    1.609000E+08  0.02000  1.369E-03    0   0.6985   age120_m62            0.0000     2.5454E-01     2.4690   1.1278   102.1414
 43      0.0000     0.0000E+00    0.0000E+00    2.861200E+08  0.02000  9.013E-04    0   0.6714   age125_m62            0.0000     3.4590E-01     2.7978   0.8601   105.9796
 44      0.0000     0.0000E+00    0.0000E+00    5.088000E+08  0.02000  5.028E-04    0   0.6449   age130_m62            0.0000     3.8822E-01     3.5331   0.4635   109.9134
 45     25.8089     1.5926E+01    1.7517E+01    9.047900E+08  0.02000  2.428E-04    0   0.6179   age135_m62            0.0000     2.4632E-01     3.3659  -0.1279   109.6642
 46     10.1263     1.2013E+01    1.2633E+01    1.434000E+09  0.02000  1.263E-04    0   0.5908   age139_m62            0.0000     2.4663E-01     3.5373  -0.5700   108.0293
 47      2.0759     5.1968E+00    5.2479E+00    2.500000E+09  0.02000  5.985E-05    0   0.5673   age150_m62            0.0000     4.0846E-01     4.6377  -0.9395   106.8586
 48      0.0000     0.0000E+00    0.0000E+00    4.250000E+09  0.02000  3.271E-05    0   0.5468   age158_m62            0.0000     9.5353E-01     6.5382  -1.0000    96.9036
 49      0.0000     0.0000E+00    0.0000E+00    1.000000E+10  0.02000  1.360E-05    0   0.5167   age181_m62            0.0000     2.5050E+00    10.8923  -1.0000    83.8205
 50      0.0000     0.0000E+00    0.0000E+00    1.800000E+10  0.02000  7.124E-06    0   0.5013   age213_m62            0.0000     3.8266E+00    13.5893  -1.0000    75.9312
 51      0.0000     0.0000E+00    0.0000E+00    1.000000E+06  0.05000  2.592E-02    0   0.9998   age020_m72            0.0000     4.8551E-01     4.7709   2.5986    86.7748
 52      0.0000     0.0000E+00    0.0000E+00    3.160000E+06  0.05000  4.845E-02    0   0.9577   age045_m72            0.0000     3.6696E-01     4.2760   2.4117    89.4332
 53      0.0533     2.6004E-04    4.2341E-04    5.010000E+06  0.05000  3.072E-02    0   0.9147   age055_m72            0.0000     3.9293E-01     4.1973   1.9276    93.2645
 54      0.0000     0.0000E+00    0.0000E+00    6.610000E+06  0.05000  1.455E-02    0   0.8877   age061_m72            0.0000     1.4970E+00    10.0032   1.2113    96.5815
 55      0.0000     0.0000E+00    0.0000E+00    1.000000E+07  0.05000  9.074E-03    0   0.8524   age070_m72            0.0000     5.0645E-01     4.9528   2.1102    93.0155
 56      0.0000     0.0000E+00    0.0000E+00    2.512000E+07  0.05000  4.250E-03    0   0.7902   age090_m72            0.0000     3.6732E-01     4.0656   1.7915    95.5524
 57      0.0000     0.0000E+00    0.0000E+00    4.000000E+07  0.05000  3.087E-03    0   0.7618   age104_m72            0.0000     3.7614E-01     4.1070   1.5566    97.4343
 58      0.0000     0.0000E+00    0.0000E+00    1.015200E+08  0.05000  1.700E-03    0   0.7096   age116_m72            0.0000     2.7327E-01     2.7927   1.2748   101.4124
 59      0.0000     0.0000E+00    0.0000E+00    2.861200E+08  0.05000  7.384E-04    0   0.6633   age125_m72            0.0000     3.8309E-01     3.1321   0.7176   108.0337
 60      0.0000     0.0000E+00    0.0000E+00    5.088000E+08  0.05000  3.819E-04    0   0.6372   age130_m72            0.0000     3.1244E-01     3.5119   0.2123   110.6181
 61      5.4789     4.8980E+00    5.3271E+00    9.047900E+08  0.05000  1.676E-04    0   0.6110   age135_m72            0.0000     3.8926E-01     4.6530  -0.4877   109.1229
 62      0.0000     0.0000E+00    0.0000E+00    1.434000E+09  0.05000  8.837E-05    0   0.5874   age139_m72            0.0000     4.8059E-01     5.0030  -0.9459   108.7251
 63      0.0000     0.0000E+00    0.0000E+00    2.500000E+09  0.05000  4.233E-05    0   0.5598   age150_m72            0.0000     1.0707E+00     6.9451  -1.0000    97.7757
 64      0.0000     0.0000E+00    0.0000E+00    6.250000E+09  0.05000  1.435E-05    0   0.5249   age166_m72            0.0000     3.0152E+00    12.1275  -1.0000    80.1019
 65      0.0000     0.0000E+00    0.0000E+00    1.300000E+10  0.05000  6.513E-06    0   0.5036   age193_m72            0.0000     4.9007E+00    15.6074  -1.0000    71.3739
 66      0.0000     0.0000E+00    0.0000E+00    1.800000E+10  0.05000  4.527E-06    0   0.4945   age213_m72            0.0000     6.0917E+00    17.5033  -1.0000    66.1189


## Synthesis Results - Average & Chains ##

# j      x_j: min, <> & last-chain-values for 1 ...  7 chains
  1      2.2559      1.0646      0.0000      0.7198      2.8442      0.0000      2.9733      2.7040      1.8076
  2      1.8094      0.4265      0.0000      1.2719      3.2198      0.0000      0.0000      0.0000      0.0000
  3      0.0000      0.4854      2.0097      0.0000      0.0000      1.5558      0.0000      0.0000      0.6251
  4      1.1922      0.7043      0.0000      1.5363      2.1557      0.0000      0.0000      0.0000      0.5901
  5      0.0000      0.7038      2.1006      1.8870      0.0000      0.0000      0.8781      0.0000      0.9340
  6      0.5025      0.7338      0.0000      0.0000      1.7340      0.0000      0.0000      1.1820      3.7869
  7      0.0000      1.1519      1.8418      0.0000      0.0000      0.3489      0.0000      0.0000      0.5207
  8      0.0000      1.4234      0.0000      0.0872      0.0000      0.0000      2.4376      0.7145      2.3482
  9      0.0214      0.7808      0.0000      0.0329      3.2531      0.0000      0.0000      0.0000      0.0000
 10      0.0000      0.5713      0.3095      0.0000      0.1943      0.0000      0.0000      0.0000      0.0000
 11      0.0000      0.7789      1.6295      3.8532      0.0000      0.0000      0.0000      0.0000      0.8210
 12      0.0000      0.7446      0.1686      0.0000      0.0000      0.0000      0.0286      0.0000      0.3560
 13      2.2787      0.9023      0.0000      0.0000      1.4711      0.0000      1.5545      0.0000      1.5014
 14      5.8744      0.6310      0.0000      0.2034      1.7932      1.0164      1.4780      1.7326      0.5283
 15      7.6249      0.7609      0.0000      1.7475      2.2977      1.6028      0.0000      0.0000      0.0000
 16      0.0000      0.4210      0.0000      0.6409      0.0000      0.0000      0.6234      0.3368      0.0000
 17      0.0000      0.2752      0.0000      0.1554      0.0000      1.2532      0.0000      2.7464      0.4602
 18      3.6652      2.3671      2.8863      2.6012      1.7238      2.1093      0.8848      2.6383      1.3119
 19      3.6732      2.4293      3.3588      1.8998      2.3819      4.0133      1.8974      4.7408      1.8834
 20      0.0000      0.7066      1.9143      1.2073      0.2408      1.0102      0.4809      0.0000      1.1273
 21     16.9894     10.1317     13.0462      8.9571     10.0592     19.9128      9.2942     14.5824      9.3723
 22      0.1881      1.1841      0.0000      0.0002      1.8574      0.0000      0.0000      0.0000      1.2093
 23      0.0000      0.6710      1.4307      0.0000      0.0000      0.0000      0.0000      1.0551      0.2336
 24      0.0000      0.6887      0.0000      0.4099      0.0000      0.0000      0.0000      0.0000      1.6475
 25      0.0000      0.3999      0.0000      0.0000      0.0000      0.0575      0.0000      0.0000      0.0000
 26      0.0000      1.0413      0.9206      3.1113      0.0000      1.2800      1.4430      2.1781      0.0000
 27      0.0000      0.6187      0.0000      1.6913      0.0000      0.1137      0.0000      0.0000      0.0000
 28      8.3171      3.3225      0.0000      2.3895      6.9074      8.0454      7.7309      0.5438      4.5447
 29      0.0000      0.4100      0.0000      1.5365      0.9108      0.4967      0.0000      0.0000      0.0000
 30      0.0000      0.7138      0.9278      1.4009      0.0000      0.0000      0.6268      0.8281      0.0000
 31      2.5079      0.5251      1.2666      1.5218      3.5233      0.0000      0.5595      0.0000      0.0000
 32      0.0000      1.0131      0.0000      1.8591      0.0000      0.0000      3.0303      1.8702      1.7758
 33      0.0000      0.1998      0.0000      0.3606      0.0000      0.0000      0.0000      0.0000      1.3374
 34      0.0000      0.1754      0.9701      0.0000      0.0000      0.0000      0.6377      0.0000      0.0000
 35      0.0000      0.7798      0.0000      0.0000      0.0550      0.0000      0.7830      0.6232      0.0000
 36      3.7063      0.9616      0.0000      3.7262      2.8876      3.8987      2.0829      0.0000      1.3010
 37      0.0000      0.3607      1.7556      0.9021      0.0000      0.0000      1.0573      0.0000      0.4962
 38      0.0000      0.6040      0.0000      0.0000      2.1609      0.0000      0.5004      1.5503      0.0000
 39      0.0000      0.7964      2.1861      0.0000      0.0000      0.0000      0.0000      0.0000      0.0000
 40      0.0000      0.8654      0.0000      0.0000      0.0000      0.6946      3.9419      0.3370      0.0000
 41      0.0000      0.4600      0.0000      0.2568      0.0000      0.0000      0.5778      0.0000      0.0000
 42      0.0000      0.5059      1.2838      0.0000      0.0769      1.5445      0.0000      0.5283      0.0000
 43      0.0000      0.5294      0.0000      0.0000      0.0000      0.0000      1.2185      0.0000      0.0000
 44      0.0000      1.0430      0.0000      2.5330      0.0000      2.5597      0.0000      3.3839      0.1360
 45     25.8089     20.5280     25.5755     23.3780     17.7810     22.2813     18.7646     21.5807     27.1270
 46     10.1263     10.3052     12.6127     11.2194     10.2195      8.1622      9.6995     11.1789      7.9754
 47      2.0759      1.5296      2.9018      0.0000      1.7909      0.0000      2.3815      0.3615      1.7057
 48      0.0000      0.3489      0.0000      0.5907      0.0000      2.1875      0.9939      0.0000      0.0000
 49      0.0000      0.1629      0.0000      0.0000      0.0000      0.0000      0.0000      0.0000      0.0000
 50      0.0000      0.0343      0.0000      0.0000      0.0000      0.3676      0.0000      0.0000      0.0000
 51      0.0000      1.0304      1.7727      2.9685      0.6894      0.7147      4.1719      0.0000      5.5400
 52      0.0000      0.8253      1.9761      0.0000      0.0000      1.3859      1.5301      0.0000      1.3568
 53      0.0533      0.9152      0.0000      2.9222      1.5329      1.2425      0.0473      0.0000      0.0000
 54      0.0000      0.6630      0.2530      1.1291      0.0000      0.0000      0.2205      0.0000      0.0000
 55      0.0000      0.4032      0.0000      0.0000      0.0000      0.0552      0.5268      2.4278      0.0000
 56      0.0000      0.6653      0.0000      0.0000      0.0000      0.0000      0.0000      3.0974      0.0000
 57      0.0000      0.3923      0.0000      0.0000      0.0000      0.0000      0.0000      0.0000      0.0000
 58      0.0000      0.6003      0.0000      0.0035      0.0000      0.0000      0.0000      0.0000      0.0000
 59      0.0000      0.5784      0.0000      0.0000      0.0000      0.0000      0.0000      0.0000      0.6914
 60      0.0000      4.0911      3.8700      0.0000      4.4191      2.5260      5.2889      8.2418      3.1693
 61      5.4789     13.2033     13.2860     13.6582     13.2078     11.0172     12.1561     11.7462     13.8833
 62      0.0000      2.0859      1.8604      0.0000      2.9097      3.2295      2.2432      1.6138      2.6109
 63      0.0000      0.1446      0.0000      0.0000      0.0000      0.0000      0.0296      0.0000      0.0000
 64      0.0000      0.0406      0.3661      0.0000      0.0000      0.0000      0.0000      0.0000      0.0000
 65      0.0000      0.0197      0.0000      0.0000      0.0000      0.0000      0.0000      0.0000      0.0000
 66      0.0000      0.0359      0.0000      0.0000      0.0000      0.0000      0.3507      0.0000      0.0000

# j      m_j: min, <> & last-chain-values for 1 ...  7 chains
  1  5.4997E-02  3.1720E-02  0.0000E+00  2.0984E-02  8.5894E-02  0.0000E+00  7.0350E-02  7.3106E-02  5.2881E-02
  2  1.2042E-02  3.4692E-03  0.0000E+00  1.0122E-02  2.6546E-02  0.0000E+00  0.0000E+00  0.0000E+00  0.0000E+00
  3  0.0000E+00  5.9123E-03  2.4391E-02  0.0000E+00  0.0000E+00  1.8129E-02  0.0000E+00  0.0000E+00  7.4763E-03
  4  1.1189E-02  8.0784E-03  0.0000E+00  1.7242E-02  2.5063E-02  0.0000E+00  0.0000E+00  0.0000E+00  6.6460E-03
  5  0.0000E+00  1.5379E-02  4.5732E-02  4.0341E-02  0.0000E+00  0.0000E+00  1.5237E-02  0.0000E+00  2.0038E-02
  6  1.4572E-02  2.6006E-02  0.0000E+00  0.0000E+00  6.2288E-02  0.0000E+00  0.0000E+00  3.8013E-02  1.3178E-01
  7  0.0000E+00  5.8448E-02  9.3118E-02  0.0000E+00  0.0000E+00  1.6938E-02  0.0000E+00  0.0000E+00  2.5942E-02
  8  0.0000E+00  9.9822E-02  0.0000E+00  5.9829E-03  0.0000E+00  0.0000E+00  1.3576E-01  4.5471E-02  1.6170E-01
  9  1.4070E-03  6.2674E-02  0.0000E+00  2.5813E-03  2.6467E-01  0.0000E+00  0.0000E+00  0.0000E+00  0.0000E+00
 10  0.0000E+00  6.0241E-02  3.2515E-02  0.0000E+00  2.0762E-02  0.0000E+00  0.0000E+00  0.0000E+00  0.0000E+00
 11  0.0000E+00  1.5443E-01  3.2190E-01  7.4742E-01  0.0000E+00  0.0000E+00  0.0000E+00  0.0000E+00  1.5982E-01
 12  0.0000E+00  2.3419E-01  5.2839E-02  0.0000E+00  0.0000E+00  0.0000E+00  7.1387E-03  0.0000E+00  1.0993E-01
 13  1.6528E+00  7.9980E-01  0.0000E+00  0.0000E+00  1.3218E+00  0.0000E+00  1.0943E+00  0.0000E+00  1.3068E+00
 14  1.4291E+01  1.8760E+00  0.0000E+00  5.9155E-01  5.4039E+00  2.8909E+00  3.4896E+00  4.6745E+00  1.5424E+00
 15  3.0197E+01  3.6828E+00  0.0000E+00  8.2757E+00  1.1272E+01  7.4216E+00  0.0000E+00  0.0000E+00  0.0000E+00
 16  0.0000E+00  3.4458E+00  0.0000E+00  5.1317E+00  0.0000E+00  0.0000E+00  4.0515E+00  2.5015E+00  0.0000E+00
 17  0.0000E+00  2.9212E+00  0.0000E+00  1.6140E+00  0.0000E+00  1.2728E+01  0.0000E+00  2.6458E+01  4.7973E+00
 18  7.8959E-02  6.2325E-02  7.5719E-02  6.7010E-02  4.6002E-02  5.3130E-02  1.8501E-02  6.3033E-02  3.3915E-02
 19  3.1761E-02  2.5672E-02  3.5366E-02  1.9643E-02  2.5513E-02  4.0573E-02  1.5923E-02  4.5461E-02  1.9543E-02
 20  0.0000E+00  8.1516E-03  2.2005E-02  1.3627E-02  2.8157E-03  1.1150E-02  4.4062E-03  0.0000E+00  1.2769E-02
 21  1.9467E-01  1.4189E-01  1.8204E-01  1.2273E-01  1.4279E-01  2.6678E-01  1.0336E-01  1.8531E-01  1.2888E-01
 22  3.6448E-03  2.8041E-02  0.0000E+00  5.1943E-06  4.4583E-02  0.0000E+00  0.0000E+00  0.0000E+00  2.8118E-02
 23  0.0000E+00  2.1457E-02  4.5586E-02  0.0000E+00  0.0000E+00  0.0000E+00  0.0000E+00  3.0617E-02  7.3351E-03
 24  0.0000E+00  3.2766E-02  0.0000E+00  1.9081E-02  0.0000E+00  0.0000E+00  0.0000E+00  0.0000E+00  7.6965E-02
 25  0.0000E+00  2.6232E-02  0.0000E+00  0.0000E+00  0.0000E+00  3.6097E-03  0.0000E+00  0.0000E+00  0.0000E+00
 26  0.0000E+00  1.1419E-01  1.0058E-01  3.3380E-01  0.0000E+00  1.3427E-01  1.2565E-01  2.1672E-01  0.0000E+00
 27  0.0000E+00  1.3579E-01  0.0000E+00  3.6319E-01  0.0000E+00  2.3882E-02  0.0000E+00  0.0000E+00  0.0000E+00
 28  4.3347E+00  2.1164E+00  0.0000E+00  1.4892E+00  4.4596E+00  4.9026E+00  3.9105E+00  3.1433E-01  2.8424E+00
 29  0.0000E+00  4.5501E-01  0.0000E+00  1.6685E+00  1.0245E+00  5.2741E-01  0.0000E+00  0.0000E+00  0.0000E+00
 30  0.0000E+00  1.6551E+00  2.1436E+00  3.1783E+00  0.0000E+00  0.0000E+00  1.1541E+00  1.7425E+00  0.0000E+00
 31  8.3701E+00  2.1419E+00  5.1477E+00  6.0735E+00  1.4567E+01  0.0000E+00  1.8124E+00  0.0000E+00  0.0000E+00
 32  0.0000E+00  5.5600E+00  0.0000E+00  9.9830E+00  0.0000E+00  0.0000E+00  1.3207E+01  9.3140E+00  9.5696E+00
 33  0.0000E+00  2.4279E+00  0.0000E+00  4.2864E+00  0.0000E+00  0.0000E+00  0.0000E+00  0.0000E+00  1.5955E+01
 34  0.0000E+00  2.8862E+00  1.5903E+01  0.0000E+00  0.0000E+00  0.0000E+00  8.3324E+00  0.0000E+00  0.0000E+00
 35  0.0000E+00  1.6463E-02  0.0000E+00  0.0000E+00  1.1762E-03  0.0000E+00  1.3127E-02  1.1939E-02  0.0000E+00
 36  2.5902E-02  8.2133E-03  0.0000E+00  3.1139E-02  2.4999E-02  3.1857E-02  1.4128E-02  0.0000E+00  1.0911E-02
 37  0.0000E+00  3.3322E-03  1.6160E-02  8.1544E-03  0.0000E+00  0.0000E+00  7.7570E-03  0.0000E+00  4.5013E-03
 38  0.0000E+00  1.5116E-02  0.0000E+00  0.0000E+00  5.4819E-02  0.0000E+00  9.9457E-03  3.5210E-02  0.0000E+00
 39  0.0000E+00  2.8701E-02  7.8495E-02  0.0000E+00  0.0000E+00  0.0000E+00  0.0000E+00  0.0000E+00  0.0000E+00
 40  0.0000E+00  5.0411E-02  0.0000E+00  0.0000E+00  0.0000E+00  3.8708E-02  1.8234E-01  1.7812E-02  0.0000E+00
 41  0.0000E+00  4.1668E-02  0.0000E+00  2.2761E-02  0.0000E+00  0.0000E+00  4.1565E-02  0.0000E+00  0.0000E+00
 42  0.0000E+00  8.4142E-02  2.1274E-01  0.0000E+00  1.2971E-02  2.4573E-01  0.0000E+00  7.9726E-02  0.0000E+00
 43  0.0000E+00  1.2854E-01  0.0000E+00  0.0000E+00  0.0000E+00  0.0000E+00  2.3495E-01  0.0000E+00  0.0000E+00
 44  0.0000E+00  4.3605E-01  0.0000E+00  1.0361E+00  0.0000E+00  1.0238E+00  0.0000E+00  1.2838E+00  5.5819E-02
 45  1.7517E+01  1.7029E+01  2.1139E+01  1.8974E+01  1.4950E+01  1.7682E+01  1.2361E+01  1.6244E+01  2.2095E+01
 46  1.2633E+01  1.5713E+01  1.9162E+01  1.6737E+01  1.5794E+01  1.1906E+01  1.1744E+01  1.5467E+01  1.1940E+01
 47  5.2479E+00  4.7260E+00  8.9331E+00  0.0000E+00  5.6083E+00  0.0000E+00  5.8430E+00  1.0135E+00  5.1746E+00
 48  0.0000E+00  1.9010E+00  0.0000E+00  3.1493E+00  0.0000E+00  1.1403E+01  4.3005E+00  0.0000E+00  0.0000E+00
 49  0.0000E+00  2.0171E+00  0.0000E+00  0.0000E+00  0.0000E+00  0.0000E+00  0.0000E+00  0.0000E+00  0.0000E+00
 50  0.0000E+00  7.8573E-01  0.0000E+00  0.0000E+00  0.0000E+00  8.0668E+00  0.0000E+00  0.0000E+00  0.0000E+00
 51  0.0000E+00  1.2955E-02  2.2208E-02  3.6517E-02  8.7861E-03  8.5966E-03  4.1654E-02  0.0000E+00  6.8393E-02
 52  0.0000E+00  5.3173E-03  1.2686E-02  0.0000E+00  0.0000E+00  8.5428E-03  7.8291E-03  0.0000E+00  8.5835E-03
 53  4.2341E-04  8.8821E-03  0.0000E+00  2.7749E-02  1.5080E-02  1.1537E-02  3.6430E-04  0.0000E+00  0.0000E+00
 54  0.0000E+00  1.3186E-02  5.0135E-03  2.1968E-02  0.0000E+00  0.0000E+00  3.4818E-03  0.0000E+00  0.0000E+00
 55  0.0000E+00  1.2347E-02  0.0000E+00  0.0000E+00  0.0000E+00  1.6162E-03  1.2811E-02  6.7458E-02  0.0000E+00
 56  0.0000E+00  4.0318E-02  0.0000E+00  0.0000E+00  0.0000E+00  0.0000E+00  0.0000E+00  1.7034E-01  0.0000E+00
 57  0.0000E+00  3.1556E-02  0.0000E+00  0.0000E+00  0.0000E+00  0.0000E+00  0.0000E+00  0.0000E+00  0.0000E+00
 58  0.0000E+00  8.1670E-02  0.0000E+00  4.6874E-04  0.0000E+00  0.0000E+00  0.0000E+00  0.0000E+00  0.0000E+00
 59  0.0000E+00  1.6937E-01  0.0000E+00  0.0000E+00  0.0000E+00  0.0000E+00  0.0000E+00  0.0000E+00  1.9878E-01
 60  0.0000E+00  2.2250E+00  2.0971E+00  0.0000E+00  2.4360E+00  1.3143E+00  2.2842E+00  4.0674E+00  1.6925E+00
 61  5.3271E+00  1.5690E+01  1.5731E+01  1.5879E+01  1.5908E+01  1.2524E+01  1.1471E+01  1.2666E+01  1.6199E+01
 62  0.0000E+00  4.5195E+00  4.0163E+00  0.0000E+00  6.3900E+00  6.6941E+00  3.8595E+00  3.1729E+00  5.5544E+00
 63  0.0000E+00  6.2327E-01  0.0000E+00  0.0000E+00  0.0000E+00  0.0000E+00  1.0142E-01  0.0000E+00  0.0000E+00
 64  0.0000E+00  4.8368E-01  4.3488E+00  0.0000E+00  0.0000E+00  0.0000E+00  0.0000E+00  0.0000E+00  0.0000E+00
 65  0.0000E+00  4.9549E-01  0.0000E+00  0.0000E+00  0.0000E+00  0.0000E+00  0.0000E+00  0.0000E+00  0.0000E+00
 66  0.0000E+00  1.2792E+00  0.0000E+00  0.0000E+00  0.0000E+00  0.0000E+00  9.9160E+00  0.0000E+00  0.0000E+00

# AV, chi2 & Mass for <> & i_chain = 1 ...  7 solutions
AV       0.0402      0.1625      0.1541      0.1580      0.1206      0.1574      0.0756      0.1669      0.1546
chi2 3.2163E-02  3.7375E-02  3.5748E-02  3.6005E-02  3.4872E-02  3.4964E-02  3.5155E-02  3.5721E-02  3.5559E-02
Mass 4.3021E-11  4.1485E-11  4.1170E-11  4.2146E-11  3.8690E-11  4.3069E-11  4.6484E-11  4.5988E-11  4.1802E-11
 -74.54                                  [v0_min (km/s) before EX0s...]
 354.08                                  [vd_min (km/s) before EX0s...]


## Synthetic spectrum (Best Model) ##l_obs f_obs f_syn wei
 3478    [Nl_obs]
 3741.00    0.63507   0.66827    0.000
 3742.00    0.64075   0.66522    0.000
 3743.00    0.64163   0.65936    0.000
 3744.00    0.63592   0.65168    0.000
 3745.00    0.62450   0.64299   15.965
 3746.00    0.61025   0.63613   15.965
 3747.00    0.59786   0.63078   15.965
 3748.00    0.59234   0.62922   15.965
 3749.00    0.59573   0.63176   15.965
 3750.00    0.60643   0.63887   15.965
 3751.00    0.62029   0.64968   15.965
 3752.00    0.63410   0.66235   15.770
 3753.00    0.64678   0.67620   15.461
 3754.00    0.65905   0.68920   15.173
 3755.00    0.67177   0.70066   14.886
 3756.00    0.68501   0.70937   14.598
 3757.00    0.69806   0.71574   14.325
 3758.00    0.70994   0.71986   14.086
 3759.00    0.71976   0.72163   13.894
 3760.00    0.72675   0.72120   13.760
 3761.00    0.73064   0.71852   13.687
 3762.00    0.73193   0.71352   13.663
 3763.00    0.73201   0.70684   13.661
 3764.00    0.73239   0.69956   13.654
 3765.00    0.73345   0.69142   13.634
 3766.00    0.73411   0.68401   13.622
 3767.00    0.73263   0.67857   13.650
 3768.00    0.72884   0.67575   13.720
 3769.00    0.72493   0.67631   13.794
 3770.00    0.72472   0.68133   13.798
 3771.00    0.73070   0.69113   13.686
 3772.00    0.74237   0.70456   13.470
 3773.00    0.75659   0.72096   13.217
 3774.00    0.76982   0.73926   12.990
 3775.00    0.77998   0.75828   12.821
 3776.00    0.78650   0.77725   12.715
 3777.00    0.79010   0.79455   12.657
 3778.00    0.79252   0.80958   12.618
 3779.00    0.79647   0.82170   12.555
 3780.00    0.80436   0.82996   12.432
 3781.00    0.81620   0.83434   12.252
 3782.00    0.82920   0.83458   12.060
 3783.00    0.83883   0.83130   11.921
 3784.00    0.84195   0.82419   11.877
 3785.00    0.83769   0.81355   11.938
 3786.00    0.82718   0.80067   12.089
 3787.00    0.81198   0.78547   12.316
 3788.00    0.79343   0.76863   12.604
 3789.00    0.77257   0.75053   12.944
 3790.00    0.75034   0.73183   13.327
 3791.00    0.72763   0.71301   13.743
 3792.00    0.70532   0.69482   14.178
 3793.00    0.68443   0.67833   14.611
 3794.00    0.66622   0.66473   15.010
 3795.00    0.65229   0.65540   15.331
 3796.00    0.64405   0.65079   15.527
 3797.00    0.64207   0.65193   15.575
 3798.00    0.64590   0.65929   15.482
 3799.00    0.65445   0.67217   15.280
 3800.00    0.66687   0.68929   14.995
 3801.00    0.68281   0.70897   14.645
 3802.00    0.70222   0.73029   14.241
 3803.00    0.72465   0.75100   13.800
 3804.00    0.74888   0.77063   13.353
 3805.00    0.77302   0.78774   12.936
 3806.00    0.79516   0.80222   12.576
 3807.00    0.81374   0.81421   12.289
 3808.00    0.82764   0.82294   12.083
 3809.00    0.83629   0.82851   11.958
 3810.00    0.83977   0.83071   11.908
 3811.00    0.83886   0.83036   11.921
 3812.00    0.83481   0.82737   11.979
 3813.00    0.82904   0.82316   12.062
 3814.00    0.82308   0.81768   12.150
 3815.00    0.81815   0.81164   12.223
 3816.00    0.81420   0.80555   12.282
 3817.00    0.80960   0.79877   12.352
 3818.00    0.80176   0.79117   12.473
 3819.00    0.78936   0.78277   12.669
 3820.00    0.77336   0.77446   12.931
 3821.00    0.75662   0.76529   13.217
 3822.00    0.74150   0.75492   13.486
 3823.00    0.72836   0.74264   13.730
 3824.00    0.71563   0.72896   13.974
 3825.00    0.70146   0.71381   14.256
 3826.00    0.68525   0.69727   14.593
 3827.00    0.66785   0.67958   14.973
 3828.00    0.65070   0.66109   15.368
 3829.00    0.63469   0.64282   15.756
 3830.00    0.61996   0.62532   15.965
 3831.00    0.60636   0.60947   15.965
 3832.00    0.59432   0.59698   15.965
 3833.00    0.58517   0.58870   15.965
 3834.00    0.58074   0.58565   15.965
 3835.00    0.58230   0.58877   15.965
 3836.00    0.59001   0.59768   15.965
 3837.00    0.60309   0.61173   15.965
 3838.00    0.62046   0.63041   15.965
 3839.00    0.64119   0.65231   15.596
 3840.00    0.66443   0.67623   15.051
 3841.00    0.68927   0.70143   14.508
 3842.00    0.71451   0.72585   13.996
 3843.00    0.73868   0.74906   13.538
 3844.00    0.76039   0.77005   13.151
 3845.00    0.77890   0.78848   12.839
 3846.00    0.79415   0.80447   12.592
 3847.00    0.80670   0.81763    0.000
 3848.00    0.81750   0.82801    0.000
 3849.00    0.82784   0.83586    0.000
 3850.00    0.83900   0.84219    0.000
 3851.00    0.85087   0.84658    0.000
 3852.00    0.86150   0.84947    0.000
 3853.00    0.86763   0.85115    0.000
 3854.00    0.86759   0.85215    0.000
 3855.00    0.86300   0.85264    0.000
 3856.00    0.85845   0.85381    0.000
 3857.00    0.85825   0.85499    0.000
 3858.00    0.86358   0.85654    0.000
 3859.00    0.87237   0.85901    0.000
 3860.00    0.88138   0.86189    0.000
 3861.00    0.88899   0.86499    0.000
 3862.00    0.89550   0.86741    0.000
 3863.00    0.90224   0.86922    0.000
 3864.00    0.90959   0.86959    0.000
 3865.00    0.91660   0.86887    0.000
 3866.00    0.92141   0.86681    0.000
 3867.00    0.92279   0.86344    0.000
 3868.00    0.92063   0.85917    0.000
 3869.00    0.91576   0.85345    0.000
 3870.00    0.90900   0.84728    0.000
 3871.00    0.90067   0.84010    0.000
 3872.00    0.89056   0.83315    0.000
 3873.00    0.87835   0.82583    0.000
 3874.00    0.86387   0.81804    0.000
 3875.00    0.84717   0.80904    0.000
 3876.00    0.82863   0.79882    0.000
 3877.00    0.80920   0.78674    0.000
 3878.00    0.79038   0.77372    0.000
 3879.00    0.77368   0.75936    0.000
 3880.00    0.75952   0.74289    0.000
 3881.00    0.74709   0.72531   13.385
 3882.00    0.73478   0.70713   13.610
 3883.00    0.72171   0.68949   13.856
 3884.00    0.70822   0.67284   14.120
 3885.00    0.69569   0.65862   14.374
 3886.00    0.68569   0.64826   14.584
 3887.00    0.67963   0.64253   14.714
 3888.00    0.67860   0.64188   14.736
 3889.00    0.68291   0.64747   14.643
 3890.00    0.69164   0.65776   14.458
 3891.00    0.70273   0.67226   14.230
 3892.00    0.71414   0.68923   14.003
 3893.00    0.72523   0.70790   13.789
 3894.00    0.73686   0.72700   13.571
 3895.00    0.75037   0.74574   13.327
 3896.00    0.76562   0.76380   13.061
 3897.00    0.78066   0.77985   12.810
 3898.00    0.79268   0.79453   12.615
 3899.00    0.80067   0.80744   12.490
 3900.00    0.80629   0.81938   12.402
 3901.00    0.81314   0.82993   12.298
 3902.00    0.82363   0.83921   12.141
 3903.00    0.83753   0.84846   11.940
 3904.00    0.85222   0.85687   11.734
 3905.00    0.86502   0.86509   11.560
 3906.00    0.87490   0.87346   11.430
 3907.00    0.88245   0.88114   11.332
 3908.00    0.88878   0.88806   11.251
 3909.00    0.89413   0.89345   11.184
 3910.00    0.89782   0.89748   11.138
 3911.00    0.89886   0.89955   11.125
 3912.00    0.89700   0.89974   11.148
 3913.00    0.89295   0.89795   11.199
 3914.00    0.88790   0.89498   11.262
 3915.00    0.88229   0.89002   11.334
 3916.00    0.87545   0.88409   11.423
 3917.00    0.86599   0.87695   11.548
 3918.00    0.85314   0.86857   11.721
 3919.00    0.83743   0.85920   11.941
 3920.00    0.82050   0.84818   12.188
 3921.00    0.80391   0.83593   12.439
 3922.00    0.78829   0.82115   12.686
 3923.00    0.77331   0.80443   12.931
 3924.00    0.75815   0.78485   13.190
 3925.00    0.74190   0.76307   13.479
 3926.00    0.72361   0.73978   13.820
 3927.00    0.70279   0.71563   14.229
 3928.00    0.68012   0.69224   14.703
 3929.00    0.65754   0.67086   15.208
 3930.00    0.63785   0.65307   15.678
 3931.00    0.62362   0.64025   15.965
 3932.00    0.61692   0.63329   15.965
 3933.00    0.61914   0.63325   15.965
 3934.00    0.63049   0.63991   15.861
 3935.00    0.64975   0.65264   15.390
 3936.00    0.67438   0.66996   14.828
 3937.00    0.70136   0.69052   14.258
 3938.00    0.72771   0.71274   13.742
 3939.00    0.75062   0.73540   13.322
 3940.00    0.76844   0.75687   13.013
 3941.00    0.78165   0.77690   12.793
 3942.00    0.79289   0.79461   12.612
 3943.00    0.80510   0.81001   12.421
 3944.00    0.81881   0.82327   12.213
 3945.00    0.83175   0.83455   12.023
 3946.00    0.84029   0.84316   11.901
 3947.00    0.84288   0.84975   11.864
 3948.00    0.84086   0.85446   11.893
 3949.00    0.83764   0.85744   11.938
 3950.00    0.83559   0.85834   11.968
 3951.00    0.83478   0.85698   11.979
 3952.00    0.83331   0.85339   12.000
 3953.00    0.82901   0.84771   12.063
 3954.00    0.82059   0.83896   12.186
 3955.00    0.80760   0.82698   12.382
 3956.00    0.79019   0.81192   12.655
 3957.00    0.76886   0.79374   13.006
 3958.00    0.74441   0.77199   13.434
 3959.00    0.71791   0.74684   13.929
 3960.00    0.69058   0.71845    0.000
 3961.00    0.66380   0.68809    0.000
 3962.00    0.63892   0.65706    0.000
 3963.00    0.61703   0.62616    0.000
 3964.00    0.59881   0.59740    0.000
 3965.00    0.58465   0.57213    0.000
 3966.00    0.57480   0.55232    0.000
 3967.00    0.56946   0.53928    0.000
 3968.00    0.56883   0.53437    0.000
 3969.00    0.57319   0.53793    0.000
 3970.00    0.58297   0.54997    0.000
 3971.00    0.59873   0.56933    0.000
 3972.00    0.62049   0.59452    0.000
 3973.00    0.64720   0.62399    0.000
 3974.00    0.67675   0.65605    0.000
 3975.00    0.70677   0.68883    0.000
 3976.00    0.73575   0.72088    0.000
 3977.00    0.76312   0.75138    0.000
 3978.00    0.78899   0.77926    0.000
 3979.00    0.81343   0.80426    0.000
 3980.00    0.83633   0.82607    0.000
 3981.00    0.85742   0.84491   11.663
 3982.00    0.87623   0.86143   11.413
 3983.00    0.89204   0.87585   11.210
 3984.00    0.90409   0.88851   11.061
 3985.00    0.91236   0.89964   10.961
 3986.00    0.91800   0.90928   10.893
 3987.00    0.92318   0.91816   10.832
 3988.00    0.92961   0.92557   10.757
 3989.00    0.93731   0.93181   10.669
 3990.00    0.94463   0.93732   10.586
 3991.00    0.94960   0.94171   10.531
 3992.00    0.95172   0.94547   10.507
 3993.00    0.95211   0.94813   10.503
 3994.00    0.95269   0.95052   10.497
 3995.00    0.95460   0.95238   10.476
 3996.00    0.95783   0.95423   10.440
 3997.00    0.96156   0.95587   10.400
 3998.00    0.96520   0.95790   10.361
 3999.00    0.96863   0.95964   10.324
 4000.00    0.97214   0.96097   10.287
 4001.00    0.97569   0.96223   10.249
 4002.00    0.97858   0.96345   10.219
 4003.00    0.97961   0.96457   10.208
 4004.00    0.97811   0.96560   10.224
 4005.00    0.97483   0.96748   10.258
 4006.00    0.97185   0.97037   10.290
 4007.00    0.97144   0.97358   10.294
 4008.00    0.97452   0.97738   10.261
 4009.00    0.98055   0.98126   10.198
 4010.00    0.98808   0.98579   10.121
 4011.00    0.99574   0.98974   10.043
 4012.00    1.00239   0.99391    9.976
 4013.00    1.00729   0.99734    9.928
 4014.00    1.01028   1.00042    9.898
 4015.00    1.01196   1.00272    9.882
 4016.00    1.01341   1.00402    9.868
 4017.00    1.01537   1.00456    9.849
 4018.00    1.01782   1.00453    9.825
 4019.00    1.01999   1.00336    9.804
 4020.00    1.02100   1.00136    9.794
 4021.00    1.02023   0.99861    9.802
 4022.00    1.01735   0.99556    9.829
 4023.00    1.01258   0.99181    9.876
 4024.00    1.00691   0.98807    9.931
 4025.00    1.00209   0.98445    9.979
 4026.00    0.99978   0.98121   10.002
 4027.00    1.00000   0.97816   10.000
 4028.00    1.00093   0.97575    9.991
 4029.00    0.99992   0.97395   10.001
 4030.00    0.99627   0.97338   10.037
 4031.00    0.99201   0.97453   10.081
 4032.00    0.99111   0.97668   10.090
 4033.00    0.99609   0.98018   10.039
 4034.00    1.00654   0.98420    9.935
 4035.00    1.01940   0.98848    9.810
 4036.00    1.03129   0.99237    9.697
 4037.00    1.04014   0.99507    9.614
 4038.00    1.04516   0.99649    9.568
 4039.00    1.04627   0.99632    9.558
 4040.00    1.04333   0.99500    9.585
 4041.00    1.03615   0.99285    9.651
 4042.00    1.02494   0.99028    9.757
 4043.00    1.01103   0.98720    9.891
 4044.00    0.99702   0.98481   10.030
 4045.00    0.98601   0.98304   10.142
 4046.00    0.97986   0.98296   10.206
 4047.00    0.97864   0.98294   10.218
 4048.00    0.98099   0.98326   10.194
 4049.00    0.98522   0.98348   10.150
 4050.00    0.98979   0.98346   10.103
 4051.00    0.99336   0.98269   10.067
 4052.00    0.99495   0.98132   10.051
 4053.00    0.99407   0.97940   10.060
 4054.00    0.99072   0.97692   10.094
 4055.00    0.98537   0.97430   10.148
 4056.00    0.97898   0.97133   10.215
 4057.00    0.97297   0.96829   10.278
 4058.00    0.96876   0.96554   10.322
 4059.00    0.96709   0.96293   10.340
 4060.00    0.96790   0.96044   10.332
 4061.00    0.97054   0.95800   10.304
 4062.00    0.97419   0.95589   10.265
 4063.00    0.97801   0.95422   10.225
 4064.00    0.98121   0.95331   10.191
 4065.00    0.98325   0.95219   10.170
 4066.00    0.98400   0.95110   10.163
 4067.00    0.98361   0.94985   10.167
 4068.00    0.98220   0.94846   10.181
 4069.00    0.97963   0.94630   10.208
 4070.00    0.97550   0.94366   10.251
 4071.00    0.96973   0.94066   10.312
 4072.00    0.96300   0.93791   10.384
 4073.00    0.95681   0.93505   10.451
 4074.00    0.95264   0.93247   10.497
 4075.00    0.95094   0.93055   10.516
 4076.00    0.95091   0.92956   10.516
 4077.00    0.95116   0.92979   10.514
 4078.00    0.95091   0.93112   10.516
 4079.00    0.95036   0.93309   10.522
 4080.00    0.95038   0.93545   10.522
 4081.00    0.95158   0.93772   10.509
 4082.00    0.95399   0.93959   10.482
 4083.00    0.95704   0.94088   10.449
 4084.00    0.95973   0.94123   10.420
 4085.00    0.96070   0.94033   10.409
 4086.00    0.95829   0.93780   10.435
 4087.00    0.95154   0.93329   10.509
 4088.00    0.94095   0.92635   10.628
 4089.00    0.92850   0.91691   10.770
 4090.00    0.91637   0.90465   10.913
 4091.00    0.90529   0.88977   11.046
 4092.00    0.89435   0.87206    0.000
 4093.00    0.88187   0.85250    0.000
 4094.00    0.86721   0.83099    0.000
 4095.00    0.85121   0.80923    0.000
 4096.00    0.83575   0.78776    0.000
 4097.00    0.82243   0.76838    0.000
 4098.00    0.81212   0.75171    0.000
 4099.00    0.80508   0.73947    0.000
 4100.00    0.80151   0.73206    0.000
 4101.00    0.80185   0.73044    0.000
 4102.00    0.80674   0.73442    0.000
 4103.00    0.81624   0.74346    0.000
 4104.00    0.82914   0.75647    0.000
 4105.00    0.84305   0.77269    0.000
 4106.00    0.85548   0.79067    0.000
 4107.00    0.86524   0.80960    0.000
 4108.00    0.87262   0.82832    0.000
 4109.00    0.87880   0.84624    0.000
 4110.00    0.88463   0.86275    0.000
 4111.00    0.89046   0.87753    0.000
 4112.00    0.89629   0.89036    0.000
 4113.00    0.90219   0.90121   11.084
 4114.00    0.90855   0.91013   11.007
 4115.00    0.91584   0.91724   10.919
 4116.00    0.92381   0.92285   10.825
 4117.00    0.93108   0.92715   10.740
 4118.00    0.93535   0.93044   10.691
 4119.00    0.93510   0.93300   10.694
 4120.00    0.93102   0.93495   10.741
 4121.00    0.92593   0.93631   10.800
 4122.00    0.92292   0.93739   10.835
 4123.00    0.92312   0.93776   10.833
 4124.00    0.92552   0.93809   10.805
 4125.00    0.92810   0.93760   10.775
 4126.00    0.92987   0.93752   10.754
 4127.00    0.93130   0.93689   10.738
 4128.00    0.93372   0.93719   10.710
 4129.00    0.93781   0.93741   10.663
 4130.00    0.94307   0.93891   10.604
 4131.00    0.94813   0.94081   10.547
 4132.00    0.95186   0.94380   10.506
 4133.00    0.95402   0.94729   10.482
 4134.00    0.95514   0.95089   10.470
 4135.00    0.95610   0.95453   10.459
 4136.00    0.95777   0.95737   10.441
 4137.00    0.96097   0.95958   10.406
 4138.00    0.96595   0.96059   10.353
 4139.00    0.97181   0.96068   10.290
 4140.00    0.97649   0.95982   10.241
 4141.00    0.97773   0.95848   10.228
 4142.00    0.97468   0.95718   10.260
 4143.00    0.96816   0.95576   10.329
 4144.00    0.96021   0.95491   10.414
 4145.00    0.95281   0.95406   10.495
 4146.00    0.94749   0.95388   10.554
 4147.00    0.94529   0.95352   10.579
 4148.00    0.94639   0.95382   10.566
 4149.00    0.95002   0.95368   10.526
 4150.00    0.95455   0.95409   10.476
 4151.00    0.95848   0.95416   10.433
 4152.00    0.96116   0.95488   10.404
 4153.00    0.96268   0.95572   10.388
 4154.00    0.96352   0.95715   10.379
 4155.00    0.96392   0.95917   10.374
 4156.00    0.96397   0.96155   10.374
 4157.00    0.96360   0.96444   10.378
 4158.00    0.96287   0.96717   10.386
 4159.00    0.96195   0.97002   10.396
 4160.00    0.96100   0.97222   10.406
 4161.00    0.95993   0.97371   10.417
 4162.00    0.95823   0.97418   10.436
 4163.00    0.95528   0.97339   10.468
 4164.00    0.95101   0.97142   10.515
 4165.00    0.94630   0.96810   10.567
 4166.00    0.94273   0.96394   10.608
 4167.00    0.94127   0.95866   10.624
 4168.00    0.94142   0.95305   10.622
 4169.00    0.94129   0.94709   10.624
 4170.00    0.93899   0.94159   10.650
 4171.00    0.93405   0.93663   10.706
 4172.00    0.92751   0.93268   10.782
 4173.00    0.92118   0.92979   10.856
 4174.00    0.91659   0.92816   10.910
 4175.00    0.91481   0.92769   10.931
 4176.00    0.91628   0.92836   10.914
 4177.00    0.92051   0.92981   10.864
 4178.00    0.92596   0.93198   10.800
 4179.00    0.93051   0.93441   10.747
 4180.00    0.93300   0.93718   10.718
 4181.00    0.93386   0.93983   10.708
 4182.00    0.93487   0.94245   10.697
 4183.00    0.93751   0.94490   10.667
 4184.00    0.94200   0.94722   10.616
 4185.00    0.94733   0.94938   10.556
 4186.00    0.95214   0.95123   10.503
 4187.00    0.95557   0.95284   10.465
 4188.00    0.95730   0.95400   10.446
 4189.00    0.95746   0.95456   10.444
 4190.00    0.95647   0.95439   10.455
 4191.00    0.95504   0.95331   10.471
 4192.00    0.95393   0.95149   10.483
 4193.00    0.95360   0.94875   10.487
 4194.00    0.95405   0.94558   10.482
 4195.00    0.95492   0.94201   10.472
 4196.00    0.95567   0.93871   10.464
 4197.00    0.95563   0.93584   10.464
 4198.00    0.95415   0.93391   10.481
 4199.00    0.95119   0.93314   10.513
 4200.00    0.94762   0.93359   10.553
 4201.00    0.94520   0.93543   10.580
 4202.00    0.94539   0.93823   10.578
 4203.00    0.94850   0.94208   10.543
 4204.00    0.95355   0.94620   10.487
 4205.00    0.95906   0.95073   10.427
 4206.00    0.96389   0.95478   10.375
 4207.00    0.96739   0.95860   10.337
 4208.00    0.96939   0.96148   10.316
 4209.00    0.97007   0.96378   10.309
 4210.00    0.96998   0.96510   10.310
 4211.00    0.96984   0.96581   10.311
 4212.00    0.97008   0.96582   10.308
 4213.00    0.97061   0.96530   10.303
 4214.00    0.97093   0.96434   10.299
 4215.00    0.97051   0.96274   10.304
 4216.00    0.96905   0.96073   10.319
 4217.00    0.96642   0.95778   10.347
 4218.00    0.96265   0.95428   10.388
 4219.00    0.95780   0.94974   10.441
 4220.00    0.95202   0.94472   10.504
 4221.00    0.94570   0.93915   10.574
 4222.00    0.93973   0.93366   10.641
 4223.00    0.93550   0.92867   10.689
 4224.00    0.93432   0.92456   10.703
 4225.00    0.93628   0.92193   10.681
 4226.00    0.94003   0.92062   10.638
 4227.00    0.94333   0.92106   10.601
 4228.00    0.94468   0.92257   10.586
 4229.00    0.94389   0.92523   10.594
 4230.00    0.94189   0.92833   10.617
 4231.00    0.93977   0.93169   10.641
 4232.00    0.93833   0.93501   10.657
 4233.00    0.93806   0.93803   10.660
 4234.00    0.93918   0.94101   10.648
 4235.00    0.94171   0.94357   10.619
 4236.00    0.94543   0.94628   10.577
 4237.00    0.94995   0.94865   10.527
 4238.00    0.95470   0.95115   10.474
 4239.00    0.95894   0.95325   10.428
 4240.00    0.96193   0.95514   10.396
 4241.00    0.96329   0.95640   10.381
 4242.00    0.96299   0.95703   10.384
 4243.00    0.96133   0.95693   10.402
 4244.00    0.95877   0.95604   10.430
 4245.00    0.95585   0.95459   10.462
 4246.00    0.95311   0.95264   10.492
 4247.00    0.95075   0.95055   10.518
 4248.00    0.94840   0.94844   10.544
 4249.00    0.94528   0.94661   10.579
 4250.00    0.94095   0.94517   10.628
 4251.00    0.93593   0.94417   10.685
 4252.00    0.93170   0.94373   10.733
 4253.00    0.92970   0.94366   10.756
 4254.00    0.93030   0.94417   10.749
 4255.00    0.93272   0.94489   10.721
 4256.00    0.93562   0.94613   10.688
 4257.00    0.93815   0.94747   10.659
 4258.00    0.94012   0.94918   10.637
 4259.00    0.94178   0.95083   10.618
 4260.00    0.94325   0.95244   10.602
 4261.00    0.94437   0.95367   10.589
 4262.00    0.94478   0.95419   10.584
 4263.00    0.94434   0.95392   10.589
 4264.00    0.94328   0.95238   10.601
 4265.00    0.94218   0.94987   10.614
 4266.00    0.94129   0.94613   10.624
 4267.00    0.94015   0.94178   10.637
 4268.00    0.93765   0.93696   10.665
 4269.00    0.93297   0.93234   10.718
 4270.00    0.92663   0.92836   10.792
 4271.00    0.92050   0.92531   10.864
 4272.00    0.91685   0.92365   10.907
 4273.00    0.91662   0.92307   10.910
 4274.00    0.91922   0.92383   10.879
 4275.00    0.92311   0.92511   10.833
 4276.00    0.92719   0.92700   10.785
 4277.00    0.93122   0.92851   10.739
 4278.00    0.93552   0.92971   10.689
 4279.00    0.93988   0.92986   10.640
 4280.00    0.94301   0.92904   10.604
 4281.00    0.94285   0.92707   10.606
 4282.00    0.93821   0.92404   10.659
 4283.00    0.92988   0.92019   10.754
 4284.00    0.92050   0.91563   10.864
 4285.00    0.91278   0.91082   10.956
 4286.00    0.90767   0.90585   11.017
 4287.00    0.90426   0.90102   11.059
 4288.00    0.90073   0.89640   11.102
 4289.00    0.89584   0.89183   11.163
 4290.00    0.88912   0.88752   11.247
 4291.00    0.88076   0.88283   11.354
 4292.00    0.87123   0.87810   11.478
 4293.00    0.86124   0.87259   11.611
 4294.00    0.85159   0.86673   11.743
 4295.00    0.84300   0.86014   11.862
 4296.00    0.83592   0.85317   11.963
 4297.00    0.83056   0.84596   12.040
 4298.00    0.82683   0.83883   12.094
 4299.00    0.82432   0.83231   12.131
 4300.00    0.82232   0.82648   12.161
 4301.00    0.82040   0.82195   12.189
 4302.00    0.81882   0.81865   12.213
 4303.00    0.81863   0.81699   12.216
 4304.00    0.82084   0.81703   12.183
 4305.00    0.82554   0.81870   12.113
 4306.00    0.83165   0.82216   12.024
 4307.00    0.83765   0.82722   11.938
 4308.00    0.84295   0.83404   11.863
 4309.00    0.84824   0.84207   11.789
 4310.00    0.85501   0.85149   11.696
 4311.00    0.86409   0.86152   11.573
 4312.00    0.87498   0.87196   11.429
 4313.00    0.88610   0.88225   11.285
 4314.00    0.89595   0.89143   11.161
 4315.00    0.90374   0.89945   11.065
 4316.00    0.90941   0.90509   10.996
 4317.00    0.91315   0.90906   10.951
 4318.00    0.91506   0.91011   10.928
 4319.00    0.91509   0.90968   10.928
 4320.00    0.91315   0.90665   10.951
 4321.00    0.90931   0.90275   10.997
 4322.00    0.90378   0.89742   11.065
 4323.00    0.89694   0.89215   11.149
 4324.00    0.88930   0.88651   11.245
 4325.00    0.88152   0.88116   11.344
 4326.00    0.87431   0.87576   11.438
 4327.00    0.86804   0.87000   11.520
 4328.00    0.86261   0.86365   11.593
 4329.00    0.85758   0.85598   11.661
 4330.00    0.85269   0.84675    0.000
 4331.00    0.84816   0.83542    0.000
 4332.00    0.84464   0.82202    0.000
 4333.00    0.84290   0.80702    0.000
 4334.00    0.84358   0.79097    0.000
 4335.00    0.84710   0.77506    0.000
 4336.00    0.85347   0.76021    0.000
 4337.00    0.86197   0.74765    0.000
 4338.00    0.87114   0.73841    0.000
 4339.00    0.87920   0.73326    0.000
 4340.00    0.88478   0.73270    0.000
 4341.00    0.88714   0.73655    0.000
 4342.00    0.88623   0.74469    0.000
 4343.00    0.88299   0.75617   -2.000
 4344.00    0.87940   0.76999   -2.000
 4345.00    0.87809   0.78517   -2.000
 4346.00    0.88032   0.80068   -2.000
 4347.00    0.88494   0.81578   -2.000
 4348.00    0.88870   0.83003   -2.000
 4349.00    0.88870   0.84332   -2.000
 4350.00    0.88448   0.85550   -2.000
 4351.00    0.87796   0.86680   -2.000
 4352.00    0.87228   0.87729   -2.000
 4353.00    0.87026   0.88732   -2.000
 4354.00    0.87427   0.89703   -2.000
 4355.00    0.88552   0.90652   -2.000
 4356.00    0.90288   0.91554   -2.000
 4357.00    0.92265   0.92422   -2.000
 4358.00    0.93975   0.93201   -2.000
 4359.00    0.95112   0.93907   10.514
 4360.00    0.95677   0.94493   10.452
 4361.00    0.95916   0.94982   10.426
 4362.00    0.96055   0.95337   10.411
 4363.00    0.96165   0.95568   10.399
 4364.00    0.96176   0.95665   10.398
 4365.00    0.96003   0.95646   10.416
 4366.00    0.95633   0.95532   10.457
 4367.00    0.95130   0.95327   10.512
 4368.00    0.94585   0.95076   10.573
 4369.00    0.94059   0.94783   10.632
 4370.00    0.93579   0.94506   10.686
 4371.00    0.93152   0.94212   10.735
 4372.00    0.92788   0.93951   10.777
 4373.00    0.92505   0.93678   10.810
 4374.00    0.92316   0.93413   10.832
 4375.00    0.92188   0.93107   10.847
 4376.00    0.92040   0.92785   10.865
 4377.00    0.91757   0.92433   10.898
 4378.00    0.91289   0.92045   10.954
 4379.00    0.90692   0.91633   11.026
 4380.00    0.90117   0.91189   11.097
 4381.00    0.89703   0.90788   11.148
 4382.00    0.89506   0.90425   11.172
 4383.00    0.89496   0.90185   11.174
 4384.00    0.89601   0.90024   11.161
 4385.00    0.89746   0.90045   11.143
 4386.00    0.89857   0.90203   11.129
 4387.00    0.89899   0.90516   11.124
 4388.00    0.89932   0.90898   11.120
 4389.00    0.90118   0.91338   11.097
 4390.00    0.90648   0.91797   11.032
 4391.00    0.91565   0.92248   10.921
 4392.00    0.92714   0.92654   10.786
 4393.00    0.93795   0.93019   10.662
 4394.00    0.94571   0.93305   10.574
 4395.00    0.94964   0.93498   10.530
 4396.00    0.95039   0.93621   10.522
 4397.00    0.94910   0.93675   10.536
 4398.00    0.94681   0.93701   10.562
 4399.00    0.94444   0.93641   10.588
 4400.00    0.94252   0.93581   10.610
 4401.00    0.94105   0.93495   10.626
 4402.00    0.93943   0.93455   10.645
 4403.00    0.93710   0.93475   10.671
 4404.00    0.93427   0.93532   10.704
 4405.00    0.93207   0.93622   10.729
 4406.00    0.93198   0.93762   10.730
 4407.00    0.93444   0.93981   10.702
 4408.00    0.93850   0.94195   10.655
 4409.00    0.94229   0.94411   10.612
 4410.00    0.94461   0.94614   10.586
 4411.00    0.94558   0.94821   10.576
 4412.00    0.94643   0.94980   10.566
 4413.00    0.94810   0.95125   10.547
 4414.00    0.95036   0.95252   10.522
 4415.00    0.95190   0.95352   10.505
 4416.00    0.95149   0.95452   10.510
 4417.00    0.94900   0.95578   10.537
 4418.00    0.94550   0.95736   10.576
 4419.00    0.94251   0.95857   10.610
 4420.00    0.94098   0.96006   10.627
 4421.00    0.94109   0.96090   10.626
 4422.00    0.94247   0.96143   10.610
 4423.00    0.94451   0.96138   10.588
 4424.00    0.94645   0.96109   10.566
 4425.00    0.94750   0.96062   10.554
 4426.00    0.94729   0.95979   10.556
 4427.00    0.94596   0.95863   10.571
 4428.00    0.94415   0.95749   10.592
 4429.00    0.94249   0.95629   10.610
 4430.00    0.94135   0.95538   10.623
 4431.00    0.94081   0.95440   10.629
 4432.00    0.94087   0.95386   10.628
 4433.00    0.94155   0.95395   10.621
 4434.00    0.94288   0.95404   10.606
 4435.00    0.94483   0.95448   10.584
 4436.00    0.94701   0.95512   10.560
 4437.00    0.94874   0.95612   10.540
 4438.00    0.94931   0.95745   10.534
 4439.00    0.94868   0.95851   10.541
 4440.00    0.94755   0.95953   10.554
 4441.00    0.94711   0.96023   10.558
 4442.00    0.94809   0.96074   10.548
 4443.00    0.95032   0.96106   10.523
 4444.00    0.95295   0.96128   10.494
 4445.00    0.95503   0.96130   10.471
 4446.00    0.95586   0.96112   10.462
 4447.00    0.95505   0.96004   10.471
 4448.00    0.95252   0.95802   10.498
 4449.00    0.94861   0.95523   10.542
 4450.00    0.94402   0.95199   10.593
 4451.00    0.93943   0.94786   10.645
 4452.00    0.93504   0.94356   10.695
 4453.00    0.93046   0.93943   10.747
 4454.00    0.92525   0.93521   10.808
 4455.00    0.91973   0.93154   10.873
 4456.00    0.91522   0.92830   10.926
 4457.00    0.91348   0.92647   10.947
 4458.00    0.91522   0.92550   10.926
 4459.00    0.91950   0.92525   10.876
 4460.00    0.92416   0.92573   10.821
 4461.00    0.92753   0.92695    0.000
 4462.00    0.92931   0.92880    0.000
 4463.00    0.93051   0.93082    0.000
 4464.00    0.93222   0.93382    0.000
 4465.00    0.93482   0.93688    0.000
 4466.00    0.93788   0.93996    0.000
 4467.00    0.94080   0.94353    0.000
 4468.00    0.94347   0.94709    0.000
 4469.00    0.94640   0.95105    0.000
 4470.00    0.95022   0.95469    0.000
 4471.00    0.95497   0.95865    0.000
 4472.00    0.95988   0.96220    0.000
 4473.00    0.96380   0.96532    0.000
 4474.00    0.96608   0.96793    0.000
 4475.00    0.96700   0.96963    0.000
 4476.00    0.96746   0.97056    0.000
 4477.00    0.96811   0.97062    0.000
 4478.00    0.96889   0.97068    0.000
 4479.00    0.96914   0.97015    0.000
 4480.00    0.96835   0.96952    0.000
 4481.00    0.96683   0.96869    0.000
 4482.00    0.96565   0.96829   10.356
 4483.00    0.96588   0.96830   10.353
 4484.00    0.96771   0.96892   10.334
 4485.00    0.97041   0.96941   10.305
 4486.00    0.97281   0.96977   10.280
 4487.00    0.97413   0.97005   10.266
 4488.00    0.97419   0.97027   10.265
 4489.00    0.97325   0.97040   10.275
 4490.00    0.97177   0.97084   10.290
 4491.00    0.97035   0.97170   10.306
 4492.00    0.96964   0.97337   10.313
 4493.00    0.97016   0.97530   10.308
 4494.00    0.97219   0.97786   10.286
 4495.00    0.97577   0.98052   10.248
 4496.00    0.98076   0.98390   10.196
 4497.00    0.98687   0.98797   10.133
 4498.00    0.99364   0.99210   10.064
 4499.00    1.00058   0.99668    9.994
 4500.00    1.00719   1.00077    9.929
 4501.00    1.01302   1.00472    9.871
 4502.00    1.01760   1.00798    9.827
 4503.00    1.02040   1.01089    9.800
 4504.00    1.02078   1.01346    9.796
 4505.00    1.01830   1.01484    9.820
 4506.00    1.01339   1.01527    9.868
 4507.00    1.00756   1.01475    9.925
 4508.00    1.00299   1.01348    9.970
 4509.00    1.00096   1.01151    9.990
 4510.00    1.00119   1.00918    9.988
 4511.00    1.00203   1.00643    9.980
 4512.00    1.00181   1.00327    9.982
 4513.00    0.99971   0.99966   10.003
 4514.00    0.99575   0.99597   10.043
 4515.00    0.99041   0.99208   10.097
 4516.00    0.98423   0.98819   10.160
 4517.00    0.97772   0.98404   10.228
 4518.00    0.97133   0.97998   10.295
 4519.00    0.96528   0.97496   10.360
 4520.00    0.95954   0.97033   10.422
 4521.00    0.95393   0.96497   10.483
 4522.00    0.94836   0.95969   10.544
 4523.00    0.94289   0.95418   10.606
 4524.00    0.93772   0.94852   10.664
 4525.00    0.93325   0.94394   10.715
 4526.00    0.93009   0.93936   10.752
 4527.00    0.92897   0.93597   10.765
 4528.00    0.93023   0.93321   10.750
 4529.00    0.93345   0.93212   10.713
 4530.00    0.93751   0.93169   10.667
 4531.00    0.94137   0.93309   10.623
 4532.00    0.94477   0.93501   10.585
 4533.00    0.94822   0.93795   10.546
 4534.00    0.95239   0.94135   10.500
 4535.00    0.95704   0.94451   10.449
 4536.00    0.96098   0.94854   10.406
 4537.00    0.96266   0.95190   10.388
 4538.00    0.96163   0.95540   10.399
 4539.00    0.95888   0.95753   10.429
 4540.00    0.95634   0.95866   10.457
 4541.00    0.95529   0.95897   10.468
 4542.00    0.95574   0.95847   10.463
 4543.00    0.95654   0.95766   10.454
 4544.00    0.95636   0.95624   10.456
 4545.00    0.95421   0.95450   10.480
 4546.00    0.94947   0.95228   10.532
 4547.00    0.94216   0.95076   10.614
 4548.00    0.93312   0.94929   10.717
 4549.00    0.92403   0.94837   10.822
 4550.00    0.91682   0.94800    0.000
 4551.00    0.91287   0.94832    0.000
 4552.00    0.91295   0.95026    0.000
 4553.00    0.91705   0.95200    0.000
 4554.00    0.92423   0.95459    0.000
 4555.00    0.93250   0.95733    0.000
 4556.00    0.93934   0.96065    0.000
 4557.00    0.94323   0.96399    0.000
 4558.00    0.94418   0.96747    0.000
 4559.00    0.94352   0.97040    0.000
 4560.00    0.94267   0.97270    0.000
 4561.00    0.94253   0.97492    0.000
 4562.00    0.94344   0.97641    0.000
 4563.00    0.94540   0.97774    0.000
 4564.00    0.94820   0.97847    0.000
 4565.00    0.95144   0.97906    0.000
 4566.00    0.95478   0.97978    0.000
 4567.00    0.95815   0.98035    0.000
 4568.00    0.96182   0.98081    0.000
 4569.00    0.96613   0.98084    0.000
 4570.00    0.97110   0.98037    0.000
 4571.00    0.97634   0.97957    0.000
 4572.00    0.98110   0.97830    0.000
 4573.00    0.98462   0.97657    0.000
 4574.00    0.98624   0.97516    0.000
 4575.00    0.98530   0.97309    0.000
 4576.00    0.98104   0.97036    0.000
 4577.00    0.97249   0.96775    0.000
 4578.00    0.95864   0.96491    0.000
 4579.00    0.93995   0.96238    0.000
 4580.00    0.91944   0.95982    0.000
 4581.00    0.90265   0.95790    0.000
 4582.00    0.89480   0.95655    0.000
 4583.00    0.89746   0.95580    0.000
 4584.00    0.90827   0.95567    0.000
 4585.00    0.92255   0.95557    0.000
 4586.00    0.93656   0.95637    0.000
 4587.00    0.94802   0.95691    0.000
 4588.00    0.95601   0.95780    0.000
 4589.00    0.96053   0.95855    0.000
 4590.00    0.96231   0.95917    0.000
 4591.00    0.96271   0.95966    0.000
 4592.00    0.96288   0.95995    0.000
 4593.00    0.96338   0.96031    0.000
 4594.00    0.96423   0.96084    0.000
 4595.00    0.96521   0.96154    0.000
 4596.00    0.96606   0.96235    0.000
 4597.00    0.96653   0.96322    0.000
 4598.00    0.96650   0.96471    0.000
 4599.00    0.96616   0.96609    0.000
 4600.00    0.96596   0.96800    0.000
 4601.00    0.96641   0.96999    0.000
 4602.00    0.96761   0.97201    0.000
 4603.00    0.96916   0.97485    0.000
 4604.00    0.97045   0.97711    0.000
 4605.00    0.97129   0.97989    0.000
 4606.00    0.97212   0.98198    0.000
 4607.00    0.97381   0.98426    0.000
 4608.00    0.97685   0.98605    0.000
 4609.00    0.98089   0.98758    0.000
 4610.00    0.98491   0.98859    0.000
 4611.00    0.98783   0.98910    0.000
 4612.00    0.98908   0.98920    0.000
 4613.00    0.98851   0.98907    0.000
 4614.00    0.98649   0.98910    0.000
 4615.00    0.98381   0.98862    0.000
 4616.00    0.98167   0.98877    0.000
 4617.00    0.98119   0.98822    0.000
 4618.00    0.98247   0.98810    0.000
 4619.00    0.98453   0.98795    0.000
 4620.00    0.98577   0.98767    0.000
 4621.00    0.98518   0.98755    0.000
 4622.00    0.98270   0.98753    0.000
 4623.00    0.97910   0.98708    0.000
 4624.00    0.97528   0.98631    0.000
 4625.00    0.97210   0.98551    0.000
 4626.00    0.97026   0.98430    0.000
 4627.00    0.97007   0.98290    0.000
 4628.00    0.97119   0.98136    0.000
 4629.00    0.97271   0.97971    0.000
 4630.00    0.97372   0.97768    0.000
 4631.00    0.97389   0.97580    0.000
 4632.00    0.97347   0.97399    0.000
 4633.00    0.97295   0.97200    0.000
 4634.00    0.97242   0.96963    0.000
 4635.00    0.97149   0.96750    0.000
 4636.00    0.96956   0.96538    0.000
 4637.00    0.96649   0.96325    0.000
 4638.00    0.96274   0.96116    0.000
 4639.00    0.95921   0.95890    0.000
 4640.00    0.95664   0.95710    0.000
 4641.00    0.95534   0.95513    0.000
 4642.00    0.95523   0.95341    0.000
 4643.00    0.95602   0.95194    0.000
 4644.00    0.95738   0.95033    0.000
 4645.00    0.95895   0.94905    0.000
 4646.00    0.96044   0.94830    0.000
 4647.00    0.96183   0.94790    0.000
 4648.00    0.96331   0.94831    0.000
 4649.00    0.96512   0.94947    0.000
 4650.00    0.96726   0.95123    0.000
 4651.00    0.96947   0.95302    0.000
 4652.00    0.97136   0.95518    0.000
 4653.00    0.97290   0.95684    0.000
 4654.00    0.97444   0.95877    0.000
 4655.00    0.97656   0.96001    0.000
 4656.00    0.97946   0.96056    0.000
 4657.00    0.98268   0.96097    0.000
 4658.00    0.98526   0.96038    0.000
 4659.00    0.98638   0.95965    0.000
 4660.00    0.98582   0.95777    0.000
 4661.00    0.98387   0.95534    0.000
 4662.00    0.98103   0.95211    0.000
 4663.00    0.97762   0.94883    0.000
 4664.00    0.97377   0.94578    0.000
 4665.00    0.96962   0.94315    0.000
 4666.00    0.96543   0.94137    0.000
 4667.00    0.96171   0.94001    0.000
 4668.00    0.95899   0.93945    0.000
 4669.00    0.95763   0.93996    0.000
 4670.00    0.95775   0.94162    0.000
 4671.00    0.95923   0.94338    0.000
 4672.00    0.96184   0.94531    0.000
 4673.00    0.96525   0.94728    0.000
 4674.00    0.96905   0.94876    0.000
 4675.00    0.97277   0.95031    0.000
 4676.00    0.97584   0.95143    0.000
 4677.00    0.97771   0.95230    0.000
 4678.00    0.97809   0.95274    0.000
 4679.00    0.97734   0.95276    0.000
 4680.00    0.97637   0.95279    0.000
 4681.00    0.97613   0.95281    0.000
 4682.00    0.97694   0.95306    0.000
 4683.00    0.97838   0.95325    0.000
 4684.00    0.97961   0.95369    0.000
 4685.00    0.97995   0.95423    0.000
 4686.00    0.97901   0.95453    0.000
 4687.00    0.97672   0.95503    0.000
 4688.00    0.97332   0.95526    0.000
 4689.00    0.96947   0.95548    0.000
 4690.00    0.96604   0.95534    0.000
 4691.00    0.96363   0.95507    0.000
 4692.00    0.96228   0.95426    0.000
 4693.00    0.96148   0.95310    0.000
 4694.00    0.96060   0.95191    0.000
 4695.00    0.95919   0.94996    0.000
 4696.00    0.95701   0.94803    0.000
 4697.00    0.95405   0.94549    0.000
 4698.00    0.95055   0.94288    0.000
 4699.00    0.94702   0.94015    0.000
 4700.00    0.94399   0.93761    0.000
 4701.00    0.94162   0.93602    0.000
 4702.00    0.93964   0.93436    0.000
 4703.00    0.93752   0.93355    0.000
 4704.00    0.93503   0.93280    0.000
 4705.00    0.93246   0.93323    0.000
 4706.00    0.93048   0.93406    0.000
 4707.00    0.92958   0.93527    0.000
 4708.00    0.92990   0.93694    0.000
 4709.00    0.93118   0.93904    0.000
 4710.00    0.93307   0.94207    0.000
 4711.00    0.93529   0.94508    0.000
 4712.00    0.93765   0.94870    0.000
 4713.00    0.94007   0.95187    0.000
 4714.00    0.94253   0.95512    0.000
 4715.00    0.94513   0.95823    0.000
 4716.00    0.94800   0.96135    0.000
 4717.00    0.95129   0.96404    0.000
 4718.00    0.95512   0.96619    0.000
 4719.00    0.95948   0.96725    0.000
 4720.00    0.96387   0.96772    0.000
 4721.00    0.96717   0.96745    0.000
 4722.00    0.96793   0.96640    0.000
 4723.00    0.96539   0.96472    0.000
 4724.00    0.95994   0.96263    0.000
 4725.00    0.95301   0.96059    0.000
 4726.00    0.94610   0.95796    0.000
 4727.00    0.94012   0.95557    0.000
 4728.00    0.93536   0.95297    0.000
 4729.00    0.93187   0.95102    0.000
 4730.00    0.92984   0.95004    0.000
 4731.00    0.92968   0.94961    0.000
 4732.00    0.93162   0.94962    0.000
 4733.00    0.93527   0.95012    0.000
 4734.00    0.93948   0.95140    0.000
 4735.00    0.94281   0.95250    0.000
 4736.00    0.94470   0.95406    0.000
 4737.00    0.94575   0.95562    0.000
 4738.00    0.94737   0.95715    0.000
 4739.00    0.95038   0.95930    0.000
 4740.00    0.95435   0.96108    0.000
 4741.00    0.95785   0.96245    0.000
 4742.00    0.95967   0.96370    0.000
 4743.00    0.95972   0.96482    0.000
 4744.00    0.95896   0.96543    0.000
 4745.00    0.95850   0.96580    0.000
 4746.00    0.95857   0.96545    0.000
 4747.00    0.95855   0.96499    0.000
 4748.00    0.95750   0.96421    0.000
 4749.00    0.95513   0.96289    0.000
 4750.00    0.95192   0.96134    0.000
 4751.00    0.94879   0.95938    0.000
 4752.00    0.94638   0.95740    0.000
 4753.00    0.94481   0.95468    0.000
 4754.00    0.94376   0.95203    0.000
 4755.00    0.94281   0.94915    0.000
 4756.00    0.94153   0.94648    0.000
 4757.00    0.93949   0.94380    0.000
 4758.00    0.93657   0.94116    0.000
 4759.00    0.93304   0.93898    0.000
 4760.00    0.92955   0.93685    0.000
 4761.00    0.92680   0.93506   10.790
 4762.00    0.92515   0.93367   10.809
 4763.00    0.92464   0.93236   10.815
 4764.00    0.92508   0.93210   10.810
 4765.00    0.92621   0.93254   10.797
 4766.00    0.92769   0.93378   10.779
 4767.00    0.92925   0.93542   10.761
 4768.00    0.93082   0.93748   10.743
 4769.00    0.93258   0.94008   10.723
 4770.00    0.93490   0.94231   10.696
 4771.00    0.93795   0.94466   10.662
 4772.00    0.94158   0.94643   10.620
 4773.00    0.94538   0.94826   10.578
 4774.00    0.94891   0.94988   10.538
 4775.00    0.95191   0.95074   10.505
 4776.00    0.95422   0.95137   10.480
 4777.00    0.95572   0.95124   10.463
 4778.00    0.95619   0.95050   10.458
 4779.00    0.95534   0.94963   10.468
 4780.00    0.95297   0.94844   10.493
 4781.00    0.94933   0.94699   10.534
 4782.00    0.94508   0.94590   10.581
 4783.00    0.94113   0.94495   10.626
 4784.00    0.93815   0.94416   10.659
 4785.00    0.93650   0.94374   10.678
 4786.00    0.93622   0.94426   10.681
 4787.00    0.93707   0.94472   10.672
 4788.00    0.93854   0.94532   10.655
 4789.00    0.93995   0.94688   10.639
 4790.00    0.94085   0.94790   10.629
 4791.00    0.94129   0.94916   10.624
 4792.00    0.94176   0.95063   10.618
 4793.00    0.94270   0.95184   10.608
 4794.00    0.94407   0.95301   10.592
 4795.00    0.94534   0.95363   10.578
 4796.00    0.94587   0.95381   10.572
 4797.00    0.94532   0.95305   10.578
 4798.00    0.94376   0.95247   10.596
 4799.00    0.94148   0.95150   10.622
 4800.00    0.93882   0.95044   10.652
 4801.00    0.93606   0.94971   10.683
 4802.00    0.93349   0.94899   10.713
 4803.00    0.93137   0.94844   10.737
 4804.00    0.93002   0.94751   10.752
 4805.00    0.92974   0.94700   10.756
 4806.00    0.93059   0.94644   10.746
 4807.00    0.93236   0.94659   10.725
 4808.00    0.93455   0.94705   10.700
 4809.00    0.93668   0.94756   10.676
 4810.00    0.93860   0.94841   10.654
 4811.00    0.94040   0.94932   10.634
 4812.00    0.94224   0.95000   10.613
 4813.00    0.94397   0.95054   10.594
 4814.00    0.94516   0.95099   10.580
 4815.00    0.94527   0.95068   10.579
 4816.00    0.94409   0.95034   10.592
 4817.00    0.94178   0.94965   10.618
 4818.00    0.93879   0.94877   10.652
 4819.00    0.93561   0.94740   10.688
 4820.00    0.93269   0.94558   10.722
 4821.00    0.93035   0.94364   10.749
 4822.00    0.92879   0.94128   10.767
 4823.00    0.92796   0.93910   10.776
 4824.00    0.92759   0.93671   10.781
 4825.00    0.92731   0.93474   10.784
 4826.00    0.92673   0.93351   10.791
 4827.00    0.92543   0.93215   10.806
 4828.00    0.92320   0.93048   10.832
 4829.00    0.92024   0.92907   10.867
 4830.00    0.91722   0.92742   10.903
 4831.00    0.91494   0.92586   10.930
 4832.00    0.91385   0.92431   10.943
 4833.00    0.91388   0.92259   10.942
 4834.00    0.91462   0.92119   10.933
 4835.00    0.91547   0.91917   10.923
 4836.00    0.91572   0.91729   10.920
 4837.00    0.91469   0.91480   10.933
 4838.00    0.91214   0.91240   10.963
 4839.00    0.90849   0.90970   11.007
 4840.00    0.90474   0.90617   11.053
 4841.00    0.90166   0.90282   11.091
 4842.00    0.89928   0.89903   11.120
 4843.00    0.89690   0.89493   11.149
 4844.00    0.89369   0.88981   11.190
 4845.00    0.88934   0.88401   11.244
 4846.00    0.88414   0.87723   11.310
 4847.00    0.87859   0.86883   11.382
 4848.00    0.87283   0.85951    0.000
 4849.00    0.86658   0.84911    0.000
 4850.00    0.85962   0.83767    0.000
 4851.00    0.85316   0.82548    0.000
 4852.00    0.85018   0.81191    0.000
 4853.00    0.85483   0.79720    0.000
 4854.00    0.86987   0.78296    0.000
 4855.00    0.89559   0.76930    0.000
 4856.00    0.92991   0.75682    0.000
 4857.00    0.96931   0.74668    0.000
 4858.00    1.00942   0.73866    0.000
 4859.00    1.04514   0.73267    0.000
 4860.00    1.07190   0.72854    0.000
 4861.00    1.08691   0.72792    0.000
 4862.00    1.08928   0.73012    0.000
 4863.00    1.07937   0.73524    0.000
 4864.00    1.05788   0.74391    0.000
 4865.00    1.02570   0.75303    0.000
 4866.00    0.98459   0.76334    0.000
 4867.00    0.93872   0.77422    0.000
 4868.00    0.89510   0.78514    0.000
 4869.00    0.86213   0.79600    0.000
 4870.00    0.84438   0.80627    0.000
 4871.00    0.84046   0.81706    0.000
 4872.00    0.84386   0.82616    0.000
 4873.00    0.84827   0.83483    0.000
 4874.00    0.85097   0.84346    0.000
 4875.00    0.85267   0.85042   11.728
 4876.00    0.85521   0.85661   11.693
 4877.00    0.85927   0.86162   11.638
 4878.00    0.86422   0.86626   11.571
 4879.00    0.86885   0.86975   11.509
 4880.00    0.87239   0.87264   11.463
 4881.00    0.87466   0.87555   11.433
 4882.00    0.87592   0.87711   11.416
 4883.00    0.87645   0.87809   11.410
 4884.00    0.87645   0.87968   11.410
 4885.00    0.87610   0.88090   11.414
 4886.00    0.87562   0.88303   11.421
 4887.00    0.87533   0.88580   11.424
 4888.00    0.87563   0.88897   11.420
 4889.00    0.87696   0.89269   11.403
 4890.00    0.87977   0.89596   11.367
 4891.00    0.88449   0.90044   11.306
 4892.00    0.89122   0.90448   11.221
 4893.00    0.89955   0.90930   11.117
 4894.00    0.90846   0.91420   11.008
 4895.00    0.91677   0.91808   10.908
 4896.00    0.92354   0.92162   10.828
 4897.00    0.92818   0.92389   10.774
 4898.00    0.93048   0.92575   10.747
 4899.00    0.93066   0.92694   10.745
 4900.00    0.92941   0.92792   10.760
 4901.00    0.92766   0.92800   10.780
 4902.00    0.92605   0.92753   10.799
 4903.00    0.92469   0.92679   10.814
 4904.00    0.92321   0.92521   10.832
 4905.00    0.92133   0.92381   10.854
 4906.00    0.91903   0.92249   10.881
 4907.00    0.91663   0.92090   10.910
 4908.00    0.91446   0.91859   10.935
 4909.00    0.91278   0.91602   10.955
 4910.00    0.91167   0.91322   10.969
 4911.00    0.91097   0.90985   10.977
 4912.00    0.91016   0.90633   10.987
 4913.00    0.90835   0.90313   11.009
 4914.00    0.90464   0.90002   11.054
 4915.00    0.89882   0.89659   11.126
 4916.00    0.89154   0.89398   11.217
 4917.00    0.88402   0.89120   11.312
 4918.00    0.87732   0.88885   11.398
 4919.00    0.87202   0.88726   11.468
 4920.00    0.86835   0.88703   11.516
 4921.00    0.86650   0.88823   11.541
 4922.00    0.86679   0.88993   11.537
 4923.00    0.86964   0.89304   11.499
 4924.00    0.87514   0.89587   11.427
 4925.00    0.88267   0.89857   11.329
 4926.00    0.89093   0.90146   11.224
 4927.00    0.89844   0.90425   11.130
 4928.00    0.90414   0.90678   11.060
 4929.00    0.90749   0.90883   11.019
 4930.00    0.90841   0.91039   11.008
 4931.00    0.90725   0.91091   11.022
 4932.00    0.90479   0.91045   11.052
 4933.00    0.90207   0.91018   11.086
 4934.00    0.89983   0.91042   11.113
 4935.00    0.89845   0.91096   11.130
 4936.00    0.89790   0.91196   11.137
 4937.00    0.89814   0.91307   11.134
 4938.00    0.89923   0.91421   11.121
 4939.00    0.90132   0.91563   11.095
 4940.00    0.90442   0.91773    0.000
 4941.00    0.90823   0.92069    0.000
 4942.00    0.91218   0.92396    0.000
 4943.00    0.91567   0.92639    0.000
 4944.00    0.91842   0.92800    0.000
 4945.00    0.92046   0.92945    0.000
 4946.00    0.92200   0.93023    0.000
 4947.00    0.92306   0.93039    0.000
 4948.00    0.92348   0.93027    0.000
 4949.00    0.92302   0.92913    0.000
 4950.00    0.92182   0.92748    0.000
 4951.00    0.92050   0.92406    0.000
 4952.00    0.92005   0.92130    0.000
 4953.00    0.92110   0.91949    0.000
 4954.00    0.92364   0.91693    0.000
 4955.00    0.92708   0.91495    0.000
 4956.00    0.93073   0.91211    0.000
 4957.00    0.93415   0.91044    0.000
 4958.00    0.93711   0.90889    0.000
 4959.00    0.93944   0.90768    0.000
 4960.00    0.94075   0.90842    0.000
 4961.00    0.94041   0.90862    0.000
 4962.00    0.93791   0.90861    0.000
 4963.00    0.93328   0.90861    0.000
 4964.00    0.92719   0.90861    0.000
 4965.00    0.92070   0.90920    0.000
 4966.00    0.91464   0.90955    0.000
 4967.00    0.90937   0.90970    0.000
 4968.00    0.90493   0.91026    0.000
 4969.00    0.90124   0.90979    0.000
 4970.00    0.89829   0.90916    0.000
 4971.00    0.89608   0.90832    0.000
 4972.00    0.89455   0.90659    0.000
 4973.00    0.89356   0.90501    0.000
 4974.00    0.89285   0.90265    0.000
 4975.00    0.89214   0.89978    0.000
 4976.00    0.89115   0.89620    0.000
 4977.00    0.88966   0.89209    0.000
 4978.00    0.88750   0.88884    0.000
 4979.00    0.88463   0.88568    0.000
 4980.00    0.88115   0.88283    0.000
 4981.00    0.87733   0.88097    0.000
 4982.00    0.87367   0.87907    0.000
 4983.00    0.87092   0.87769    0.000
 4984.00    0.86997   0.87728    0.000
 4985.00    0.87117   0.87764    0.000
 4986.00    0.87417   0.87945    0.000
 4987.00    0.87797   0.88075    0.000
 4988.00    0.88154   0.88193    0.000
 4989.00    0.88425   0.88355    0.000
 4990.00    0.88583   0.88422    0.000
 4991.00    0.88629   0.88520    0.000
 4992.00    0.88584   0.88533    0.000
 4993.00    0.88485   0.88479    0.000
 4994.00    0.88374   0.88399    0.000
 4995.00    0.88271   0.88199    0.000
 4996.00    0.88176   0.88030    0.000
 4997.00    0.88094   0.87831    0.000
 4998.00    0.88098   0.87551    0.000
 4999.00    0.88344   0.87229    0.000
 5000.00    0.89029   0.86834    0.000
 5001.00    0.90264   0.86533    0.000
 5002.00    0.92014   0.86336    0.000
 5003.00    0.94112   0.86102    0.000
 5004.00    0.96297   0.85862    0.000
 5005.00    0.98242   0.85603    0.000
 5006.00    0.99564   0.85303    0.000
 5007.00    0.99979   0.85086    0.000
 5008.00    0.99432   0.84914    0.000
 5009.00    0.98097   0.84825    0.000
 5010.00    0.96264   0.84757    0.000
 5011.00    0.94179   0.84556    0.000
 5012.00    0.92019   0.84392    0.000
 5013.00    0.89915   0.84305    0.000
 5014.00    0.87999   0.84332    0.000
 5015.00    0.86410   0.84415    0.000
 5016.00    0.85278   0.84446    0.000
 5017.00    0.84642   0.84602    0.000
 5018.00    0.84430   0.84798    0.000
 5019.00    0.84477   0.84980    0.000
 5020.00    0.84634   0.85288    0.000
 5021.00    0.84827   0.85542    0.000
 5022.00    0.85053   0.85846    0.000
 5023.00    0.85326   0.86177    0.000
 5024.00    0.85627   0.86426    0.000
 5025.00    0.85904   0.86736    0.000
 5026.00    0.86106   0.86966    0.000
 5027.00    0.86223   0.87169    0.000
 5028.00    0.86290   0.87289    0.000
 5029.00    0.86361   0.87269   11.579
 5030.00    0.86464   0.87267   11.566
 5031.00    0.86586   0.87270   11.549
 5032.00    0.86684   0.87184   11.536
 5033.00    0.86718   0.87033   11.532
 5034.00    0.86659   0.86802   11.539
 5035.00    0.86491   0.86503   11.562
 5036.00    0.86219   0.86341   11.598
 5037.00    0.85874   0.86216   11.645
 5038.00    0.85510   0.86149   11.695
 5039.00    0.85188   0.86139   11.739
 5040.00    0.84966   0.86070   11.769
 5041.00    0.84892   0.86095   11.780
 5042.00    0.84997   0.86123   11.765
 5043.00    0.85270   0.86287   11.727
 5044.00    0.85663   0.86594   11.674
 5045.00    0.86109   0.86777   11.613
 5046.00    0.86560   0.86979   11.553
 5047.00    0.87001   0.87201   11.494
 5048.00    0.87426   0.87429   11.438
 5049.00    0.87807   0.87697   11.389
 5050.00    0.88070   0.87903   11.355
 5051.00    0.88123   0.88144   11.348
 5052.00    0.87939   0.88409   11.371
 5053.00    0.87598   0.88585   11.416
 5054.00    0.87277   0.88769   11.458
 5055.00    0.87140   0.88955   11.476
 5056.00    0.87263   0.89081   11.460
 5057.00    0.87626   0.89173   11.412
 5058.00    0.88140   0.89118   11.346
 5059.00    0.88668   0.89067   11.278
 5060.00    0.89031   0.89037   11.232
 5061.00    0.89071   0.88874   11.227
 5062.00    0.88754   0.88710   11.267
 5063.00    0.88191   0.88468   11.339
 5064.00    0.87582   0.88253   11.418
 5065.00    0.87074   0.87999   11.484
 5066.00    0.86719   0.87658   11.532
 5067.00    0.86484   0.87486   11.563
 5068.00    0.86327   0.87248   11.584
 5069.00    0.86222   0.86987   11.598
 5070.00    0.86160   0.86753   11.606
 5071.00    0.86133   0.86538   11.610
 5072.00    0.86123   0.86389   11.611
 5073.00    0.86104   0.86090   11.614
 5074.00    0.86048   0.85880   11.621
 5075.00    0.85936   0.85772   11.637
 5076.00    0.85762   0.85673   11.660
 5077.00    0.85535   0.85587   11.691
 5078.00    0.85283   0.85495   11.726
 5079.00    0.85060   0.85525   11.756
 5080.00    0.84929   0.85557   11.774
 5081.00    0.84947   0.85640   11.772
 5082.00    0.85146   0.85828   11.744
 5083.00    0.85541   0.86074   11.690
 5084.00    0.86094   0.86285   11.615
 5085.00    0.86713   0.86453   11.532
 5086.00    0.87260   0.86679   11.460
 5087.00    0.87627   0.86909   11.412
 5088.00    0.87784   0.87085   11.392
 5089.00    0.87780   0.87187   11.392
 5090.00    0.87684   0.87256   11.405
 5091.00    0.87523   0.87275   11.426
 5092.00    0.87279   0.87209   11.458
 5093.00    0.86928   0.87082   11.504
 5094.00    0.86494   0.86980   11.562
 5095.00    0.86056   0.86872   11.620
 5096.00    0.85720   0.86696   11.666
 5097.00    0.85535   0.86516   11.691
 5098.00    0.85479   0.86328   11.699
 5099.00    0.85473   0.86185   11.700
 5100.00    0.85459   0.86088   11.702
 5101.00    0.85423   0.85994   11.706
 5102.00    0.85395   0.85976   11.710
 5103.00    0.85410   0.85951   11.708
 5104.00    0.85484   0.85891   11.698
 5105.00    0.85612   0.85943   11.681
 5106.00    0.85778   0.86022   11.658
 5107.00    0.85962   0.86150   11.633
 5108.00    0.86135   0.86278   11.610
 5109.00    0.86278   0.86335   11.590
 5110.00    0.86397   0.86492   11.574
 5111.00    0.86523   0.86621   11.558
 5112.00    0.86696   0.86715   11.535
 5113.00    0.86931   0.86818   11.503
 5114.00    0.87198   0.86809   11.468
 5115.00    0.87442   0.86798   11.436
 5116.00    0.87604   0.86725   11.415
 5117.00    0.87636   0.86550   11.411
 5118.00    0.87503   0.86398   11.428
 5119.00    0.87202   0.86168   11.468
 5120.00    0.86766   0.85904   11.525
 5121.00    0.86267   0.85649   11.592
 5122.00    0.85779   0.85343   11.658
 5123.00    0.85350   0.85083   11.716
 5124.00    0.85000   0.84881   11.765
 5125.00    0.84730   0.84678   11.802
 5126.00    0.84543   0.84534   11.828
 5127.00    0.84444   0.84433   11.842
 5128.00    0.84434   0.84306   11.844
 5129.00    0.84505   0.84307   11.834
 5130.00    0.84635   0.84271   11.816
 5131.00    0.84790   0.84221   11.794
 5132.00    0.84936   0.84247   11.774
 5133.00    0.85036   0.84141   11.760
 5134.00    0.85057   0.84155   11.757
 5135.00    0.84989   0.84096   11.766
 5136.00    0.84859   0.83975   11.784
 5137.00    0.84725   0.83959   11.803
 5138.00    0.84632   0.83797   11.816
 5139.00    0.84583   0.83724   11.823
 5140.00    0.84536   0.83644   11.829
 5141.00    0.84444   0.83552   11.842
 5142.00    0.84304   0.83542   11.862
 5143.00    0.84169   0.83437   11.881
 5144.00    0.84107   0.83399   11.890
 5145.00    0.84148   0.83440   11.884
 5146.00    0.84264   0.83474   11.868
 5147.00    0.84388   0.83522   11.850
 5148.00    0.84473   0.83538   11.838
 5149.00    0.84503   0.83606   11.834
 5150.00    0.84493   0.83750   11.835
 5151.00    0.84462   0.83842   11.840
 5152.00    0.84419   0.83873   11.846
 5153.00    0.84366   0.83889   11.853
 5154.00    0.84310   0.83909   11.861
 5155.00    0.84275   0.83825   11.866
 5156.00    0.84303   0.83614   11.862
 5157.00    0.84408   0.83354   11.847
 5158.00    0.84524   0.82991   11.831
 5159.00    0.84504   0.82595   11.834
 5160.00    0.84185   0.82011   11.879
 5161.00    0.83514   0.81239   11.974
 5162.00    0.82573   0.80527   12.110
 5163.00    0.81531   0.79796   12.265
 5164.00    0.80499   0.79182   12.423
 5165.00    0.79485   0.78575   12.581
 5166.00    0.78424   0.77873   12.751
 5167.00    0.77307   0.77324   12.935
 5168.00    0.76244   0.76905   13.116
 5169.00    0.75448   0.76777   13.254
 5170.00    0.75109   0.76863   13.314
 5171.00    0.75294   0.76909   13.281
 5172.00    0.75948   0.76920   13.167
 5173.00    0.76930   0.76988   12.999
 5174.00    0.78065   0.77279   12.810
 5175.00    0.79147   0.77728   12.635
 5176.00    0.79989   0.78103   12.502
 5177.00    0.80510   0.78181   12.421
 5178.00    0.80750   0.78232   12.384
 5179.00    0.80831   0.78410   12.371
 5180.00    0.80859   0.78630   12.367
 5181.00    0.80890   0.78911   12.362
 5182.00    0.80939   0.78930   12.355
 5183.00    0.81007   0.78976   12.345
 5184.00    0.81101   0.79121   12.330
 5185.00    0.81226   0.79262   12.311
 5186.00    0.81375   0.79625   12.289
 5187.00    0.81523   0.79856   12.266
 5188.00    0.81626   0.80042   12.251
 5189.00    0.81660   0.80267   12.246
 5190.00    0.81660   0.80498    0.000
 5191.00    0.81722   0.80852    0.000
 5192.00    0.81954   0.81110    0.000
 5193.00    0.82397   0.81269    0.000
 5194.00    0.83012   0.81415    0.000
 5195.00    0.83701   0.81603    0.000
 5196.00    0.84364   0.81723    0.000
 5197.00    0.84920   0.81761    0.000
 5198.00    0.85301   0.81759    0.000
 5199.00    0.85467   0.81698    0.000
 5200.00    0.85402   0.81699    0.000
 5201.00    0.85120   0.81626    0.000
 5202.00    0.84667   0.81510    0.000
 5203.00    0.84124   0.81490    0.000
 5204.00    0.83600   0.81407    0.000
 5205.00    0.83196   0.81408    0.000
 5206.00    0.82951   0.81479    0.000
 5207.00    0.82844   0.81550    0.000
 5208.00    0.82831   0.81792    0.000
 5209.00    0.82893   0.81961    0.000
 5210.00    0.83050   0.82165    0.000
 5211.00    0.83338   0.82442   11.999
 5212.00    0.83753   0.82697   11.940
 5213.00    0.84244   0.83035   11.870
 5214.00    0.84718   0.83259   11.804
 5215.00    0.85093   0.83416   11.752
 5216.00    0.85316   0.83512   11.721
 5217.00    0.85362   0.83588   11.715
 5218.00    0.85247   0.83643   11.731
 5219.00    0.85030   0.83633   11.761
 5220.00    0.84809   0.83551   11.791
 5221.00    0.84659   0.83335   11.812
 5222.00    0.84572   0.83210   11.824
 5223.00    0.84452   0.83056   11.841
 5224.00    0.84188   0.82970   11.878
 5225.00    0.83757   0.82952   11.939
 5226.00    0.83232   0.82780   12.015
 5227.00    0.82749   0.82811   12.085
 5228.00    0.82418   0.82850   12.133
 5229.00    0.82301   0.82974   12.150
 5230.00    0.82416   0.83290   12.134
 5231.00    0.82740   0.83423   12.086
 5232.00    0.83216   0.83704   12.017
 5233.00    0.83756   0.83985   11.939
 5234.00    0.84279   0.84230   11.865
 5235.00    0.84726   0.84638   11.803
 5236.00    0.85066   0.84865   11.756
 5237.00    0.85296   0.85117   11.724
 5238.00    0.85439   0.85327   11.704
 5239.00    0.85545   0.85433   11.690
 5240.00    0.85664   0.85608   11.674
 5241.00    0.85815   0.85635   11.653
 5242.00    0.85981   0.85651   11.631
 5243.00    0.86117   0.85616   11.612
 5244.00    0.86176   0.85514   11.604
 5245.00    0.86112   0.85477   11.613
 5246.00    0.85885   0.85315   11.643
 5247.00    0.85499   0.85206   11.696
 5248.00    0.85006   0.85094   11.764
 5249.00    0.84499   0.84926   11.835
 5250.00    0.84061   0.84844   11.896
 5251.00    0.83744   0.84631   11.941
 5252.00    0.83559   0.84477   11.968
 5253.00    0.83492   0.84331   11.977
 5254.00    0.83508   0.84046   11.975
 5255.00    0.83552   0.83767   11.969
 5256.00    0.83567   0.83364   11.966
 5257.00    0.83514   0.82966   11.974
 5258.00    0.83379   0.82559   11.993
 5259.00    0.83158   0.82025   12.025
 5260.00    0.82840   0.81440   12.072
 5261.00    0.82402   0.80870   12.136
 5262.00    0.81823   0.80395   12.222
 5263.00    0.81114   0.79974   12.328
 5264.00    0.80336   0.79561   12.448
 5265.00    0.79587   0.79169   12.565
 5266.00    0.78954   0.78939   12.666
 5267.00    0.78489   0.78955   12.741
 5268.00    0.78213   0.79087   12.786
 5269.00    0.78136   0.79202   12.798
 5270.00    0.78273   0.79387   12.776
 5271.00    0.78649   0.79719   12.715
 5272.00    0.79270   0.80219   12.615
 5273.00    0.80097   0.80831   12.485
 5274.00    0.81040   0.81281   12.340
 5275.00    0.81991   0.81721   12.197
 5276.00    0.82870   0.82271   12.067
 5277.00    0.83641   0.82800   11.956
 5278.00    0.84299   0.83382   11.862
 5279.00    0.84844   0.83823   11.786
 5280.00    0.85272   0.84179   11.727
 5281.00    0.85577   0.84652   11.685
 5282.00    0.85768   0.85039   11.659
 5283.00    0.85873   0.85378   11.645
 5284.00    0.85937   0.85670   11.636
 5285.00    0.86002   0.85894   11.628
 5286.00    0.86094   0.86166   11.615
 5287.00    0.86218   0.86325   11.598
 5288.00    0.86364   0.86370   11.579
 5289.00    0.86509   0.86383   11.559
 5290.00    0.86616   0.86401   11.545
 5291.00    0.86647   0.86388   11.541
 5292.00    0.86575   0.86250   11.551
 5293.00    0.86389   0.86079   11.575
 5294.00    0.86098   0.85932   11.615
 5295.00    0.85743   0.85890   11.663
 5296.00    0.85401   0.85844   11.709
 5297.00    0.85171   0.85708   11.741
 5298.00    0.85112   0.85662   11.749
 5299.00    0.85219   0.85710   11.734
 5300.00    0.85427   0.85870   11.706
 5301.00    0.85673   0.86025   11.672
 5302.00    0.85937   0.86088   11.636
 5303.00    0.86242   0.86234   11.595
 5304.00    0.86608   0.86432   11.546
 5305.00    0.87007   0.86643   11.493
 5306.00    0.87354   0.86797   11.448
 5307.00    0.87555   0.86818   11.421
 5308.00    0.87578   0.86866   11.418
 5309.00    0.87464   0.86914   11.433
 5310.00    0.87302   0.86880   11.454
 5311.00    0.87161   0.86812   11.473
 5312.00    0.87070   0.86618   11.485
 5313.00    0.87023   0.86410   11.491
 5314.00    0.86991   0.86214   11.495
 5315.00    0.86918   0.85906   11.505
 5316.00    0.86739   0.85631   11.529
 5317.00    0.86415   0.85306   11.572
 5318.00    0.85975   0.84901   11.631
 5319.00    0.85501   0.84504   11.696
 5320.00    0.85072   0.84111   11.755
 5321.00    0.84688   0.83814   11.808
 5322.00    0.84272   0.83515   11.866
 5323.00    0.83741   0.83147   11.942
 5324.00    0.83112   0.82784   12.032
 5325.00    0.82524   0.82622   12.118
 5326.00    0.82168   0.82595   12.170
 5327.00    0.82133   0.82515   12.175
 5328.00    0.82362   0.82459   12.141
 5329.00    0.82690   0.82435   12.093
 5330.00    0.82974   0.82606   12.052
 5331.00    0.83151   0.82817   12.026
 5332.00    0.83229   0.82918   12.015
 5333.00    0.83256   0.83098   12.011
 5334.00    0.83299   0.83260   12.005
 5335.00    0.83431   0.83472   11.986
 5336.00    0.83690   0.83609   11.949
 5337.00    0.84025   0.83694   11.901
 5338.00    0.84298   0.83913   11.863
 5339.00    0.84377   0.84018   11.852
 5340.00    0.84263   0.84131   11.868
 5341.00    0.84112   0.84247   11.889
 5342.00    0.84146   0.84357   11.884
 5343.00    0.84444   0.84625   11.842
 5344.00    0.84900   0.84758   11.779
 5345.00    0.85277   0.84902   11.726
 5346.00    0.85434   0.85174   11.705
 5347.00    0.85398   0.85407   11.710
 5348.00    0.85349   0.85698   11.717
 5349.00    0.85441   0.85913   11.704
 5350.00    0.85715   0.86117   11.667
 5351.00    0.86093   0.86410   11.615
 5352.00    0.86469   0.86605   11.565
 5353.00    0.86779   0.86734   11.523
 5354.00    0.87007   0.86838   11.493
 5355.00    0.87161   0.86880   11.473
 5356.00    0.87244   0.86871   11.462
 5357.00    0.87250   0.86777   11.461
 5358.00    0.87164   0.86586   11.473
 5359.00    0.86977   0.86414   11.497
 5360.00    0.86684   0.86186   11.536
 5361.00    0.86287   0.85835   11.589
 5362.00    0.85804   0.85517   11.654
 5363.00    0.85267   0.85209   11.728
 5364.00    0.84723   0.84967   11.803
 5365.00    0.84216   0.84738   11.874
 5366.00    0.83780   0.84442   11.936
 5367.00    0.83440   0.84259   11.985
 5368.00    0.83214   0.84183   12.017
 5369.00    0.83125   0.84197   12.030
 5370.00    0.83195   0.84218   12.020
 5371.00    0.83431   0.84234   11.986
 5372.00    0.83811   0.84343   11.932
 5373.00    0.84275   0.84494   11.866
 5374.00    0.84751   0.84671   11.799
 5375.00    0.85189   0.84818   11.739
 5376.00    0.85577   0.84939   11.685
 5377.00    0.85924   0.85076   11.638
 5378.00    0.86225   0.85177   11.598
 5379.00    0.86453   0.85217   11.567
 5380.00    0.86566   0.85225   11.552
 5381.00    0.86537   0.85220   11.556
 5382.00    0.86373   0.85153   11.578
 5383.00    0.86118   0.85052   11.612
 5384.00    0.85818   0.84913   11.653
 5385.00    0.85501   0.84731   11.696
 5386.00    0.85180   0.84577   11.740
 5387.00    0.84858   0.84334   11.784
 5388.00    0.84539   0.84029   11.829
 5389.00    0.84235   0.83823   11.872
 5390.00    0.83953   0.83584   11.911
 5391.00    0.83691   0.83312   11.949
 5392.00    0.83431   0.83024   11.986
 5393.00    0.83153   0.82707   12.026
 5394.00    0.82864   0.82520   12.068
 5395.00    0.82603   0.82305   12.106
 5396.00    0.82434   0.81991   12.131
 5397.00    0.82394   0.81769   12.137
 5398.00    0.82458   0.81634   12.127
 5399.00    0.82554   0.81519   12.113
 5400.00    0.82602   0.81331   12.106
 5401.00    0.82558   0.81094   12.113
 5402.00    0.82409   0.81034   12.135
 5403.00    0.82179   0.81121   12.169
 5404.00    0.81929   0.81152   12.206
 5405.00    0.81755   0.81098   12.232
 5406.00    0.81751   0.81096   12.232
 5407.00    0.81941   0.81310   12.204
 5408.00    0.82269   0.81599   12.155
 5409.00    0.82629   0.81789   12.102
 5410.00    0.82955   0.81959   12.055
 5411.00    0.83241   0.82171   12.013
 5412.00    0.83534   0.82510   11.971
 5413.00    0.83874   0.82859   11.923
 5414.00    0.84267   0.83020   11.867
 5415.00    0.84683   0.83154   11.809
 5416.00    0.85067   0.83353   11.755
 5417.00    0.85342   0.83534   11.718
 5418.00    0.85414   0.83709   11.708
 5419.00    0.85224   0.83707   11.734
 5420.00    0.84810   0.83542   11.791
 5421.00    0.84305   0.83574   11.862
 5422.00    0.83876   0.83627   11.922
 5423.00    0.83613   0.83546   11.960
 5424.00    0.83509   0.83438   11.975
 5425.00    0.83487   0.83156   11.978
 5426.00    0.83470   0.83079   11.980
 5427.00    0.83401   0.83193   11.990
 5428.00    0.83242   0.83042   12.013
 5429.00    0.82995   0.82975   12.049
 5430.00    0.82711   0.82949   12.090
 5431.00    0.82474   0.82965   12.125
 5432.00    0.82357   0.83151   12.142
 5433.00    0.82387   0.83158   12.138
 5434.00    0.82539   0.83243   12.116
 5435.00    0.82766   0.83445   12.082
 5436.00    0.83019   0.83563   12.045
 5437.00    0.83250   0.83660   12.012
 5438.00    0.83425   0.83689   11.987
 5439.00    0.83536   0.83807   11.971
 5440.00    0.83607   0.83902   11.961
 5441.00    0.83670   0.83882   11.952
 5442.00    0.83711   0.83791   11.946
 5443.00    0.83657   0.83655   11.954
 5444.00    0.83405   0.83687   -2.000
 5445.00    0.82940   0.83619   -2.000
 5446.00    0.82381   0.83398   -2.000
 5447.00    0.81959   0.83297   -2.000
 5448.00    0.81823   0.83190   -2.000
 5449.00    0.81935   0.83149   -2.000
 5450.00    0.82078   0.83072   -2.000
 5451.00    0.82042   0.82824   -2.000
 5452.00    0.81812   0.82809   -2.000
 5453.00    0.81571   0.82881   -2.000
 5454.00    0.81552   0.82790   -2.000
 5455.00    0.81813   0.82773   -2.000
 5456.00    0.82209   0.82710   -2.000
 5457.00    0.82489   0.82714   -2.000
 5458.00    0.82530   0.82798   -2.000
 5459.00    0.82392   0.82676   12.137
 5460.00    0.82263   0.82693   12.156
 5461.00    0.82270   0.82769   12.155
 5462.00    0.82404   0.82699   12.135
 5463.00    0.82541   0.82697   12.115
 5464.00    0.82569   0.82594   12.111
 5465.00    0.82455   0.82534   12.128
 5466.00    0.82247   0.82527   12.159
 5467.00    0.82013   0.82345   12.193
 5468.00    0.81788   0.82249   12.227
 5469.00    0.81569   0.82128   12.260
 5470.00    0.81339   0.81992   12.294
 5471.00    0.81096   0.81935   12.331
 5472.00    0.80861   0.81664   12.367
 5473.00    0.80659   0.81515   12.398
 5474.00    0.80500   0.81547   12.422
 5475.00    0.80365   0.81495   12.443
 5476.00    0.80228   0.81487   12.464
 5477.00    0.80096   0.81391   12.485
 5478.00    0.80030   0.81388   12.495
 5479.00    0.80125   0.81577   12.480
 5480.00    0.80428   0.81652   12.433
 5481.00    0.80884   0.81748   12.363
 5482.00    0.81348   0.81895   12.293
 5483.00    0.81681   0.81998   12.243
 5484.00    0.81832   0.82149   12.220
 5485.00    0.81843   0.82270   12.219
 5486.00    0.81797   0.82346   12.225
 5487.00    0.81756   0.82496   12.231
 5488.00    0.81747   0.82590   12.233
 5489.00    0.81775   0.82584   12.229
 5490.00    0.81832   0.82633   12.220
 5491.00    0.81905   0.82667   12.209
 5492.00    0.81976   0.82647   12.199
 5493.00    0.82031   0.82585   12.190
 5494.00    0.82068   0.82511   12.185
 5495.00    0.82087   0.82537   12.182
 5496.00    0.82091   0.82485   12.182
 5497.00    0.82077   0.82277   12.184
 5498.00    0.82038   0.82169   12.190
 5499.00    0.81972   0.82127   12.199
 5500.00    0.81893   0.82066   12.211
 5501.00    0.81831   0.81978   12.220
 5502.00    0.81808   0.81763   12.224
 5503.00    0.81818   0.81689   12.222
 5504.00    0.81826   0.81753   12.221
 5505.00    0.81787   0.81637   12.227
 5506.00    0.81689   0.81586   12.242
 5507.00    0.81561   0.81594   12.261
 5508.00    0.81459   0.81562   12.276
 5509.00    0.81418   0.81669   12.282
 5510.00    0.81440   0.81685   12.279
 5511.00    0.81504   0.81723   12.269
 5512.00    0.81596   0.81895   12.255
 5513.00    0.81731   0.81944   12.235
 5514.00    0.81948   0.82073   12.203
 5515.00    0.82271   0.82197   12.155
 5516.00    0.82682   0.82204   12.095
 5517.00    0.83119   0.82321   12.031
 5518.00    0.83506   0.82370   11.975
 5519.00    0.83780   0.82380   11.936
 5520.00    0.83896   0.82427   11.920
 5521.00    0.83836   0.82360   11.928
 5522.00    0.83628   0.82331   11.958
 5523.00    0.83342   0.82282   11.999
 5524.00    0.83075   0.82142   12.037
 5525.00    0.82871   0.82120   12.067
 5526.00    0.82711   0.82115   12.090
 5527.00    0.82527   0.82070   12.117
 5528.00    0.82286   0.82043   12.153
 5529.00    0.82035   0.82024   12.190
 5530.00    0.81881   0.82053   12.213
 5531.00    0.81909   0.82067   12.209
 5532.00    0.82118   0.82147   12.178
 5533.00    0.82417   0.82271   12.133
 5534.00    0.82699   0.82336   12.092
 5535.00    0.82913   0.82459   12.061
 5536.00    0.83074   0.82563   12.037
 5537.00    0.83221   0.82674   12.016
 5538.00    0.83367   0.82811   11.995
 5539.00    0.83479   0.82842   11.979
 5540.00    0.83510   0.82965   11.975
 5541.00    0.83438   0.83115   11.985
 5542.00    0.83292   0.83125   12.006
 5543.00    0.83131   0.83200   12.029
 5544.00    0.83007   0.83287   12.047
 5545.00    0.82940   0.83313   12.057
 5546.00    0.82923   0.83363   12.059
 5547.00    0.82941   0.83352   12.057
 5548.00    0.82984   0.83338   12.050
 5549.00    0.83052   0.83357   12.041
 5550.00    0.83144   0.83272   12.027
 5551.00    0.83264   0.83206   12.010
 5552.00    0.83410   0.83200   11.989
 5553.00    0.83556   0.83080   11.968
 5554.00    0.83609   0.82953   11.960
 5555.00    0.83402   0.82863   11.990
 5556.00    0.82771   0.82719   -2.000
 5557.00    0.81724   0.82601   -2.000
 5558.00    0.80490   0.82437   -2.000
 5559.00    0.79453   0.82260   -2.000
 5560.00    0.78900   0.82164   -2.000
 5561.00    0.78919   0.82000   -2.000
 5562.00    0.79415   0.81845   -2.000
 5563.00    0.80235   0.81738   -2.000
 5564.00    0.81240   0.81624   -2.000
 5565.00    0.82308   0.81519   -2.000
 5566.00    0.83297   0.81409   -2.000
 5567.00    0.84013   0.81410   -2.000
 5568.00    0.84214   0.81351   -2.000
 5569.00    0.83722   0.81225   -2.000
 5570.00    0.82589   0.81296   -2.000
 5571.00    0.81125   0.81300   -2.000
 5572.00    0.79777   0.81238   -2.000
 5573.00    0.78862   0.81276   -2.000
 5574.00    0.78503   0.81194   -2.000
 5575.00    0.78651   0.81181   -2.000
 5576.00    0.79171   0.81190   -2.000
 5577.00    0.79875   0.80985   -2.000
 5578.00    0.80535   0.80905   -2.000
 5579.00    0.80983   0.80840   -2.000
 5580.00    0.81160   0.80611   12.321
 5581.00    0.81114   0.80483   12.328
 5582.00    0.80926   0.80239   12.357
 5583.00    0.80648   0.79966   12.400
 5584.00    0.80292   0.79879   12.455
 5585.00    0.79864   0.79638   12.521
 5586.00    0.79398   0.79440   12.595
 5587.00    0.78962   0.79377   12.664
 5588.00    0.78637   0.79228   12.717
 5589.00    0.78476   0.79180   12.743
 5590.00    0.78493   0.79078   12.740
 5591.00    0.78666   0.78995   12.712
 5592.00    0.78961   0.79182   12.665
 5593.00    0.79332   0.79224   12.605
 5594.00    0.79725   0.79192   12.543
 5595.00    0.80080   0.79349   12.488
 5596.00    0.80332   0.79489   12.448
 5597.00    0.80418   0.79652   12.435
 5598.00    0.80311   0.79774   12.452
 5599.00    0.80058   0.79870   12.491
 5600.00    0.79779   0.80185   12.535
 5601.00    0.79602   0.80439   12.563
 5602.00    0.79585   0.80529   12.565
 5603.00    0.79709   0.80678   12.546
 5604.00    0.79908   0.80871   12.514
 5605.00    0.80142   0.81062   12.478
 5606.00    0.80412   0.81156   12.436
 5607.00    0.80736   0.81196   12.386
 5608.00    0.81091   0.81262   12.332
 5609.00    0.81385   0.81329   12.287
 5610.00    0.81485   0.81318   12.272
 5611.00    0.81325   0.81125   12.296
 5612.00    0.80969   0.81027   12.350
 5613.00    0.80595   0.81057   12.408
 5614.00    0.80361   0.80950   12.444
 5615.00    0.80298   0.80825   12.454
 5616.00    0.80309   0.80710   12.452
 5617.00    0.80265   0.80646   12.459
 5618.00    0.80123   0.80673   12.481
 5619.00    0.79941   0.80582   12.509
 5620.00    0.79823   0.80478   12.528
 5621.00    0.79820   0.80550   12.528
 5622.00    0.79911   0.80648   12.514
 5623.00    0.80027   0.80670   12.496
 5624.00    0.80124   0.80688   12.481
 5625.00    0.80209   0.80750   12.467
 5626.00    0.80322   0.80831   12.450
 5627.00    0.80491   0.80909   12.424
 5628.00    0.80699   0.80909   12.392
 5629.00    0.80892   0.80892   12.362
 5630.00    0.81022   0.80963   12.342
 5631.00    0.81077   0.80981   12.334
 5632.00    0.81082   0.80935   12.333
 5633.00    0.81066   0.80906   12.336
 5634.00    0.81025   0.80845   12.342
 5635.00    0.80918   0.80845   12.358
 5636.00    0.80698   0.80820   12.392
 5637.00    0.80372   0.80695   12.442
 5638.00    0.80009   0.80681   12.499
 5639.00    0.79712   0.80683   12.545
 5640.00    0.79546   0.80636   12.571
 5641.00    0.79513   0.80640   12.577
 5642.00    0.79566   0.80581   12.568
 5643.00    0.79657   0.80573   12.554
 5644.00    0.79761   0.80624   12.538
 5645.00    0.79873   0.80534   12.520
 5646.00    0.79996   0.80465   12.501
 5647.00    0.80129   0.80452   12.480
 5648.00    0.80267   0.80377   12.458
 5649.00    0.80396   0.80328   12.439
 5650.00    0.80488   0.80191   12.424
 5651.00    0.80505   0.79984   12.422
 5652.00    0.80413   0.79955   12.436
 5653.00    0.80214   0.79874   12.467
 5654.00    0.79956   0.79605   12.507
 5655.00    0.79706   0.79482   12.546
 5656.00    0.79506   0.79482   12.578
 5657.00    0.79359   0.79423   12.601
 5658.00    0.79238   0.79325   12.620
 5659.00    0.79119   0.79235   12.639
 5660.00    0.78997   0.79310   12.659
 5661.00    0.78887   0.79452   12.676
 5662.00    0.78816   0.79429   12.688
 5663.00    0.78815   0.79462   12.688
 5664.00    0.78917   0.79685   12.672
 5665.00    0.79136   0.79859   12.637
 5666.00    0.79444   0.79955   12.587
 5667.00    0.79770   0.80084   12.536
 5668.00    0.80030   0.80253   12.495
 5669.00    0.80176   0.80443   12.473
 5670.00    0.80204   0.80555   12.468
 5671.00    0.80145   0.80589   12.477
 5672.00    0.80030   0.80681   12.495
 5673.00    0.79890   0.80791   12.517
 5674.00    0.79751   0.80803   12.539
 5675.00    0.79641   0.80753   12.556
 5676.00    0.79591   0.80741   12.564
 5677.00    0.79626   0.80745   12.559
 5678.00    0.79748   0.80660   12.540
 5679.00    0.79911   0.80539   12.514
 5680.00    0.80033   0.80471   12.495
 5681.00    0.80045   0.80435   12.493
 5682.00    0.79940   0.80369   12.509
 5683.00    0.79781   0.80256   12.534
 5684.00    0.79652   0.80207   12.555
 5685.00    0.79590   0.80233   12.564
 5686.00    0.79581   0.80188   12.566
 5687.00    0.79580   0.80142   12.566
 5688.00    0.79565   0.80173   12.568
 5689.00    0.79553   0.80198   12.570
 5690.00    0.79580   0.80185   12.566
 5691.00    0.79654   0.80134   12.554
 5692.00    0.79726   0.80126   12.543
 5693.00    0.79705   0.80119   12.546
 5694.00    0.79533   0.80001   12.573
 5695.00    0.79220   0.79923   12.623
 5696.00    0.78847   0.79845   12.683
 5697.00    0.78502   0.79690   12.738
 5698.00    0.78234   0.79557   12.782
 5699.00    0.78042   0.79365   12.814
 5700.00    0.77895   0.79239   12.838
 5701.00    0.77751   0.79127   12.861
 5702.00    0.77561   0.78860   12.893
 5703.00    0.77283   0.78785   12.939
 5704.00    0.76928   0.78730   12.999
 5705.00    0.76563   0.78540   13.061
 5706.00    0.76288   0.78582   13.108
 5707.00    0.76162   0.78598   13.130
 5708.00    0.76172   0.78587   13.128
 5709.00    0.76247   0.78780   13.115
 5710.00    0.76332   0.78846   13.101
 5711.00    0.76425   0.78985   13.085
 5712.00    0.76575   0.79267   13.059
 5713.00    0.76833   0.79395   13.015
 5714.00    0.77211   0.79649   12.952
 5715.00    0.77680   0.79957   12.873
 5716.00    0.78191   0.80101   12.789
 5717.00    0.78700   0.80371   12.706
 5718.00    0.79175   0.80631   12.630
 5719.00    0.79589   0.80739   12.564
 5720.00    0.79917   0.80914   12.513
 5721.00    0.80127   0.81068   12.480
 5722.00    0.80196   0.81139   12.469
 5723.00    0.80133   0.81231   12.479
 5724.00    0.79989   0.81274   12.502
 5725.00    0.79846   0.81308   12.524
 5726.00    0.79765   0.81373   12.537
 5727.00    0.79756   0.81347   12.538
 5728.00    0.79781   0.81323   12.534
 5729.00    0.79788   0.81363   12.533
 5730.00    0.79736   0.81350   12.541
 5731.00    0.79599   0.81321   12.563
 5732.00    0.79378   0.81308   12.598
 5733.00    0.79120   0.81306   12.639
 5734.00    0.78917   0.81326   12.672
 5735.00    0.78859   0.81278   12.681
 5736.00    0.78951   0.81240   12.666
 5737.00    0.79094   0.81262   12.643
 5738.00    0.79138   0.81229   12.636
 5739.00    0.79023   0.81189   12.655
 5740.00    0.78832   0.81152    0.000
 5741.00    0.78751   0.81081    0.000
 5742.00    0.78899   0.81058    0.000
 5743.00    0.79242   0.81000    0.000
 5744.00    0.79612   0.80889    0.000
 5745.00    0.79831   0.80845    0.000
 5746.00    0.79820   0.80780    0.000
 5747.00    0.79598   0.80665    0.000
 5748.00    0.79246   0.80609    0.000
 5749.00    0.78863   0.80545    0.000
 5750.00    0.78560   0.80465    0.000
 5751.00    0.78438   0.80431    0.000
 5752.00    0.78553   0.80358    0.000
 5753.00    0.78909   0.80302    0.000
 5754.00    0.79463   0.80330    0.000
 5755.00    0.80137   0.80283    0.000
 5756.00    0.80826   0.80228    0.000
 5757.00    0.81403   0.80278    0.000
 5758.00    0.81751   0.80257    0.000
 5759.00    0.81776   0.80253    0.000
 5760.00    0.81419   0.80355    0.000
 5761.00    0.80708   0.80367    0.000
 5762.00    0.79793   0.80376    0.000
 5763.00    0.78945   0.80435    0.000
 5764.00    0.78402   0.80423    0.000
 5765.00    0.78214   0.80428    0.000
 5766.00    0.78231   0.80450    0.000
 5767.00    0.78226   0.80385    0.000
 5768.00    0.78101   0.80366    0.000
 5769.00    0.77926   0.80371    0.000
 5770.00    0.77865   0.80246    0.000
 5771.00    0.77998   0.80138    0.000
 5772.00    0.78271   0.80070    0.000
 5773.00    0.78528   0.79889    0.000
 5774.00    0.78653   0.79724    0.000
 5775.00    0.78627   0.79593    0.000
 5776.00    0.78523   0.79406    0.000
 5777.00    0.78413   0.79258    0.000
 5778.00    0.78319   0.79089    0.000
 5779.00    0.78207   0.78955    0.000
 5780.00    0.78034   0.78901    0.000
 5781.00    0.77792   0.78770    0.000
 5782.00    0.77510   0.78726    0.000
 5783.00    0.77241   0.78747    0.000
 5784.00    0.77036   0.78698    0.000
 5785.00    0.76941   0.78760    0.000
 5786.00    0.76987   0.78833    0.000
 5787.00    0.77178   0.78911    0.000
 5788.00    0.77480   0.79087    0.000
 5789.00    0.77831   0.79178    0.000
 5790.00    0.78170   0.79301    0.000
 5791.00    0.78450   0.79497    0.000
 5792.00    0.78638   0.79629    0.000
 5793.00    0.78730   0.79785    0.000
 5794.00    0.78756   0.79911    0.000
 5795.00    0.78781   0.80023    0.000
 5796.00    0.78862   0.80172    0.000
 5797.00    0.79009   0.80250    0.000
 5798.00    0.79186   0.80330    0.000
 5799.00    0.79335   0.80418    0.000
 5800.00    0.79426   0.80478    0.000
 5801.00    0.79458   0.80519    0.000
 5802.00    0.79449   0.80517    0.000
 5803.00    0.79404   0.80575    0.000
 5804.00    0.79312   0.80628    0.000
 5805.00    0.79151   0.80589    0.000
 5806.00    0.78940   0.80611    0.000
 5807.00    0.78755   0.80651    0.000
 5808.00    0.78711   0.80617    0.000
 5809.00    0.78860   0.80607    0.000
 5810.00    0.79126   0.80639    0.000
 5811.00    0.79317   0.80674    0.000
 5812.00    0.79276   0.80683    0.000
 5813.00    0.79010   0.80700    0.000
 5814.00    0.78696   0.80756    0.000
 5815.00    0.78551   0.80800    0.000
 5816.00    0.78652   0.80827    0.000
 5817.00    0.78906   0.80870    0.000
 5818.00    0.79136   0.80937    0.000
 5819.00    0.79240   0.80985    0.000
 5820.00    0.79229   0.81004    0.000
 5821.00    0.79199   0.81056    0.000
 5822.00    0.79210   0.81128    0.000
 5823.00    0.79254   0.81157    0.000
 5824.00    0.79262   0.81164    0.000
 5825.00    0.79194   0.81197    0.000
 5826.00    0.79082   0.81232    0.000
 5827.00    0.79020   0.81211    0.000
 5828.00    0.79086   0.81193    0.000
 5829.00    0.79260   0.81224    0.000
 5830.00    0.79429   0.81209    0.000
 5831.00    0.79470   0.81154    0.000
 5832.00    0.79364   0.81146    0.000
 5833.00    0.79205   0.81135    0.000
 5834.00    0.79140   0.81088    0.000
 5835.00    0.79241   0.81038    0.000
 5836.00    0.79474   0.80992    0.000
 5837.00    0.79735   0.80941    0.000
 5838.00    0.79932   0.80861    0.000
 5839.00    0.80025   0.80758    0.000
 5840.00    0.80015   0.80663    0.000
 5841.00    0.79932   0.80559    0.000
 5842.00    0.79820   0.80413    0.000
 5843.00    0.79739   0.80252    0.000
 5844.00    0.79716   0.80109    0.000
 5845.00    0.79712   0.79935    0.000
 5846.00    0.79627   0.79703    0.000
 5847.00    0.79368   0.79509    0.000
 5848.00    0.78939   0.79349    0.000
 5849.00    0.78449   0.79127    0.000
 5850.00    0.78055   0.78893    0.000
 5851.00    0.77859   0.78729    0.000
 5852.00    0.77883   0.78577    0.000
 5853.00    0.78082   0.78420    0.000
 5854.00    0.78371   0.78322    0.000
 5855.00    0.78640   0.78220    0.000
 5856.00    0.78767   0.78141    0.000
 5857.00    0.78698   0.78133    0.000
 5858.00    0.78494   0.78112    0.000
 5859.00    0.78309   0.78122    0.000
 5860.00    0.78280   0.78182    0.000
 5861.00    0.78433   0.78213    0.000
 5862.00    0.78686   0.78276    0.000
 5863.00    0.78929   0.78380    0.000
 5864.00    0.79120   0.78443    0.000
 5865.00    0.79288   0.78506    0.000
 5866.00    0.79472   0.78570    0.000
 5867.00    0.79593   0.78600    0.000
 5868.00    0.79436   0.78627    0.000
 5869.00    0.78776   0.78630    0.000
 5870.00    0.77715   0.78578    0.000
 5871.00    0.76788   0.78520    0.000
 5872.00    0.76795   0.78439    0.000
 5873.00    0.78048   0.78285   -2.000
 5874.00    0.80026   0.78104   -2.000
 5875.00    0.81495   0.77923   -2.000
 5876.00    0.81498   0.77645   -2.000
 5877.00    0.80058   0.77303   -2.000
 5878.00    0.78156   0.77011   -2.000
 5879.00    0.76888   0.76596   -2.000
 5880.00    0.76545   0.76092   -2.000
 5881.00    0.76538   0.75736   -2.000
 5882.00    0.75957   0.75171   -2.000
 5883.00    0.74512   0.74487   -2.000
 5884.00    0.72692   0.74177   -2.000
 5885.00    0.71421   0.73658   -2.000
 5886.00    0.71168   0.73015   -2.000
 5887.00    0.71701   0.72814   -2.000
 5888.00    0.72259   0.72344   -2.000
 5889.00    0.72293   0.71859   -2.000
 5890.00    0.71791   0.71898   -2.000
 5891.00    0.71213   0.71702   -2.000
 5892.00    0.71027   0.71591   -2.000
 5893.00    0.71392   0.71819    0.000
 5894.00    0.72154   0.71820    0.000
 5895.00    0.73041   0.72110    0.000
 5896.00    0.73856   0.72571    0.000
 5897.00    0.74499   0.72750    0.000
 5898.00    0.74951   0.73259    0.000
 5899.00    0.75266   0.73792    0.000
 5900.00    0.75563   0.74032    0.000
 5901.00    0.75976   0.74581   13.162
 5902.00    0.76539   0.75098   13.065
 5903.00    0.77148   0.75316   12.962
 5904.00    0.77601   0.75718   12.886
 5905.00    0.77742   0.76127   12.863
 5906.00    0.77520   0.76298   12.900
 5907.00    0.76984   0.76506   12.990
 5908.00    0.76247   0.76746   13.115
 5909.00    0.75466   0.76848   13.251
 5910.00    0.74828   0.76957   13.364
 5911.00    0.74478   0.77077   13.427
 5912.00    0.74446   0.77112   13.432
 5913.00    0.74641   0.77184   13.397
 5914.00    0.74918   0.77233   13.348
 5915.00    0.75183   0.77232   13.301
 5916.00    0.75400   0.77312   13.263
 5917.00    0.75583   0.77328   13.231
 5918.00    0.75750   0.77317   13.201
 5919.00    0.75917   0.77398   13.172
 5920.00    0.76099   0.77392   13.141
 5921.00    0.76318   0.77398   13.103
 5922.00    0.76606   0.77465   13.054
 5923.00    0.76995   0.77432   12.988
 5924.00    0.77469   0.77453   12.908
 5925.00    0.77930   0.77503   12.832
 5926.00    0.78208   0.77473   12.786
 5927.00    0.78151   0.77479   12.796
 5928.00    0.77715   0.77487   12.868
 5929.00    0.76964   0.77490   12.993
 5930.00    0.76033   0.77501   13.152
 5931.00    0.75076   0.77471   13.320
 5932.00    0.74254   0.77494   13.467
 5933.00    0.73723   0.77507   13.564
 5934.00    0.73597   0.77457   13.587
 5935.00    0.73942   0.77478   13.524
 5936.00    0.74757   0.77486   13.377
 5937.00    0.75917   0.77455   13.172
 5938.00    0.77152   0.77451   12.961
 5939.00    0.78089   0.77414   12.806
 5940.00    0.78493   0.77414   12.740
 5941.00    0.78400   0.77403   12.755
 5942.00    0.78098   0.77306   12.804
 5943.00    0.77881   0.77305   12.840
 5944.00    0.77848   0.77320   12.846
 5945.00    0.77887   0.77222   12.839
 5946.00    0.77812   0.77191   12.852
 5947.00    0.77535   0.77208   12.897
 5948.00    0.77087   0.77159   12.972
 5949.00    0.76581   0.77137   13.058
 5950.00    0.76127   0.77150   13.136
 5951.00    0.75816   0.77158   13.190
 5952.00    0.75715   0.77175   13.207
 5953.00    0.75841   0.77191   13.186
 5954.00    0.76152   0.77240   13.132
 5955.00    0.76561   0.77301   13.061
 5956.00    0.76972   0.77327   12.992
 5957.00    0.77308   0.77391   12.935
 5958.00    0.77512   0.77482   12.901
 5959.00    0.77578   0.77531   12.890
 5960.00    0.77570   0.77585   12.892
 5961.00    0.77621   0.77656   12.883
 5962.00    0.77842   0.77710   12.847
 5963.00    0.78217   0.77754   12.785
 5964.00    0.78589   0.77783   12.724
 5965.00    0.78757   0.77799   12.697
 5966.00    0.78648   0.77811   12.715
 5967.00    0.78354   0.77797   12.763
 5968.00    0.78070   0.77769   12.809
 5969.00    0.77911   0.77740   12.835
 5970.00    0.77854   0.77682   12.845
 5971.00    0.77766   0.77611   12.859
 5972.00    0.77542   0.77558   12.896
 5973.00    0.77175   0.77471   12.958
 5974.00    0.76749   0.77354   13.030
 5975.00    0.76365   0.77299   13.095
 5976.00    0.76086   0.77225   13.143
 5977.00    0.75934   0.77099   13.169
 5978.00    0.75892   0.77047   13.177
 5979.00    0.75908   0.76999   13.174
 5980.00    0.75893   0.76912   13.176
 5981.00    0.75769   0.76875   13.198
 5982.00    0.75539   0.76846   13.238
 5983.00    0.75307   0.76821   13.279
 5984.00    0.75226   0.76818   13.293
 5985.00    0.75380   0.76808   13.266
 5986.00    0.75741   0.76829   13.203
 5987.00    0.76194   0.76847   13.124
 5988.00    0.76608   0.76847   13.053
 5989.00    0.76881   0.76874   13.007
 5990.00    0.76939   0.76890   12.997
 5991.00    0.76780   0.76900   13.024
 5992.00    0.76501   0.76890   13.072
 5993.00    0.76286   0.76877   13.109
 5994.00    0.76296   0.76905   13.107
 5995.00    0.76534   0.76848   13.066
 5996.00    0.76841   0.76790   13.014
 5997.00    0.76999   0.76807   12.987
 5998.00    0.76910   0.76700   13.002
 5999.00    0.76624   0.76620   13.051
 6000.00    0.76291   0.76626   13.108
 6001.00    0.76025   0.76513   13.154
 6002.00    0.75875   0.76444   13.180
 6003.00    0.75824   0.76402   13.188
 6004.00    0.75842   0.76285   13.185
 6005.00    0.75896   0.76268   13.176
 6006.00    0.75956   0.76203   13.166
 6007.00    0.75991   0.76094   13.159
 6008.00    0.75972   0.76124   13.163
 6009.00    0.75869   0.76053   13.181
 6010.00    0.75675   0.75956   13.214
 6011.00    0.75419   0.75993   13.259
 6012.00    0.75169   0.75949   13.303
 6013.00    0.75004   0.75902   13.333
 6014.00    0.74961   0.75918   13.340
 6015.00    0.75032   0.75901   13.328
 6016.00    0.75172   0.75917   13.303
 6017.00    0.75324   0.75929   13.276
 6018.00    0.75422   0.75960   13.259
 6019.00    0.75408   0.76035   13.261
 6020.00    0.75279   0.76054   13.284
 6021.00    0.75111   0.76124   13.314
 6022.00    0.75037   0.76248   13.327
 6023.00    0.75148   0.76313   13.307
 6024.00    0.75423   0.76413   13.258
 6025.00    0.75737   0.76541   13.204
 6026.00    0.75961   0.76648   13.165
 6027.00    0.76072   0.76771   13.145
 6028.00    0.76151   0.76870   13.132
 6029.00    0.76307   0.76980   13.105
 6030.00    0.76562   0.77113   13.061
 6031.00    0.76832   0.77182   13.015
 6032.00    0.76982   0.77255   12.990
 6033.00    0.76961   0.77369   12.994
 6034.00    0.76829   0.77420   13.016
 6035.00    0.76723   0.77447   13.034
 6036.00    0.76724   0.77524   13.034
 6037.00    0.76807   0.77563   13.020
 6038.00    0.76861   0.77560   13.011
 6039.00    0.76803   0.77602   13.020
 6040.00    0.76653   0.77620   13.046
 6041.00    0.76524   0.77607   13.068
 6042.00    0.76526   0.77626   13.067
 6043.00    0.76684   0.77610   13.041
 6044.00    0.76928   0.77590   12.999
 6045.00    0.77153   0.77595   12.961
 6046.00    0.77294   0.77546   12.938
 6047.00    0.77339   0.77513   12.930
 6048.00    0.77311   0.77503   12.935
 6049.00    0.77240   0.77426   12.947
 6050.00    0.77147   0.77382   12.962
 6051.00    0.77050   0.77359   12.979
 6052.00    0.76949   0.77261   12.996
 6053.00    0.76831   0.77215   13.016
 6054.00    0.76671   0.77191   13.043
 6055.00    0.76469   0.77093   13.077
 6056.00    0.76273   0.77061   13.111
 6057.00    0.76172   0.77045   13.128
 6058.00    0.76229   0.76964   13.118
 6059.00    0.76422   0.76966   13.085
 6060.00    0.76645   0.76962   13.047
 6061.00    0.76772   0.76909   13.026
 6062.00    0.76743   0.76949   13.030
 6063.00    0.76575   0.76954   13.059
 6064.00    0.76337   0.76932   13.100
 6065.00    0.76101   0.76991   13.140
 6066.00    0.75933   0.76987   13.169
 6067.00    0.75887   0.76987   13.177
 6068.00    0.75980   0.77037   13.161
 6069.00    0.76186   0.76996   13.126
 6070.00    0.76443   0.76990   13.082
 6071.00    0.76685   0.77001   13.040
 6072.00    0.76861   0.76917   13.011
 6073.00    0.76936   0.76883   12.998
 6074.00    0.76897   0.76839   13.004
 6075.00    0.76758   0.76736   13.028
 6076.00    0.76558   0.76675   13.062
 6077.00    0.76349   0.76574   13.098
 6078.00    0.76171   0.76481   13.128
 6079.00    0.76054   0.76419   13.149
 6080.00    0.76014   0.76289   13.155
 6081.00    0.76049   0.76225   13.149
 6082.00    0.76137   0.76187   13.134
 6083.00    0.76241   0.76059   13.116
 6084.00    0.76325   0.76035   13.102
 6085.00    0.76354   0.76028   13.097
 6086.00    0.76300   0.75913   13.106
 6087.00    0.76162   0.75918   13.130
 6088.00    0.75968   0.75942   13.163
 6089.00    0.75780   0.75832   13.196
 6090.00    0.75650   0.75840   13.219
 6091.00    0.75598   0.75882   13.228
 6092.00    0.75609   0.75773   13.226
 6093.00    0.75655   0.75775   13.218
 6094.00    0.75715   0.75808   13.207
 6095.00    0.75775   0.75691   13.197
 6096.00    0.75829   0.75699   13.188
 6097.00    0.75863   0.75720   13.182
 6098.00    0.75855   0.75599   13.183
 6099.00    0.75782   0.75635   13.196
 6100.00    0.75635   0.75648   13.221
 6101.00    0.75427   0.75539   13.258
 6102.00    0.75192   0.75622   13.299
 6103.00    0.74973   0.75632   13.338
 6104.00    0.74828   0.75550   13.364
 6105.00    0.74817   0.75670   13.366
 6106.00    0.74967   0.75660   13.339
 6107.00    0.75242   0.75607   13.290
 6108.00    0.75548   0.75733   13.237
 6109.00    0.75784   0.75677   13.195
 6110.00    0.75902   0.75641   13.175
 6111.00    0.75908   0.75736   13.174
 6112.00    0.75845   0.75617   13.185
 6113.00    0.75749   0.75582   13.201
 6114.00    0.75643   0.75623   13.220
 6115.00    0.75539   0.75464   13.238
 6116.00    0.75441   0.75440   13.255
 6117.00    0.75348   0.75420   13.272
 6118.00    0.75252   0.75236   13.289
 6119.00    0.75142   0.75236   13.308
 6120.00    0.75005   0.75183   13.333
 6121.00    0.74826   0.75004   13.364
 6122.00    0.74610   0.75026   13.403
 6123.00    0.74385   0.74957   13.444
 6124.00    0.74208   0.74799   13.476
 6125.00    0.74129   0.74829   13.490
 6126.00    0.74164   0.74741   13.484
 6127.00    0.74288   0.74595   13.461
 6128.00    0.74449   0.74618   13.432
 6129.00    0.74594   0.74519   13.406
 6130.00    0.74665   0.74382   13.393
 6131.00    0.74615   0.74389   13.402
 6132.00    0.74426   0.74292   13.436
 6133.00    0.74117   0.74186   13.492
 6134.00    0.73738   0.74197   13.561
 6135.00    0.73347   0.74130   13.634
 6136.00    0.72999   0.74078   13.699
 6137.00    0.72744   0.74111   13.747
 6138.00    0.72623   0.74087   13.770
 6139.00    0.72659   0.74095   13.763
 6140.00    0.72859   0.74153   13.725
 6141.00    0.73204   0.74160   13.660
 6142.00    0.73647   0.74196   13.578
 6143.00    0.74110   0.74249   13.494
 6144.00    0.74506   0.74249   13.422
 6145.00    0.74781   0.74263   13.372
 6146.00    0.74914   0.74268   13.349
 6147.00    0.74906   0.74215   13.350
 6148.00    0.74765   0.74163   13.375
 6149.00    0.74495   0.74094   13.424
 6150.00    0.74107   0.73956   13.494
 6151.00    0.73644   0.73821   13.579
 6152.00    0.73193   0.73676   13.662
 6153.00    0.72870   0.73455   13.723
 6154.00    0.72725   0.73260   13.750
 6155.00    0.72686   0.73071   13.758
 6156.00    0.72573   0.72796   13.779
 6157.00    0.72228   0.72592   13.845
 6158.00    0.71648   0.72422   13.957
 6159.00    0.70983   0.72158   14.088
 6160.00    0.70433   0.71999   14.198
 6161.00    0.70102   0.71902   14.265
 6162.00    0.69973   0.71715   14.291
 6163.00    0.69957   0.71649   14.295
 6164.00    0.69997   0.71653   14.286
 6165.00    0.70091   0.71579   14.267
 6166.00    0.70275   0.71619   14.230
 6167.00    0.70564   0.71712   14.172
 6168.00    0.70934   0.71744   14.098
 6169.00    0.71326   0.71863   14.020
 6170.00    0.71680   0.72010   13.951
 6171.00    0.71952   0.72112   13.898
 6172.00    0.72119   0.72260   13.866
 6173.00    0.72192   0.72415   13.852
 6174.00    0.72227   0.72536   13.845
 6175.00    0.72324   0.72654   13.827
 6176.00    0.72563   0.72776   13.781
 6177.00    0.72927   0.72879   13.712
 6178.00    0.73291   0.72926   13.644
 6179.00    0.73486   0.72995   13.608
 6180.00    0.73439   0.73055   13.617
 6181.00    0.73194   0.73016   13.662
 6182.00    0.72885   0.73038   13.720
 6183.00    0.72628   0.73060   13.769
 6184.00    0.72481   0.72957   13.797
 6185.00    0.72454   0.72962   13.802
 6186.00    0.72521   0.72967   13.789
 6187.00    0.72637   0.72847   13.767
 6188.00    0.72741   0.72870   13.747
 6189.00    0.72782   0.72882   13.740
 6190.00    0.72752   0.72791   13.745
 6191.00    0.72681   0.72855   13.759
 6192.00    0.72617   0.72888   13.771
 6193.00    0.72600   0.72849   13.774
 6194.00    0.72654   0.72948   13.764
 6195.00    0.72786   0.72997   13.739
 6196.00    0.72967   0.73002   13.705
 6197.00    0.73130   0.73104   13.674
 6198.00    0.73199   0.73149   13.661
 6199.00    0.73155   0.73169   13.670
 6200.00    0.73064   0.73229   13.687
 6201.00    0.73054   0.73248   13.689
 6202.00    0.73198   0.73246   13.662
 6203.00    0.73461   0.73234   13.613
 6204.00    0.73708   0.73211   13.567
 6205.00    0.73824   0.73162   13.546
 6206.00    0.73799   0.73068   13.550
 6207.00    0.73731   0.73007   13.563
 6208.00    0.73722   0.72905   13.564
 6209.00    0.73769   0.72753   13.556
 6210.00    0.73751   0.72673   13.559
 6211.00    0.73518   0.72538   13.602
 6212.00    0.73061   0.72368   13.687
 6213.00    0.72533   0.72295   13.787
 6214.00    0.72177   0.72153   13.855
 6215.00    0.72102   0.72010   13.869
 6216.00    0.72216   0.71960   13.847
 6217.00    0.72283   0.71830   13.834
 6218.00    0.72163   0.71737   13.857
 6219.00    0.71933   0.71708   13.902
 6220.00    0.71851   0.71591   13.918
 6221.00    0.72112   0.71549   13.867
 6222.00    0.72662   0.71528   13.762
 6223.00    0.73211   0.71418   13.659
 6224.00    0.73450   0.71412   13.615
 6225.00    0.73294   0.71388   13.644
 6226.00    0.72909   0.71280   13.716
 6227.00    0.72566   0.71292   13.781
 6228.00    0.72413   0.71266   13.810
 6229.00    0.72435   0.71158   13.805
 6230.00    0.72503   0.71170   13.793
 6231.00    0.72518   0.71150   13.790
 6232.00    0.72451   0.71041   13.802
 6233.00    0.72330   0.71034   13.826
 6234.00    0.72195   0.71027   13.851
 6235.00    0.72078   0.70915   13.874
 6236.00    0.72000   0.70875   13.889
 6237.00    0.71965   0.70883   13.896
 6238.00    0.71951   0.70768   13.898
 6239.00    0.71919   0.70689   13.905
 6240.00    0.71846   0.70714   13.919
 6241.00    0.71769   0.70599   13.934
 6242.00    0.71785   0.70492   13.930
 6243.00    0.71996   0.70530   13.890
 6244.00    0.72409   0.70426   13.810
 6245.00    0.72930   0.70304   13.712
 6246.00    0.73400   0.70355   13.624
 6247.00    0.73697   0.70274   13.569
 6248.00    0.73763   0.70156   13.557
 6249.00    0.73602   0.70222   13.586
 6250.00    0.73267   0.70182   13.649
 6251.00    0.72854   0.70087   13.726
 6252.00    0.72491   0.70177   13.795
 6253.00    0.72272   0.70196   13.837
 6254.00    0.72209   0.70143   13.849
 6255.00    0.72236   0.70266   13.844
 6256.00    0.72276   0.70352   13.836
 6257.00    0.72301   0.70348   13.831
 6258.00    0.72339   0.70500   13.824
 6259.00    0.72432   0.70644   13.806
 6260.00    0.72579   0.70678   13.778
 6261.00    0.72726   0.70836   13.750
 6262.00    0.72794   0.71010   13.737
 6263.00    0.72738   0.71060   13.748
 6264.00    0.72561   0.71195   13.781
 6265.00    0.72311   0.71364   13.829
 6266.00    0.72047   0.71408   13.880
 6267.00    0.71835   0.71498   13.921
 6268.00    0.71740   0.71639   13.939
 6269.00    0.71803   0.71661   13.927
 6270.00    0.72028   0.71703   13.883
 6271.00    0.72382   0.71810   13.816
 6272.00    0.72801   0.71811   13.736
 6273.00    0.73205   0.71821   13.660
 6274.00    0.73494   0.71901   13.607
 6275.00    0.73600   0.71891   13.587
 6276.00    0.73552   0.71888   13.596
 6277.00    0.73482   0.71953   13.609
 6278.00    0.73539   0.71943   13.598
 6279.00    0.73711   0.71944   13.567
 6280.00    0.73774   0.71997    0.000
 6281.00    0.73418   0.71991    0.000
 6282.00    0.72637   0.71994    0.000
 6283.00    0.71881   0.72028    0.000
 6284.00    0.71932   0.72018   -2.000
 6285.00    0.73217   0.72012   -2.000
 6286.00    0.75422   0.72011   -2.000
 6287.00    0.77557   0.71988   -2.000
 6288.00    0.78695   0.71958   -2.000
 6289.00    0.78628   0.71916   -2.000
 6290.00    0.77883   0.71878   -2.000
 6291.00    0.77229   0.71823   -2.000
 6292.00    0.77017   0.71754   -2.000
 6293.00    0.77102   0.71712   -2.000
 6294.00    0.77081   0.71649   -2.000
 6295.00    0.76783   0.71575   -2.000
 6296.00    0.76370   0.71551    0.000
 6297.00    0.76215   0.71503    0.000
 6298.00    0.76498   0.71443    0.000
 6299.00    0.77065   0.71451    0.000
 6300.00    0.77500   0.71434    0.000
 6301.00    0.77480   0.71388    0.000
 6302.00    0.76966   0.71420    0.000
 6303.00    0.76186   0.71434    0.000
 6304.00    0.75431   0.71386    0.000
 6305.00    0.74887   0.71418    0.000
 6306.00    0.74621   0.71454    0.000
 6307.00    0.74608   0.71386    0.000
 6308.00    0.74749   0.71396    0.000
 6309.00    0.74885   0.71448    0.000
 6310.00    0.74851   0.71363    0.000
 6311.00    0.74593   0.71345    0.000
 6312.00    0.74191   0.71418    0.000
 6313.00    0.73810   0.71341    0.000
 6314.00    0.73559   0.71310    0.000
 6315.00    0.73446   0.71410    0.000
 6316.00    0.73394   0.71370    0.000
 6317.00    0.73328   0.71346    0.000
 6318.00    0.73228   0.71470    0.000
 6319.00    0.73115   0.71476    0.000
 6320.00    0.73015   0.71468    0.000
 6321.00    0.72924   0.71594   13.713
 6322.00    0.72804   0.71628   13.735
 6323.00    0.72620   0.71626   13.770
 6324.00    0.72371   0.71728   13.818
 6325.00    0.72095   0.71753   13.871
 6326.00    0.71850   0.71743   13.918
 6327.00    0.71679   0.71801   13.951
 6328.00    0.71600   0.71791   13.966
 6329.00    0.71611   0.71766   13.964
 6330.00    0.71688   0.71780   13.949
 6331.00    0.71788   0.71733   13.930
 6332.00    0.71861   0.71699   13.916
 6333.00    0.71897   0.71686   13.909
 6334.00    0.71954   0.71620   13.898
 6335.00    0.72141   0.71593   13.862
 6336.00    0.72522   0.71572   13.789
 6337.00    0.73040   0.71510   13.691
 6338.00    0.73525   0.71502   13.601
 6339.00    0.73803   0.71483   13.550
 6340.00    0.73825   0.71436   13.546
 6341.00    0.73675   0.71447   13.573
 6342.00    0.73508   0.71427   13.604
 6343.00    0.73433   0.71392   13.618
 6344.00    0.73501   0.71405   13.605
 6345.00    0.73706   0.71372   13.567
 6346.00    0.74007   0.71336   13.512
 6347.00    0.74333   0.71328   13.453
 6348.00    0.74594   0.71270   13.406
 6349.00    0.74729   0.71224   13.382
 6350.00    0.74727   0.71183   13.382
 6351.00    0.74620   0.71095   13.401
 6352.00    0.74440   0.71043   13.434
 6353.00    0.74181   0.70980   13.481
 6354.00    0.73808   0.70878   13.549
 6355.00    0.73306   0.70836   13.642
 6356.00    0.72729   0.70783   13.750
 6357.00    0.72206   0.70697   13.849
 6358.00    0.71884   0.70685   13.911
 6359.00    0.71826   0.70676   13.923
 6360.00    0.72002   0.70638   13.889
 6361.00    0.72311   0.70669   13.829
 6362.00    0.72643   0.70718   13.766
 6363.00    0.72897   0.70742   13.718
 6364.00    0.72989   0.70810   13.701
 6365.00    0.72914   0.70905   13.715
 6366.00    0.72767   0.70980   13.743
 6367.00    0.72716   0.71061   13.752
 6368.00    0.72876   0.71169   13.722
 6369.00    0.73213   0.71270   13.659
 6370.00    0.73558   0.71336   13.595
 6371.00    0.73736   0.71423   13.562
 6372.00    0.73697   0.71522   13.569
 6373.00    0.73526   0.71555   13.601
 6374.00    0.73360   0.71601   13.631
 6375.00    0.73276   0.71682   13.647
 6376.00    0.73268   0.71678   13.649
 6377.00    0.73277   0.71675   13.647
 6378.00    0.73256   0.71737   13.651
 6379.00    0.73184   0.71701   13.664
 6380.00    0.73065   0.71655   13.687
 6381.00    0.72921   0.71700   13.714
 6382.00    0.72789   0.71645   13.738
 6383.00    0.72714   0.71560   13.752
 6384.00    0.72710   0.71599   13.753
 6385.00    0.72733   0.71533   13.749
 6386.00    0.72690   0.71415   13.757
 6387.00    0.72515   0.71456   13.790
 6388.00    0.72235   0.71397   13.844
 6389.00    0.71973   0.71251   13.894
 6390.00    0.71864   0.71299   13.915
 6391.00    0.71930   0.71267   13.902
 6392.00    0.72067   0.71107   13.876
 6393.00    0.72108   0.71162   13.868
 6394.00    0.71980   0.71170   13.893
 6395.00    0.71726   0.71016   13.942
 6396.00    0.71479   0.71074   13.990
 6397.00    0.71332   0.71112   14.019
 6398.00    0.71293   0.70984   14.027
 6399.00    0.71301   0.71040   14.025
 6400.00    0.71298   0.71086   14.026
 6401.00    0.71282   0.70985   14.029
 6402.00    0.71295   0.71043   14.026
 6403.00    0.71377   0.71070   14.010
 6404.00    0.71515   0.70985   13.983
 6405.00    0.71648   0.71051   13.957
 6406.00    0.71706   0.71053   13.946
 6407.00    0.71677   0.70964   13.951
 6408.00    0.71611   0.71042   13.964
 6409.00    0.71582   0.71037   13.970
 6410.00    0.71617   0.70936   13.963
 6411.00    0.71673   0.71020   13.952
 6412.00    0.71669   0.71036   13.953
 6413.00    0.71566   0.70932   13.973
 6414.00    0.71394   0.71009   14.007
 6415.00    0.71238   0.71062   14.037
 6416.00    0.71166   0.70973   14.052
 6417.00    0.71185   0.71027   14.048
 6418.00    0.71246   0.71116   14.036
 6419.00    0.71296   0.71055   14.026
 6420.00    0.71320   0.71079   14.021
 6421.00    0.71339   0.71182   14.018
 6422.00    0.71386   0.71147   14.008
 6423.00    0.71471   0.71143   13.992
 6424.00    0.71579   0.71238   13.971
 6425.00    0.71677   0.71219   13.952
 6426.00    0.71736   0.71197   13.940
 6427.00    0.71734   0.71271   13.940
 6428.00    0.71663   0.71256   13.954
 6429.00    0.71541   0.71231   13.978
 6430.00    0.71419   0.71290   14.002
 6431.00    0.71368   0.71272   14.012
 6432.00    0.71414   0.71254   14.003
 6433.00    0.71503   0.71307   13.985
 6434.00    0.71517   0.71290   13.983
 6435.00    0.71381   0.71273   14.009
 6436.00    0.71149   0.71320   14.055
 6437.00    0.70999   0.71313   14.085
 6438.00    0.71100   0.71282   14.065
 6439.00    0.71460   0.71301   13.994
 6440.00    0.71910   0.71309   13.906
 6441.00    0.72212   0.71261   13.848
 6442.00    0.72258   0.71223   13.839
 6443.00    0.72106   0.71243   13.868
 6444.00    0.71920   0.71193   13.904
 6445.00    0.71802   0.71082   13.927
 6446.00    0.71746   0.71101   13.938
 6447.00    0.71654   0.71083   13.956
 6448.00    0.71462   0.70915   13.993
 6449.00    0.71186   0.70916   14.048
 6450.00    0.70917   0.70962   14.101
 6451.00    0.70742   0.70774   14.136
 6452.00    0.70687   0.70741   14.147
 6453.00    0.70716   0.70862   14.141
 6454.00    0.70774   0.70700   14.130
 6455.00    0.70833   0.70623   14.118
 6456.00    0.70896   0.70801   14.105
 6457.00    0.70977   0.70700   14.089
 6458.00    0.71063   0.70577   14.072
 6459.00    0.71110   0.70775   14.063
 6460.00    0.71064   0.70750   14.072
 6461.00    0.70920   0.70593   14.100
 6462.00    0.70739   0.70770   14.136
 6463.00    0.70628   0.70816   14.159
 6464.00    0.70651   0.70644   14.154
 6465.00    0.70792   0.70766   14.126
 6466.00    0.70965   0.70861   14.091
 6467.00    0.71087   0.70691   14.067
 6468.00    0.71124   0.70737   14.060
 6469.00    0.71100   0.70849   14.065
 6470.00    0.71058   0.70697   14.073
 6471.00    0.71034   0.70661   14.078
 6472.00    0.71053   0.70757   14.074
 6473.00    0.71119   0.70629   14.061
 6474.00    0.71211   0.70516   14.043
 6475.00    0.71274   0.70567   14.030
 6476.00    0.71249   0.70457   14.035
 6477.00    0.71113   0.70282   14.062
 6478.00    0.70897   0.70266   14.105
 6479.00    0.70676   0.70159   14.149
 6480.00    0.70523   0.69936   14.180
 6481.00    0.70499   0.69848   14.185
 6482.00    0.70642   0.69723   14.156
 6483.00    0.70945   0.69463   14.095
 6484.00    0.71340   0.69317   14.017
 6485.00    0.71703   0.69169   13.946
 6486.00    0.71903   0.68893   13.908
 6487.00    0.71854   0.68725   13.917
 6488.00    0.71521   0.68577   13.982
 6489.00    0.70915   0.68327   14.101
 6490.00    0.70087   0.68187   14.268
 6491.00    0.69131   0.68087   14.465
 6492.00    0.68161   0.67912   14.671
 6493.00    0.67274   0.67854   14.865
 6494.00    0.66534   0.67846   15.030
 6495.00    0.65981   0.67785   15.156
 6496.00    0.65644   0.67832   15.234
 6497.00    0.65548   0.67930   15.256
 6498.00    0.65709   0.67977   15.219
 6499.00    0.66104   0.68111   15.128
 6500.00    0.66653   0.68284   15.003
 6501.00    0.67226   0.68393   14.875
 6502.00    0.67709   0.68559   14.769
 6503.00    0.68062   0.68753   14.693
 6504.00    0.68327   0.68862   14.636
 6505.00    0.68568   0.69001   14.584
 6506.00    0.68799   0.69167   14.535
 6507.00    0.68967   0.69235   14.500
 6508.00    0.68998   0.69310   14.493
 6509.00    0.68869   0.69423   14.520
 6510.00    0.68636   0.69445   14.570
 6511.00    0.68402   0.69456   14.619
 6512.00    0.68238   0.69517   14.654
 6513.00    0.68150   0.69512   14.673
 6514.00    0.68088   0.69488   14.687
 6515.00    0.68016   0.69513   14.702
 6516.00    0.67948   0.69505   14.717
 6517.00    0.67941   0.69475   14.719
 6518.00    0.68043   0.69481   14.697
 6519.00    0.68241   0.69478   14.654
 6520.00    0.68461   0.69461   14.607
 6521.00    0.68616   0.69462   14.574
 6522.00    0.68674   0.69459   14.562
 6523.00    0.68666   0.69451   14.563
 6524.00    0.68650   0.69450   14.567
 6525.00    0.68642   0.69438   14.568
 6526.00    0.68603   0.69424   14.577
 6527.00    0.68461   0.69421   14.607
 6528.00    0.68200   0.69392    0.000
 6529.00    0.67883   0.69350    0.000
 6530.00    0.67639   0.69335    0.000
 6531.00    0.67563   0.69283    0.000
 6532.00    0.67664   0.69195    0.000
 6533.00    0.67870   0.69149    0.000
 6534.00    0.68097   0.69068    0.000
 6535.00    0.68295   0.68922    0.000
 6536.00    0.68460   0.68821    0.000
 6537.00    0.68632   0.68694    0.000
 6538.00    0.68896   0.68478    0.000
 6539.00    0.69381   0.68297    0.000
 6540.00    0.70218   0.68110    0.000
 6541.00    0.71444   0.67813    0.000
 6542.00    0.72990   0.67523    0.000
 6543.00    0.74700   0.67262    0.000
 6544.00    0.76406   0.66889    0.000
 6545.00    0.77950   0.66459    0.000
 6546.00    0.79183   0.66101    0.000
 6547.00    0.79967   0.65675    0.000
 6548.00    0.80174   0.65083    0.000
 6549.00    0.79703   0.64593    0.000
 6550.00    0.78605   0.64174    0.000
 6551.00    0.77179   0.63482    0.000
 6552.00    0.75980   0.62859    0.000
 6553.00    0.75776   0.62509    0.000
 6554.00    0.77515   0.61851    0.000
 6555.00    0.82302   0.61165    0.000
 6556.00    0.91032   0.60948    0.000
 6557.00    1.03714   0.60487    0.000
 6558.00    1.19348   0.59866    0.000
 6559.00    1.36146   0.59832    0.000
 6560.00    1.52159   0.59720    0.000
 6561.00    1.65466   0.59310    0.000
 6562.00    1.74264   0.59466    0.000
 6563.00    1.77254   0.59743    0.000
 6564.00    1.73818   0.59639    0.000
 6565.00    1.64056   0.59947    0.000
 6566.00    1.48974   0.60520    0.000
 6567.00    1.30625   0.60714    0.000
 6568.00    1.12026   0.61104    0.000
 6569.00    0.96039   0.61797    0.000
 6570.00    0.84107   0.62182    0.000
 6571.00    0.76147   0.62588    0.000
 6572.00    0.71195   0.63239    0.000
 6573.00    0.68505   0.63681    0.000
 6574.00    0.67740   0.64054    0.000
 6575.00    0.68854   0.64566    0.000
 6576.00    0.71783   0.64951    0.000
 6577.00    0.76349   0.65265    0.000
 6578.00    0.82247   0.65618    0.000
 6579.00    0.88976   0.65886    0.000
 6580.00    0.95805   0.66130    0.000
 6581.00    1.01818   0.66351    0.000
 6582.00    1.06200   0.66485    0.000
 6583.00    1.08435   0.66661    0.000
 6584.00    1.08314   0.66808    0.000
 6585.00    1.05934   0.66842    0.000
 6586.00    1.01685   0.66955    0.000
 6587.00    0.96245   0.67059    0.000
 6588.00    0.90400   0.67035    0.000
 6589.00    0.84749   0.67106    0.000
 6590.00    0.79662   0.67204    0.000
 6591.00    0.75315   0.67167    0.000
 6592.00    0.71808   0.67207    0.000
 6593.00    0.69185   0.67308    0.000
 6594.00    0.67433   0.67289    0.000
 6595.00    0.66463   0.67313    0.000
 6596.00    0.66097   0.67418    0.000
 6597.00    0.66084   0.67429    0.000
 6598.00    0.66209   0.67436    0.000
 6599.00    0.66352   0.67536    0.000
 6600.00    0.66493   0.67580    0.000
 6601.00    0.66645   0.67585    0.000
 6602.00    0.66794   0.67663    0.000
 6603.00    0.66894   0.67720    0.000
 6604.00    0.66901   0.67735    0.000
 6605.00    0.66822   0.67796    0.000
 6606.00    0.66720   0.67853    0.000
 6607.00    0.66686   0.67878    0.000
 6608.00    0.66762   0.67928    0.000
 6609.00    0.66924   0.67980   14.942
 6610.00    0.67102   0.68011   14.903
 6611.00    0.67263   0.68050   14.867
 6612.00    0.67439   0.68091   14.828
 6613.00    0.67715   0.68110   14.768
 6614.00    0.68139   0.68129   14.676
 6615.00    0.68672   0.68159   14.562
 6616.00    0.69188   0.68153   14.453
 6617.00    0.69558   0.68140   14.377
 6618.00    0.69715   0.68154   14.344
 6619.00    0.69663   0.68117   14.355
 6620.00    0.69449   0.68068   14.399
 6621.00    0.69121   0.68067   14.467
 6622.00    0.68725   0.68004   14.551
 6623.00    0.68305   0.67917   14.640
 6624.00    0.67913   0.67911   14.725
 6625.00    0.67611   0.67847   14.790
 6626.00    0.67455   0.67734   14.825
 6627.00    0.67446   0.67729   14.827
 6628.00    0.67514   0.67688   14.812
 6629.00    0.67534   0.67564   14.807
 6630.00    0.67427   0.67563   14.831
 6631.00    0.67222   0.67566   14.876
 6632.00    0.67042   0.67439   14.916
 6633.00    0.67005   0.67433   14.924
 6634.00    0.67133   0.67493   14.896
 6635.00    0.67349   0.67386   14.848
 6636.00    0.67544   0.67356   14.805
 6637.00    0.67660   0.67452   14.780
 6638.00    0.67705   0.67393   14.770
 6639.00    0.67725   0.67337   14.766
 6640.00    0.67758   0.67430   14.758
 6641.00    0.67823   0.67423   14.744
 6642.00    0.67918   0.67350   14.724
 6643.00    0.68030   0.67410   14.699
 6644.00    0.68135   0.67444   14.677
 6645.00    0.68204   0.67368   14.662
 6646.00    0.68211   0.67378   14.660
 6647.00    0.68144   0.67433   14.675
 6648.00    0.68003   0.67367   14.705
 6649.00    0.67800   0.67322   14.749
 6650.00    0.67553   0.67371   14.803
 6651.00    0.67286   0.67331   14.862
 6652.00    0.67034   0.67237   14.918
 6653.00    0.66836   0.67257   14.962
 6654.00    0.66742   0.67247   14.983
 6655.00    0.66790   0.67128   14.972
 6656.00    0.66961   0.67108   14.934
 6657.00    0.67177   0.67129   14.886
 6658.00    0.67325   0.67026   14.853
 6659.00    0.67340   0.66972   14.850
 6660.00    0.67226   0.66997   14.875
 6661.00    0.67051   0.66931   14.914
 6662.00    0.66885   0.66874   14.951
 6663.00    0.66767   0.66883   14.977
 6664.00    0.66711   0.66848   14.990
 6665.00    0.66711   0.66811   14.990
 6666.00    0.66751   0.66795   14.981
 6667.00    0.66807   0.66764   14.969
 6668.00    0.66857   0.66765   14.957
 6669.00    0.66899   0.66733   14.948
 6670.00    0.66944   0.66665   14.938
 6671.00    0.67016   0.66691   14.922
 6672.00    0.67120   0.66695   14.899
 6673.00    0.67242   0.66608   14.872
 6674.00    0.67359   0.66622   14.846
 6675.00    0.67450   0.66657   14.826
 6676.00    0.67507   0.66579   14.813
 6677.00    0.67533   0.66573   14.808
 6678.00    0.67539   0.66638   14.806
 6679.00    0.67550   0.66591   14.804
 6680.00    0.67592   0.66563   14.795
 6681.00    0.67673   0.66639   14.777
 6682.00    0.67758   0.66634   14.758
 6683.00    0.67770   0.66599   14.756
 6684.00    0.67648   0.66654   14.782
 6685.00    0.67402   0.66669   14.836
 6686.00    0.67121   0.66643   14.898
 6687.00    0.66918   0.66671   14.944
 6688.00    0.66851   0.66669   14.959
 6689.00    0.66906   0.66650   14.946
 6690.00    0.67018   0.66659   14.921
 6691.00    0.67129   0.66643   14.897
 6692.00    0.67204   0.66630   14.880
 6693.00    0.67228   0.66621   14.875
 6694.00    0.67197   0.66586   14.882
 6695.00    0.67114   0.66565   14.900
 6696.00    0.66985   0.66537    0.000
 6697.00    0.66824   0.66498    0.000
 6698.00    0.66651   0.66477    0.000
 6699.00    0.66496   0.66435    0.000
 6700.00    0.66385   0.66391    0.000
 6701.00    0.66338   0.66368    0.000
 6702.00    0.66363   0.66307    0.000
 6703.00    0.66468   0.66246    0.000
 6704.00    0.66670   0.66226    0.000
 6705.00    0.66997   0.66156    0.000
 6706.00    0.67499   0.66067    0.000
 6707.00    0.68285   0.66039    0.000
 6708.00    0.69525   0.65986    0.000
 6709.00    0.71417   0.65870    0.000
 6710.00    0.74031   0.65822    0.000
 6711.00    0.77252   0.65814    0.000
 6712.00    0.80794   0.65718    0.000
 6713.00    0.84304   0.65655    0.000
 6714.00    0.87441   0.65666    0.000
 6715.00    0.89878   0.65610    0.000
 6716.00    0.91344   0.65567    0.000
 6717.00    0.91672   0.65596    0.000
 6718.00    0.90796   0.65577    0.000
 6719.00    0.88800   0.65562    0.000
 6720.00    0.85968   0.65607    0.000
 6721.00    0.82799   0.65620    0.000
 6722.00    0.79897   0.65628    0.000
 6723.00    0.77731   0.65678    0.000
 6724.00    0.76574   0.65706    0.000
 6725.00    0.76503   0.65715    0.000
 6726.00    0.77417   0.65757    0.000
 6727.00    0.79037   0.65785    0.000
 6728.00    0.80936   0.65782    0.000
 6729.00    0.82688   0.65804    0.000
 6730.00    0.83960   0.65819    0.000
 6731.00    0.84519   0.65789    0.000
 6732.00    0.84238   0.65786    0.000
 6733.00    0.83109   0.65794    0.000
 6734.00    0.81238   0.65741    0.000
 6735.00    0.78822   0.65693    0.000
 6736.00    0.76113   0.65700    0.000
 6737.00    0.73407   0.65660    0.000
 6738.00    0.70999   0.65574    0.000
 6739.00    0.69077   0.65563    0.000
 6740.00    0.67696   0.65557    0.000
 6741.00    0.66796   0.65466    0.000
 6742.00    0.66275   0.65423    0.000
 6743.00    0.66009   0.65457    0.000
 6744.00    0.65860   0.65402    0.000
 6745.00    0.65732   0.65332    0.000
 6746.00    0.65587   0.65391    0.000
 6747.00    0.65451   0.65394    0.000
 6748.00    0.65364   0.65325    0.000
 6749.00    0.65346   0.65383    0.000
 6750.00    0.65392   0.65437    0.000
 6751.00    0.65485   0.65393    0.000
 6752.00    0.65607   0.65435    0.000
 6753.00    0.65747   0.65515   15.210
 6754.00    0.65893   0.65502   15.176
 6755.00    0.66032   0.65524   15.144
 6756.00    0.66147   0.65597   15.118
 6757.00    0.66223   0.65605   15.100
 6758.00    0.66251   0.65618   15.094
 6759.00    0.66235   0.65657   15.098
 6760.00    0.66186   0.65663   15.109
 6761.00    0.66120   0.65686   15.124
 6762.00    0.66056   0.65702   15.139
 6763.00    0.66007   0.65682   15.150
 6764.00    0.65986   0.65710   15.155
 6765.00    0.65998   0.65730   15.152
 6766.00    0.66036   0.65690   15.143
 6767.00    0.66093   0.65707   15.130
 6768.00    0.66153   0.65741   15.116
 6769.00    0.66202   0.65697   15.105
 6770.00    0.66230   0.65690   15.099
 6771.00    0.66246   0.65737   15.095
 6772.00    0.66287   0.65694   15.086
 6773.00    0.66398   0.65657   15.061
 6774.00    0.66583   0.65705   15.019
 6775.00    0.66790   0.65662   14.972
 6776.00    0.66929   0.65596   14.941
 6777.00    0.66934   0.65636   14.940
 6778.00    0.66808   0.65601   14.968
 6779.00    0.66610   0.65512   15.013
 6780.00    0.66415   0.65539   15.057
 6781.00    0.66267   0.65524   15.090
 6782.00    0.66186   0.65425   15.109
 6783.00    0.66164   0.65435   15.114
 6784.00    0.66170   0.65451   15.113
 6785.00    0.66152   0.65352   15.117
 6786.00    0.66060   0.65336   15.138
 6787.00    0.65898   0.65389   15.175
 6788.00    0.65729   0.65314   15.214
 6789.00    0.65647   0.65274   15.233
 6790.00    0.65695   0.65344   15.222
 6791.00    0.65840   0.65312   15.188
 6792.00    0.65988   0.65259   15.154
 6793.00    0.66069   0.65319   15.136
 6794.00    0.66072   0.65337   15.135
 6795.00    0.66043   0.65279   15.142
 6796.00    0.66037   0.65301   15.143
 6797.00    0.66089   0.65363   15.131
 6798.00    0.66206   0.65315   15.104
 6799.00    0.66365   0.65281   15.068
 6800.00    0.66503   0.65361   15.037
 6801.00    0.66518   0.65344   15.034
 6802.00    0.66325   0.65273   15.077
 6803.00    0.65948   0.65333   15.163
 6804.00    0.65539   0.65353   15.258
 6805.00    0.65309   0.65286   15.312
 6806.00    0.65354   0.65300   15.301
 6807.00    0.65609   0.65338   15.242
 6808.00    0.65885   0.65304   15.178
 6809.00    0.66047   0.65287   15.141
 6810.00    0.66098   0.65320   15.129
 6811.00    0.66156   0.65318   15.116
 6812.00    0.66331   0.65292   15.076
 6813.00    0.66629   0.65320   15.009
 6814.00    0.66960   0.65336   14.934
 6815.00    0.67237   0.65311   14.873
 6816.00    0.67478   0.65327   14.820
 6817.00    0.67811   0.65346   14.747
 6818.00    0.68343   0.65345   14.632
 6819.00    0.68933   0.65349   14.507
 6820.00    0.69162   0.65336   14.459
 6821.00    0.68531   0.65348   14.592
 6822.00    0.66941   0.65354   14.939
 6823.00    0.64828   0.65311   15.426
 6824.00    0.63004   0.65303   15.872
 6825.00    0.62040   0.65311   15.965
 6826.00    0.62002   0.65278   15.965
 6827.00    0.62505   0.65239   15.965
 6828.00    0.63114   0.65214   15.844
 6829.00    0.63594   0.65183   15.725
 6830.00    0.63920   0.65133   15.645
 6831.00    0.64156   0.65091   15.587
 6832.00    0.64338   0.65057   15.543
 6833.00    0.64461   0.64988   15.513
 6834.00    0.64508   0.64932   15.502
 6835.00    0.64482   0.64907   15.508
 6836.00    0.64410   0.64842   15.525
 6837.00    0.64335   0.64782   15.544
 6838.00    0.64288   0.64765   15.555
 6839.00    0.64281   0.64739   15.557
 6840.00    0.64312   0.64694   15.549
 6841.00    0.64383   0.64669   15.532
 6842.00    0.64498   0.64662   15.504
 6843.00    0.64675   0.64623   15.462
 6844.00    0.64983   0.64597   15.389
 6845.00    0.65558   0.64620   15.254
 6846.00    0.66588   0.64580   15.018
 6847.00    0.68092   0.64526   14.686
 6848.00    0.69717   0.64578   14.344
 6849.00    0.70740   0.64559   14.136
 6850.00    0.70461   0.64453   14.192
 6851.00    0.68770   0.64498   14.541
 6852.00    0.66215   0.64539   15.102
 6853.00    0.63679   0.64422   15.704
 6854.00    0.61654   0.64416   15.965
 6855.00    0.60070   0.64497   15.965
 6856.00    0.58476   0.64402   15.965
 6857.00    0.56664   0.64327   15.965
 6858.00    0.54901   0.64433   15.965
 6859.00    0.53830   0.64420   15.965
 6860.00    0.53907   0.64298   15.965
 6861.00    0.55071   0.64374   15.965
 6862.00    0.56781   0.64435   15.965
 6863.00    0.58456   0.64303   15.965
 6864.00    0.59875   0.64316   15.965
 6865.00    0.61190   0.64439   15.965
 6866.00    0.62658   0.64384   15.960
 6867.00    0.64295   0.64324   15.553
 6868.00    0.65823   0.64416   15.192
 6869.00    0.66848   0.64451   14.959
 6870.00    0.67214   0.64383   14.878
 6871.00    0.67081   0.64408   14.907
 6872.00    0.66820   0.64495   14.966
 6873.00    0.66687   0.64483   14.995
 6874.00    0.66705   0.64446   14.991
 6875.00    0.66703   0.64508   14.992
 6876.00    0.66521   0.64566   15.033
 6877.00    0.66126   0.64520   15.123
 6878.00    0.65606   0.64519   15.243
 6879.00    0.65092   0.64640   15.363
 6880.00    0.64698   0.64662   15.456
 6881.00    0.64514   0.64590   15.500
 6882.00    0.64579   0.64686   15.485
 6883.00    0.64849   0.64799   15.420
 6884.00    0.65200   0.64730   15.337
 6885.00    0.65483   0.64753   15.271
 6886.00    0.65636   0.64912   15.235
 6887.00    0.65716   0.64896   15.217
 6888.00    0.65845   0.64847   15.187
 6889.00    0.66075   0.64989   15.134
 6890.00    0.66346   0.65049   15.073
 6891.00    0.66508   0.64972   15.036
 6892.00    0.66469   0.65047   15.045
 6893.00    0.66261   0.65164   15.092
 6894.00    0.66033   0.65125   15.144
 6895.00    0.65930   0.65114   15.168
 6896.00    0.66007   0.65205   15.150
 6897.00    0.66221   0.65229   15.101
 6898.00    0.66482   0.65198   15.042
 6899.00    0.66714   0.65228   14.989
 6900.00    0.66856   0.65261   14.957
 6901.00    0.66880   0.65242   14.952
 6902.00    0.66801   0.65235   14.970
 6903.00    0.66684   0.65248   14.996
 6904.00    0.66621   0.65248   15.010
 6905.00    0.66663   0.65215   15.001
 6906.00    0.66803   0.65176   14.969
 6907.00    0.66984   0.65198   14.929
 6908.00    0.67156   0.65172   14.891
 6909.00    0.67302   0.65074   14.858
 6910.00    0.67428   0.65084   14.831
 6911.00    0.67503   0.65096   14.814
 6912.00    0.67409   0.65003   14.835
 6913.00    0.66950   0.64976   14.936
 6914.00    0.66003   0.64999   15.151
 6915.00    0.64680   0.64944   15.461
 6916.00    0.63343   0.64893   15.787
 6917.00    0.62428   0.64921   15.965
 6918.00    0.62140   0.64897   15.965
 6919.00    0.62400   0.64826   15.965
 6920.00    0.62937   0.64849   15.889
 6921.00    0.63514   0.64853   15.745
 6922.00    0.64000   0.64814   15.625
 6923.00    0.64361   0.64842   15.537
 6924.00    0.64607   0.64851   15.478
 6925.00    0.64776   0.64823   15.438
 6926.00    0.64928   0.64845   15.402
 6927.00    0.65093   0.64864   15.363
 6928.00    0.65251   0.64829   15.326
 6929.00    0.65325   0.64837   15.308
 6930.00    0.65251   0.64872   15.325
 6931.00    0.65041   0.64851   15.375
 6932.00    0.64788   0.64845   15.435
 6933.00    0.64612   0.64861   15.477
 6934.00    0.64582   0.64850   15.484
 6935.00    0.64700   0.64849   15.456
 6936.00    0.64913   0.64852   15.405
 6937.00    0.65144   0.64830   15.351
 6938.00    0.65303   0.64830   15.313
 6939.00    0.65297   0.64822   15.315
 6940.00    0.65082   0.64772   15.365
 6941.00    0.64688   0.64790   15.459
 6942.00    0.64206   0.64815   15.575
 6943.00    0.63743   0.64760   15.688
 6944.00    0.63394   0.64769   15.774
 6945.00    0.63232   0.64819   15.815
 6946.00    0.63291   0.64766   15.800
 6947.00    0.63535   0.64747   15.739
 6948.00    0.63865   0.64822   15.658
 6949.00    0.64165   0.64819   15.585
 6950.00    0.64380   0.64775   15.533
 6951.00    0.64529   0.64843   15.497
 6952.00    0.64675   0.64900   15.462
 6953.00    0.64855   0.64864   15.419
 6954.00    0.65066   0.64899   15.369
 6955.00    0.65269   0.64974   15.321
 6956.00    0.65433   0.64967   15.283
 6957.00    0.65542   0.64968   15.257
 6958.00    0.65598   0.65028   15.244
 6959.00    0.65618   0.65052   15.240
 6960.00    0.65629   0.65024   15.237
 6961.00    0.65670   0.65037   15.228
 6962.00    0.65767   0.65076   15.205
 6963.00    0.65910   0.65043   15.172
 6964.00    0.66052   0.65008   15.140
 6965.00    0.66129   0.65036   15.122
 6966.00    0.66081   0.64998   15.133
 6967.00    0.65853   0.64921   15.185
 6968.00    0.65418   0.64936   15.286
 6969.00    0.64812   0.64924   15.429
 6970.00    0.64141   0.64811   15.591
 6971.00    0.63554   0.64777   15.735
 6972.00    0.63143   0.64813   15.837
 6973.00    0.62905   0.64707   15.897
 6974.00    0.62754   0.64618   15.935
 6975.00    0.62608   0.64706   15.965
 6976.00    0.62435   0.64693   15.965
 6977.00    0.62249   0.64599   15.965
 6978.00    0.62091   0.64669   15.965
 6979.00    0.62001   0.64725   15.965
 6980.00    0.62020   0.64658   15.965
 6981.00    0.62168   0.64679   15.965
 6982.00    0.62425   0.64786   15.965
 6983.00    0.62723   0.64770   15.943
 6984.00    0.62977   0.64732   15.879
 6985.00    0.63138   0.64827   15.838
 6986.00    0.63203   0.64880   15.822
 6987.00    0.63205   0.64854   15.822
 6988.00    0.63183   0.64887   15.827
 6989.00    0.63169   0.64923   15.830
 6990.00    0.63184   0.64909   15.827
 6991.00    0.63228   0.64891   15.816
 6992.00    0.63269   0.64899   15.806
 6993.00    0.63250   0.64896   15.810
 6994.00    0.63133   0.64845   15.840
 6995.00    0.62932   0.64801   15.890
 6996.00    0.62718   0.64797   15.944
 6997.00    0.62562   0.64779   15.965
 6998.00    0.62477   0.64720   15.965
 6999.00    0.62413   0.64671   15.965
 7000.00    0.62287   0.64657   15.965
 7001.00    0.62056   0.64599   -2.000
 7002.00    0.61736   0.64542   -2.000
 7003.00    0.61380   0.64543   -2.000
 7004.00    0.61043   0.64508   -2.000
 7005.00    0.60763   0.64446   -2.000
 7006.00    0.60562   0.64443   -2.000
 7007.00    0.60420   0.64429   -2.000
 7008.00    0.60271   0.64367   -2.000
 7009.00    0.60012   0.64361   -2.000
 7010.00    0.59592   0.64372   -2.000
 7011.00    0.59092   0.64291   -2.000
 7012.00    0.58711   0.64266   -2.000
 7013.00    0.00000   0.64337   -2.000
 7014.00    0.00000   0.64311   -2.000
 7015.00    0.00000   0.64261   -2.000
 7016.00    0.00000   0.64323   -2.000
 7017.00    0.00000   0.64349   -2.000
 7018.00    0.00000   0.64292   -2.000
 7019.00    0.00000   0.64307   -2.000
 7020.00    0.00000   0.64377   -2.000
 7021.00    0.00000   0.64373   -2.000
 7022.00    0.00000   0.64363   -2.000
 7023.00    0.00000   0.64425   -2.000
 7024.00    0.00000   0.64487   -2.000
 7025.00    0.00000   0.64512   -2.000
 7026.00    0.00000   0.64535   -2.000
 7027.00    0.00000   0.64599   -2.000
 7028.00    0.00000   0.64678   -2.000
 7029.00    0.00000   0.64686   -2.000
 7030.00    0.00000   0.64701   -2.000
 7031.00    0.00000   0.64836   -2.000
 7032.00    0.00000   0.64911   -2.000
 7033.00    0.00000   0.64859   -2.000
 7034.00    0.00000   0.64943   -2.000
 7035.00    0.00000   0.65110   -2.000
 7036.00    0.00000   0.65094   -2.000
 7037.00    0.00000   0.65079   -2.000
 7038.00    0.00000   0.65224   -2.000
 7039.00    0.00000   0.65257   -2.000
 7040.00    0.00000   0.65165   -2.000
 7041.00    0.00000   0.65221   -2.000
 7042.00    0.00000   0.65295   -2.000
 7043.00    0.00000   0.65190   -2.000
 7044.00    0.00000   0.65113   -2.000
 7045.00    0.00000   0.65147   -2.000
 7046.00    0.00000   0.65086   -2.000
 7047.00    0.00000   0.64924   -2.000
 7048.00    0.00000   0.64831   -2.000
 7049.00    0.00000   0.64767   -2.000
 7050.00    0.00000   0.64604   -2.000
 7051.00    0.00000   0.64436   -2.000
 7052.00    0.00000   0.64351   -2.000
 7053.00    0.00000   0.64236   -2.000
 7054.00    0.00000   0.64045   -2.000
 7055.00    0.00000   0.63906   -2.000
 7056.00    0.00000   0.63832   -2.000
 7057.00    0.00000   0.63689   -2.000
 7058.00    0.00000   0.63534   -2.000
 7059.00    0.00000   0.63481   -2.000
 7060.00    0.00000   0.63411   -2.000
 7061.00    0.00000   0.63288   -2.000
 7062.00    0.00000   0.63242   -2.000
 7063.00    0.00000   0.63209   -2.000
 7064.00    0.00000   0.63123   -2.000
 7065.00    0.00000   0.63088   -2.000
 7066.00    0.00000   0.63089   -2.000
 7067.00    0.00000   0.63041   -2.000
 7068.00    0.00000   0.62999   -2.000
 7069.00    0.00000   0.63001   -2.000
 7070.00    0.00000   0.62967   -2.000
 7071.00    0.00000   0.62904   -2.000
 7072.00    0.00000   0.62862   -2.000
 7073.00    0.00000   0.62809   -2.000
 7074.00    0.00000   0.62736   -2.000
 7075.00    0.00000   0.62658   -2.000
 7076.00    0.00000   0.62579   -2.000
 7077.00    0.00000   0.62494   -2.000
 7078.00    0.00000   0.62368   -2.000
 7079.00    0.00000   0.62215   -2.000
 7080.00    0.00000   0.62107   -2.000
 7081.00    0.00000   0.61999   -2.000
 7082.00    0.00000   0.61810   -2.000
 7083.00    0.00000   0.61666   -2.000
 7084.00    0.00000   0.61598   -2.000
 7085.00    0.00000   0.61430   -2.000
 7086.00    0.00000   0.61270   -2.000
 7087.00    0.00000   0.61239   -2.000
 7088.00    0.00000   0.61129   -2.000
 7089.00    0.00000   0.60974   -2.000
 7090.00    0.00000   0.60945   -2.000
 7091.00    0.00000   0.60941   -2.000
 7092.00    0.00000   0.60843   -2.000
 7093.00    0.00000   0.60809   -2.000
 7094.00    0.00000   0.60888   -2.000
 7095.00    0.00000   0.60843   -2.000
 7096.00    0.00000   0.60811   -2.000
 7097.00    0.00000   0.60915   -2.000
 7098.00    0.00000   0.60933   -2.000
 7099.00    0.00000   0.60907   -2.000
 7100.00    0.00000   0.60977   -2.000
 7101.00    0.00000   0.61060   -2.000
 7102.00    0.00000   0.61045   -2.000
 7103.00    0.00000   0.61060   -2.000
 7104.00    0.00000   0.61175   -2.000
 7105.00    0.00000   0.61186   -2.000
 7106.00    0.00000   0.61152   -2.000
 7107.00    0.00000   0.61206   -2.000
 7108.00    0.00000   0.61264   -2.000
 7109.00    0.00000   0.61243   -2.000
 7110.00    0.00000   0.61222   -2.000
 7111.00    0.00000   0.61284   -2.000
 7112.00    0.00000   0.61302   -2.000
 7113.00    0.00000   0.61240   -2.000
 7114.00    0.00000   0.61246   -2.000
 7115.00    0.00000   0.61290   -2.000
 7116.00    0.00000   0.61247   -2.000
 7117.00    0.00000   0.61173   -2.000
 7118.00    0.00000   0.61200   -2.000
 7119.00    0.00000   0.61224   -2.000
 7120.00    0.00000   0.61138   -2.000
 7121.00    0.00000   0.61098   -2.000
 7122.00    0.00000   0.61139   -2.000
 7123.00    0.00000   0.61106   -2.000
 7124.00    0.00000   0.61032   -2.000
 7125.00    0.00000   0.61032   -2.000
 7126.00    0.00000   0.61040   -2.000
 7127.00    0.00000   0.60987   -2.000
 7128.00    0.00000   0.60966   -2.000
 7129.00    0.00000   0.61008   -2.000
 7130.00    0.00000   0.61004   -2.000
 7131.00    0.00000   0.60971   -2.000
 7132.00    0.00000   0.60999   -2.000
 7133.00    0.00000   0.61020   -2.000
 7134.00    0.00000   0.61022   -2.000
 7135.00    0.00000   0.61031   -2.000
 7136.00    0.00000   0.61025   -2.000
 7137.00    0.00000   0.61048   -2.000
 7138.00    0.00000   0.61096   -2.000
 7139.00    0.00000   0.61105   -2.000
 7140.00    0.00000   0.61098   -2.000
 7141.00    0.00000   0.61161   -2.000
 7142.00    0.00000   0.61190   -2.000
 7143.00    0.00000   0.61117   -2.000
 7144.00    0.00000   0.61169   -2.000
 7145.00    0.00000   0.61268   -2.000
 7146.00    0.00000   0.61202   -2.000
 7147.00    0.00000   0.61196   -2.000
 7148.00    0.00000   0.61329   -2.000
 7149.00    0.00000   0.61325   -2.000
 7150.00    0.00000   0.61249   -2.000
 7151.00    0.00000   0.61354   -2.000
 7152.00    0.00000   0.61420   -2.000
 7153.00    0.00000   0.61293   -2.000
 7154.00    0.00000   0.61318   -2.000
 7155.00    0.00000   0.61450   -2.000
 7156.00    0.00000   0.61402   -2.000
 7157.00    0.00000   0.61357   -2.000
 7158.00    0.00000   0.61434   -2.000
 7159.00    0.00000   0.61429   -2.000
 7160.00    0.00000   0.61346   -2.000
 7161.00    0.00000   0.61375   -2.000
 7162.00    0.00000   0.61433   -2.000
 7163.00    0.00000   0.61378   -2.000
 7164.00    0.00000   0.61346   -2.000
 7165.00    0.00000   0.61383   -2.000
 7166.00    0.00000   0.61395   -2.000
 7167.00    0.00000   0.61371   -2.000
 7168.00    0.00000   0.61352   -2.000
 7169.00    0.00000   0.61348   -2.000
 7170.00    0.00000   0.61320   -2.000
 7171.00    0.00000   0.61290   -2.000
 7172.00    0.00000   0.61301   -2.000
 7173.00    0.00000   0.61329   -2.000
 7174.00    0.00000   0.61276   -2.000
 7175.00    0.00000   0.61177   -2.000
 7176.00    0.00000   0.61182   -2.000
 7177.00    0.00000   0.61184   -2.000
 7178.00    0.00000   0.61098   -2.000
 7179.00    0.00000   0.61060   -2.000
 7180.00    0.00000   0.61079   -2.000
 7181.00    0.00000   0.61014   -2.000
 7182.00    0.00000   0.60914   -2.000
 7183.00    0.00000   0.60961   -2.000
 7184.00    0.00000   0.60964   -2.000
 7185.00    0.00000   0.60832   -2.000
 7186.00    0.00000   0.60825   -2.000
 7187.00    0.00000   0.60883   -2.000
 7188.00    0.00000   0.60838   -2.000
 7189.00    0.00000   0.60803   -2.000
 7190.00    0.00000   0.60873   -2.000
 7191.00    0.00000   0.60862   -2.000
 7192.00    0.00000   0.60773   -2.000
 7193.00    0.00000   0.60853   -2.000
 7194.00    0.00000   0.60904   -2.000
 7195.00    0.00000   0.60815   -2.000
 7196.00    0.00000   0.60851   -2.000
 7197.00    0.00000   0.60932   -2.000
 7198.00    0.00000   0.60891   -2.000
 7199.00    0.00000   0.60883   -2.000
 7200.00    0.00000   0.60976   -2.000
 7201.00    0.00000   0.60972   -2.000
 7202.00    0.00000   0.60910   -2.000
 7203.00    0.00000   0.60987   -2.000
 7204.00    0.00000   0.61035   -2.000
 7205.00    0.00000   0.61000   -2.000
 7206.00    0.00000   0.61063   -2.000
 7207.00    0.00000   0.61120   -2.000
 7208.00    0.00000   0.61115   -2.000
 7209.00    0.00000   0.61174   -2.000
 7210.00    0.00000   0.61266   -2.000
 7211.00    0.00000   0.61271   -2.000
 7212.00    0.00000   0.61284   -2.000
 7213.00    0.00000   0.61395   -2.000
 7214.00    0.00000   0.61446   -2.000
 7215.00    0.00000   0.61496   -2.000
 7216.00    0.00000   0.61617   -2.000
 7217.00    0.00000   0.61666   -2.000
 7218.00    0.00000   0.61688   -2.000
