###################################################################
## OUTPUT of StarlightChains_v04.for    [Cid@UFSC - 01/Apr/2007] ##
###################################################################

## Some input info
2007hj.txt                               [arq_obs]
Base.CB07.vall.4m                        [arq_base]
Masks.EmLines.NEW.gm                     [arq_masks]
StCv04.C11.config                        [arq_config]
   66                                    [N_base]
    0                                    [N_YAV_components = # of components with extra extinction!]
    0                                    [i_FitPowerLaw (1/0 = Yes/No)]
-9.99                                    [alpha_PowerLaw]
CCM                                      [red_law_option]
 1.458241                                [q_norm = A(l_norm)/A(V)]

## (Re)Sampling Parameters
 3741.00                                 [l_ini (A)]
 7218.00                                 [l_fin (A)]
    1.00                                 [dl    (A)]     (OBS: dl_cushion =    50.00 A)

## Normalization info
 4020.00                                 [l_norm (A) - for base]
 4010.00                                 [llow_norm (A) - window for f_obs]
 4060.00                                 [lupp_norm (A) - window for f_obs]
2.149099E-16                             [fobs_norm (in input units)]

## S/N
 3691.00                                 [llow_SN (A) - window for S/N]
 7268.00                                 [lupp_SN (A) - window for S/N]
   4.559                                 [S/N in S/N window]
   4.243                                 [S/N in norm. window]
  10.000                                 [S/N_err in S/N window]
   9.309                                 [S/N_err in norm. window]
  1.0000                                 [fscale_chi2]

## etc...
    -2007335                             [idum_orig]
  2384                                   [NOl_eff]
  2364                                   [Nl_eff]
    20    NSIGMA                         [Ntot_cliped & clip_method]
   740250                                [Nglobal_steps]
   7                                     [N_chains]
  13                                     [NEX0s_base = N_base in EX0s-fits]
 0   0   1      124   2.0   1.839E+01    [Clip-Bug, RC-Crash & Burn-In warning-flags, n_censored_weights, wei_nsig_threshold & wei_limit]
    10      9.737      9.230      0.507  [idt_all, wdt_TotTime, wdt_UsrTime & wdt_SysTime (sec)]

## Synthesis Results - Best model ##

 3.02945E-01                             [chi2/Nl_eff]
     3.95871                             [adev (%)]

   100.97835                             [sum-of-x (%)]
 1.09076E-16                             [Flux_tot (units of input spectrum!)]
 1.11585E-11                             [Mini_tot (???)]
 5.58374E-12                             [Mcor_tot (???)]

-127.70                                  [v0_min  (km/s)]
 244.79                                  [vd_min  (km/s)]
-0.5122                                  [AV_min  (mag)]
 0.0000                                  [YAV_min (mag)]

# j     x_j(%)      Mini_j(%)     Mcor_j(%)     age_j(yr)     Z_j      (L/M)_j    YAV?  Mstars   component_j        a/Fe...       SSP_chi2r SSP_adev(%)   SSP_AV   SSP_x(%)
  1      0.0000     0.0000E+00    0.0000E+00    1.000000E+06  0.00400  1.094E-02    0   1.0000   age020_m42            0.0000     2.3212E+00    10.6149   3.7287    74.5699
  2      0.0000     0.0000E+00    0.0000E+00    3.160000E+06  0.00400  4.007E-02    0   0.9999   age045_m42            0.0000     1.8169E+00     9.3521   2.9476    81.8397
  3      0.0000     0.0000E+00    0.0000E+00    5.010000E+06  0.00400  2.539E-02    0   0.9488   age055_m42            0.0000     2.0512E+00     9.9532   3.2942    78.8035
  4      0.0000     0.0000E+00    0.0000E+00    6.610000E+06  0.00400  2.620E-02    0   0.9220   age061_m42            0.0000     1.8354E+00     9.3794   2.8722    82.0499
  5      0.0000     0.0000E+00    0.0000E+00    1.000000E+07  0.00400  1.322E-02    0   0.8862   age070_m42            0.0000     2.1121E+00    10.6616   2.6031    82.9130
  6      0.0000     0.0000E+00    0.0000E+00    1.445000E+07  0.00400  7.883E-03    0   0.8571   age078_m42            0.0000     2.2248E+00    10.8882   2.9439    80.3005
  7      0.0000     0.0000E+00    0.0000E+00    2.512000E+07  0.00400  5.251E-03    0   0.8174   age090_m42            0.0000     2.1404E+00    10.8471   2.4707    83.4056
  8      0.0000     0.0000E+00    0.0000E+00    4.000000E+07  0.00400  3.649E-03    0   0.7851   age104_m42            0.0000     1.9926E+00    10.4114   2.2299    84.7033
  9      0.0000     0.0000E+00    0.0000E+00    5.500000E+07  0.00400  3.098E-03    0   0.7629   age110_m42            0.0000     1.8153E+00     9.6083   2.3688    85.4764
 10      0.0000     0.0000E+00    0.0000E+00    1.015200E+08  0.00400  2.228E-03    0   0.7207   age116_m42            0.0000     1.7139E+00     9.1283   2.3784    86.1974
 11      0.0000     0.0000E+00    0.0000E+00    2.861200E+08  0.00400  1.093E-03    0   0.6648   age125_m42            0.0000     1.6493E+00     9.2702   1.7895    89.4805
 12      0.0000     0.0000E+00    0.0000E+00    5.088000E+08  0.00400  6.597E-04    0   0.6365   age130_m42            0.0000     1.4191E+00     8.3114   1.7590    91.3601
 13      0.0000     0.0000E+00    0.0000E+00    1.434000E+09  0.00400  2.132E-04    0   0.5798   age139_m42            0.0000     9.1280E-01     6.8482   0.7545    94.9862
 14      0.0000     0.0000E+00    0.0000E+00    4.250000E+09  0.00400  5.895E-05    0   0.5377   age158_m42            0.0000     7.2154E-01     5.9934   0.3149    91.6171
 15      0.0000     0.0000E+00    0.0000E+00    7.500000E+09  0.00400  3.510E-05    0   0.5212   age171_m42            0.0000     6.3432E-01     5.5637   0.1169    91.5854
 16      0.0000     0.0000E+00    0.0000E+00    1.300000E+10  0.00400  2.005E-05    0   0.5034   age193_m42            0.0000     5.7858E-01     5.2239  -0.0568    91.5833
 17      0.0000     0.0000E+00    0.0000E+00    1.800000E+10  0.00400  1.525E-05    0   0.4967   age213_m42            0.0000     6.0639E-01     5.3526  -0.0745    90.9369
 18      0.0000     0.0000E+00    0.0000E+00    1.000000E+06  0.00800  1.238E-02    0   1.0000   age020_m52            0.0000     2.3220E+00    10.6099   3.7250    74.7172
 19      0.0000     0.0000E+00    0.0000E+00    3.160000E+06  0.00800  3.074E-02    0   0.9966   age045_m52            0.0000     2.2801E+00    10.4946   3.6452    75.5168
 20      0.0000     0.0000E+00    0.0000E+00    5.010000E+06  0.00800  2.668E-02    0   0.9443   age055_m52            0.0000     2.1237E+00    10.1423   3.3843    77.8071
 21      0.0000     0.0000E+00    0.0000E+00    6.610000E+06  0.00800  2.136E-02    0   0.9177   age061_m52            0.0000     1.9199E+00    10.2941   2.0984    84.1864
 22      0.0000     0.0000E+00    0.0000E+00    1.000000E+07  0.00800  1.215E-02    0   0.8827   age070_m52            0.0000     2.2882E+00    11.3041   2.7931    82.1711
 23      0.0000     0.0000E+00    0.0000E+00    1.445000E+07  0.00800  8.717E-03    0   0.8552   age078_m52            0.0000     2.1793E+00    10.8021   2.9055    81.5721
 24      0.0000     0.0000E+00    0.0000E+00    2.512000E+07  0.00800  5.592E-03    0   0.8162   age090_m52            0.0000     2.1261E+00    10.8423   2.5306    84.5359
 25      0.0000     0.0000E+00    0.0000E+00    4.000000E+07  0.00800  3.896E-03    0   0.7841   age104_m52            0.0000     1.9558E+00    10.2806   2.4273    85.9178
 26      0.0000     0.0000E+00    0.0000E+00    1.015200E+08  0.00800  2.148E-03    0   0.7226   age116_m52            0.0000     1.7342E+00     9.4182   2.3482    86.7052
 27      0.0000     0.0000E+00    0.0000E+00    2.861200E+08  0.00800  9.925E-04    0   0.6683   age125_m52            0.0000     1.4177E+00     8.2919   1.8220    92.2733
 28      5.4266     1.6725E-01    2.0515E-01    9.047900E+08  0.00800  3.141E-04    0   0.6138   age135_m52            0.0000     7.9072E-01     6.3655   0.9651    99.2492
 29      0.0000     0.0000E+00    0.0000E+00    1.434000E+09  0.00800  1.719E-04    0   0.5853   age139_m52            0.0000     6.9176E-01     5.9854   0.3970    96.8254
 30      0.0000     0.0000E+00    0.0000E+00    2.500000E+09  0.00800  7.872E-05    0   0.5600   age150_m52            0.0000     5.3466E-01     5.1224   0.1182    95.0445
 31      0.0000     0.0000E+00    0.0000E+00    4.250000E+09  0.00800  4.336E-05    0   0.5426   age158_m52            0.0000     5.5439E-01     5.1767   0.1048    94.0867
 32      0.0000     0.0000E+00    0.0000E+00    6.250000E+09  0.00800  3.159E-05    0   0.5319   age166_m52            0.0000     4.5433E-01     4.6289  -0.1183    95.2110
 33      0.0000     0.0000E+00    0.0000E+00    1.300000E+10  0.00800  1.361E-05    0   0.5073   age193_m52            0.0000     3.7620E-01     4.2131  -0.6126    96.0013
 34     23.6220     2.3131E+01    2.3066E+01    1.800000E+10  0.00800  9.886E-06    0   0.4990   age213_m52            0.0000     3.7099E-01     4.2462  -0.7403    96.5889
 35      0.0000     0.0000E+00    0.0000E+00    1.000000E+06  0.02000  1.544E-02    0   1.0000   age020_m62            0.0000     2.3396E+00    10.6496   3.7236    74.8083
 36      0.0000     0.0000E+00    0.0000E+00    3.160000E+06  0.02000  3.762E-02    0   0.9858   age045_m62            0.0000     2.3295E+00    10.6073   3.6612    75.5233
 37      0.0000     0.0000E+00    0.0000E+00    5.010000E+06  0.02000  3.296E-02    0   0.9342   age055_m62            0.0000     1.9466E+00     9.5793   3.2417    80.3003
 38      0.0000     0.0000E+00    0.0000E+00    8.710000E+06  0.02000  1.154E-02    0   0.8861   age067_m62            0.0000     3.3731E+00    14.9052   2.2793    82.1950
 39      0.0000     0.0000E+00    0.0000E+00    1.445000E+07  0.02000  7.663E-03    0   0.8472   age078_m62            0.0000     2.4765E+00    12.2235   2.4419    83.7115
 40      0.0000     0.0000E+00    0.0000E+00    2.512000E+07  0.02000  4.532E-03    0   0.8099   age090_m62            0.0000     2.5287E+00    12.3621   2.4309    83.5455
 41      0.0000     0.0000E+00    0.0000E+00    5.500000E+07  0.02000  2.733E-03    0   0.7595   age110_m62            0.0000     1.9921E+00    10.3639   2.4154    85.0917
 42      0.0000     0.0000E+00    0.0000E+00    1.609000E+08  0.02000  1.369E-03    0   0.6985   age120_m62            0.0000     1.6753E+00     9.0807   2.2158    89.3076
 43      0.0000     0.0000E+00    0.0000E+00    2.861200E+08  0.02000  9.013E-04    0   0.6714   age125_m62            0.0000     1.4690E+00     8.2868   1.9326    93.4619
 44     23.0728     4.4422E-01    5.7250E-01    5.088000E+08  0.02000  5.028E-04    0   0.6449   age130_m62            0.0000     1.0368E+00     6.9356   1.5106    98.3438
 45      0.0000     0.0000E+00    0.0000E+00    9.047900E+08  0.02000  2.428E-04    0   0.6179   age135_m62            0.0000     6.7255E-01     5.7865   0.9081    98.8146
 46      0.0000     0.0000E+00    0.0000E+00    1.434000E+09  0.02000  1.263E-04    0   0.5908   age139_m62            0.0000     5.8434E-01     5.3609   0.4652    97.4723
 47      0.0000     0.0000E+00    0.0000E+00    2.500000E+09  0.02000  5.985E-05    0   0.5673   age150_m62            0.0000     4.8361E-01     4.8211   0.0862    97.0066
 48      0.0007     1.9307E-04    2.1097E-04    4.250000E+09  0.02000  3.271E-05    0   0.5468   age158_m62            0.0000     3.8046E-01     4.3692  -0.2470    97.7693
 49      0.0000     0.0000E+00    0.0000E+00    1.000000E+10  0.02000  1.360E-05    0   0.5167   age181_m62            0.0000     3.8709E-01     4.5088  -0.6328    99.3723
 50     26.8294     3.6457E+01    3.6523E+01    1.800000E+10  0.02000  7.124E-06    0   0.5013   age213_m62            0.0000     4.7857E-01     5.1124  -0.8665    99.8835
 51      0.0000     0.0000E+00    0.0000E+00    1.000000E+06  0.05000  2.592E-02    0   0.9998   age020_m72            0.0000     2.4025E+00    10.8029   3.7200    74.6395
 52      0.0000     0.0000E+00    0.0000E+00    3.160000E+06  0.05000  4.845E-02    0   0.9577   age045_m72            0.0000     2.1686E+00    10.1656   3.5277    77.1674
 53      0.0000     0.0000E+00    0.0000E+00    5.010000E+06  0.05000  3.072E-02    0   0.9147   age055_m72            0.0000     2.4266E+00    11.6398   3.0404    80.3141
 54      0.0000     0.0000E+00    0.0000E+00    6.610000E+06  0.05000  1.455E-02    0   0.8877   age061_m72            0.0000     4.2453E+00    17.2762   2.3304    82.2099
 55      0.0000     0.0000E+00    0.0000E+00    1.000000E+07  0.05000  9.074E-03    0   0.8524   age070_m72            0.0000     2.5711E+00    11.9811   3.2203    80.1515
 56      0.0000     0.0000E+00    0.0000E+00    2.512000E+07  0.05000  4.250E-03    0   0.7902   age090_m72            0.0000     2.3146E+00    11.3432   2.8973    82.5554
 57      0.0000     0.0000E+00    0.0000E+00    4.000000E+07  0.05000  3.087E-03    0   0.7618   age104_m72            0.0000     2.2956E+00    11.3487   2.6593    84.2867
 58      0.0000     0.0000E+00    0.0000E+00    1.015200E+08  0.05000  1.700E-03    0   0.7096   age116_m72            0.0000     1.8361E+00     9.7027   2.3674    88.3799
 59      0.0000     0.0000E+00    0.0000E+00    2.861200E+08  0.05000  7.384E-04    0   0.6633   age125_m72            0.0000     1.2599E+00     7.5794   1.7782    95.9370
 60      0.0000     0.0000E+00    0.0000E+00    5.088000E+08  0.05000  3.819E-04    0   0.6372   age130_m72            0.0000     8.2780E-01     6.2441   1.2551    99.3098
 61      0.0000     0.0000E+00    0.0000E+00    9.047900E+08  0.05000  1.676E-04    0   0.6110   age135_m72            0.0000     5.4916E-01     5.2689   0.5412    98.8817
 62      0.0000     0.0000E+00    0.0000E+00    1.434000E+09  0.05000  8.837E-05    0   0.5874   age139_m72            0.0000     4.6931E-01     4.7169   0.0744    99.0015
 63      0.0000     0.0000E+00    0.0000E+00    2.500000E+09  0.05000  4.233E-05    0   0.5598   age150_m72            0.0000     3.8298E-01     4.4152  -0.2585    99.1869
 64      0.0000     0.0000E+00    0.0000E+00    6.250000E+09  0.05000  1.435E-05    0   0.5249   age166_m72            0.0000     4.0695E-01     4.7030  -0.7350    99.3006
 65     11.1972     1.6643E+01    1.6749E+01    1.300000E+10  0.05000  6.513E-06    0   0.5036   age193_m72            0.0000     5.6089E-01     5.5662  -1.0000   100.1819
 66     10.8296     2.3158E+01    2.2885E+01    1.800000E+10  0.05000  4.527E-06    0   0.4945   age213_m72            0.0000     8.6515E-01     6.6886  -1.0000    94.2432


## Synthesis Results - Average & Chains ##

# j      x_j: min, <> & last-chain-values for 1 ...  7 chains
  1      0.0000      0.0269      0.0000      0.0000      0.0000      0.0000      0.0000      0.0000      0.0000
  2      0.0000      0.0614      0.0000      0.0000      0.0000      0.0000      0.0000      0.0000      0.0000
  3      0.0000      0.0629      0.0000      0.0000      0.0000      0.0000      0.0000      0.0000      0.0000
  4      0.0000      0.0317      0.0000      0.0000      0.0000      0.0000      0.0000      0.0000      0.0000
  5      0.0000      0.0547      0.0000      0.0000      0.0000      0.0000      0.0000      0.0000      0.0000
  6      0.0000      0.0149      0.0000      0.0000      0.0000      0.0000      0.0000      0.0000      0.0000
  7      0.0000      0.0220      0.0000      0.0000      0.0000      0.0000      0.0000      0.0000      0.0000
  8      0.0000      0.0967      0.0000      0.0000      0.3396      0.0000      0.5864      0.0000      0.0000
  9      0.0000      0.0609      0.0000      0.0000      0.0000      0.0000      0.0000      0.0000      0.7574
 10      0.0000      0.0851      0.2768      0.0000      0.0000      0.0000      0.0000      0.6287      0.0000
 11      0.0000      0.2514      0.0000      0.0000      0.0000      0.9028      0.0000      0.0000      0.0000
 12      0.0000      0.3812      0.0307      0.5474      0.0000      0.0000      2.4330      0.4546      0.0000
 13      0.0000      1.1756      1.2665      0.0000      1.9176      4.3988      1.8745      1.9735      0.0000
 14      0.0000      0.2381      0.0000      0.3267      0.0000      0.0000      0.0000      0.0000      0.0000
 15      0.0000      0.3019      0.0000      0.0000      0.0000      0.5948      0.0000      0.8358      0.0000
 16      0.0000      0.4286      0.0000      0.0000      0.0000      0.0000      0.0000      0.0000      0.0000
 17      0.0000      0.2577      0.0000      0.0000      0.0000      0.0000      0.0000      0.0000      0.0000
 18      0.0000      0.0243      0.0000      0.0000      0.0000      0.0000      0.0000      0.0000      0.0000
 19      0.0000      0.0177      0.0000      0.0000      0.0000      0.0000      0.0000      0.0000      0.0000
 20      0.0000      0.0292      0.0000      0.0000      0.0000      0.0000      0.0000      0.0000      0.2800
 21      0.0000      0.0252      0.0000      0.0000      0.0000      0.0000      0.0000      0.0000      0.0000
 22      0.0000      0.0399      0.2429      0.0000      0.0000      0.0000      0.0000      0.0000      0.0000
 23      0.0000      0.0367      0.0000      0.0000      0.0000      0.0000      0.0000      0.0000      0.0000
 24      0.0000      0.0504      0.0000      0.1399      0.0000      0.0000      0.0000      0.0000      0.0000
 25      0.0000      0.0279      0.0000      0.3047      0.0000      0.0000      0.0000      0.0000      0.0000
 26      0.0000      0.1899      0.0000      0.0000      0.0000      0.4243      0.4880      0.0000      0.0000
 27      0.0000      0.4670      0.2895      0.0000      1.9690      0.8828      0.0000      1.9039      0.0000
 28      5.4266      5.7020     11.3928      8.2059      5.8036      5.7077      5.1852      4.2553      6.5994
 29      0.0000      1.1842      0.0884      0.8343      0.4013      0.0000      1.1518      0.0000      0.0000
 30      0.0000      0.5409      0.0000      0.6339      0.0000      1.3549      0.7298      0.0000      0.3484
 31      0.0000      0.2872      0.0000      0.0000      0.0000      0.0000      0.4283      0.0000      0.0000
 32      0.0000      0.7302      0.0000      0.0000      0.0000      0.7322      0.0000      0.0000      0.1829
 33      0.0000      0.9033      0.0000      1.8004      0.0000      0.0000      0.7037      4.1466      0.0000
 34     23.6220      1.7410      0.1762      2.3975      0.0000      0.0000      0.7907      1.9061      3.6158
 35      0.0000      0.0134      0.0000      0.0000      0.0000      0.0000      0.0000      0.0000      0.0000
 36      0.0000      0.0239      0.0000      0.0000      0.0000      0.0000      0.0000      0.0000      0.0000
 37      0.0000      0.0322      0.3124      0.0000      0.0000      0.0000      0.0000      0.0000      0.0000
 38      0.0000      0.0213      0.0000      0.0000      0.0000      0.0000      0.0000      0.0000      0.0000
 39      0.0000      0.0529      0.0000      0.0000      0.0000      0.0000      0.0000      0.0000      0.0000
 40      0.0000      0.0296      0.0000      0.0000      0.0000      0.0000      0.0000      0.0000      0.0000
 41      0.0000      0.0393      0.0000      0.0000      0.0000      0.0000      0.0000      0.0000      0.0000
 42      0.0000      0.1693      0.0000      0.0000      0.0000      0.0000      0.0000      0.0000      0.0000
 43      0.0000      0.3172      0.7836      0.0000      0.0000      0.3955      0.0000      1.3046      0.2357
 44     23.0728      5.4223      7.6912      6.6166      5.5471      4.2256      6.2555      6.3496      8.6860
 45      0.0000      4.3965      3.1638      2.2661      5.7787      3.1895      4.1637      5.4024      6.2951
 46      0.0000      0.2975      0.0000      0.0000      0.0000      0.0470      0.0000      0.0000      0.0000
 47      0.0000      0.4288      0.0000      0.0000      0.0000      0.0000      0.7906      0.0000      0.0000
 48      0.0007      2.2322      0.7383      0.6990      1.1277      0.5160      3.3034      1.1442      1.3841
 49      0.0000     26.3236     31.9018     30.0411     26.4224     27.7438     29.6499     25.9353     24.6218
 50     26.8294     14.7071     13.4827     14.1965     19.7127     12.9800     15.6639     16.6504     20.5326
 51      0.0000      0.0236      0.0000      0.0000      0.0000      0.0000      0.0000      0.0000      0.0000
 52      0.0000      0.0249      0.0000      0.0000      0.0000      0.0000      0.0000      0.0000      0.0000
 53      0.0000      0.0120      0.0000      0.0000      0.0000      0.0000      0.0000      0.0000      0.2306
 54      0.0000      0.0180      0.0000      0.4593      0.0000      0.0000      0.0000      0.0000      0.0000
 55      0.0000      0.0215      0.0000      0.0000      0.0000      0.0538      0.0000      0.0000      0.0000
 56      0.0000      0.0942      0.0000      0.0000      0.0000      0.0000      0.0000      0.0000      0.0000
 57      0.0000      0.0348      0.0000      0.0000      0.0000      0.0000      0.0000      0.0363      0.2351
 58      0.0000      0.0971      0.0000      0.0000      0.0000      0.0000      0.0188      0.0000      0.0000
 59      0.0000      1.5287      2.1445      0.0000      4.7664      0.0000      1.5968      3.3462      0.0000
 60      0.0000      5.5758      4.6268      9.3229      4.7506      8.3642      5.8523      4.2509      5.6081
 61      0.0000      0.5098      0.0000      0.0000      0.0000      2.5776      0.0000      0.5083      0.0000
 62      0.0000      0.4303      0.0000      0.0000      0.0584      0.0000      0.0000      0.0000      0.5553
 63      0.0000      2.1306      2.3086      0.0000      1.2619      0.0000      0.1751      0.0000      0.1988
 64      0.0000      9.0475      5.2547      8.8877      8.4192     14.7491      9.5904      8.1414      4.2274
 65     11.1972      5.0800      7.8413      8.1155      6.0431      3.9442      4.5025      5.0960      8.9272
 66     10.8296      5.1339      6.2181      4.1890      6.4747      6.0692      4.0114      5.9096      6.8116

# j      m_j: min, <> & last-chain-values for 1 ...  7 chains
  1  0.0000E+00  6.8028E-05  0.0000E+00  0.0000E+00  0.0000E+00  0.0000E+00  0.0000E+00  0.0000E+00  0.0000E+00
  2  0.0000E+00  4.2433E-05  0.0000E+00  0.0000E+00  0.0000E+00  0.0000E+00  0.0000E+00  0.0000E+00  0.0000E+00
  3  0.0000E+00  6.5104E-05  0.0000E+00  0.0000E+00  0.0000E+00  0.0000E+00  0.0000E+00  0.0000E+00  0.0000E+00
  4  0.0000E+00  3.0907E-05  0.0000E+00  0.0000E+00  0.0000E+00  0.0000E+00  0.0000E+00  0.0000E+00  0.0000E+00
  5  0.0000E+00  1.0159E-04  0.0000E+00  0.0000E+00  0.0000E+00  0.0000E+00  0.0000E+00  0.0000E+00  0.0000E+00
  6  0.0000E+00  4.4760E-05  0.0000E+00  0.0000E+00  0.0000E+00  0.0000E+00  0.0000E+00  0.0000E+00  0.0000E+00
  7  0.0000E+00  9.4983E-05  0.0000E+00  0.0000E+00  0.0000E+00  0.0000E+00  0.0000E+00  0.0000E+00  0.0000E+00
  8  0.0000E+00  5.7627E-04  0.0000E+00  0.0000E+00  1.8439E-03  0.0000E+00  3.5449E-03  0.0000E+00  0.0000E+00
  9  0.0000E+00  4.1560E-04  0.0000E+00  0.0000E+00  0.0000E+00  0.0000E+00  0.0000E+00  0.0000E+00  4.4023E-03
 10  0.0000E+00  7.6242E-04  2.3908E-03  0.0000E+00  0.0000E+00  0.0000E+00  0.0000E+00  5.3137E-03  0.0000E+00
 11  0.0000E+00  4.2342E-03  0.0000E+00  0.0000E+00  0.0000E+00  1.5355E-02  0.0000E+00  0.0000E+00  0.0000E+00
 12  0.0000E+00  1.0186E-02  7.8973E-04  1.3873E-02  0.0000E+00  0.0000E+00  6.5954E-02  1.1460E-02  0.0000E+00
 13  0.0000E+00  8.8536E-02  9.1975E-02  0.0000E+00  1.3160E-01  3.3451E-01  1.4322E-01  1.4024E-01  0.0000E+00
 14  0.0000E+00  6.0144E-02  0.0000E+00  7.8264E-02  0.0000E+00  0.0000E+00  0.0000E+00  0.0000E+00  0.0000E+00
 15  0.0000E+00  1.2416E-01  0.0000E+00  0.0000E+00  0.0000E+00  2.4698E-01  0.0000E+00  3.2430E-01  0.0000E+00
 16  0.0000E+00  2.9798E-01  0.0000E+00  0.0000E+00  0.0000E+00  0.0000E+00  0.0000E+00  0.0000E+00  0.0000E+00
 17  0.0000E+00  2.3241E-01  0.0000E+00  0.0000E+00  0.0000E+00  0.0000E+00  0.0000E+00  0.0000E+00  0.0000E+00
 18  0.0000E+00  5.4248E-05  0.0000E+00  0.0000E+00  0.0000E+00  0.0000E+00  0.0000E+00  0.0000E+00  0.0000E+00
 19  0.0000E+00  1.5895E-05  0.0000E+00  0.0000E+00  0.0000E+00  0.0000E+00  0.0000E+00  0.0000E+00  0.0000E+00
 20  0.0000E+00  2.8575E-05  0.0000E+00  0.0000E+00  0.0000E+00  0.0000E+00  0.0000E+00  0.0000E+00  2.3392E-04
 21  0.0000E+00  2.9971E-05  0.0000E+00  0.0000E+00  0.0000E+00  0.0000E+00  0.0000E+00  0.0000E+00  0.0000E+00
 22  0.0000E+00  8.0227E-05  4.7132E-04  0.0000E+00  0.0000E+00  0.0000E+00  0.0000E+00  0.0000E+00  0.0000E+00
 23  0.0000E+00  9.9659E-05  0.0000E+00  0.0000E+00  0.0000E+00  0.0000E+00  0.0000E+00  0.0000E+00  0.0000E+00
 24  0.0000E+00  2.0369E-04  0.0000E+00  5.3629E-04  0.0000E+00  0.0000E+00  0.0000E+00  0.0000E+00  0.0000E+00
 25  0.0000E+00  1.5566E-04  0.0000E+00  1.6110E-03  0.0000E+00  0.0000E+00  0.0000E+00  0.0000E+00  0.0000E+00
 26  0.0000E+00  1.7696E-03  0.0000E+00  0.0000E+00  0.0000E+00  3.9917E-03  4.6124E-03  0.0000E+00  0.0000E+00
 27  0.0000E+00  8.7082E-03  5.2057E-03  0.0000E+00  3.3457E-02  1.6622E-02  0.0000E+00  3.3498E-02  0.0000E+00
 28  2.0515E-01  3.0858E-01  5.9452E-01  4.2120E-01  2.8619E-01  3.1190E-01  2.8469E-01  2.1728E-01  3.0440E-01
 29  0.0000E+00  1.1166E-01  8.0393E-03  7.4612E-02  3.4482E-02  0.0000E+00  1.1018E-01  0.0000E+00  0.0000E+00
 30  0.0000E+00  1.0657E-01  0.0000E+00  1.1845E-01  0.0000E+00  2.6952E-01  1.4586E-01  0.0000E+00  5.8501E-02
 31  0.0000E+00  9.9523E-02  0.0000E+00  0.0000E+00  0.0000E+00  0.0000E+00  1.5059E-01  0.0000E+00  0.0000E+00
 32  0.0000E+00  3.4047E-01  0.0000E+00  0.0000E+00  0.0000E+00  3.4477E-01  0.0000E+00  0.0000E+00  7.2697E-02
 33  0.0000E+00  9.3248E-01  0.0000E+00  1.7627E+00  0.0000E+00  0.0000E+00  7.3701E-01  4.0386E+00  0.0000E+00
 34  2.3066E+01  2.4336E+00  2.3747E-01  3.1786E+00  0.0000E+00  0.0000E+00  1.1214E+00  2.5139E+00  4.3079E+00
 35  0.0000E+00  2.3947E-05  0.0000E+00  0.0000E+00  0.0000E+00  0.0000E+00  0.0000E+00  0.0000E+00  0.0000E+00
 36  0.0000E+00  1.7315E-05  0.0000E+00  0.0000E+00  0.0000E+00  0.0000E+00  0.0000E+00  0.0000E+00  0.0000E+00
 37  0.0000E+00  2.5252E-05  2.3643E-04  0.0000E+00  0.0000E+00  0.0000E+00  0.0000E+00  0.0000E+00  0.0000E+00
 38  0.0000E+00  4.5374E-05  0.0000E+00  0.0000E+00  0.0000E+00  0.0000E+00  0.0000E+00  0.0000E+00  0.0000E+00
 39  0.0000E+00  1.6182E-04  0.0000E+00  0.0000E+00  0.0000E+00  0.0000E+00  0.0000E+00  0.0000E+00  0.0000E+00
 40  0.0000E+00  1.4651E-04  0.0000E+00  0.0000E+00  0.0000E+00  0.0000E+00  0.0000E+00  0.0000E+00  0.0000E+00
 41  0.0000E+00  3.0248E-04  0.0000E+00  0.0000E+00  0.0000E+00  0.0000E+00  0.0000E+00  0.0000E+00  0.0000E+00
 42  0.0000E+00  2.3925E-03  0.0000E+00  0.0000E+00  0.0000E+00  0.0000E+00  0.0000E+00  0.0000E+00  0.0000E+00
 43  0.0000E+00  6.5429E-03  1.5588E-02  0.0000E+00  0.0000E+00  8.2375E-03  0.0000E+00  2.5392E-02  4.1439E-03
 44  5.7250E-01  1.9260E-01  2.6343E-01  2.2291E-01  1.7954E-01  1.5156E-01  2.2543E-01  2.1280E-01  2.6297E-01
 45  0.0000E+00  3.0986E-01  2.1501E-01  1.5148E-01  3.7111E-01  2.2698E-01  2.9771E-01  3.5924E-01  3.7814E-01
 46  0.0000E+00  3.8535E-02  0.0000E+00  0.0000E+00  0.0000E+00  6.1501E-03  0.0000E+00  0.0000E+00  0.0000E+00
 47  0.0000E+00  1.1256E-01  0.0000E+00  0.0000E+00  0.0000E+00  0.0000E+00  2.1055E-01  0.0000E+00  0.0000E+00
 48  2.1097E-04  1.0334E+00  3.2956E-01  3.0691E-01  4.7571E-01  2.4119E-01  1.5515E+00  4.9977E-01  5.4613E-01
 49  0.0000E+00  2.7697E+01  3.2366E+01  2.9979E+01  2.5332E+01  2.9475E+01  3.1650E+01  2.5747E+01  2.2080E+01
 50  3.6523E+01  2.8660E+01  2.5335E+01  2.6240E+01  3.5004E+01  2.5541E+01  3.0969E+01  3.0615E+01  3.4104E+01
 51  0.0000E+00  2.5223E-05  0.0000E+00  0.0000E+00  0.0000E+00  0.0000E+00  0.0000E+00  0.0000E+00  0.0000E+00
 52  0.0000E+00  1.3642E-05  0.0000E+00  0.0000E+00  0.0000E+00  0.0000E+00  0.0000E+00  0.0000E+00  0.0000E+00
 53  0.0000E+00  9.9066E-06  0.0000E+00  0.0000E+00  0.0000E+00  0.0000E+00  0.0000E+00  0.0000E+00  1.6210E-04
 54  0.0000E+00  3.0486E-05  0.0000E+00  7.3606E-04  0.0000E+00  0.0000E+00  0.0000E+00  0.0000E+00  0.0000E+00
 55  0.0000E+00  5.5950E-05  0.0000E+00  0.0000E+00  0.0000E+00  1.4133E-04  0.0000E+00  0.0000E+00  0.0000E+00
 56  0.0000E+00  4.8489E-04  0.0000E+00  0.0000E+00  0.0000E+00  0.0000E+00  0.0000E+00  0.0000E+00  0.0000E+00
 57  0.0000E+00  2.3768E-04  0.0000E+00  0.0000E+00  0.0000E+00  0.0000E+00  0.0000E+00  2.3406E-04  1.3691E-03
 58  0.0000E+00  1.1226E-03  0.0000E+00  0.0000E+00  0.0000E+00  0.0000E+00  2.2039E-04  0.0000E+00  0.0000E+00
 59  0.0000E+00  3.8031E-02  5.1442E-02  0.0000E+00  1.0805E-01  0.0000E+00  4.0301E-02  7.8541E-02  0.0000E+00
 60  0.0000E+00  2.5764E-01  2.0615E-01  4.0858E-01  2.0002E-01  3.9024E-01  2.7435E-01  1.8533E-01  2.2086E-01
 61  0.0000E+00  5.1471E-02  0.0000E+00  0.0000E+00  0.0000E+00  2.6277E-01  0.0000E+00  4.8420E-02  0.0000E+00
 62  0.0000E+00  7.9214E-02  0.0000E+00  0.0000E+00  9.7955E-03  0.0000E+00  0.0000E+00  0.0000E+00  8.7125E-02
 63  0.0000E+00  7.8032E-01  8.1530E-01  0.0000E+00  4.2113E-01  0.0000E+00  6.5073E-02  0.0000E+00  6.2070E-02
 64  0.0000E+00  9.1650E+00  5.1327E+00  8.5392E+00  7.7714E+00  1.5086E+01  9.8562E+00  7.7813E+00  3.6498E+00
 65  1.6749E+01  1.0878E+01  1.6191E+01  1.6483E+01  1.1791E+01  8.5282E+00  9.7815E+00  1.0296E+01  1.6293E+01
 66  2.2885E+01  1.5530E+01  1.8138E+01  1.2019E+01  1.7848E+01  1.8539E+01  1.2311E+01  1.6867E+01  1.7562E+01

# AV, chi2 & Mass for <> & i_chain = 1 ...  7 solutions
AV      -0.5122     -0.3418     -0.3365     -0.3839     -0.3796     -0.3480     -0.3383     -0.3610     -0.4153
chi2 3.0295E-01  3.2168E-01  3.1693E-01  3.1572E-01  3.1401E-01  3.1964E-01  3.1917E-01  3.1705E-01  3.1343E-01
Mass 5.5837E-12  4.9033E-12  5.1218E-12  4.8858E-12  5.1147E-12  4.8161E-12  4.8563E-12  5.0644E-12  5.2126E-12
-127.70                                  [v0_min (km/s) before EX0s...]
 244.79                                  [vd_min (km/s) before EX0s...]


## Synthetic spectrum (Best Model) ##l_obs f_obs f_syn wei
 3478    [Nl_obs]
 3741.00    0.42900   0.42147    0.000
 3742.00    0.43167   0.40658    0.000
 3743.00    0.41364   0.38761    0.000
 3744.00    0.38790   0.36807    0.000
 3745.00    0.36966   0.35276   18.394
 3746.00    0.37220   0.34711   18.394
 3747.00    0.39985   0.35351   18.394
 3748.00    0.43992   0.37000   18.394
 3749.00    0.47423   0.39309   18.394
 3750.00    0.49531   0.42066   18.394
 3751.00    0.50346   0.44992   18.394
 3752.00    0.50060   0.47462   18.394
 3753.00    0.48813   0.48830   18.394
 3754.00    0.46609   0.49073   18.394
 3755.00    0.44318   0.48744   18.394
 3756.00    0.44454   0.48235   18.394
 3757.00    0.47784   0.47553   18.394
 3758.00    0.50298   0.46744   18.394
 3759.00    0.48303   0.46068   18.394
 3760.00    0.43273   0.45827   18.394
 3761.00    0.39345   0.45995   18.394
 3762.00    0.40346   0.46147   18.394
 3763.00    0.46770   0.46131   18.394
 3764.00    0.53972   0.46286   18.394
 3765.00    0.56785   0.46847   17.610
 3766.00    0.53457   0.47693   18.394
 3767.00    0.46916   0.48720   18.394
 3768.00    0.44401   0.50034   18.394
 3769.00    0.49561   0.51668   18.394
 3770.00    0.57942   0.53358   17.259
 3771.00    0.63701   0.54865   15.698
 3772.00    0.64184   0.56284   15.580
 3773.00    0.59735   0.57730   16.741
 3774.00    0.53077   0.59103   18.394
 3775.00    0.47246   0.60394   18.394
 3776.00    0.44365   0.61701   -1.000
 3777.00    0.45408   0.62940   -1.000
 3778.00    0.50105   0.63925   18.394
 3779.00    0.56921   0.64561   17.568
 3780.00    0.63357   0.64794   15.784
 3781.00    0.67384   0.64373   14.840
 3782.00    0.68240   0.63061   14.654
 3783.00    0.66877   0.61077   14.953
 3784.00    0.65347   0.58833   15.303
 3785.00    0.63603   0.56514   15.723
 3786.00    0.59281   0.54233   16.869
 3787.00    0.52025   0.52218   18.394
 3788.00    0.44553   0.50588   18.394
 3789.00    0.40276   0.49156   18.394
 3790.00    0.41506   0.47727   18.394
 3791.00    0.46594   0.46348   18.394
 3792.00    0.50652   0.45117   18.394
 3793.00    0.50842   0.43936   18.394
 3794.00    0.47826   0.42792   18.394
 3795.00    0.44801   0.42096   18.394
 3796.00    0.45344   0.42302   18.394
 3797.00    0.48446   0.43420   18.394
 3798.00    0.49878   0.45139   18.394
 3799.00    0.49297   0.47248   18.394
 3800.00    0.49788   0.49641   18.394
 3801.00    0.52131   0.52031   18.394
 3802.00    0.54256   0.54007   18.394
 3803.00    0.53357   0.55403   18.394
 3804.00    0.47802   0.56431   18.394
 3805.00    0.40014   0.57258   -1.000
 3806.00    0.34897   0.57790   -1.000
 3807.00    0.35434   0.57917   -1.000
 3808.00    0.41480   0.57634   -1.000
 3809.00    0.49335   0.56969   18.394
 3810.00    0.54061   0.55912   18.394
 3811.00    0.53664   0.54449   18.394
 3812.00    0.49084   0.52719   18.394
 3813.00    0.42868   0.51023   18.394
 3814.00    0.37900   0.49518   18.394
 3815.00    0.35784   0.48084   18.394
 3816.00    0.36523   0.46637   18.394
 3817.00    0.38523   0.45384   18.394
 3818.00    0.39968   0.44508   18.394
 3819.00    0.40652   0.43722   18.394
 3820.00    0.41139   0.42605   18.394
 3821.00    0.41383   0.41255   18.394
 3822.00    0.41039   0.40086   18.394
 3823.00    0.40030   0.39182   18.394
 3824.00    0.38191   0.38288   18.394
 3825.00    0.34921   0.37304   18.394
 3826.00    0.30600   0.36415   18.394
 3827.00    0.27919   0.35692   18.394
 3828.00    0.29119   0.34946   18.394
 3829.00    0.33165   0.34076   18.394
 3830.00    0.36643   0.33226   18.394
 3831.00    0.35254   0.32568   18.394
 3832.00    0.27598   0.32141   18.394
 3833.00    0.17975   0.31903   18.394
 3834.00    0.12324   0.31910   -1.000
 3835.00    0.14314   0.32324   -1.000
 3836.00    0.22934   0.33234   18.394
 3837.00    0.31834   0.34610   18.394
 3838.00    0.37156   0.36441   18.394
 3839.00    0.42147   0.38676   18.394
 3840.00    0.48432   0.41102   18.394
 3841.00    0.51110   0.43473   18.394
 3842.00    0.47895   0.45656   18.394
 3843.00    0.44035   0.47611   18.394
 3844.00    0.44561   0.49183   18.394
 3845.00    0.49528   0.50145   18.394
 3846.00    0.55174   0.50551   18.124
 3847.00    0.55858   0.50775    0.000
 3848.00    0.50008   0.51057    0.000
 3849.00    0.42008   0.51192    0.000
 3850.00    0.35698   0.50973    0.000
 3851.00    0.31576   0.50549    0.000
 3852.00    0.29491   0.50099    0.000
 3853.00    0.29793   0.49601    0.000
 3854.00    0.32444   0.49000    0.000
 3855.00    0.36543   0.48326    0.000
 3856.00    0.40125   0.47795    0.000
 3857.00    0.40925   0.47737    0.000
 3858.00    0.39494   0.48294    0.000
 3859.00    0.39200   0.49228    0.000
 3860.00    0.41862   0.50198    0.000
 3861.00    0.46551   0.51105    0.000
 3862.00    0.51062   0.51939    0.000
 3863.00    0.53254   0.52552    0.000
 3864.00    0.53517   0.52733    0.000
 3865.00    0.54222   0.52438    0.000
 3866.00    0.55821   0.51844    0.000
 3867.00    0.56566   0.51149    0.000
 3868.00    0.54998   0.50491    0.000
 3869.00    0.50969   0.49987    0.000
 3870.00    0.46327   0.49784    0.000
 3871.00    0.43623   0.49889    0.000
 3872.00    0.42648   0.50047    0.000
 3873.00    0.41384   0.49966    0.000
 3874.00    0.40059   0.49588    0.000
 3875.00    0.40286   0.49117    0.000
 3876.00    0.41306   0.48700    0.000
 3877.00    0.41037   0.48083    0.000
 3878.00    0.39744   0.47107    0.000
 3879.00    0.39209   0.46206    0.000
 3880.00    0.39798   0.45825    0.000
 3881.00    0.40615   0.45585   18.394
 3882.00    0.40798   0.44913   18.394
 3883.00    0.40113   0.44164   18.394
 3884.00    0.39501   0.44012   18.394
 3885.00    0.40138   0.44387   18.394
 3886.00    0.41889   0.45012   18.394
 3887.00    0.44379   0.46124   18.394
 3888.00    0.48742   0.47947   18.394
 3889.00    0.55230   0.50167   18.106
 3890.00    0.59931   0.52287   16.686
 3891.00    0.59304   0.54112   16.862
 3892.00    0.56175   0.55663   17.801
 3893.00    0.54194   0.57045   18.394
 3894.00    0.50735   0.58116   18.394
 3895.00    0.43218   0.58671   18.394
 3896.00    0.36625   0.58980   -1.000
 3897.00    0.36662   0.59461   -1.000
 3898.00    0.41924   0.60065   -1.000
 3899.00    0.47360   0.60364   18.394
 3900.00    0.48801   0.60505   18.394
 3901.00    0.45549   0.60887   18.394
 3902.00    0.41963   0.61407   -1.000
 3903.00    0.42887   0.62066   -1.000
 3904.00    0.49438   0.63178   18.394
 3905.00    0.58792   0.64739   17.009
 3906.00    0.65017   0.66387   15.381
 3907.00    0.65090   0.68008   15.363
 3908.00    0.62778   0.69688   15.929
 3909.00    0.62508   0.71147   15.998
 3910.00    0.64885   0.71995   15.412
 3911.00    0.68330   0.72221   14.635
 3912.00    0.70744   0.71955   14.135
 3913.00    0.71635   0.71161   13.960
 3914.00    0.72753   0.69919   13.745
 3915.00    0.73914   0.68380   13.529
 3916.00    0.71579   0.66596   13.971
 3917.00    0.65427   0.64672   15.284
 3918.00    0.60671   0.62882   16.482
 3919.00    0.60001   0.61337   16.666
 3920.00    0.60383   0.59903   16.561
 3921.00    0.59074   0.58466   16.928
 3922.00    0.56323   0.56861   17.755
 3923.00    0.53306   0.54953   18.394
 3924.00    0.50748   0.52620   18.394
 3925.00    0.47533   0.49790   18.394
 3926.00    0.41313   0.46557   18.394
 3927.00    0.33321   0.43114   18.394
 3928.00    0.28586   0.39735   18.394
 3929.00    0.29149   0.36689   18.394
 3930.00    0.32606   0.34316   18.394
 3931.00    0.36451   0.32958   18.394
 3932.00    0.39673   0.32785   18.394
 3933.00    0.42561   0.33743   18.394
 3934.00    0.46136   0.35640   18.394
 3935.00    0.50631   0.38290   18.394
 3936.00    0.55149   0.41424   18.133
 3937.00    0.58122   0.44650   17.205
 3938.00    0.58259   0.47671   17.165
 3939.00    0.56678   0.50378   17.643
 3940.00    0.55884   0.52668   17.894
 3941.00    0.55659   0.54676   17.966
 3942.00    0.54089   0.56810   18.394
 3943.00    0.52528   0.59040   18.394
 3944.00    0.54162   0.60930   18.394
 3945.00    0.58072   0.62571   17.220
 3946.00    0.60682   0.64454   16.479
 3947.00    0.61647   0.66442   16.221
 3948.00    0.62947   0.67833   15.886
 3949.00    0.64580   0.68473   15.485
 3950.00    0.65227   0.69012   15.331
 3951.00    0.65087   0.69635   15.364
 3952.00    0.65241   0.69578   15.328
 3953.00    0.65635   0.68536   15.236
 3954.00    0.65626   0.67143   15.238
 3955.00    0.65426   0.65695   15.284
 3956.00    0.65668   0.63677   15.228
 3957.00    0.66351   0.60669   15.071
 3958.00    0.66694   0.56982   14.994
 3959.00    0.65219   0.53217   15.333
 3960.00    0.60919   0.49458    0.000
 3961.00    0.54776   0.45422    0.000
 3962.00    0.49309   0.41209    0.000
 3963.00    0.47553   0.37326    0.000
 3964.00    0.50766   0.34106    0.000
 3965.00    0.56071   0.31605    0.000
 3966.00    0.59870   0.29970    0.000
 3967.00    0.61826   0.29490    0.000
 3968.00    0.62948   0.30301    0.000
 3969.00    0.63144   0.32299    0.000
 3970.00    0.61664   0.35323    0.000
 3971.00    0.57951   0.39254    0.000
 3972.00    0.53351   0.43838    0.000
 3973.00    0.52183   0.48621    0.000
 3974.00    0.57332   0.53330    0.000
 3975.00    0.66562   0.57890    0.000
 3976.00    0.75003   0.62155    0.000
 3977.00    0.77997   0.65886    0.000
 3978.00    0.75319   0.68902    0.000
 3979.00    0.73102   0.71319    0.000
 3980.00    0.74656   0.73414    0.000
 3981.00    0.75085   0.75301   13.318
 3982.00    0.71454   0.76927   13.995
 3983.00    0.68735   0.78287   14.549
 3984.00    0.71157   0.79684   14.053
 3985.00    0.77214   0.81245   12.951
 3986.00    0.84870   0.82517   11.783
 3987.00    0.94147   0.83417   10.622
 3988.00    1.02915   0.84334    9.717
 3989.00    1.05879   0.85215    9.445
 3990.00    1.02280   0.85699    9.777
 3991.00    0.98199   0.85831   10.183
 3992.00    0.97364   0.86014   10.271
 3993.00    0.97700   0.86238   10.235
 3994.00    0.97192   0.86339   10.289
 3995.00    0.96306   0.86627   10.384
 3996.00    0.96121   0.87438   10.404
 3997.00    0.97261   0.88303   10.282
 3998.00    0.99229   0.88760   10.078
 3999.00    1.00567   0.89217    9.944
 4000.00    1.00521   0.89800    9.948
 4001.00    0.99372   0.89757   10.063
 4002.00    0.97332   0.88963   10.274
 4003.00    0.94344   0.88490   10.599
 4004.00    0.90778   0.88768   11.016
 4005.00    0.87507   0.89181   11.428
 4006.00    0.85394   0.89577   11.710
 4007.00    0.85222   0.90458   11.734
 4008.00    0.87967   0.91838   11.368
 4009.00    0.94074   0.93157   10.630
 4010.00    1.01348   0.94159    9.867
 4011.00    1.05944   0.95014    9.439
 4012.00    1.06400   0.95912    9.398
 4013.00    1.04042   0.96591    9.611
 4014.00    1.01362   0.96836    9.866
 4015.00    1.00378   0.97071    9.962
 4016.00    1.00000   0.97521   10.000
 4017.00    0.97898   0.97660   10.215
 4018.00    0.95602   0.97381   10.460
 4019.00    0.96794   0.97242   10.331
 4020.00    1.01811   0.97300    9.822
 4021.00    1.07663   0.97098    9.288
 4022.00    1.10255   0.96729    9.070
 4023.00    1.07333   0.96446    9.317
 4024.00    1.02625   0.96057    9.744
 4025.00    1.01488   0.95327    9.853
 4026.00    1.02858   0.94071    9.722
 4027.00    1.03137   0.92223    9.696
 4028.00    1.03905   0.90276    9.624
 4029.00    1.07561   0.88762    9.297
 4030.00    1.09735   0.87636    9.113
 4031.00    1.05495   0.87042    9.479
 4032.00    0.98781   0.87483   10.123
 4033.00    0.96163   0.88992   10.399
 4034.00    0.97564   0.90993   10.250
 4035.00    0.99546   0.92988   10.046
 4036.00    1.00568   0.94572    9.944
 4037.00    1.00433   0.95311    9.957
 4038.00    0.99036   0.95106   10.097
 4039.00    0.96724   0.94231   10.339
 4040.00    0.94677   0.92721   10.562
 4041.00    0.93287   0.90467   10.720
 4042.00    0.90802   0.88047   11.013
 4043.00    0.86294   0.86594   11.588
 4044.00    0.82162   0.86483   12.171
 4045.00    0.80568   0.87017   12.412
 4046.00    0.80416   0.87887   12.435
 4047.00    0.80056   0.89436   12.491
 4048.00    0.79655   0.91374   12.554
 4049.00    0.80629   0.92775   12.402
 4050.00    0.84782   0.93293   11.795
 4051.00    0.92053   0.93156   10.863
 4052.00    0.99370   0.92612   10.063
 4053.00    1.03845   0.91853    9.630
 4054.00    1.04911   0.90839    9.532
 4055.00    1.03675   0.89602    9.646
 4056.00    1.02090   0.88525    9.795
 4057.00    1.01089   0.87827    9.892
 4058.00    0.99779   0.87156   10.022
 4059.00    0.97210   0.86085   10.287
 4060.00    0.93520   0.84826   10.693
 4061.00    0.90486   0.84199   11.051
 4062.00    0.90924   0.84448   10.998
 4063.00    0.94496   0.84691   10.582
 4064.00    0.96911   0.84641   10.319
 4065.00    0.95902   0.85273   10.427
 4066.00    0.93258   0.86737   10.723
 4067.00    0.91314   0.87654   10.951
 4068.00    0.91268   0.87449   10.957
 4069.00    0.92876   0.87194   10.767
 4070.00    0.94737   0.87440   10.556
 4071.00    0.95733   0.87328   10.446
 4072.00    0.95425   0.86529   10.479
 4073.00    0.93434   0.85856   10.703
 4074.00    0.89560   0.85830   11.166
 4075.00    0.84892   0.86240   11.780
 4076.00    0.82006   0.86932   12.194
 4077.00    0.84364   0.88016   11.853
 4078.00    0.94198   0.89492   10.616
 4079.00    1.07124   0.91072    9.335
 4080.00    1.14239   0.92524    8.754
 4081.00    1.12008   0.93892    8.928
 4082.00    1.03465   0.95128    9.665
 4083.00    0.94054   0.96113   10.632
 4084.00    0.89043   0.97017   11.231
 4085.00    0.90119   0.97912   11.096
 4086.00    0.95414   0.98530   10.481
 4087.00    1.01495   0.98726    9.853
 4088.00    1.05070   0.98470    9.517
 4089.00    1.05517   0.97583    9.477
 4090.00    1.04650   0.96161    9.556
 4091.00    1.05092   0.94348    9.515
 4092.00    1.07750   0.91939    0.000
 4093.00    1.08044   0.89045    0.000
 4094.00    1.01048   0.86201    0.000
 4095.00    0.91249   0.83575    0.000
 4096.00    0.86723   0.81022    0.000
 4097.00    0.87137   0.78667    0.000
 4098.00    0.87662   0.76858    0.000
 4099.00    0.87786   0.76044    0.000
 4100.00    0.89279   0.76241    0.000
 4101.00    0.91447   0.76984    0.000
 4102.00    0.93027   0.78204    0.000
 4103.00    0.95483   0.80101    0.000
 4104.00    1.00427   0.82214    0.000
 4105.00    1.05999   0.83977    0.000
 4106.00    1.09280   0.85452    0.000
 4107.00    1.09600   0.86768    0.000
 4108.00    1.07233   0.87807    0.000
 4109.00    1.01696   0.88680    0.000
 4110.00    0.93795   0.89628    0.000
 4111.00    0.87664   0.90528    0.000
 4112.00    0.87307   0.91207    0.000
 4113.00    0.93032   0.91836   10.749
 4114.00    1.02006   0.92417    9.803
 4115.00    1.09430   0.92521    9.138
 4116.00    1.11901   0.92260    8.937
 4117.00    1.10068   0.92248    9.085
 4118.00    1.06858   0.92391    9.358
 4119.00    1.05490   0.92257    9.480
 4120.00    1.06810   0.92118    9.362
 4121.00    1.07859   0.92373    9.271
 4122.00    1.05880   0.92646    9.445
 4123.00    1.01097   0.92470    9.891
 4124.00    0.95240   0.91941   10.500
 4125.00    0.90412   0.91271   11.060
 4126.00    0.89045   0.90436   11.230
 4127.00    0.93234   0.89388   10.726
 4128.00    1.00714   0.88288    9.929
 4129.00    1.04238   0.87412    9.593
 4130.00    1.01475   0.87061    9.855
 4131.00    0.98554   0.87236   10.147
 4132.00    0.99033   0.87913   10.098
 4133.00    0.99667   0.89000   10.033
 4134.00    0.98981   0.90183   10.103
 4135.00    1.00076   0.91164    9.992
 4136.00    1.03439   0.91771    9.668
 4137.00    1.04878   0.91801    9.535
 4138.00    1.01409   0.91214    9.861
 4139.00    0.93390   0.90127   10.708
 4140.00    0.82506   0.88657   12.120
 4141.00    0.72816   0.87407   13.733
 4142.00    0.77698   0.86841   12.870
 4143.00    1.17808   0.86556    8.488
 4144.00    2.04670   0.86393   -1.000
 4145.00    3.28456   0.86737   -1.000
 4146.00    4.38686   0.87332   -1.000
 4147.00    4.64047   0.87607   -1.000
 4148.00    3.91594   0.87657   -1.000
 4149.00    2.72266   0.87686   -1.000
 4150.00    1.63598   0.87560   -1.000
 4151.00    1.03959   0.87398    9.619
 4152.00    0.91194   0.87577   10.966
 4153.00    0.93629   0.88025   10.680
 4154.00    0.92339   0.88606   10.830
 4155.00    0.86749   0.89536   11.528
 4156.00    0.81251   0.90901   12.308
 4157.00    0.80237   0.92202   12.463
 4158.00    0.84622   0.93222   11.817
 4159.00    0.91874   0.94284   10.885
 4160.00    0.97810   0.95137   10.224
 4161.00    0.98874   0.95255   10.114
 4162.00    0.95696   0.94940   10.450
 4163.00    0.91646   0.94618   10.912
 4164.00    0.88869   0.93900   11.253
 4165.00    0.87735   0.92715   11.398
 4166.00    0.87243   0.91586   11.462
 4167.00    0.86433   0.90527   11.570
 4168.00    0.86450   0.89218   11.567
 4169.00    0.89312   0.87793   11.197
 4170.00    0.95464   0.86609   10.475
 4171.00    1.02958   0.85746    9.713
 4172.00    1.07074   0.85126    9.339
 4173.00    1.04832   0.84754    9.539
 4174.00    1.00651   0.84747    9.935
 4175.00    0.99621   0.85093   10.038
 4176.00    0.98609   0.85720   10.141
 4177.00    0.93227   0.86497   10.727
 4178.00    0.86917   0.87213   11.505
 4179.00    0.85116   0.87923   11.749
 4180.00    0.87809   0.88673   11.388
 4181.00    0.91870   0.89285   10.885
 4182.00    0.94504   0.89850   10.582
 4183.00    0.95032   0.90331   10.523
 4184.00    0.95944   0.90441   10.423
 4185.00    0.99131   0.90505   10.088
 4186.00    1.02594   0.91045    9.747
 4187.00    1.03249   0.91532    9.685
 4188.00    0.99817   0.91437   10.018
 4189.00    0.94525   0.91417   10.579
 4190.00    0.93344   0.91733   10.713
 4191.00    0.98261   0.91499   10.177
 4192.00    1.02717   0.90367    9.736
 4193.00    1.02107   0.89170    9.794
 4194.00    1.00299   0.88208    9.970
 4195.00    1.00498   0.86892    9.950
 4196.00    0.99734   0.85538   10.027
 4197.00    0.95183   0.84995   10.506
 4198.00    0.87970   0.85003   11.367
 4199.00    0.80435   0.85168   12.432
 4200.00    0.74439   0.86039   13.434
 4201.00    0.71829   0.87636   13.922
 4202.00    0.74295   0.89225   13.460
 4203.00    0.81077   0.90759   12.334
 4204.00    0.88502   0.92468   11.299
 4205.00    0.93596   0.94014   10.684
 4206.00    0.95667   0.95048   10.453
 4207.00    0.95176   0.95584   10.507
 4208.00    0.92992   0.95761   10.754
 4209.00    0.89656   0.95644   11.154
 4210.00    0.85590   0.95302   11.684
 4211.00    0.83179   0.94965   12.022
 4212.00    0.86138   0.94709   11.609
 4213.00    0.94071   0.94696   10.630
 4214.00    1.02068   0.95278    9.797
 4215.00    1.06596   0.96123    9.381
 4216.00    1.07353   0.96475    9.315
 4217.00    1.06182   0.96506    9.418
 4218.00    1.05418   0.96321    9.486
 4219.00    1.04135   0.95013    9.603
 4220.00    0.99002   0.92355   10.101
 4221.00    0.90109   0.89351   11.098
 4222.00    0.81214   0.86613   12.313
 4223.00    0.75743   0.83902   13.203
 4224.00    0.75218   0.81827   13.295
 4225.00    0.78251   0.81492   12.779
 4226.00    0.81990   0.82444   12.197
 4227.00    0.86050   0.83775   11.621
 4228.00    0.91241   0.85818   10.960
 4229.00    0.94766   0.88310   10.552
 4230.00    0.92657   0.90004   10.792
 4231.00    0.86939   0.91128   11.502
 4232.00    0.83397   0.92165   11.991
 4233.00    0.84271   0.92532   11.866
 4234.00    0.87984   0.92669   11.366
 4235.00    0.91395   0.93521   10.942
 4236.00    0.91662   0.94474   10.910
 4237.00    0.88677   0.95312   11.277
 4238.00    0.84827   0.96888   11.789
 4239.00    0.83808   0.98653   11.932
 4240.00    0.88128   0.99711   11.347
 4241.00    0.95781   1.00508   10.441
 4242.00    1.02689   1.01238    9.738
 4243.00    1.06854   1.01014    9.359
 4244.00    1.08115   0.99713    9.249
 4245.00    1.07000   0.98330    9.346
 4246.00    1.04277   0.97000    9.590
 4247.00    1.00610   0.95145    9.939
 4248.00    0.97143   0.93183   10.294
 4249.00    0.96049   0.92141   10.411
 4250.00    0.98231   0.91820   10.180
 4251.00    1.01015   0.91362    9.900
 4252.00    1.01699   0.91098    9.833
 4253.00    1.01245   0.91571    9.877
 4254.00    1.01347   0.92124    9.867
 4255.00    1.01424   0.92293    9.860
 4256.00    1.00765   0.92682    9.924
 4257.00    1.00488   0.93536    9.951
 4258.00    1.00876   0.94447    9.913
 4259.00    0.99439   0.95534   10.056
 4260.00    0.95167   0.97076   10.508
 4261.00    0.91484   0.98421   10.931
 4262.00    0.91087   0.99327   10.979
 4263.00    0.92364   1.00060   10.827
 4264.00    0.93468   0.99850   10.699
 4265.00    0.94946   0.98116   10.532
 4266.00    0.96427   0.95815   10.371
 4267.00    0.95044   0.93477   10.521
 4268.00    0.90342   0.90478   11.069
 4269.00    0.86558   0.87596   11.553
 4270.00    0.87244   0.86211   11.462
 4271.00    0.92028   0.85842   10.866
 4272.00    0.97128   0.85896   10.296
 4273.00    0.97116   0.87076   10.297
 4274.00    0.92012   0.89243   10.868
 4275.00    0.88651   0.91320   11.280
 4276.00    0.89391   0.93068   11.187
 4277.00    0.88892   0.94544   11.250
 4278.00    0.85036   0.95506   11.760
 4279.00    0.82271   0.95854   12.155
 4280.00    0.83876   0.95579   11.922
 4281.00    0.88836   0.94935   11.257
 4282.00    0.93234   0.94122   10.726
 4283.00    0.92677   0.92814   10.790
 4284.00    0.88809   0.91408   11.260
 4285.00    0.88499   0.90317   11.300
 4286.00    0.92535   0.89105   10.807
 4287.00    0.95039   0.87921   10.522
 4288.00    0.94739   0.87254   10.555
 4289.00    0.95545   0.87069   10.466
 4290.00    0.96709   0.86896   -2.000
 4291.00    0.93372   0.86523   -2.000
 4292.00    0.86924   0.86033   -2.000
 4293.00    0.84012   0.85262   -2.000
 4294.00    0.85787   0.83896   -2.000
 4295.00    0.88083   0.81962   -2.000
 4296.00    0.89350   0.79787   -2.000
 4297.00    0.90588   0.77497   -2.000
 4298.00    0.90405   0.75492   -2.000
 4299.00    0.86291   0.73864   -2.000
 4300.00    0.80000   0.72269   -2.000
 4301.00    0.75823   0.71104   -2.000
 4302.00    0.74544   0.70503   -2.000
 4303.00    0.73767   0.69963   -2.000
 4304.00    0.71098   0.69675   -2.000
 4305.00    0.66372   0.69925   -2.000
 4306.00    0.64256   0.70696   15.563
 4307.00    0.69182   0.72365   14.455
 4308.00    0.76250   0.74853   13.115
 4309.00    0.77736   0.78086   12.864
 4310.00    0.75741   0.82438   13.203
 4311.00    0.77411   0.87335   12.918
 4312.00    0.84698   0.92087   11.807
 4313.00    0.94295   0.96890   10.605
 4314.00    1.00073   1.01307    9.993
 4315.00    0.98633   1.04254   10.139
 4316.00    0.95654   1.05931   10.454
 4317.00    0.97864   1.06587   10.218
 4318.00    1.02457   1.05587    9.760
 4319.00    1.03491   1.03291    9.663
 4320.00    1.00727   1.00624    9.928
 4321.00    0.97186   0.97886   10.290
 4322.00    0.95308   0.95550   10.492
 4323.00    0.96231   0.94200   10.392
 4324.00    0.99512   0.93931   10.049
 4325.00    1.03764   0.94938    9.637
 4326.00    1.07391   0.96897    9.312
 4327.00    1.09476   0.99089    9.134
 4328.00    1.10439   1.01335    9.055
 4329.00    1.11085   1.03443    9.002
 4330.00    1.11798   1.04633    0.000
 4331.00    1.13028   1.04313    0.000
 4332.00    1.15537   1.03186    0.000
 4333.00    1.18770   1.01621    0.000
 4334.00    1.20005   0.98857    0.000
 4335.00    1.17306   0.95497    0.000
 4336.00    1.11536   0.93031    0.000
 4337.00    1.05193   0.91059    0.000
 4338.00    1.01269   0.89262    0.000
 4339.00    1.01502   0.89195    0.000
 4340.00    1.05214   0.90691    0.000
 4341.00    1.08875   0.92192    0.000
 4342.00    1.07184   0.94254    0.000
 4343.00    1.00258   0.97229    0.000
 4344.00    0.95502   0.99468    0.000
 4345.00    0.96720   1.00580    0.000
 4346.00    1.00161   1.01622    0.000
 4347.00    1.03411   1.02350    0.000
 4348.00    1.08289   1.02052    0.000
 4349.00    1.13702   1.01335    0.000
 4350.00    1.14182   1.01250    0.000
 4351.00    1.07853   1.01630    9.272
 4352.00    0.98781   1.01808   10.123
 4353.00    0.92362   1.02319   10.827
 4354.00    0.92671   1.03807   10.791
 4355.00    0.99933   1.05523   10.007
 4356.00    1.10344   1.06789    9.063
 4357.00    1.18767   1.08093    8.420
 4358.00    1.21100   1.09774    8.258
 4359.00    1.18614   1.11258    8.431
 4360.00    1.16883   1.12160    8.556
 4361.00    1.18248   1.12836    8.457
 4362.00    1.20453   1.13507    8.302
 4363.00    1.19631   1.13680    8.359
 4364.00    1.13228   1.12985    8.832
 4365.00    1.05191   1.11980    9.506
 4366.00    1.02882   1.11060    9.720
 4367.00    1.06044   1.09815    9.430
 4368.00    1.08210   1.08164    9.241
 4369.00    1.06608   1.06745    9.380
 4370.00    1.02635   1.05722    9.743
 4371.00    0.97585   1.04673   10.247
 4372.00    0.92188   1.03750   10.847
 4373.00    0.87662   1.03192   11.408
 4374.00    0.85755   1.02696   11.661
 4375.00    0.88329   1.02067   11.321
 4376.00    0.95902   1.01152   10.427
 4377.00    1.05256   0.99682    9.501
 4378.00    1.11012   0.97757    9.008
 4379.00    1.09137   0.95692    9.163
 4380.00    0.99356   0.93441   10.065
 4381.00    0.87764   0.91238   11.394
 4382.00    0.81802   0.90038   12.225
 4383.00    0.82278   0.90009   12.154
 4384.00    0.85540   0.90499   11.690
 4385.00    0.88322   0.91569   11.322
 4386.00    0.89403   0.93528   11.185
 4387.00    0.90726   0.95808   11.022
 4388.00    0.94707   0.97677   10.559
 4389.00    1.00826   0.99375    9.918
 4390.00    1.07011   1.01231    9.345
 4391.00    1.11765   1.02850    8.947
 4392.00    1.14441   1.04072    8.738
 4393.00    1.15230   1.05261    8.678
 4394.00    1.14469   1.06328    8.736
 4395.00    1.12024   1.06687    8.927
 4396.00    1.08209   1.06517    9.241
 4397.00    1.04617   1.06187    9.559
 4398.00    1.02823   1.05061    9.725
 4399.00    1.03104   1.03361    9.699
 4400.00    1.04290   1.02058    9.589
 4401.00    1.04038   1.00555    9.612
 4402.00    1.01481   0.98856    9.854
 4403.00    0.98929   0.98475   10.108
 4404.00    0.98400   0.99121   10.163
 4405.00    0.99223   0.99612   10.078
 4406.00    1.00445   1.00715    9.956
 4407.00    1.02462   1.03049    9.760
 4408.00    1.05622   1.05133    9.468
 4409.00    1.09336   1.06253    9.146
 4410.00    1.12887   1.07486    8.858
 4411.00    1.15873   1.08671    8.630
 4412.00    1.17674   1.08794    8.498
 4413.00    1.17329   1.08771    8.523
 4414.00    1.14629   1.09414    8.724
 4415.00    1.10588   1.09759    9.043
 4416.00    1.06610   1.09888    9.380
 4417.00    1.03981   1.10593    9.617
 4418.00    1.03510   1.11238    9.661
 4419.00    1.05351   1.11386    9.492
 4420.00    1.08949   1.11393    9.179
 4421.00    1.13072   1.11374    8.844
 4422.00    1.16083   1.11249    8.615
 4423.00    1.16485   1.10972    8.585
 4424.00    1.14576   1.10675    8.728
 4425.00    1.12557   1.10486    8.884
 4426.00    1.12503   1.10397    8.889
 4427.00    1.15004   1.10080    8.695
 4428.00    1.17284   1.09436    8.526
 4429.00    1.14547   1.09119    8.730
 4430.00    1.06312   1.08945    9.406
 4431.00    0.97011   1.08482   10.308
 4432.00    0.91356   1.08416   10.946
 4433.00    0.91984   1.08871   10.871
 4434.00    0.97103   1.09475   10.298
 4435.00    1.02156   1.10176    9.789
 4436.00    1.05923   1.10909    9.441
 4437.00    1.10210   1.11701    9.074
 4438.00    1.14941   1.12314    8.700
 4439.00    1.18318   1.12700    8.452
 4440.00    1.20131   1.13201    8.324
 4441.00    1.21570   1.13632    8.226
 4442.00    1.23086   1.14120    8.124
 4443.00    1.24436   1.15052    8.036
 4444.00    1.25765   1.15785    7.951
 4445.00    1.27018   1.16105    7.873
 4446.00    1.26449   1.16598    7.908
 4447.00    1.22203   1.16529    8.183
 4448.00    1.15602   1.15412    8.650
 4449.00    1.09966   1.14178    9.094
 4450.00    1.07551   1.12684    9.298
 4451.00    1.08688   1.10597    9.201
 4452.00    1.11323   1.08495    8.983
 4453.00    1.12343   1.06556    8.901
 4454.00    1.09758   1.04980    9.111
 4455.00    1.04262   1.03793    9.591
 4456.00    1.00638   1.02767    9.937
 4457.00    1.02408   1.02484    9.765
 4458.00    1.05033   1.03015    9.521
 4459.00    1.02996   1.03482    9.709
 4460.00    0.99217   1.04225   10.079
 4461.00    0.99056   1.05778    0.000
 4462.00    1.02259   1.07136    0.000
 4463.00    1.05857   1.08138    0.000
 4464.00    1.08346   1.09547    0.000
 4465.00    1.09946   1.10963    0.000
 4466.00    1.12216   1.12003    0.000
 4467.00    1.15861   1.13135    0.000
 4468.00    1.18963   1.14678    0.000
 4469.00    1.20222   1.16231    0.000
 4470.00    1.21689   1.17581    0.000
 4471.00    1.25511   1.19142    0.000
 4472.00    1.31097   1.20579    0.000
 4473.00    1.36434   1.21323    0.000
 4474.00    1.39428   1.21721    0.000
 4475.00    1.38818   1.21839    0.000
 4476.00    1.34712   1.21307    0.000
 4477.00    1.27990   1.20478    0.000
 4478.00    1.19905   1.19889    0.000
 4479.00    1.12403   1.19407    0.000
 4480.00    1.08024   1.19059    0.000
 4481.00    1.07868   1.19226    0.000
 4482.00    1.10696   1.19598    9.034
 4483.00    1.15129   1.19836    8.686
 4484.00    1.20582   1.20099    8.293
 4485.00    1.25043   1.20105    7.997
 4486.00    1.24968   1.19660    8.002
 4487.00    1.21049   1.19079    8.261
 4488.00    1.19283   1.18392    8.383
 4489.00    1.21724   1.17622    8.215
 4490.00    1.23747   1.17095    8.081
 4491.00    1.22175   1.16798    8.185
 4492.00    1.18439   1.16685    8.443
 4493.00    1.15792   1.17069    8.636
 4494.00    1.17060   1.17884    8.543
 4495.00    1.20853   1.18890    8.275
 4496.00    1.22293   1.20208    8.177
 4497.00    1.21074   1.21936    8.259
 4498.00    1.21771   1.23806    8.212
 4499.00    1.24542   1.25426    8.029
 4500.00    1.24748   1.27098    8.016
 4501.00    1.22309   1.28811    8.176
 4502.00    1.22002   1.29879    8.197
 4503.00    1.24992   1.30608    8.001
 4504.00    1.28085   1.31249    7.807
 4505.00    1.29113   1.31324    7.745
 4506.00    1.28061   1.30949    7.809
 4507.00    1.25778   1.30405    7.950
 4508.00    1.23527   1.29668    8.095
 4509.00    1.22740   1.28675    8.147
 4510.00    1.24127   1.27611    8.056
 4511.00    1.25838   1.26733    7.947
 4512.00    1.25073   1.25824    7.995
 4513.00    1.22440   1.25039    8.167
 4514.00    1.20954   1.24666    8.268
 4515.00    1.22001   1.24289    8.197
 4516.00    1.24933   1.23974    8.004
 4517.00    1.27981   1.23739    7.814
 4518.00    1.29487   1.23181    7.723
 4519.00    1.29716   1.22414    7.709
 4520.00    1.29737   1.21140    7.708
 4521.00    1.29029   1.19388    7.750
 4522.00    1.26431   1.17613    7.909
 4523.00    1.22268   1.15409    8.179
 4524.00    1.18010   1.13171    8.474
 4525.00    1.15212   1.11456    8.680
 4526.00    1.14557   1.09915    8.729
 4527.00    1.14837   1.08909    8.708
 4528.00    1.14330   1.08577    8.747
 4529.00    1.12778   1.08610    8.867
 4530.00    1.11148   1.09215    8.997
 4531.00    1.10927   1.10259    9.015
 4532.00    1.12695   1.11558    8.873
 4533.00    1.14763   1.13001    8.714
 4534.00    1.15470   1.14591    8.660
 4535.00    1.15710   1.16300    8.642
 4536.00    1.17124   1.17541    8.538
 4537.00    1.20032   1.18577    8.331
 4538.00    1.23775   1.19587    8.079
 4539.00    1.27292   1.19878    7.856
 4540.00    1.29626   1.19912    7.715
 4541.00    1.30375   1.19989    7.670
 4542.00    1.30125   1.19604    7.685
 4543.00    1.30486   1.19107    7.664
 4544.00    1.31652   1.18687    7.596
 4545.00    1.30935   1.18219    7.637
 4546.00    1.26680   1.17809    7.894
 4547.00    1.20902   1.17314    8.271
 4548.00    1.16526   1.17141    8.582
 4549.00    1.15273   1.17292    8.675
 4550.00    1.17493   1.17265    0.000
 4551.00    1.22157   1.17748    0.000
 4552.00    1.27047   1.18734    0.000
 4553.00    1.29391   1.19582    0.000
 4554.00    1.28805   1.20785    0.000
 4555.00    1.28266   1.22173    0.000
 4556.00    1.30104   1.23238    0.000
 4557.00    1.33987   1.24199    0.000
 4558.00    1.38196   1.24800    0.000
 4559.00    1.40657   1.25020    0.000
 4560.00    1.40488   1.25064    0.000
 4561.00    1.38446   1.24831    0.000
 4562.00    1.35642   1.24688    0.000
 4563.00    1.32982   1.24573    0.000
 4564.00    1.31341   1.24536    0.000
 4565.00    1.31436   1.24928    0.000
 4566.00    1.33039   1.25035    0.000
 4567.00    1.34936   1.25172    0.000
 4568.00    1.35935   1.25815    0.000
 4569.00    1.35474   1.25771    0.000
 4570.00    1.34328   1.25596    0.000
 4571.00    1.34223   1.25984    0.000
 4572.00    1.35836   1.25625    0.000
 4573.00    1.38451   1.24932    0.000
 4574.00    1.40894   1.24594    0.000
 4575.00    1.41913   1.23685    0.000
 4576.00    1.40413   1.22524    0.000
 4577.00    1.36002   1.21673    0.000
 4578.00    1.30199   1.20672    0.000
 4579.00    1.25873   1.19886    0.000
 4580.00    1.25040   1.19623    0.000
 4581.00    1.27737   1.19435    0.000
 4582.00    1.30837   1.19634    0.000
 4583.00    1.30475   1.20256    0.000
 4584.00    1.27731   1.20759    0.000
 4585.00    1.26487   1.21388    0.000
 4586.00    1.26626   1.21970    0.000
 4587.00    1.25752   1.22141    0.000
 4588.00    1.25032   1.22219    0.000
 4589.00    1.27205   1.21972    0.000
 4590.00    1.31074   1.21380    0.000
 4591.00    1.33140   1.20960    0.000
 4592.00    1.32009   1.20368    0.000
 4593.00    1.28842   1.19742    0.000
 4594.00    1.26740   1.19637    0.000
 4595.00    1.28152   1.19406    0.000
 4596.00    1.31367   1.19265    0.000
 4597.00    1.33125   1.19677    0.000
 4598.00    1.32876   1.19851    0.000
 4599.00    1.31313   1.20174    0.000
 4600.00    1.27851   1.20979    0.000
 4601.00    1.22752   1.21672    0.000
 4602.00    1.19808   1.22578    0.000
 4603.00    1.22324   1.23820    0.000
 4604.00    1.28366   1.25084    0.000
 4605.00    1.34001   1.26284    0.000
 4606.00    1.37340   1.27478    0.000
 4607.00    1.38118   1.28608    0.000
 4608.00    1.36816   1.29212    0.000
 4609.00    1.34417   1.29690    0.000
 4610.00    1.32183   1.30222    0.000
 4611.00    1.31089   1.30108    0.000
 4612.00    1.31313   1.30171    0.000
 4613.00    1.32142   1.30556    0.000
 4614.00    1.32132   1.30260    0.000
 4615.00    1.30823   1.30343    0.000
 4616.00    1.29815   1.30832    0.000
 4617.00    1.30546   1.30529    0.000
 4618.00    1.32686   1.30523    0.000
 4619.00    1.34972   1.30948    0.000
 4620.00    1.36027   1.30630    0.000
 4621.00    1.35423   1.30364    0.000
 4622.00    1.34078   1.30540    0.000
 4623.00    1.32557   1.30271    0.000
 4624.00    1.30292   1.29781    0.000
 4625.00    1.27341   1.29634    0.000
 4626.00    1.25135   1.29468    0.000
 4627.00    1.24812   1.28885    0.000
 4628.00    1.26356   1.28323    0.000
 4629.00    1.28952   1.27956    0.000
 4630.00    1.31322   1.27192    0.000
 4631.00    1.32274   1.26218    0.000
 4632.00    1.31099   1.25376    0.000
 4633.00    1.28142   1.24465    0.000
 4634.00    1.24834   1.23502    0.000
 4635.00    1.22790   1.22512    0.000
 4636.00    1.22999   1.21829    0.000
 4637.00    1.24277   1.21297    0.000
 4638.00    1.23928   1.20437    0.000
 4639.00    1.22302   1.19907    0.000
 4640.00    1.22504   1.19503    0.000
 4641.00    1.23761   1.18548    0.000
 4642.00    1.21748   1.17877    0.000
 4643.00    1.16974   1.17487    0.000
 4644.00    1.14673   1.16856    0.000
 4645.00    1.16343   1.16714    0.000
 4646.00    1.19115   1.17008    0.000
 4647.00    1.21359   1.17394    0.000
 4648.00    1.23450   1.18213    0.000
 4649.00    1.25485   1.19065    0.000
 4650.00    1.27031   1.19945    0.000
 4651.00    1.28036   1.21040    0.000
 4652.00    1.29007   1.21858    0.000
 4653.00    1.30827   1.22751    0.000
 4654.00    1.33984   1.23769    0.000
 4655.00    1.37058   1.24458    0.000
 4656.00    1.37896   1.25070    0.000
 4657.00    1.36620   1.25436    0.000
 4658.00    1.34932   1.25155    0.000
 4659.00    1.33648   1.24417    0.000
 4660.00    1.32524   1.23289    0.000
 4661.00    1.30845   1.21578    0.000
 4662.00    1.27999   1.19656    0.000
 4663.00    1.24234   1.18051    0.000
 4664.00    1.20618   1.16581    0.000
 4665.00    1.18696   1.15422    0.000
 4666.00    1.19189   1.15171    0.000
 4667.00    1.20266   1.15490    0.000
 4668.00    1.19307   1.16111    0.000
 4669.00    1.15700   1.17229    0.000
 4670.00    1.11296   1.18420    0.000
 4671.00    1.10222   1.19515    0.000
 4672.00    1.14783   1.20450    0.000
 4673.00    1.20924   1.20974    0.000
 4674.00    1.23901   1.21334    0.000
 4675.00    1.25031   1.21424    0.000
 4676.00    1.27165   1.21102    0.000
 4677.00    1.29226   1.20827    0.000
 4678.00    1.28758   1.20694    0.000
 4679.00    1.25120   1.20435    0.000
 4680.00    1.19908   1.20290    0.000
 4681.00    1.16716   1.20550    0.000
 4682.00    1.17758   1.20694    0.000
 4683.00    1.21164   1.20717    0.000
 4684.00    1.23865   1.21070    0.000
 4685.00    1.24262   1.21214    0.000
 4686.00    1.22639   1.21137    0.000
 4687.00    1.21117   1.21397    0.000
 4688.00    1.21982   1.21558    0.000
 4689.00    1.26223   1.21521    0.000
 4690.00    1.32067   1.21742    0.000
 4691.00    1.34836   1.21902    0.000
 4692.00    1.32364   1.21786    0.000
 4693.00    1.27765   1.21572    0.000
 4694.00    1.24352   1.21216    0.000
 4695.00    1.22652   1.20628    0.000
 4696.00    1.22052   1.19745    0.000
 4697.00    1.21920   1.18872    0.000
 4698.00    1.22001   1.18162    0.000
 4699.00    1.22401   1.17448    0.000
 4700.00    1.22524   1.16904    0.000
 4701.00    1.21069   1.16554    0.000
 4702.00    1.18524   1.16439    0.000
 4703.00    1.17476   1.16593    0.000
 4704.00    1.18744   1.16710    0.000
 4705.00    1.20518   1.16943    0.000
 4706.00    1.22118   1.17507    0.000
 4707.00    1.24696   1.17969    0.000
 4708.00    1.27796   1.18531    0.000
 4709.00    1.28988   1.19401    0.000
 4710.00    1.27535   1.20165    0.000
 4711.00    1.25044   1.21134    0.000
 4712.00    1.23036   1.22207    0.000
 4713.00    1.22217   1.23246    0.000
 4714.00    1.22966   1.24661    0.000
 4715.00    1.25299   1.25929    0.000
 4716.00    1.28318   1.26949    0.000
 4717.00    1.30661   1.28028    0.000
 4718.00    1.32169   1.28738    0.000
 4719.00    1.33613   1.29002    0.000
 4720.00    1.34753   1.28883    0.000
 4721.00    1.34457   1.28332    0.000
 4722.00    1.32245   1.27410    0.000
 4723.00    1.28661   1.26164    0.000
 4724.00    1.25163   1.24796    0.000
 4725.00    1.23359   1.23296    0.000
 4726.00    1.23439   1.21899    0.000
 4727.00    1.24256   1.21052    0.000
 4728.00    1.24202   1.20456    0.000
 4729.00    1.22206   1.20089    0.000
 4730.00    1.19206   1.20457    0.000
 4731.00    1.17359   1.20940    0.000
 4732.00    1.18115   1.21357    0.000
 4733.00    1.21633   1.22368    0.000
 4734.00    1.26463   1.23104    0.000
 4735.00    1.30484   1.23526    0.000
 4736.00    1.32479   1.24491    0.000
 4737.00    1.32418   1.25188    0.000
 4738.00    1.31441   1.25565    0.000
 4739.00    1.30851   1.26237    0.000
 4740.00    1.30766   1.26797    0.000
 4741.00    1.31063   1.27327    0.000
 4742.00    1.32704   1.27869    0.000
 4743.00    1.36169   1.28160    0.000
 4744.00    1.39528   1.28549    0.000
 4745.00    1.40689   1.28851    0.000
 4746.00    1.40106   1.28728    0.000
 4747.00    1.39132   1.28526    0.000
 4748.00    1.38020   1.28273    0.000
 4749.00    1.36773   1.27716    0.000
 4750.00    1.36082   1.27036    0.000
 4751.00    1.35873   1.26430    0.000
 4752.00    1.34188   1.25770    0.000
 4753.00    1.30404   1.25156    0.000
 4754.00    1.27697   1.24597    0.000
 4755.00    1.28640   1.24064    0.000
 4756.00    1.31677   1.23488    0.000
 4757.00    1.34000   1.22775    0.000
 4758.00    1.34124   1.22118    0.000
 4759.00    1.32468   1.21315    0.000
 4760.00    1.31258   1.20353    0.000
 4761.00    1.31609   1.19687    7.598
 4762.00    1.31912   1.19260    7.581
 4763.00    1.30627   1.18911    7.655
 4764.00    1.28047   1.18977    7.810
 4765.00    1.25382   1.19564    7.976
 4766.00    1.23902   1.20249    8.071
 4767.00    1.23564   1.21181    8.093
 4768.00    1.22849   1.22401    8.140
 4769.00    1.21993   1.23451    8.197
 4770.00    1.23763   1.24493    8.080
 4771.00    1.28499   1.25520    7.782
 4772.00    1.32752   1.26410    7.533
 4773.00    1.34812   1.27066    7.418
 4774.00    1.36278   1.27336    7.338
 4775.00    1.37129   1.27543    7.292
 4776.00    1.34800   1.27475    7.418
 4777.00    1.29570   1.26953    7.718
 4778.00    1.25342   1.26311    7.978
 4779.00    1.23885   1.25611    8.072
 4780.00    1.23533   1.24835    8.095
 4781.00    1.22834   1.23863    8.141
 4782.00    1.21777   1.23198    8.212
 4783.00    1.21236   1.22953    8.248
 4784.00    1.22068   1.22450    8.192
 4785.00    1.23013   1.22437    8.129
 4786.00    1.21672   1.23055    8.219
 4787.00    1.19326   1.23449    8.380
 4788.00    1.19961   1.24229    8.336
 4789.00    1.23625   1.25384    8.089
 4790.00    1.26729   1.26274    7.891
 4791.00    1.27744   1.27171    7.828
 4792.00    1.27726   1.28025    7.829
 4793.00    1.27832   1.28492    7.823
 4794.00    1.28441   1.28656    7.786
 4795.00    1.28661   1.28680    7.772
 4796.00    1.27544   1.28529    7.840
 4797.00    1.26819   1.28208    7.885
 4798.00    1.29121   1.27890    7.745
 4799.00    1.33357   1.27660    7.499
 4800.00    1.35977   1.27365    7.354
 4801.00    1.35176   1.27068    7.398
 4802.00    1.31462   1.26756    7.607
 4803.00    1.27169   1.26317    7.864
 4804.00    1.24977   1.26093    8.001
 4805.00    1.25643   1.25884    7.959
 4806.00    1.28252   1.25623    7.797
 4807.00    1.31226   1.25764    7.620
 4808.00    1.33066   1.26051    7.515
 4809.00    1.33193   1.26372    7.508
 4810.00    1.32109   1.26913    7.569
 4811.00    1.31354   1.27539    7.613
 4812.00    1.32099   1.28190    7.570
 4813.00    1.33479   1.28744    7.492
 4814.00    1.34450   1.29243    7.438
 4815.00    1.36098   1.29609    7.348
 4816.00    1.39266   1.29617    7.180
 4817.00    1.41772   1.29521    7.054
 4818.00    1.41110   1.29116    7.087
 4819.00    1.37554   1.28456    7.270
 4820.00    1.32841   1.27915    7.528
 4821.00    1.28476   1.27058    7.784
 4822.00    1.25173   1.26275    7.989
 4823.00    1.22599   1.25916    8.157
 4824.00    1.20629   1.25399    8.290
 4825.00    1.20307   1.24964    8.312
 4826.00    1.22299   1.24753    8.177
 4827.00    1.25643   1.24492    7.959
 4828.00    1.28646   1.24432    7.773
 4829.00    1.29861   1.24323    7.701
 4830.00    1.29537   1.24081    7.720
 4831.00    1.30086   1.24146    7.687
 4832.00    1.32098   1.24174    7.570
 4833.00    1.32406   1.23946    7.553
 4834.00    1.29795   1.23759    7.704
 4835.00    1.27814   1.23610    7.824
 4836.00    1.28637   1.23317    7.774
 4837.00    1.29934   1.22954    7.696
 4838.00    1.29185   1.22638    7.741
 4839.00    1.26128   1.22496    7.928
 4840.00    1.21998   1.22481    8.197
 4841.00    1.18810   1.22286    8.417
 4842.00    1.18183   1.22291    8.461
 4843.00    1.20581   1.22479    8.293
 4844.00    1.24534   1.22304    8.030
 4845.00    1.27143   1.22087    7.865
 4846.00    1.27758   1.21747    7.827
 4847.00    1.28508   1.21101    7.782
 4848.00    1.29794   1.20429    0.000
 4849.00    1.29377   1.19352    0.000
 4850.00    1.26214   1.17900    0.000
 4851.00    1.21502   1.16443    0.000
 4852.00    1.16906   1.14672    0.000
 4853.00    1.13725   1.12479    0.000
 4854.00    1.12375   1.10325    0.000
 4855.00    1.12302   1.08388    0.000
 4856.00    1.12265   1.06364    0.000
 4857.00    1.11207   1.04621    0.000
 4858.00    1.10469   1.03533    0.000
 4859.00    1.12603   1.02775    0.000
 4860.00    1.16378   1.02780    0.000
 4861.00    1.17899   1.03504    0.000
 4862.00    1.17045   1.04283    0.000
 4863.00    1.16793   1.05477    0.000
 4864.00    1.17458   1.06830    0.000
 4865.00    1.17052   1.07852    0.000
 4866.00    1.15338   1.08702    0.000
 4867.00    1.13884   1.09501    0.000
 4868.00    1.14151   1.10113    0.000
 4869.00    1.16542   1.10552    0.000
 4870.00    1.19445   1.11260    0.000
 4871.00    1.20628   1.12261    0.000
 4872.00    1.20144   1.13342    0.000
 4873.00    1.19622   1.14452    0.000
 4874.00    1.20026   1.15724    0.000
 4875.00    1.21336   1.17005    8.242
 4876.00    1.22723   1.17827    8.148
 4877.00    1.23374   1.18550    8.105
 4878.00    1.23653   1.18972    8.087
 4879.00    1.24197   1.18679    8.052
 4880.00    1.24391   1.18328    8.039
 4881.00    1.23119   1.17842    8.122
 4882.00    1.20114   1.17009    8.325
 4883.00    1.16189   1.16163    8.607
 4884.00    1.13197   1.15434    8.834
 4885.00    1.12348   1.15149    8.901
 4886.00    1.12383   1.15132    8.898
 4887.00    1.12014   1.15489    8.927
 4888.00    1.12706   1.16498    8.873
 4889.00    1.15901   1.17688    8.628
 4890.00    1.19963   1.19522    8.336
 4891.00    1.22615   1.21706    8.156
 4892.00    1.23627   1.23471    8.089
 4893.00    1.24204   1.25314    8.051
 4894.00    1.25995   1.26894    7.937
 4895.00    1.29302   1.27822    7.734
 4896.00    1.31915   1.28454    7.581
 4897.00    1.32137   1.28577    7.568
 4898.00    1.31081   1.28341    7.629
 4899.00    1.30148   1.28211    7.684
 4900.00    1.29109   1.27833    7.745
 4901.00    1.27575   1.27268    7.839
 4902.00    1.26128   1.26894    7.928
 4903.00    1.25879   1.26502    7.944
 4904.00    1.27882   1.26067    7.820
 4905.00    1.31589   1.25553    7.599
 4906.00    1.34351   1.25002    7.443
 4907.00    1.34378   1.24543    7.442
 4908.00    1.32348   1.24026    7.556
 4909.00    1.30087   1.23547    7.687
 4910.00    1.29410   1.23106    7.727
 4911.00    1.30359   1.22448    7.671
 4912.00    1.30833   1.21605    7.643
 4913.00    1.29390   1.20614    7.729
 4914.00    1.26433   1.19366    7.909
 4915.00    1.22998   1.18006    8.130
 4916.00    1.20165   1.16630    8.322
 4917.00    1.19068   1.15438    8.399
 4918.00    1.20539   1.14753    8.296
 4919.00    1.23587   1.14717    8.091
 4920.00    1.25547   1.15317    7.965
 4921.00    1.24966   1.16413    8.002
 4922.00    1.22497   1.17964    8.163
 4923.00    1.19957   1.19767    8.336
 4924.00    1.19347   1.21749    8.379
 4925.00    1.20851   1.23492    8.275
 4926.00    1.22809   1.24653    8.143
 4927.00    1.23756   1.25668    8.080
 4928.00    1.23264   1.26165    8.113
 4929.00    1.22387   1.25980    8.171
 4930.00    1.22730   1.25554    8.148
 4931.00    1.23628   1.24565    8.089
 4932.00    1.22863   1.23477    8.139
 4933.00    1.20539   1.22828    8.296
 4934.00    1.18881   1.22087    8.412
 4935.00    1.19309   1.21518    8.382
 4936.00    1.21780   1.21577    8.212
 4937.00    1.25016   1.22024    7.999
 4938.00    1.27384   1.22868    7.850
 4939.00    1.28603   1.24023    7.776
 4940.00    1.29450   1.25238    0.000
 4941.00    1.30446   1.26636    0.000
 4942.00    1.31570   1.28030    0.000
 4943.00    1.32267   1.29052    0.000
 4944.00    1.32095   1.29889    0.000
 4945.00    1.31805   1.30558    0.000
 4946.00    1.32303   1.30810    0.000
 4947.00    1.32736   1.30698    0.000
 4948.00    1.31834   1.30280    0.000
 4949.00    1.30377   1.29523    0.000
 4950.00    1.29840   1.28182    0.000
 4951.00    1.29943   1.26693    0.000
 4952.00    1.29542   1.25359    0.000
 4953.00    1.28299   1.23884    0.000
 4954.00    1.26378   1.22639    0.000
 4955.00    1.23802   1.21536    0.000
 4956.00    1.20831   1.21003    0.000
 4957.00    1.18462   1.21184    0.000
 4958.00    1.17655   1.21159    0.000
 4959.00    1.18423   1.21355    0.000
 4960.00    1.20132   1.21792    0.000
 4961.00    1.21965   1.22044    0.000
 4962.00    1.23300   1.22245    0.000
 4963.00    1.24028   1.22127    0.000
 4964.00    1.24264   1.22096    0.000
 4965.00    1.24071   1.22349    0.000
 4966.00    1.23502   1.22436    0.000
 4967.00    1.22671   1.22774    0.000
 4968.00    1.21803   1.23218    0.000
 4969.00    1.21223   1.23578    0.000
 4970.00    1.20957   1.24043    0.000
 4971.00    1.20534   1.24061    0.000
 4972.00    1.19856   1.23858    0.000
 4973.00    1.19649   1.23435    0.000
 4974.00    1.20065   1.22419    0.000
 4975.00    1.19965   1.21139    0.000
 4976.00    1.18663   1.19579    0.000
 4977.00    1.16851   1.17994    0.000
 4978.00    1.15230   1.16551    0.000
 4979.00    1.13760   1.15198    0.000
 4980.00    1.12359   1.14270    0.000
 4981.00    1.11275   1.13788    0.000
 4982.00    1.10879   1.13827    0.000
 4983.00    1.11445   1.14263    0.000
 4984.00    1.12743   1.14887    0.000
 4985.00    1.14049   1.15984    0.000
 4986.00    1.15118   1.17018    0.000
 4987.00    1.16311   1.17802    0.000
 4988.00    1.17130   1.18738    0.000
 4989.00    1.16222   1.19271    0.000
 4990.00    1.13981   1.19649    0.000
 4991.00    1.12623   1.19914    0.000
 4992.00    1.12446   1.19603    0.000
 4993.00    1.11539   1.19352    0.000
 4994.00    1.09926   1.18867    0.000
 4995.00    1.09921   1.17944    0.000
 4996.00    1.12225   1.17105    0.000
 4997.00    1.15224   1.16004    0.000
 4998.00    1.17008   1.14804    0.000
 4999.00    1.16398   1.13773    0.000
 5000.00    1.13923   1.12771    0.000
 5001.00    1.11383   1.12041    0.000
 5002.00    1.09901   1.11449    0.000
 5003.00    1.09526   1.10962    0.000
 5004.00    1.09688   1.10724    0.000
 5005.00    1.09746   1.10530    0.000
 5006.00    1.09978   1.10436    0.000
 5007.00    1.11168   1.10192    0.000
 5008.00    1.13135   1.09853    0.000
 5009.00    1.14771   1.09629    0.000
 5010.00    1.14841   1.09119    0.000
 5011.00    1.12684   1.08681    0.000
 5012.00    1.09216   1.08454    0.000
 5013.00    1.06287   1.08278    0.000
 5014.00    1.05114   1.08409    0.000
 5015.00    1.05804   1.08564    0.000
 5016.00    1.07082   1.08934    0.000
 5017.00    1.07515   1.09661    0.000
 5018.00    1.07492   1.10250    0.000
 5019.00    1.08200   1.10975    0.000
 5020.00    1.09601   1.11688    0.000
 5021.00    1.11029   1.12450    0.000
 5022.00    1.12472   1.13493    0.000
 5023.00    1.14136   1.14204    0.000
 5024.00    1.15634   1.15053    0.000
 5025.00    1.16494   1.16017    0.000
 5026.00    1.16903   1.16794    0.000
 5027.00    1.17235   1.17696    0.000
 5028.00    1.17419   1.18173    0.000
 5029.00    1.17403   1.18355    8.518
 5030.00    1.17703   1.18532    8.496
 5031.00    1.18576   1.18115    8.433
 5032.00    1.19177   1.17251    8.391
 5033.00    1.18559   1.16167    8.435
 5034.00    1.16710   1.14747    8.568
 5035.00    1.14221   1.13634    8.755
 5036.00    1.11847   1.12620    8.941
 5037.00    1.10097   1.11623    9.083
 5038.00    1.08959   1.11425    9.178
 5039.00    1.08266   1.11612    9.236
 5040.00    1.08018   1.12246    9.258
 5041.00    1.08400   1.13274    9.225
 5042.00    1.09717   1.14165    9.114
 5043.00    1.11964   1.15240    8.931
 5044.00    1.14581   1.16156    8.727
 5045.00    1.16920   1.16685    8.553
 5046.00    1.18567   1.17099    8.434
 5047.00    1.19266   1.17353    8.385
 5048.00    1.18913   1.17654    8.410
 5049.00    1.17864   1.18050    8.484
 5050.00    1.16962   1.18525    8.550
 5051.00    1.16607   1.19314    8.576
 5052.00    1.16418   1.20188    8.590
 5053.00    1.16240   1.21092    8.603
 5054.00    1.16459   1.22028    8.587
 5055.00    1.16820   1.22708    8.560
 5056.00    1.16277   1.23225    8.600
 5057.00    1.14949   1.23386    8.700
 5058.00    1.14375   1.23152    8.743
 5059.00    1.14576   1.22797    8.728
 5060.00    1.13739   1.21984    8.792
 5061.00    1.12135   1.20985    8.918
 5062.00    1.12443   1.20013    8.893
 5063.00    1.14845   1.18973    8.707
 5064.00    1.16468   1.18193    8.586
 5065.00    1.16123   1.17423    8.612
 5066.00    1.15188   1.16847    8.681
 5067.00    1.14706   1.16555    8.718
 5068.00    1.14751   1.16266    8.715
 5069.00    1.15561   1.16067    8.653
 5070.00    1.17412   1.15766    8.517
 5071.00    1.19186   1.15437    8.390
 5072.00    1.19014   1.14962    8.402
 5073.00    1.17105   1.14290    8.539
 5074.00    1.15401   1.13620    8.665
 5075.00    1.14691   1.12830    8.719
 5076.00    1.14289   1.12088    8.750
 5077.00    1.13103   1.11464    8.841
 5078.00    1.10537   1.11133    9.047
 5079.00    1.07825   1.11179    9.274
 5080.00    1.06974   1.11458    9.348
 5081.00    1.07957   1.12042    9.263
 5082.00    1.09355   1.12936    9.145
 5083.00    1.10772   1.14036    9.028
 5084.00    1.12549   1.15176    8.885
 5085.00    1.14334   1.16297    8.746
 5086.00    1.15281   1.17327    8.674
 5087.00    1.14867   1.18170    8.706
 5088.00    1.13409   1.18790    8.818
 5089.00    1.12563   1.19111    8.884
 5090.00    1.13722   1.19127    8.793
 5091.00    1.15547   1.18878    8.655
 5092.00    1.15789   1.18310    8.636
 5093.00    1.14384   1.17601    8.743
 5094.00    1.12487   1.16803    8.890
 5095.00    1.10624   1.15918    9.040
 5096.00    1.08856   1.15216    9.186
 5097.00    1.07325   1.14618    9.317
 5098.00    1.06214   1.14222    9.415
 5099.00    1.05632   1.13986    9.467
 5100.00    1.05596   1.13713    9.470
 5101.00    1.06030   1.13547    9.431
 5102.00    1.06811   1.13463    9.362
 5103.00    1.07814   1.13295    9.275
 5104.00    1.08895   1.13221    9.183
 5105.00    1.09869   1.13219    9.102
 5106.00    1.10474   1.13237    9.052
 5107.00    1.10415   1.13626    9.057
 5108.00    1.09928   1.14114    9.097
 5109.00    1.10115   1.14751    9.081
 5110.00    1.11597   1.15664    8.961
 5111.00    1.13544   1.16418    8.807
 5112.00    1.15061   1.17199    8.691
 5113.00    1.16195   1.17876    8.606
 5114.00    1.17076   1.18128    8.541
 5115.00    1.17324   1.18172    8.523
 5116.00    1.16611   1.17773    8.576
 5117.00    1.15070   1.16968    8.690
 5118.00    1.13199   1.16008    8.834
 5119.00    1.11649   1.14716    8.957
 5120.00    1.10359   1.13395    9.061
 5121.00    1.08415   1.12182    9.224
 5122.00    1.06122   1.11094    9.423
 5123.00    1.05531   1.10353    9.476
 5124.00    1.07007   1.09878    9.345
 5125.00    1.08131   1.09678    9.248
 5126.00    1.07364   1.09869    9.314
 5127.00    1.05528   1.10275    9.476
 5128.00    1.04037   1.10836    9.612
 5129.00    1.03909   1.11462    9.624
 5130.00    1.05252   1.11926    9.501
 5131.00    1.07287   1.12447    9.321
 5132.00    1.09282   1.12696    9.151
 5133.00    1.10878   1.12692    9.019
 5134.00    1.11828   1.12583    8.942
 5135.00    1.11970   1.12083    8.931
 5136.00    1.11504   1.11720    8.968
 5137.00    1.10910   1.11270    9.016
 5138.00    1.10361   1.10617    9.061
 5139.00    1.09731   1.10206    9.113
 5140.00    1.09202   1.09748    9.157
 5141.00    1.09251   1.09382    9.153
 5142.00    1.10022   1.09220    9.089
 5143.00    1.11156   1.08928    8.996
 5144.00    1.11830   1.08762    8.942
 5145.00    1.11042   1.08767    9.006
 5146.00    1.08285   1.08748    9.235
 5147.00    1.04016   1.08903    9.614
 5148.00    1.00291   1.09151    9.971
 5149.00    0.99531   1.09498   10.047
 5150.00    1.01518   1.10052    9.850
 5151.00    1.04143   1.10776    9.602
 5152.00    1.06378   1.11552    9.400
 5153.00    1.08298   1.12331    9.234
 5154.00    1.09858   1.13013    9.103
 5155.00    1.10758   1.13360    9.029
 5156.00    1.10651   1.13392    9.037
 5157.00    1.09493   1.12866    9.133
 5158.00    1.08027   1.11617    9.257
 5159.00    1.06943   1.09914    9.351
 5160.00    1.05449   1.07590    9.483
 5161.00    1.02393   1.04835    9.766
 5162.00    0.98261   1.01769   10.177
 5163.00    0.94243   0.98398   10.611
 5164.00    0.90500   0.95408   11.050
 5165.00    0.86789   0.92939   11.522
 5166.00    0.83581   0.91121   11.964
 5167.00    0.81576   0.89905   12.259
 5168.00    0.80912   0.89195   12.359
 5169.00    0.81373   0.89320   12.289
 5170.00    0.82742   0.90264   12.086
 5171.00    0.84750   0.91799   11.799
 5172.00    0.87000   0.93548   11.494
 5173.00    0.89111   0.95184   11.222
 5174.00    0.90863   0.96513   11.006
 5175.00    0.91986   0.97558   10.871
 5176.00    0.92013   0.98304   10.868
 5177.00    0.91034   0.98577   10.985
 5178.00    0.90229   0.98444   11.083
 5179.00    0.90261   0.97915   11.079
 5180.00    0.90092   0.97581   11.100
 5181.00    0.89266   0.97797   11.202
 5182.00    0.89520   0.98277   11.171
 5183.00    0.92076   0.99198   10.861
 5184.00    0.95747   1.00290   10.444
 5185.00    0.99029   1.01618   10.098
 5186.00    1.01612   1.03117    9.841
 5187.00    1.03708   1.04341    9.642
 5188.00    1.05518   1.05447    9.477
 5189.00    1.07143   1.06383    9.333
 5190.00    1.08537   1.07166    0.000
 5191.00    1.09533   1.07845    0.000
 5192.00    1.09920   1.08511    0.000
 5193.00    1.09829   1.09148    0.000
 5194.00    1.09862   1.09769    0.000
 5195.00    1.10648   1.10301    0.000
 5196.00    1.12475   1.10571    0.000
 5197.00    1.14677   1.10644    0.000
 5198.00    1.15718   1.10333    0.000
 5199.00    1.14865   1.09635    0.000
 5200.00    1.12704   1.08663    0.000
 5201.00    1.09939   1.07440    0.000
 5202.00    1.06960   1.06283    0.000
 5203.00    1.04265   1.05364    0.000
 5204.00    1.02458   1.04605    0.000
 5205.00    1.01628   1.04402    0.000
 5206.00    1.01424   1.04628    0.000
 5207.00    1.02151   1.05340    0.000
 5208.00    1.04617   1.06591    0.000
 5209.00    1.08343   1.07973    0.000
 5210.00    1.11649   1.09578    0.000
 5211.00    1.13750   1.11000    8.791
 5212.00    1.15067   1.12342    8.691
 5213.00    1.16174   1.13583    8.608
 5214.00    1.17307   1.14557    8.525
 5215.00    1.17931   1.15284    8.480
 5216.00    1.17267   1.15560    8.528
 5217.00    1.15916   1.15554    8.627
 5218.00    1.15284   1.15167    8.674
 5219.00    1.15293   1.14572    8.674
 5220.00    1.14708   1.13743    8.718
 5221.00    1.13109   1.12721    8.841
 5222.00    1.11132   1.11757    8.998
 5223.00    1.10024   1.10831    9.089
 5224.00    1.10764   1.10441    9.028
 5225.00    1.12609   1.10422    8.880
 5226.00    1.13888   1.10632    8.781
 5227.00    1.13942   1.11312    8.776
 5228.00    1.13171   1.12033    8.836
 5229.00    1.12443   1.12973    8.893
 5230.00    1.12567   1.14152    8.884
 5231.00    1.13638   1.15286    8.800
 5232.00    1.15256   1.16619    8.676
 5233.00    1.17027   1.17759    8.545
 5234.00    1.18650   1.18784    8.428
 5235.00    1.19927   1.19770    8.338
 5236.00    1.20697   1.20516    8.285
 5237.00    1.20769   1.21193    8.280
 5238.00    1.20335   1.21544    8.310
 5239.00    1.20409   1.21630    8.305
 5240.00    1.21678   1.21528    8.218
 5241.00    1.23187   1.21081    8.118
 5242.00    1.23564   1.20365    8.093
 5243.00    1.22547   1.19406    8.160
 5244.00    1.20737   1.18538    8.282
 5245.00    1.19137   1.17735    8.394
 5246.00    1.18452   1.16851    8.442
 5247.00    1.18497   1.16314    8.439
 5248.00    1.18674   1.16025    8.426
 5249.00    1.18502   1.15978    8.439
 5250.00    1.18017   1.16153    8.473
 5251.00    1.17978   1.16337    8.476
 5252.00    1.18960   1.16831    8.406
 5253.00    1.20657   1.17206    8.288
 5254.00    1.22380   1.17312    8.171
 5255.00    1.23482   1.17139    8.098
 5256.00    1.23461   1.16388    8.100
 5257.00    1.22037   1.15196    8.194
 5258.00    1.19391   1.13489    8.376
 5259.00    1.16185   1.11439    8.607
 5260.00    1.12773   1.09179    8.867
 5261.00    1.08873   1.06842    9.185
 5262.00    1.04694   1.04647    9.552
 5263.00    1.01390   1.02968    9.863
 5264.00    0.99725   1.01696   10.028
 5265.00    0.99454   1.00691   10.055
 5266.00    1.00001   1.00398   10.000
 5267.00    1.00908   1.01011    9.910
 5268.00    1.02142   1.02247    9.790
 5269.00    1.04066   1.03761    9.609
 5270.00    1.06626   1.05635    9.379
 5271.00    1.09187   1.07578    9.159
 5272.00    1.11419   1.09599    8.975
 5273.00    1.13489   1.11752    8.811
 5274.00    1.15286   1.13709    8.674
 5275.00    1.16382   1.15395    8.592
 5276.00    1.17105   1.16621    8.539
 5277.00    1.18431   1.17601    8.444
 5278.00    1.20228   1.18472    8.318
 5279.00    1.21261   1.19215    8.247
 5280.00    1.21247   1.19991    8.248
 5281.00    1.21101   1.20951    8.258
 5282.00    1.21540   1.21941    8.228
 5283.00    1.22669   1.22912    8.152
 5284.00    1.24074   1.23825    8.060
 5285.00    1.25106   1.24668    7.993
 5286.00    1.25522   1.25420    7.967
 5287.00    1.25557   1.25823    7.965
 5288.00    1.25623   1.25890    7.960
 5289.00    1.26080   1.25527    7.931
 5290.00    1.26858   1.24845    7.883
 5291.00    1.27466   1.23903    7.845
 5292.00    1.27216   1.22708    7.861
 5293.00    1.25666   1.21487    7.958
 5294.00    1.23397   1.20390    8.104
 5295.00    1.21554   1.19780    8.227
 5296.00    1.20652   1.19498    8.288
 5297.00    1.20476   1.19472    8.300
 5298.00    1.20358   1.19913    8.309
 5299.00    1.19793   1.20733    8.348
 5300.00    1.19348   1.21898    8.379
 5301.00    1.19993   1.23181    8.334
 5302.00    1.21796   1.24475    8.210
 5303.00    1.24163   1.25648    8.054
 5304.00    1.26524   1.26652    7.904
 5305.00    1.28491   1.27531    7.783
 5306.00    1.29924   1.28157    7.697
 5307.00    1.30840   1.28505    7.643
 5308.00    1.31283   1.28579    7.617
 5309.00    1.31318   1.28412    7.615
 5310.00    1.31041   1.28087    7.631
 5311.00    1.30553   1.27652    7.660
 5312.00    1.29909   1.27037    7.698
 5313.00    1.28985   1.26318    7.753
 5314.00    1.27389   1.25594    7.850
 5315.00    1.25220   1.24708    7.986
 5316.00    1.23716   1.23733    8.083
 5317.00    1.23827   1.22596    8.076
 5318.00    1.24833   1.21353    8.011
 5319.00    1.25237   1.19970    7.985
 5320.00    1.23793   1.18377    8.078
 5321.00    1.20450   1.16960    8.302
 5322.00    1.16880   1.15566    8.556
 5323.00    1.14655   1.14212    8.722
 5324.00    1.13834   1.12965    8.785
 5325.00    1.13679   1.12431    8.797
 5326.00    1.13382   1.12567    8.820
 5327.00    1.12714   1.13030    8.872
 5328.00    1.12327   1.13862    8.903
 5329.00    1.12794   1.14870    8.866
 5330.00    1.14019   1.16185    8.770
 5331.00    1.15669   1.17445    8.645
 5332.00    1.17501   1.18594    8.511
 5333.00    1.19496   1.19568    8.369
 5334.00    1.21805   1.20172    8.210
 5335.00    1.24107   1.20451    8.058
 5336.00    1.25445   1.20381    7.972
 5337.00    1.25263   1.20295    7.983
 5338.00    1.23859   1.20339    8.074
 5339.00    1.21902   1.20257    8.203
 5340.00    1.20154   1.20239    8.323
 5341.00    1.19391   1.20281    8.376
 5342.00    1.20108   1.20370    8.326
 5343.00    1.21484   1.20736    8.232
 5344.00    1.21642   1.21134    8.221
 5345.00    1.20393   1.21732    8.306
 5346.00    1.19579   1.22528    8.363
 5347.00    1.20242   1.23449    8.317
 5348.00    1.21896   1.24526    8.204
 5349.00    1.23828   1.25567    8.076
 5350.00    1.25590   1.26747    7.962
 5351.00    1.27006   1.27907    7.874
 5352.00    1.28109   1.28840    7.806
 5353.00    1.28921   1.29643    7.757
 5354.00    1.29369   1.30146    7.730
 5355.00    1.29217   1.30339    7.739
 5356.00    1.28270   1.30150    7.796
 5357.00    1.26944   1.29633    7.877
 5358.00    1.25993   1.28828    7.937
 5359.00    1.25472   1.27783    7.970
 5360.00    1.24819   1.26580    8.012
 5361.00    1.23689   1.25192    8.085
 5362.00    1.22027   1.23892    8.195
 5363.00    1.19795   1.22547    8.348
 5364.00    1.17141   1.21338    8.537
 5365.00    1.14853   1.20273    8.707
 5366.00    1.13875   1.19410    8.782
 5367.00    1.14224   1.18959    8.755
 5368.00    1.15286   1.18889    8.674
 5369.00    1.16763   1.19378    8.564
 5370.00    1.18611   1.20025    8.431
 5371.00    1.20657   1.20907    8.288
 5372.00    1.22573   1.21880    8.158
 5373.00    1.23939   1.22808    8.068
 5374.00    1.24420   1.23778    8.037
 5375.00    1.23995   1.24589    8.065
 5376.00    1.23012   1.25230    8.129
 5377.00    1.22179   1.25538    8.185
 5378.00    1.22049   1.25655   -2.000
 5379.00    1.22386   1.25556   -2.000
 5380.00    1.22720   1.25331   -2.000
 5381.00    1.23127   1.25072   -2.000
 5382.00    1.23796   1.24645   -2.000
 5383.00    1.24450   1.24096   -2.000
 5384.00    1.24590   1.23426   -2.000
 5385.00    1.23854   1.22667   -2.000
 5386.00    1.22248   1.21789   -2.000
 5387.00    1.20292   1.20901   -2.000
 5388.00    1.18538   1.19996   -2.000
 5389.00    1.17119   1.19075   -2.000
 5390.00    1.16054   1.18154   -2.000
 5391.00    1.15536   1.17323   -2.000
 5392.00    1.15604   1.16612    8.650
 5393.00    1.15895   1.15913    8.629
 5394.00    1.16138   1.15541    8.610
 5395.00    1.16521   1.15276    8.582
 5396.00    1.17278   1.15003    8.527
 5397.00    1.18335   1.14719    8.451
 5398.00    1.19140   1.14422    8.393
 5399.00    1.18722   1.14046    8.423
 5400.00    1.16784   1.13512    8.563
 5401.00    1.14278   1.13130    8.751
 5402.00    1.12435   1.12878    8.894
 5403.00    1.12024   1.12773    8.927
 5404.00    1.12767   1.12833    8.868
 5405.00    1.13343   1.13166    8.823
 5406.00    1.13160   1.13734    8.837
 5407.00    1.13038   1.14622    8.847
 5408.00    1.13626   1.15776    8.801
 5409.00    1.14713   1.17060    8.717
 5410.00    1.16038   1.18446    8.618
 5411.00    1.17612   1.19753    8.503
 5412.00    1.19333   1.20941    8.380
 5413.00    1.20882   1.21932    8.273
 5414.00    1.22033   1.22729    8.195
 5415.00    1.22810   1.23312    8.143
 5416.00    1.23549   1.23606    8.094
 5417.00    1.24706   1.23683    8.019
 5418.00    1.26103   1.23604    7.930
 5419.00    1.26922   1.23411    7.879
 5420.00    1.26670   1.23055    7.895
 5421.00    1.25458   1.22652    7.971
 5422.00    1.23787   1.22191    8.078
 5423.00    1.22329   1.21559    8.175
 5424.00    1.21509   1.20904    8.230
 5425.00    1.21378   1.20170    8.239
 5426.00    1.21602   1.19441    8.224
 5427.00    1.21618   1.18868    8.222
 5428.00    1.21015   1.18324    8.263
 5429.00    1.19708   1.18016    8.354
 5430.00    1.18084   1.17900    8.469
 5431.00    1.16841   1.18056    8.559
 5432.00    1.16507   1.18525    8.583
 5433.00    1.17205   1.19228    8.532
 5434.00    1.18394   1.20317    8.446
 5435.00    1.19346   1.21340    8.379
 5436.00    1.20194   1.22285    8.320
 5437.00    1.21550   1.23105    8.227
 5438.00    1.23359   1.23638    8.106
 5439.00    1.24937   1.23919    8.004
 5440.00    1.25496   1.23790    7.968
 5441.00    1.24553   1.23386    8.029
 5442.00    1.22460   1.22802    8.166
 5443.00    1.20035   1.22073    8.331
 5444.00    1.17848   1.21477    8.485
 5445.00    1.16169   1.20867    8.608
 5446.00    1.15064   1.20372    8.691
 5447.00    1.14513   1.19924    8.733
 5448.00    1.14536   1.19553    8.731
 5449.00    1.15175   1.19220    8.682
 5450.00    1.16423   1.18968    8.589
 5451.00    1.18044   1.18892    8.471
 5452.00    1.19373   1.18858    8.377
 5453.00    1.19721   1.18942    8.353
 5454.00    1.18865   1.18981    8.413
 5455.00    1.17227   1.19102    8.530
 5456.00    1.15917   1.19197    8.627
 5457.00    1.15752   1.19303    8.639
 5458.00    1.16314   1.19452    8.597
 5459.00    1.16802   1.19583    8.562
 5460.00    1.16932   1.19798    8.552
 5461.00    1.16925   1.19951    8.552
 5462.00    1.17328   1.20008    8.523
 5463.00    1.18181   1.19986    8.462
 5464.00    1.18477   1.19885    8.440
 5465.00    1.17460   1.19724    8.514
 5466.00    1.15641   1.19437    8.647
 5467.00    1.14214   1.19036    8.756
 5468.00    1.14389   1.18589    8.742
 5469.00    1.16207   1.17981    8.605
 5470.00    1.18022   1.17269    8.473
 5471.00    1.18530   1.16625    8.437
 5472.00    1.17997   1.16040    8.475
 5473.00    1.17301   1.15565    8.525
 5474.00    1.17163   1.15311    8.535
 5475.00    1.17494   1.15190    8.511
 5476.00    1.17322   1.15268    8.524
 5477.00    1.16394   1.15471    8.592
 5478.00    1.15733   1.15929    8.641
 5479.00    1.15939   1.16473    8.625
 5480.00    1.16537   1.17030    8.581
 5481.00    1.17195   1.17677    8.533
 5482.00    1.18157   1.18233    8.463
 5483.00    1.19493   1.18743    8.369
 5484.00    1.20836   1.19087    8.276
 5485.00    1.21793   1.19484    8.211
 5486.00    1.22151   1.19787    8.187
 5487.00    1.21967   1.19994    8.199
 5488.00    1.21535   1.20169   -2.000
 5489.00    1.21156   1.20260   -2.000
 5490.00    1.21113   1.20307   -2.000
 5491.00    1.21871   1.20284   -2.000
 5492.00    1.23818   1.20320   -2.000
 5493.00    1.26212   1.20285   -2.000
 5494.00    1.27622   1.20200   -2.000
 5495.00    1.28244   1.20070   -2.000
 5496.00    1.29254   1.19843   -2.000
 5497.00    1.29037   1.19587   -2.000
 5498.00    1.24565   1.19304   -2.000
 5499.00    1.17801   1.19021   -2.000
 5500.00    1.14026   1.18614   -2.000
 5501.00    1.13497   1.18293   -2.000
 5502.00    1.12648   1.18018   -2.000
 5503.00    1.11739   1.17719   -2.000
 5504.00    1.13611   1.17448   -2.000
 5505.00    1.17120   1.17202   -2.000
 5506.00    1.18527   1.16977   -2.000
 5507.00    1.17289   1.16846   -2.000
 5508.00    1.15499   1.16778   -2.000
 5509.00    1.14500   1.16824   -2.000
 5510.00    1.14471   1.17016   -2.000
 5511.00    1.14935   1.17370   -2.000
 5512.00    1.15317   1.17885    8.672
 5513.00    1.15710   1.18460    8.642
 5514.00    1.16516   1.19133    8.582
 5515.00    1.17687   1.19776    8.497
 5516.00    1.18928   1.20395    8.408
 5517.00    1.20172   1.20912    8.321
 5518.00    1.21410   1.21262    8.237
 5519.00    1.22365   1.21411    8.172
 5520.00    1.22748   1.21348    8.147
 5521.00    1.22623   1.21114    8.155
 5522.00    1.22107   1.20715    8.190
 5523.00    1.20975   1.20310    8.266
 5524.00    1.19076   1.19938    8.398
 5525.00    1.16858   1.19622    8.557
 5526.00    1.15108   1.19398    8.688
 5527.00    1.14568   1.19279    8.728
 5528.00    1.15422   1.19294    8.664
 5529.00    1.16900   1.19366    8.554
 5530.00    1.18200   1.19596    8.460
 5531.00    1.19330   1.19866    8.380
 5532.00    1.20288   1.20186    8.313
 5533.00    1.20361   1.20601    8.308
 5534.00    1.19180   1.20976    8.391
 5535.00    1.17557   1.21379    8.506
 5536.00    1.16565   1.21717    8.579
 5537.00    1.16722   1.22032    8.567
 5538.00    1.17761   1.22332    8.492
 5539.00    1.18667   1.22633    8.427
 5540.00    1.18882   1.22894    8.412
 5541.00    1.18994   1.23140    8.404
 5542.00    1.19581   1.23427    8.363
 5543.00    1.20509   1.23677    8.298
 5544.00    1.21517   1.23912    8.229
 5545.00    1.22552   1.24110    8.160
 5546.00    1.23398   1.24252    8.104
 5547.00    1.23578   1.24321    8.092
 5548.00    1.23061   1.24319    8.126
 5549.00    1.22498   1.24241    8.163
 5550.00    1.22462   1.24106    8.166
 5551.00    1.23018   1.23882    8.129
 5552.00    1.23605   1.23580    8.090
 5553.00    1.23299   1.23261    8.110
 5554.00    1.22109   1.22883    8.189
 5555.00    1.21160   1.22490    8.254
 5556.00    1.20990   1.22054    8.265
 5557.00    1.21114   1.21596    8.257
 5558.00    1.21206   1.21184    8.250
 5559.00    1.21401   1.20734    8.237
 5560.00    1.21642   1.20278    8.221
 5561.00    1.21573   1.19854    8.226
 5562.00    1.21015   1.19490    8.263
 5563.00    1.20076   1.19151    8.328
 5564.00    1.18982   1.18874    8.405
 5565.00    1.17963   1.18764    8.477
 5566.00    1.17129   1.18635    8.538
 5567.00    1.16451   1.18621    8.587
 5568.00    1.15825   1.18766    8.634
 5569.00    1.15247   1.18950    8.677
 5570.00    1.15180   1.19172    8.682
 5571.00    1.16233   1.19462    8.603
 5572.00    1.18136   1.19751    8.465
 5573.00    1.19932   1.19981    8.338
 5574.00    1.20999   1.20202    8.265
 5575.00    1.21179   1.20267    8.252
 5576.00    1.20518   1.20168    8.298
 5577.00    1.19243   1.19960    8.386
 5578.00    1.17837   1.19525    8.486
 5579.00    1.16799   1.18891    8.562
 5580.00    1.16175   1.18090    8.608
 5581.00    1.15660   1.17141    8.646
 5582.00    1.14946   1.16179    8.700
 5583.00    1.13914   1.15252    8.779
 5584.00    1.12841   1.14445    8.862
 5585.00    1.12091   1.13810    8.921
 5586.00    1.11607   1.13368    8.960
 5587.00    1.11157   1.13180    8.996
 5588.00    1.10804   1.13181    9.025
 5589.00    1.10836   1.13412    9.022
 5590.00    1.11541   1.13782    8.965
 5591.00    1.12941   1.14200    8.854
 5592.00    1.14516   1.14589    8.732
 5593.00    1.15636   1.14966    8.648
 5594.00    1.16115   1.15323    8.612
 5595.00    1.16049   1.15565    8.617
 5596.00    1.15558   1.15848    8.654
 5597.00    1.14830   1.16115    8.709
 5598.00    1.14186   1.16548    8.758
 5599.00    1.13883   1.17068    8.781
 5600.00    1.13921   1.17717    8.778
 5601.00    1.14279   1.18457    8.751
 5602.00    1.15130   1.19251    8.686
 5603.00    1.16573   1.20072    8.578
 5604.00    1.18383   1.20784    8.447
 5605.00    1.20098   1.21396    8.327
 5606.00    1.21170   1.21749    8.253
 5607.00    1.21357   1.21847    8.240
 5608.00    1.20974   1.21670    8.266
 5609.00    1.20387   1.21209    8.307
 5610.00    1.19657   1.20621    8.357
 5611.00    1.18732   1.19942    8.422
 5612.00    1.17601   1.19212    8.503
 5613.00    1.16283   1.18526    8.600
 5614.00    1.14859   1.17925    8.706
 5615.00    1.13770   1.17487    8.790
 5616.00    1.13825   1.17147    8.785
 5617.00    1.15183   1.16942    8.682
 5618.00    1.16926   1.16813    8.552
 5619.00    1.18021   1.16811    8.473
 5620.00    1.17903   1.16940    8.482
 5621.00    1.16752   1.17145    8.565
 5622.00    1.15460   1.17434    8.661
 5623.00    1.14862   1.17791    8.706
 5624.00    1.15350   1.18194    8.669
 5625.00    1.16761   1.18631    8.564
 5626.00    1.18481   1.19052    8.440
 5627.00    1.20003   1.19424    8.333
 5628.00    1.21093   1.19693    8.258
 5629.00    1.21478   1.19846    8.232
 5630.00    1.20852   1.19867    8.275
 5631.00    1.19358   1.19755    8.378
 5632.00    1.17592   1.19541    8.504
 5633.00    1.16014   1.19220    8.620
 5634.00    1.14760   1.18883    8.714
 5635.00    1.13735   1.18535    8.792
 5636.00    1.12778   1.18243    8.867
 5637.00    1.12035   1.18045    8.926
 5638.00    1.11890   1.17924    8.937
 5639.00    1.12448   1.17932    8.893
 5640.00    1.13449   1.18009    8.815
 5641.00    1.14449   1.18182    8.738
 5642.00    1.14984   1.18394    8.697
 5643.00    1.14855   1.18642    8.707
 5644.00    1.14189   1.18886    8.757
 5645.00    1.13435   1.19092    8.816
 5646.00    1.13122   1.19218    8.840
 5647.00    1.13364   1.19241    8.821
 5648.00    1.14012   1.19174    8.771
 5649.00    1.15144   1.18958    8.685
 5650.00    1.16815   1.18590    8.561
 5651.00    1.18402   1.18146    8.446
 5652.00    1.19038   1.17615    8.401
 5653.00    1.18603   1.17066    8.431
 5654.00    1.17701   1.16526    8.496
 5655.00    1.17291   1.16059    8.526
 5656.00    1.17949   1.15723    8.478
 5657.00    1.18875   1.15523    8.412
 5658.00    1.18893   1.15505    8.411
 5659.00    1.18096   1.15603    8.468
 5660.00    1.17297   1.15875    8.525
 5661.00    1.16918   1.16244    8.553
 5662.00    1.17007   1.16726    8.547
 5663.00    1.17447   1.17240    8.514
 5664.00    1.17985   1.17816    8.476
 5665.00    1.18246   1.18448    8.457
 5666.00    1.17994   1.19057    8.475
 5667.00    1.17419   1.19652    8.517
 5668.00    1.16859   1.20236    8.557
 5669.00    1.16498   1.20814    8.584
 5670.00    1.16521   1.21299    8.582
 5671.00    1.17253   1.21703    8.529
 5672.00    1.18672   1.21983    8.427
 5673.00    1.20003   1.22146    8.333
 5674.00    1.20581   1.22134    8.293
 5675.00    1.20575   1.22002    8.294
 5676.00    1.20297   1.21735    8.313
 5677.00    1.19631   1.21386    8.359
 5678.00    1.18597   1.20956    8.432
 5679.00    1.17735   1.20490    8.494
 5680.00    1.17427   1.20056    8.516
 5681.00    1.17421   1.19686    8.516
 5682.00    1.17220   1.19457    8.531
 5683.00    1.16448   1.19300    8.588
 5684.00    1.15297   1.19315    8.673
 5685.00    1.14661   1.19421    8.721
 5686.00    1.15257   1.19644    8.676
 5687.00    1.17065   1.19909    8.542
 5688.00    1.19388   1.20202    8.376
 5689.00    1.21101   1.20486    8.258
 5690.00    1.21752   1.20642    8.213
 5691.00    1.21927   1.20715    8.202
 5692.00    1.22117   1.20613    8.189
 5693.00    1.22200   1.20376    8.183
 5694.00    1.21828   1.19988    8.208
 5695.00    1.20701   1.19496    8.285
 5696.00    1.18871   1.18908    8.412
 5697.00    1.16796   1.18239    8.562
 5698.00    1.14985   1.17534    8.697
 5699.00    1.13801   1.16809    8.787
 5700.00    1.13293   1.16118    8.827
 5701.00    1.13189   1.15440    8.835
 5702.00    1.13116   1.14864    8.841
 5703.00    1.12756   1.14349    8.869
 5704.00    1.12117   1.13960    8.919
 5705.00    1.11502   1.13762    8.968
 5706.00    1.11166   1.13733    8.996
 5707.00    1.11209   1.13921    8.992
 5708.00    1.11634   1.14331    8.958
 5709.00    1.12372   1.14963    8.899
 5710.00    1.13312   1.15761    8.825
 5711.00    1.14348   1.16719    8.745
 5712.00    1.15457   1.17761    8.661
 5713.00    1.16692   1.18848    8.570
 5714.00    1.18087   1.19913    8.468
 5715.00    1.19563   1.20909    8.364
 5716.00    1.20767   1.21798    8.280
 5717.00    1.21287   1.22524    8.245
 5718.00    1.21187   1.23115    8.252
 5719.00    1.20904   1.23521    8.271
 5720.00    1.20809   1.23785    8.278
 5721.00    1.21057   1.23900    8.261
 5722.00    1.21497   1.23905    8.231
 5723.00    1.21815   1.23803    8.209
 5724.00    1.21832   1.23666    8.208
 5725.00    1.21560   1.23518    8.226
 5726.00    1.21188   1.23371    8.252
 5727.00    1.20938   1.23267    8.269
 5728.00    1.20831   1.23196    8.276
 5729.00    1.20789   1.23181    8.279
 5730.00    1.20837   1.23200    8.276
 5731.00    1.21059   1.23258    8.260
 5732.00    1.21494   1.23320    8.231
 5733.00    1.22067   1.23388    8.192
 5734.00    1.22529   1.23451    8.161
 5735.00    1.22614   1.23488    8.156
 5736.00    1.22255   1.23504    8.180
 5737.00    1.21549   1.23498    8.227
 5738.00    1.20694   1.23468    8.285
 5739.00    1.19941   1.23425    8.337
 5740.00    1.19535   1.23345    0.000
 5741.00    1.19705   1.23260    0.000
 5742.00    1.20614   1.23124    0.000
 5743.00    1.22109   1.22965    0.000
 5744.00    1.23527   1.22751    0.000
 5745.00    1.24187   1.22524    0.000
 5746.00    1.23853   1.22275    0.000
 5747.00    1.22794   1.22021    0.000
 5748.00    1.21725   1.21788    0.000
 5749.00    1.21121   1.21567    0.000
 5750.00    1.20763   1.21404    0.000
 5751.00    1.20318   1.21258    0.000
 5752.00    1.19783   1.21177    0.000
 5753.00    1.19345   1.21107    0.000
 5754.00    1.19224   1.21113    0.000
 5755.00    1.19424   1.21122    0.000
 5756.00    1.19648   1.21178    0.000
 5757.00    1.19801   1.21246    0.000
 5758.00    1.20199   1.21368    0.000
 5759.00    1.20987   1.21534    0.000
 5760.00    1.21883   1.21764    0.000
 5761.00    1.22675   1.22056    0.000
 5762.00    1.23407   1.22362    0.000
 5763.00    1.23953   1.22704    0.000
 5764.00    1.23919   1.22993    0.000
 5765.00    1.23229   1.23252    0.000
 5766.00    1.22322   1.23414    0.000
 5767.00    1.21747   1.23485    0.000
 5768.00    1.21858   1.23435    0.000
 5769.00    1.22362   1.23261    0.000
 5770.00    1.22454   1.22967    0.000
 5771.00    1.22029   1.22523    0.000
 5772.00    1.21819   1.21992    0.000
 5773.00    1.22163   1.21326    0.000
 5774.00    1.22682   1.20590    0.000
 5775.00    1.22769   1.19754    0.000
 5776.00    1.21938   1.18913    0.000
 5777.00    1.20351   1.18077    0.000
 5778.00    1.18739   1.17310    0.000
 5779.00    1.17681   1.16675    0.000
 5780.00    1.17379   1.16196    0.000
 5781.00    1.17667   1.15941    0.000
 5782.00    1.18192   1.15900    0.000
 5783.00    1.18866   1.16097    0.000
 5784.00    1.19798   1.16481    0.000
 5785.00    1.20859   1.17030    0.000
 5786.00    1.21712   1.17688    0.000
 5787.00    1.22161   1.18409    0.000
 5788.00    1.22188   1.19152    0.000
 5789.00    1.21880   1.19890    0.000
 5790.00    1.21444   1.20590    0.000
 5791.00    1.21278   1.21233    0.000
 5792.00    1.21757   1.21808    0.000
 5793.00    1.22822   1.22323    0.000
 5794.00    1.24102   1.22766    0.000
 5795.00    1.25283   1.23146    0.000
 5796.00    1.26187   1.23454    0.000
 5797.00    1.26793   1.23694    0.000
 5798.00    1.27075   1.23864    0.000
 5799.00    1.26770   1.23965    0.000
 5800.00    1.25562   1.24008    0.000
 5801.00    1.23419   1.23994    0.000
 5802.00    1.20603   1.23943   -2.000
 5803.00    1.17623   1.23869   -2.000
 5804.00    1.14953   1.23783   -2.000
 5805.00    1.12731   1.23707   -2.000
 5806.00    1.11120   1.23644   -2.000
 5807.00    1.10741   1.23599   -2.000
 5808.00    1.11858   1.23565   -2.000
 5809.00    1.13475   1.23550   -2.000
 5810.00    1.14467   1.23559   -2.000
 5811.00    1.14829   1.23594   -2.000
 5812.00    1.15087   1.23672   -2.000
 5813.00    1.15583   1.23795   -2.000
 5814.00    1.16512   1.23963   -2.000
 5815.00    1.18009   1.24177   -2.000
 5816.00    1.19939   1.24417   -2.000
 5817.00    1.21756   1.24686   -2.000
 5818.00    1.22904   1.24946   -2.000
 5819.00    1.23180   1.25201   -2.000
 5820.00    1.22782   1.25417   -2.000
 5821.00    1.22260   1.25603    0.000
 5822.00    1.21995   1.25737    0.000
 5823.00    1.21859   1.25827    0.000
 5824.00    1.21570   1.25879    0.000
 5825.00    1.20972   1.25882    0.000
 5826.00    1.20201   1.25852    0.000
 5827.00    1.19715   1.25778    0.000
 5828.00    1.19902   1.25692    0.000
 5829.00    1.20817   1.25580    0.000
 5830.00    1.22157   1.25472    0.000
 5831.00    1.23329   1.25367    0.000
 5832.00    1.23952   1.25284    0.000
 5833.00    1.24082   1.25226    0.000
 5834.00    1.24046   1.25193    0.000
 5835.00    1.24249   1.25182    0.000
 5836.00    1.24745   1.25180    0.000
 5837.00    1.25147   1.25167    0.000
 5838.00    1.25128   1.25121    0.000
 5839.00    1.24602   1.25018    0.000
 5840.00    1.23570   1.24842    0.000
 5841.00    1.22117   1.24575    0.000
 5842.00    1.20713   1.24216    0.000
 5843.00    1.20102   1.23764    0.000
 5844.00    1.20523   1.23228    0.000
 5845.00    1.21511   1.22622    0.000
 5846.00    1.22255   1.21964    0.000
 5847.00    1.21943   1.21280    0.000
 5848.00    1.20473   1.20579    0.000
 5849.00    1.18505   1.19902    0.000
 5850.00    1.16946   1.19252    0.000
 5851.00    1.16495   1.18679    0.000
 5852.00    1.16870   1.18177    0.000
 5853.00    1.17092   1.17800    0.000
 5854.00    1.16767   1.17530    0.000
 5855.00    1.16140   1.17405    0.000
 5856.00    1.15389   1.17398    0.000
 5857.00    1.14552   1.17513    0.000
 5858.00    1.13777   1.17732    0.000
 5859.00    1.13287   1.18021    0.000
 5860.00    1.13196   1.18382    0.000
 5861.00    1.13416   1.18757    0.000
 5862.00    1.13591   1.19169    0.000
 5863.00    1.13416   1.19553    0.000
 5864.00    1.13259   1.19940    0.000
 5865.00    1.13782   1.20275    0.000
 5866.00    1.15077   1.20576    0.000
 5867.00    1.16744   1.20809    0.000
 5868.00    1.18259   1.20969    0.000
 5869.00    1.19223   1.21045    0.000
 5870.00    1.19610   1.21013    0.000
 5871.00    1.19567   1.20888    0.000
 5872.00    1.19071   1.20639    0.000
 5873.00    1.18194   1.20292    0.000
 5874.00    1.17498   1.19815    0.000
 5875.00    1.17455   1.19225    0.000
 5876.00    1.17691   1.18493    0.000
 5877.00    1.17615   1.17615    0.000
 5878.00    1.17265   1.16557    0.000
 5879.00    1.16788   1.15296    0.000
 5880.00    1.15794   1.13812    0.000
 5881.00    1.13855   1.12103    0.000
 5882.00    1.11083   1.10184    0.000
 5883.00    1.07843   1.08104    0.000
 5884.00    1.04407   1.05940    0.000
 5885.00    1.00976   1.03791    0.000
 5886.00    0.97720   1.01781    0.000
 5887.00    0.94787   1.00024    0.000
 5888.00    0.92298   0.98639    0.000
 5889.00    0.90335   0.97697    0.000
 5890.00    0.88943   0.97267    0.000
 5891.00    0.88205   0.97352    0.000
 5892.00    0.88290   0.97947    0.000
 5893.00    0.89295   0.98992    0.000
 5894.00    0.91138   1.00426    0.000
 5895.00    0.93580   1.02147    0.000
 5896.00    0.96293   1.04060    0.000
 5897.00    0.99119   1.06054    0.000
 5898.00    1.02176   1.08032    0.000
 5899.00    1.05411   1.09907    0.000
 5900.00    1.08404   1.11610    0.000
 5901.00    1.10771   1.13096    9.028
 5902.00    1.12395   1.14333    8.897
 5903.00    1.13340   1.15327    8.823
 5904.00    1.13778   1.16077    8.789
 5905.00    1.13924   1.16618    8.778
 5906.00    1.13997   1.16968    8.772
 5907.00    1.14243   1.17171    8.753
 5908.00    1.14860   1.17252    8.706
 5909.00    1.15603   1.17254    8.650
 5910.00    1.15838   1.17212    8.633
 5911.00    1.15435   1.17156    8.663
 5912.00    1.14967   1.17123    8.698
 5913.00    1.15052   1.17120    8.692
 5914.00    1.15961   1.17180    8.624
 5915.00    1.17189   1.17280    8.533
 5916.00    1.17696   1.17438    8.496
 5917.00    1.17212   1.17615    8.532
 5918.00    1.16384   1.17812    8.592
 5919.00    1.15831   1.17996    8.633
 5920.00    1.15813   1.18155    8.635
 5921.00    1.16169   1.18278    8.608
 5922.00    1.16472   1.18353    8.586
 5923.00    1.16478   1.18389    8.585
 5924.00    1.16209   1.18380    8.605
 5925.00    1.15843   1.18350    8.632
 5926.00    1.15582   1.18302    8.652
 5927.00    1.15425   1.18256    8.664
 5928.00    1.15285   1.18220    8.674
 5929.00    1.15385   1.18200    8.667
 5930.00    1.16056   1.18210    8.617
 5931.00    1.17122   1.18237    8.538
 5932.00    1.18039   1.18289    8.472
 5933.00    1.18412   1.18351    8.445
 5934.00    1.18180   1.18421    8.462
 5935.00    1.17731   1.18489    8.494
 5936.00    1.17573   1.18548    8.505
 5937.00    1.17733   1.18597    8.494
 5938.00    1.17879   1.18628    8.483
 5939.00    1.17698   1.18641    8.496
 5940.00    1.17112   1.18630    8.539
 5941.00    1.16487   1.18597    8.585
 5942.00    1.16325   1.18536    8.597
 5943.00    1.16761   1.18448    8.565
 5944.00    1.17518   1.18335    8.509
 5945.00    1.17985   1.18201    8.476
 5946.00    1.17688   1.18056    8.497
 5947.00    1.16869   1.17910    8.557
 5948.00    1.16006   1.17780    8.620
 5949.00    1.15181   1.17677    8.682
 5950.00    1.14336   1.17620    8.746
 5951.00    1.13629   1.17616    8.801
 5952.00    1.13296   1.17677    8.826
 5953.00    1.13450   1.17803    8.814
 5954.00    1.14047   1.17993    8.768
 5955.00    1.14880   1.18239    8.705
 5956.00    1.15641   1.18526    8.647
 5957.00    1.16009   1.18845    8.620
 5958.00    1.15888   1.19171    8.629
 5959.00    1.15588   1.19498    8.651
 5960.00    1.15582   1.19802    8.652
 5961.00    1.16253   1.20085    8.602
 5962.00    1.17579   1.20328    8.505
 5963.00    1.18964   1.20534    8.406
 5964.00    1.19832   1.20692    8.345
 5965.00    1.20042   1.20798    8.330
 5966.00    1.19730   1.20846    8.352
 5967.00    1.19169   1.20824    8.391
 5968.00    1.18638   1.20735    8.429
 5969.00    1.18315   1.20569    8.452
 5970.00    1.18122   1.20340    8.466
 5971.00    1.17719   1.20048    8.495
 5972.00    1.17016   1.19718    8.546
 5973.00    1.16353   1.19359    8.595
 5974.00    1.15970   1.18999    8.623
 5975.00    1.15741   1.18648    8.640
 5976.00    1.15371   1.18326    8.668
 5977.00    1.14606   1.18041    8.726
 5978.00    1.13717   1.17804    8.794
 5979.00    1.13488   1.17621    8.811
 5980.00    1.14164   1.17500    8.759
 5981.00    1.15158   1.17444    8.684
 5982.00    1.15777   1.17459    8.637
 5983.00    1.15628   1.17538    8.648
 5984.00    1.14975   1.17679    8.698
 5985.00    1.14609   1.17869    8.725
 5986.00    1.14939   1.18085    8.700
 5987.00    1.15740   1.18313    8.640
 5988.00    1.16452   1.18522    8.587
 5989.00    1.16493   1.18700    8.584
 5990.00    1.15898   1.18822    8.628
 5991.00    1.15281   1.18883    8.674
 5992.00    1.15157   1.18876    8.684
 5993.00    1.15672   1.18805    8.645
 5994.00    1.16467   1.18677    8.586
 5995.00    1.16949   1.18501    8.551
 5996.00    1.17051   1.18291    8.543
 5997.00    1.17164   1.18056    8.535
 5998.00    1.17509   1.17809    8.510
 5999.00    1.17981   1.17558    8.476
 6000.00    1.18195   1.17312    8.461
 6001.00    1.17658   1.17078    8.499
 6002.00    1.16129   1.16865    8.611
 6003.00    1.13850   1.16675    8.783
 6004.00    1.11834   1.16515    8.942
 6005.00    1.11222   1.16383    8.991
 6006.00    1.12023   1.16281    8.927
 6007.00    1.13388   1.16199    8.819
 6008.00    1.14519   1.16134    8.732
 6009.00    1.14959   1.16076    8.699
 6010.00    1.14796   1.16020    8.711
 6011.00    1.14378   1.15963    8.743
 6012.00    1.13833   1.15908    8.785
 6013.00    1.13182   1.15860    8.835
 6014.00    1.12606   1.15833    8.881
 6015.00    1.12348   1.15835    8.901
 6016.00    1.12534   1.15888    8.886
 6017.00    1.13053   1.15994    8.845
 6018.00    1.13473   1.16176    8.813
 6019.00    1.13467   1.16425    8.813
 6020.00    1.13299   1.16754    8.826
 6021.00    1.13421   1.17143    8.817
 6022.00    1.13964   1.17591    8.775
 6023.00    1.14777   1.18075    8.713
 6024.00    1.15569   1.18580    8.653
 6025.00    1.16245   1.19088    8.603
 6026.00    1.17186   1.19576    8.533
 6027.00    1.18630   1.20037    8.430
 6028.00    1.20135   1.20445    8.324
 6029.00    1.21041   1.20808    8.262
 6030.00    1.20947   1.21104    8.268
 6031.00    1.19898   1.21349    8.340
 6032.00    1.18453   1.21532    8.442
 6033.00    1.17216   1.21675    8.531
 6034.00    1.16486   1.21776    8.585
 6035.00    1.16286   1.21857    8.600
 6036.00    1.16446   1.21925    8.588
 6037.00    1.16806   1.21994    8.561
 6038.00    1.17345   1.22071    8.522
 6039.00    1.18104   1.22158    8.467
 6040.00    1.19120   1.22256    8.395
 6041.00    1.20336   1.22354    8.310
 6042.00    1.21555   1.22443    8.227
 6043.00    1.22506   1.22508    8.163
 6044.00    1.22933   1.22535    8.134
 6045.00    1.22835   1.22516    8.141
 6046.00    1.22493   1.22440    8.164
 6047.00    1.21989   1.22309    8.197
 6048.00    1.21076   1.22126    8.259
 6049.00    1.19681   1.21901    8.356
 6050.00    1.18105   1.21649    8.467
 6051.00    1.16839   1.21381    8.559
 6052.00    1.16347   1.21117    8.595
 6053.00    1.16547   1.20859    8.580
 6054.00    1.16814   1.20629    8.561
 6055.00    1.16772   1.20419    8.564
 6056.00    1.16507   1.20246    8.583
 6057.00    1.16212   1.20105    8.605
 6058.00    1.16034   1.20011    8.618
 6059.00    1.16032   1.19968    8.618
 6060.00    1.16168   1.19990    8.608
 6061.00    1.16334   1.20085    8.596
 6062.00    1.16401   1.20255    8.591
 6063.00    1.16314   1.20501    8.597
 6064.00    1.16134   1.20807    8.611
 6065.00    1.16071   1.21150    8.615
 6066.00    1.16412   1.21499    8.590
 6067.00    1.17307   1.21813    8.525
 6068.00    1.18678   1.22063    8.426
 6069.00    1.20107   1.22211    8.326
 6070.00    1.21005   1.22240    8.264
 6071.00    1.21026   1.22139    8.263
 6072.00    1.20213   1.21913    8.319
 6073.00    1.19085   1.21577    8.397
 6074.00    1.18294   1.21157    8.453
 6075.00    1.17931   1.20685    8.480
 6076.00    1.17650   1.20191    8.500
 6077.00    1.17163   1.19710    8.535
 6078.00    1.16442   1.19262    8.588
 6079.00    1.15893   1.18873    8.629
 6080.00    1.15931   1.18544    8.626
 6081.00    1.16258   1.18287    8.602
 6082.00    1.16210   1.18092    8.605
 6083.00    1.15456   1.17958    8.661
 6084.00    1.14106   1.17874    8.764
 6085.00    1.12673   1.17834    8.875
 6086.00    1.11761   1.17832    8.948
 6087.00    1.11634   1.17858    8.958
 6088.00    1.12234   1.17909    8.910
 6089.00    1.13272   1.17971    8.828
 6090.00    1.14462   1.18038    8.737
 6091.00    1.15748   1.18088    8.639
 6092.00    1.17085   1.18112    8.541
 6093.00    1.18172   1.18094    8.462
 6094.00    1.18680   1.18027    8.426
 6095.00    1.18519   1.17911    8.437
 6096.00    1.17819   1.17755    8.488
 6097.00    1.16867   1.17585    8.557
 6098.00    1.15938   1.17415    8.625
 6099.00    1.15157   1.17290    8.684
 6100.00    1.14703   1.17218    8.718
 6101.00    1.14943   1.17235    8.700
 6102.00    1.16021   1.17330    8.619
 6103.00    1.17557   1.17516    8.506
 6104.00    1.18999   1.17758    8.403
 6105.00    1.19941   1.18045    8.337
 6106.00    1.20334   1.18336    8.310
 6107.00    1.20545   1.18604    8.296
 6108.00    1.20843   1.18817    8.275
 6109.00    1.21093   1.18950    8.258
 6110.00    1.21116   1.18988    8.257
 6111.00    1.20892   1.18917    8.272
 6112.00    1.20402   1.18747    8.306
 6113.00    1.19557   1.18475    8.364
 6114.00    1.18386   1.18136    8.447
 6115.00    1.17122   1.17742    8.538
 6116.00    1.16067   1.17343    8.616
 6117.00    1.15473   1.16957    8.660
 6118.00    1.15284   1.16629    8.674
 6119.00    1.15120   1.16373    8.687
 6120.00    1.14771   1.16207    8.713
 6121.00    1.14368   1.16129    8.744
 6122.00    1.14146   1.16123    8.761
 6123.00    1.14282   1.16165    8.750
 6124.00    1.14668   1.16217    8.721
 6125.00    1.14961   1.16246    8.699
 6126.00    1.15076   1.16212    8.690
 6127.00    1.15250   1.16098    8.677
 6128.00    1.15582   1.15882    8.652
 6129.00    1.15909   1.15581    8.627
 6130.00    1.15926   1.15205    8.626
 6131.00    1.15375   1.14806    8.667
 6132.00    1.14467   1.14420    8.736
 6133.00    1.13761   1.14110    8.790
 6134.00    1.13454   1.13908    8.814
 6135.00    1.13339   1.13857    8.823
 6136.00    1.13287   1.13962    8.827
 6137.00    1.13319   1.14216    8.825
 6138.00    1.13434   1.14591    8.816
 6139.00    1.13570   1.15041    8.805
 6140.00    1.13598   1.15523    8.803
 6141.00    1.13417   1.15976    8.817
 6142.00    1.13154   1.16373    8.838
 6143.00    1.13061   1.16669    8.845
 6144.00    1.13210   1.16860    8.833
 6145.00    1.13534   1.16925    8.808
 6146.00    1.14047   1.16879    8.768
 6147.00    1.14820   1.16712    8.709
 6148.00    1.15850   1.16442    8.632
 6149.00    1.16930   1.16060    8.552
 6150.00    1.17458   1.15574    8.514
 6151.00    1.16890   1.14976    8.555
 6152.00    1.15474   1.14271    8.660
 6153.00    1.13850   1.13465    8.783
 6154.00    1.12268   1.12574    8.907
 6155.00    1.10673   1.11630    9.036
 6156.00    1.09013   1.10673    9.173
 6157.00    1.07279   1.09748    9.321
 6158.00    1.05498   1.08910    9.479
 6159.00    1.03777   1.08196    9.636
 6160.00    1.02342   1.07649    9.771
 6161.00    1.01444   1.07288    9.858
 6162.00    1.01247   1.07117    9.877
 6163.00    1.01767   1.07129    9.826
 6164.00    1.02826   1.07299    9.725
 6165.00    1.04056   1.07610    9.610
 6166.00    1.04943   1.08018    9.529
 6167.00    1.05135   1.08515    9.512
 6168.00    1.04739   1.09055    9.548
 6169.00    1.04226   1.09636    9.595
 6170.00    1.04258   1.10222    9.592
 6171.00    1.05169   1.10810    9.508
 6172.00    1.06574   1.11374    9.383
 6173.00    1.07856   1.11899    9.272
 6174.00    1.08629   1.12374    9.206
 6175.00    1.09029   1.12772    9.172
 6176.00    1.09780   1.13092    9.109
 6177.00    1.11171   1.13302    8.995
 6178.00    1.12454   1.13410    8.893
 6179.00    1.12888   1.13393    8.858
 6180.00    1.12447   1.13266    8.893
 6181.00    1.11649   1.13027    8.957
 6182.00    1.11270   1.12703    8.987
 6183.00    1.11436   1.12317    8.974
 6184.00    1.11282   1.11909    8.986
 6185.00    1.10106   1.11514    9.082
 6186.00    1.07975   1.11177    9.261
 6187.00    1.05438   1.10918    9.484
 6188.00    1.03246   1.10777    9.686
 6189.00    1.01837   1.10743    9.820
 6190.00    1.01146   1.10835    9.887
 6191.00    1.00919   1.11016    9.909
 6192.00    1.00915   1.11284    9.909
 6193.00    1.01122   1.11594    9.889
 6194.00    1.01774   1.11937    9.826
 6195.00    1.03032   1.12280    9.706
 6196.00    1.04840   1.12614    9.538
 6197.00    1.06850   1.12923    9.359
 6198.00    1.08535   1.13198    9.214
 6199.00    1.09650   1.13431    9.120
 6200.00    1.10257   1.13605    9.070
 6201.00    1.10269   1.13711    9.069
 6202.00    1.09501   1.13725    9.132
 6203.00    1.08309   1.13641    9.233
 6204.00    1.07498   1.13434    9.302
 6205.00    1.07510   1.13112    9.301
 6206.00    1.08161   1.12668    9.246
 6207.00    1.08649   1.12128   -2.000
 6208.00    1.08067   1.11508   -2.000
 6209.00    1.06645   1.10850   -2.000
 6210.00    1.05441   1.10185   -2.000
 6211.00    1.04828   1.09556   -2.000
 6212.00    1.04483   1.08995   -2.000
 6213.00    1.04197   1.08525   -2.000
 6214.00    1.03997   1.08163   -2.000
 6215.00    1.04030   1.07909   -2.000
 6216.00    1.04443   1.07758   -2.000
 6217.00    1.05189   1.07686   -2.000
 6218.00    1.06042   1.07673   -2.000
 6219.00    1.06678   1.07691    9.374
 6220.00    1.06826   1.07711    9.361
 6221.00    1.06480   1.07723    9.391
 6222.00    1.05848   1.07697    9.447
 6223.00    1.05204   1.07656    9.505
 6224.00    1.04760   1.07571    9.546
 6225.00    1.04534   1.07500    9.566
 6226.00    1.04460   1.07413    9.573
 6227.00    1.04572   1.07374    9.563
 6228.00    1.04867   1.07345    9.536
 6229.00    1.05104   1.07373    9.514
 6230.00    1.04963   1.07414    9.527
 6231.00    1.04296   1.07475    9.588
 6232.00    1.03309   1.07523    9.680
 6233.00    1.02701   1.07537    9.737
 6234.00    1.03036   1.07509    9.705
 6235.00    1.04077   1.07420    9.608
 6236.00    1.05207   1.07287    9.505
 6237.00    1.05962   1.07114    9.437
 6238.00    1.06103   1.06928    9.425
 6239.00    1.05643   1.06747    9.466
 6240.00    1.04764   1.06594    9.545
 6241.00    1.03738   1.06468    9.640
 6242.00    1.02884   1.06384    9.720
 6243.00    1.02504   1.06309    9.756
 6244.00    1.02736   1.06253    9.734
 6245.00    1.03435   1.06159    9.668
 6246.00    1.04263   1.06050    9.591
 6247.00    1.04807   1.05873    9.541
 6248.00    1.04872   1.05666    9.535
 6249.00    1.04651   1.05413    9.556
 6250.00    1.04386   1.05155    9.580
 6251.00    1.04154   1.04926    9.601
 6252.00    1.03950   1.04742    9.620
 6253.00    1.03762   1.04673    9.637
 6254.00    1.03565   1.04691    9.656
 6255.00    1.03344   1.04870    9.676
 6256.00    1.03184   1.05143    9.691
 6257.00    1.03295   1.05559    9.681
 6258.00    1.03879   1.06036    9.627
 6259.00    1.05014   1.06586    9.523
 6260.00    1.06421   1.07148    9.397
 6261.00    1.07500   1.07704    9.302
 6262.00    1.07941   1.08231    9.264
 6263.00    1.07934   1.08697    9.265
 6264.00    1.07796   1.09121    9.277
 6265.00    1.07757   1.09466    9.280
 6266.00    1.07758   1.09773    9.280
 6267.00    1.07492   1.10007    9.303
 6268.00    1.06828   1.10211    9.361
 6269.00    1.05934   1.10356    9.440
 6270.00    1.05094   1.10473    9.515
 6271.00    1.04642   1.10547    9.556
 6272.00    1.04947   1.10597    9.529
 6273.00    1.06245   1.10628    9.412
 6274.00    1.08170   1.10644    9.245
 6275.00    1.09848   1.10677    9.103
 6276.00    1.10616   1.10711    9.040
 6277.00    1.10316   1.10799    9.065
 6278.00    1.09487   1.10901    9.133
 6279.00    1.09015   1.11072    9.173
 6280.00    1.09107   1.11252    0.000
 6281.00    1.09389   1.11478    0.000
 6282.00    1.09722   1.11691    0.000
 6283.00    1.10285   1.11897    0.000
 6284.00    1.11284   1.12055    0.000
 6285.00    1.12716   1.12153    0.000
 6286.00    1.14025   1.12176    0.000
 6287.00    1.14435   1.12108    0.000
 6288.00    1.13737   1.11962    0.000
 6289.00    1.12326   1.11732    0.000
 6290.00    1.10968   1.11450    0.000
 6291.00    1.10328   1.11119    0.000
 6292.00    1.10268   1.10782    0.000
 6293.00    1.10229   1.10446    0.000
 6294.00    1.10041   1.10158    0.000
 6295.00    1.09847   1.09915    0.000
 6296.00    1.09794   1.09759    0.000
 6297.00    1.09946   1.09673    0.000
 6298.00    1.10226   1.09691    0.000
 6299.00    1.10411   1.09771    0.000
 6300.00    1.10148   1.09942    0.000
 6301.00    1.09304   1.10132    0.000
 6302.00    1.08359   1.10363    0.000
 6303.00    1.07919   1.10562    0.000
 6304.00    1.08104   1.10741    0.000
 6305.00    1.08607   1.10838    0.000
 6306.00    1.08873   1.10869    0.000
 6307.00    1.08538   1.10807    0.000
 6308.00    1.07834   1.10673    0.000
 6309.00    1.07205   1.10470    0.000
 6310.00    1.06900   1.10233    0.000
 6311.00    1.07001   1.09987    0.000
 6312.00    1.07483   1.09765    0.000
 6313.00    1.08182   1.09603    0.000
 6314.00    1.08793   1.09513    0.000
 6315.00    1.09106   1.09533    0.000
 6316.00    1.09165   1.09637    0.000
 6317.00    1.09151   1.09864    0.000
 6318.00    1.09247   1.10146    0.000
 6319.00    1.09466   1.10521    0.000
 6320.00    1.09594   1.10902    0.000
 6321.00    1.09619   1.11315    9.123
 6322.00    1.09932   1.11684    9.097
 6323.00    1.10782   1.12015    9.027
 6324.00    1.11960   1.12266    8.932
 6325.00    1.13046   1.12435    8.846
 6326.00    1.13641   1.12518    8.800
 6327.00    1.13732   1.12514    8.793
 6328.00    1.13760   1.12423    8.790
 6329.00    1.13927   1.12280    8.778
 6330.00    1.13945   1.12080    8.776
 6331.00    1.13600   1.11869    8.803
 6332.00    1.12986   1.11643    8.851
 6333.00    1.12287   1.11441    8.906
 6334.00    1.11697   1.11278    8.953
 6335.00    1.11549   1.11155    8.965
 6336.00    1.12207   1.11095    8.912
 6337.00    1.13449   1.11069    8.815
 6338.00    1.14451   1.11114    8.737
 6339.00    1.14652   1.11177    8.722
 6340.00    1.14037   1.11294    8.769
 6341.00    1.12920   1.11417    8.856
 6342.00    1.11793   1.11559    8.945
 6343.00    1.11099   1.11686    9.001
 6344.00    1.11122   1.11788    8.999
 6345.00    1.11896   1.11854    8.937
 6346.00    1.13161   1.11853    8.837
 6347.00    1.14300   1.11774    8.749
 6348.00    1.14572   1.11602    8.728
 6349.00    1.13749   1.11336    8.791
 6350.00    1.12169   1.10980    8.915
 6351.00    1.10406   1.10540    9.057
 6352.00    1.09019   1.10051    9.173
 6353.00    1.08157   1.09527    9.246
 6354.00    1.07633   1.09023    9.291
 6355.00    1.07300   1.08557    9.320
 6356.00    1.07130   1.08184    9.334
 6357.00    1.07213   1.07921    9.327
 6358.00    1.07573   1.07797    9.296
 6359.00    1.07855   1.07829    9.272
 6360.00    1.07669   1.08009    9.288
 6361.00    1.07324   1.08344    9.318
 6362.00    1.07441   1.08796    9.307
 6363.00    1.08088   1.09360    9.252
 6364.00    1.08948   1.09979    9.179
 6365.00    1.09830   1.10633    9.105
 6366.00    1.10662   1.11278    9.037
 6367.00    1.11376   1.11884    8.979
 6368.00    1.11971   1.12433    8.931
 6369.00    1.12627   1.12887    8.879
 6370.00    1.13565   1.13258    8.806
 6371.00    1.14829   1.13527    8.709
 6372.00    1.16167   1.13709    8.608
 6373.00    1.16968   1.13811    8.549
 6374.00    1.16820   1.13845    8.560
 6375.00    1.16128   1.13833    8.611
 6376.00    1.15516   1.13782    8.657
 6377.00    1.15105   1.13731    8.688
 6378.00    1.14742   1.13663    8.715
 6379.00    1.14312   1.13606    8.748
 6380.00    1.13822   1.13542    8.786
 6381.00    1.13428   1.13489    8.816
 6382.00    1.13215   1.13413    8.833
 6383.00    1.13007   1.13329    8.849
 6384.00    1.12546   1.13193    8.885
 6385.00    1.11686   1.13058    8.954
 6386.00    1.10604   1.12892    9.041
 6387.00    1.09883   1.12717    9.101
 6388.00    1.09964   1.12518    9.094
 6389.00    1.10727   1.12322    9.031
 6390.00    1.11649   1.12135    8.957
 6391.00    1.12034   1.11939    8.926
 6392.00    1.11739   1.11840    8.949
 6393.00    1.11505   1.11762    8.968
 6394.00    1.11944   1.11755    8.933
 6395.00    1.12954   1.11772    8.853
 6396.00    1.14033   1.11846    8.769
 6397.00    1.14573   1.11944    8.728
 6398.00    1.14329   1.12057    8.747
 6399.00    1.13602   1.12176    8.803
 6400.00    1.12833   1.12295    8.863
 6401.00    1.12372   1.12402    8.899
 6402.00    1.12397   1.12453    8.897
 6403.00    1.12870   1.12486    8.860
 6404.00    1.13520   1.12479    8.809
 6405.00    1.13892   1.12443    8.780
 6406.00    1.13620   1.12384    8.801
 6407.00    1.12613   1.12317    8.880
 6408.00    1.11315   1.12238    8.984
 6409.00    1.10554   1.12167    9.045
 6410.00    1.10627   1.12096    9.039
 6411.00    1.11116   1.12033    9.000
 6412.00    1.11453   1.11989    8.972
 6413.00    1.11242   1.11966    8.989
 6414.00    1.10578   1.11990    9.043
 6415.00    1.09946   1.12022    9.095
 6416.00    1.09587   1.12112    9.125
 6417.00    1.09407   1.12204    9.140
 6418.00    1.09265   1.12350    9.152
 6419.00    1.09064   1.12492    9.169
 6420.00    1.08757   1.12658    9.195
 6421.00    1.08375   1.12791    9.227
 6422.00    1.08089   1.12903    9.252
 6423.00    1.08116   1.12990    9.249
 6424.00    1.08466   1.13022    9.220
 6425.00    1.08939   1.13052    9.179
 6426.00    1.09259   1.13024    9.153
 6427.00    1.09225   1.13005    9.155
 6428.00    1.08960   1.12953    9.178
 6429.00    1.08757   1.12924    9.195
 6430.00    1.08698   1.12893    9.200
 6431.00    1.08688   1.12914    9.201
 6432.00    1.08649   1.12955    9.204
 6433.00    1.08693   1.13063    9.200
 6434.00    1.09296   1.13204    9.149
 6435.00    1.10756   1.13362    9.029
 6436.00    1.12306   1.13534    8.904
 6437.00    1.12937   1.13692    8.854
 6438.00    1.12779   1.13833    8.867
 6439.00    1.12548   1.13911    8.885
 6440.00    1.12481   1.13925    8.890
 6441.00    1.12520   1.13835    8.887
 6442.00    1.12726   1.13681    8.871
 6443.00    1.13120   1.13425    8.840
 6444.00    1.13424   1.13193    8.816
 6445.00    1.13360   1.12904    8.821
 6446.00    1.13016   1.12651    8.848
 6447.00    1.12695   1.12409    8.874
 6448.00    1.12681   1.12234    8.875
 6449.00    1.13050   1.12127    8.846
 6450.00    1.13524   1.12116    8.809
 6451.00    1.13724   1.12184    8.793
 6452.00    1.13461   1.12289    8.814
 6453.00    1.12908   1.12430    8.857
 6454.00    1.12676   1.12561    8.875
 6455.00    1.13117   1.12682    8.840
 6456.00    1.13815   1.12768    8.786
 6457.00    1.14263   1.12907    8.752
 6458.00    1.14410   1.12973    8.741
 6459.00    1.14315   1.13080    8.748
 6460.00    1.13902   1.13122    8.779
 6461.00    1.13248   1.13225    8.830
 6462.00    1.12731   1.13267    8.871
 6463.00    1.12664   1.13361    8.876
 6464.00    1.13028   1.13423    8.847
 6465.00    1.13501   1.13488    8.810
 6466.00    1.13557   1.13571    8.806
 6467.00    1.12953   1.13591    8.853
 6468.00    1.11963   1.13619    8.932
 6469.00    1.11072   1.13582    9.003
 6470.00    1.10744   1.13575    9.030
 6471.00    1.11110   1.13481    9.000
 6472.00    1.11877   1.13388    8.938
 6473.00    1.12624   1.13247    8.879
 6474.00    1.12996   1.13071    8.850
 6475.00    1.12901   1.12858    8.857
 6476.00    1.12513   1.12637    8.888
 6477.00    1.11953   1.12429    8.932
 6478.00    1.11225   1.12188    8.991
 6479.00    1.10513   1.11946    9.049
 6480.00    1.10223   1.11661    9.073
 6481.00    1.10694   1.11359    9.034
 6482.00    1.11969   1.10984    8.931
 6483.00    1.13403   1.10538    8.818
 6484.00    1.13911   1.10003    8.779
 6485.00    1.13158   1.09379    8.837
 6486.00    1.11697   1.08655    8.953
 6487.00    1.10159   1.07811    9.078
 6488.00    1.08899   1.06958    9.183
 6489.00    1.07730   1.06134    9.282
 6490.00    1.06168   1.05367    9.419
 6491.00    1.04264   1.04770    9.591
 6492.00    1.02606   1.04282    9.746
 6493.00    1.01741   1.04075    9.829
 6494.00    1.01954   1.04059    9.808
 6495.00    1.03115   1.04302    9.698
 6496.00    1.04755   1.04746    9.546
 6497.00    1.06318   1.05360    9.406
 6498.00    1.07362   1.06121    9.314
 6499.00    1.07824   1.06934    9.274
 6500.00    1.07958   1.07793    9.263
 6501.00    1.08089   1.08585    9.252
 6502.00    1.08452   1.09342    9.221
 6503.00    1.08989   1.09987    9.175
 6504.00    1.09494   1.10541    9.133
 6505.00    1.09922   1.10958    9.097
 6506.00    1.10438   1.11278    9.055
 6507.00    1.11392   1.11476    8.977
 6508.00    1.12930   1.11586    8.855
 6509.00    1.14452   1.11608    8.737
 6510.00    1.15156   1.11595    8.684
 6511.00    1.14895   1.11528    8.704
 6512.00    1.14080   1.11463    8.766
 6513.00    1.13357   1.11415    8.822
 6514.00    1.13119   1.11378    8.840
 6515.00    1.13001   1.11383    8.849
 6516.00    1.12578   1.11399    8.883
 6517.00    1.12192   1.11456    8.913
 6518.00    1.12325   1.11523    8.903
 6519.00    1.12851   1.11599    8.861
 6520.00    1.13370   1.11669    8.821
 6521.00    1.13640   1.11743    8.800
 6522.00    1.13638   1.11801    8.800
 6523.00    1.13566   1.11854    8.805
 6524.00    1.13612   1.11890    8.802
 6525.00    1.13771   1.11906    8.790
 6526.00    1.13999   1.11918    8.772
 6527.00    1.14343   1.11933    8.746
 6528.00    1.14763   1.11964    0.000
 6529.00    1.15003   1.12006    0.000
 6530.00    1.14832   1.12045    0.000
 6531.00    1.14226   1.12094    0.000
 6532.00    1.13358   1.12122    0.000
 6533.00    1.12551   1.12146    0.000
 6534.00    1.12117   1.12123    0.000
 6535.00    1.12219   1.12066    0.000
 6536.00    1.12727   1.11934    0.000
 6537.00    1.13190   1.11745    0.000
 6538.00    1.13184   1.11498    0.000
 6539.00    1.12537   1.11166    0.000
 6540.00    1.11414   1.10822    0.000
 6541.00    1.10288   1.10404    0.000
 6542.00    1.09612   1.09995    0.000
 6543.00    1.09621   1.09551    0.000
 6544.00    1.10221   1.09084    0.000
 6545.00    1.11004   1.08594    0.000
 6546.00    1.11585   1.08057    0.000
 6547.00    1.11771   1.07491    0.000
 6548.00    1.11667   1.06854    0.000
 6549.00    1.11592   1.06161    0.000
 6550.00    1.11625   1.05384    0.000
 6551.00    1.11515   1.04541    0.000
 6552.00    1.11049   1.03625    0.000
 6553.00    1.10183   1.02647    0.000
 6554.00    1.09009   1.01622    0.000
 6555.00    1.07735   1.00565    0.000
 6556.00    1.06657   0.99547    0.000
 6557.00    1.06000   0.98691    0.000
 6558.00    1.05513   0.97973    0.000
 6559.00    1.04653   0.97655    0.000
 6560.00    1.03449   0.97542    0.000
 6561.00    1.02480   0.97696    0.000
 6562.00    1.02170   0.98048    0.000
 6563.00    1.02580   0.98626    0.000
 6564.00    1.03410   0.99339    0.000
 6565.00    1.04172   1.00162    0.000
 6566.00    1.04608   1.01048    0.000
 6567.00    1.04788   1.01914    0.000
 6568.00    1.05112   1.02744    0.000
 6569.00    1.06063   1.03538    0.000
 6570.00    1.07738   1.04262    0.000
 6571.00    1.09786   1.04948    0.000
 6572.00    1.11505   1.05569    0.000
 6573.00    1.12204   1.06129    0.000
 6574.00    1.11805   1.06610    0.000
 6575.00    1.10796   1.07056    0.000
 6576.00    1.09938   1.07433    0.000
 6577.00    1.09901   1.07795    0.000
 6578.00    1.10758   1.08108    0.000
 6579.00    1.12092   1.08357    0.000
 6580.00    1.13286   1.08557    0.000
 6581.00    1.13874   1.08676    0.000
 6582.00    1.13942   1.08752    0.000
 6583.00    1.13784   1.08765    0.000
 6584.00    1.13390   1.08704    0.000
 6585.00    1.12600   1.08582    0.000
 6586.00    1.11396   1.08398    0.000
 6587.00    1.10077   1.08183    0.000
 6588.00    1.09359   1.07943    0.000
 6589.00    1.09630   1.07775    0.000
 6590.00    1.10201   1.07669    0.000
 6591.00    1.10187   1.07594    0.000
 6592.00    1.09477   1.07562    0.000
 6593.00    1.08583   1.07583    0.000
 6594.00    1.08346   1.07658    0.000
 6595.00    1.09224   1.07786    0.000
 6596.00    1.10751   1.07931    0.000
 6597.00    1.12184   1.08059    0.000
 6598.00    1.13093   1.08160    0.000
 6599.00    1.13335   1.08234    0.000
 6600.00    1.13001   1.08262    0.000
 6601.00    1.12300   1.08284    0.000
 6602.00    1.11496   1.08270    0.000
 6603.00    1.10952   1.08275    0.000
 6604.00    1.11091   1.08259    0.000
 6605.00    1.11834   1.08313    0.000
 6606.00    1.12398   1.08423    0.000
 6607.00    1.12330   1.08547    0.000
 6608.00    1.12024   1.08714    0.000
 6609.00    1.11995   1.08886    8.929
 6610.00    1.12432   1.09136    8.894
 6611.00    1.13176   1.09350    8.836
 6612.00    1.13812   1.09558    8.786
 6613.00    1.14050   1.09721    8.768
 6614.00    1.13901   1.09859    8.780
 6615.00    1.13556   1.09936    8.806
 6616.00    1.13288   1.09946    8.827
 6617.00    1.13305   1.09890    8.826
 6618.00    1.13670   1.09751    8.797
 6619.00    1.14237   1.09570    8.754
 6620.00    1.14670   1.09319    8.721
 6621.00    1.14594   1.09100    8.726
 6622.00    1.13734   1.08830    8.792
 6623.00    1.12175   1.08558    8.915
 6624.00    1.10383   1.08287    9.059
 6625.00    1.08972   1.08006    9.177
 6626.00    1.08439   1.07770    9.222
 6627.00    1.08656   1.07529    9.203
 6628.00    1.08934   1.07339    9.180
 6629.00    1.08743   1.07156    9.196
 6630.00    1.07963   1.07092    9.262
 6631.00    1.06946   1.07040    9.351
 6632.00    1.06300   1.07045    9.407
 6633.00    1.06287   1.07055    9.408
 6634.00    1.06807   1.07091    9.363
 6635.00    1.07761   1.07132    9.280
 6636.00    1.09034   1.07208    9.171
 6637.00    1.10238   1.07282    9.071
 6638.00    1.10911   1.07294    9.016
 6639.00    1.11064   1.07337    9.004
 6640.00    1.11105   1.07410    9.000
 6641.00    1.11459   1.07468    8.972
 6642.00    1.12263   1.07505    8.908
 6643.00    1.12990   1.07539    8.850
 6644.00    1.12967   1.07593    8.852
 6645.00    1.12406   1.07618    8.896
 6646.00    1.12011   1.07633    8.928
 6647.00    1.12021   1.07625    8.927
 6648.00    1.12300   1.07619    8.905
 6649.00    1.12728   1.07576    8.871
 6650.00    1.13212   1.07531    8.833
 6651.00    1.13623   1.07430    8.801
 6652.00    1.13799   1.07306    8.787
 6653.00    1.13586   1.07166    8.804
 6654.00    1.12949   1.06991    8.854
 6655.00    1.12103   1.06793    8.920
 6656.00    1.11277   1.06571    8.987
 6657.00    1.10426   1.06378    9.056
 6658.00    1.09393   1.06143    9.141
 6659.00    1.08148   1.05989    9.247
 6660.00    1.06853   1.05890    9.359
 6661.00    1.05890   1.05818    9.444
 6662.00    1.05631   1.05797    9.467
 6663.00    1.06201   1.05817    9.416
 6664.00    1.07398   1.05898    9.311
 6665.00    1.08688   1.05993    9.201
 6666.00    1.09492   1.06097    9.133
 6667.00    1.09480   1.06176    9.134
 6668.00    1.08735   1.06241    9.197
 6669.00    1.07827   1.06257    9.274
 6670.00    1.07370   1.06256    9.314
 6671.00    1.07662   1.06194    9.288
 6672.00    1.08673   1.06097    9.202
 6673.00    1.10061   1.05941    9.086
 6674.00    1.11255   1.05877    8.988
 6675.00    1.11595   1.05836    8.961
 6676.00    1.10806   1.05798    9.025
 6677.00    1.09256   1.05827    9.153
 6678.00    1.07626   1.05864    9.291
 6679.00    1.06609   1.05970    9.380
 6680.00    1.06396   1.06064    9.399
 6681.00    1.06543   1.06197    9.386
 6682.00    1.06828   1.06311    9.361
 6683.00    1.07573   1.06408    9.296
 6684.00    1.08906   1.06501    9.182
 6685.00    1.10408   1.06543    9.057
 6686.00    1.11319   1.06578    8.983
 6687.00    1.10865   1.06537    9.020
 6688.00    1.09244   1.06493    9.154
 6689.00    1.07706   1.06388    9.285
 6690.00    1.07079   1.06277    9.339
 6691.00    1.07257   1.06118    9.323
 6692.00    1.07681   1.05993    9.287
 6693.00    1.07719   1.05877    9.283
 6694.00    1.07264   1.05771    9.323
 6695.00    1.06783   1.05723    9.365
 6696.00    1.06712   1.05652    0.000
 6697.00    1.07235   1.05618    0.000
 6698.00    1.08249   1.05558    0.000
 6699.00    1.09422   1.05507    0.000
 6700.00    1.10413   1.05460    0.000
 6701.00    1.10977   1.05404    0.000
 6702.00    1.11089   1.05339    0.000
 6703.00    1.10970   1.05227    0.000
 6704.00    1.11054   1.05111    0.000
 6705.00    1.11701   1.04916    0.000
 6706.00    1.12518   1.04721    0.000
 6707.00    1.12645   1.04494    0.000
 6708.00    1.11781   1.04220    0.000
 6709.00    1.10228   1.03974    0.000
 6710.00    1.08474   1.03690    0.000
 6711.00    1.07019   1.03463    0.000
 6712.00    1.06217   1.03247    0.000
 6713.00    1.06192   1.03101    0.000
 6714.00    1.06740   1.03065    0.000
 6715.00    1.07428   1.03051    0.000
 6716.00    1.07816   1.03142    0.000
 6717.00    1.07728   1.03230    0.000
 6718.00    1.07618   1.03419    0.000
 6719.00    1.08009   1.03592    0.000
 6720.00    1.08570   1.03813    0.000
 6721.00    1.08681   1.04002    0.000
 6722.00    1.08447   1.04211    0.000
 6723.00    1.08258   1.04397    0.000
 6724.00    1.08003   1.04560    0.000
 6725.00    1.07396   1.04719    0.000
 6726.00    1.06548   1.04811    0.000
 6727.00    1.05995   1.04888    0.000
 6728.00    1.06588   1.04885    0.000
 6729.00    1.08543   1.04887    0.000
 6730.00    1.10491   1.04825    0.000
 6731.00    1.11052   1.04764    0.000
 6732.00    1.10552   1.04649    0.000
 6733.00    1.10104   1.04511    0.000
 6734.00    1.10461   1.04362    0.000
 6735.00    1.11603   1.04193    0.000
 6736.00    1.12548   1.04052    0.000
 6737.00    1.12478   1.03880    0.000
 6738.00    1.11676   1.03732    0.000
 6739.00    1.10897   1.03578    0.000
 6740.00    1.10718   1.03463    0.000
 6741.00    1.11215   1.03337    0.000
 6742.00    1.11816   1.03265    0.000
 6743.00    1.11957   1.03176    0.000
 6744.00    1.11542   1.03142    0.000
 6745.00    1.10674   1.03116    0.000
 6746.00    1.09463   1.03155    0.000
 6747.00    1.08049   1.03242    0.000
 6748.00    1.06641   1.03318    0.000
 6749.00    1.05585   1.03516    0.000
 6750.00    1.05322   1.03666    0.000
 6751.00    1.05959   1.03920    0.000
 6752.00    1.07105   1.04142    0.000
 6753.00    1.08343   1.04386    9.230
 6754.00    1.09476   1.04614    9.134
 6755.00    1.10467   1.04810    9.052
 6756.00    1.11347   1.04979    8.981
 6757.00    1.11961   1.05070    8.932
 6758.00    1.11960   1.05151    8.932
 6759.00    1.11288   1.05147    8.986
 6760.00    1.10275   1.05131    9.068
 6761.00    1.09161   1.05064    9.161
 6762.00    1.08011   1.04970    9.258
 6763.00    1.07177   1.04878    9.330
 6764.00    1.07221   1.04814    9.327
 6765.00    1.07974   1.04768    9.261
 6766.00    1.08484   1.04763    9.218
 6767.00    1.07975   1.04793    9.261
 6768.00    1.06209   1.04854    9.415
 6769.00    1.03507   1.04956    9.661
 6770.00    1.00804   1.05071    9.920
 6771.00    0.99771   1.05191   10.023
 6772.00    1.02076   1.05273    9.797
 6773.00    1.07307   1.05326    9.319
 6774.00    1.13177   1.05352    8.836
 6775.00    1.17585   1.05306    8.504
 6776.00    1.19422   1.05235    8.374
 6777.00    1.19116   1.05071    8.395
 6778.00    1.18050   1.04891    8.471
 6779.00    1.16952   1.04665    8.550
 6780.00    1.15822   1.04456    8.634
 6781.00    1.14583   1.04254    8.727
 6782.00    1.13307   1.04085    8.826
 6783.00    1.12342   1.03980    8.901
 6784.00    1.12034   1.03867    8.926
 6785.00    1.12150   1.03836    8.917
 6786.00    1.12016   1.03798    8.927
 6787.00    1.10979   1.03804    9.011
 6788.00    1.09015   1.03818    9.173
 6789.00    1.07523   1.03853    9.300
 6790.00    1.07915   1.03907    9.267
 6791.00    1.09325   1.03960    9.147
 6792.00    1.09954   1.04060    9.095
 6793.00    1.09536   1.04127    9.129
 6794.00    1.08811   1.04224    9.190
 6795.00    1.08317   1.04300    9.232
 6796.00    1.08331   1.04366    9.231
 6797.00    1.08985   1.04441    9.176
 6798.00    1.10115   1.04494    9.081
 6799.00    1.11118   1.04532    8.999
 6800.00    1.11685   1.04555    8.954
 6801.00    1.12536   1.04569    8.886
 6802.00    1.13940   1.04565    8.777
 6803.00    1.14277   1.04578    8.751
 6804.00    1.12709   1.04555    8.872
 6805.00    1.11633   1.04537    8.958
 6806.00    1.12836   1.04534    8.862
 6807.00    1.14087   1.04508    8.765
 6808.00    1.13368   1.04520    8.821
 6809.00    1.12476   1.04525    8.891
 6810.00    1.13199   1.04534    8.834
 6811.00    1.14215   1.04579    8.755
 6812.00    1.13917   1.04627    8.778
 6813.00    1.12644   1.04702    8.878
 6814.00    1.11353   1.04787    8.980
 6815.00    1.10549   1.04857    9.046
 6816.00    1.10513   1.04930    9.049
 6817.00    1.11400   1.05001    8.977
 6818.00    1.12560   1.05092    8.884
 6819.00    1.12472   1.05163    8.891
 6820.00    1.11001   1.05226    9.009
 6821.00    1.10229   1.05253    9.072
 6822.00    1.11193   1.05276    8.993
 6823.00    1.12501   1.05268    8.889
 6824.00    1.13107   1.05246    8.841
 6825.00    1.13454   1.05188    8.814
 6826.00    1.13422   1.05142    8.817
 6827.00    1.11796   1.05078    8.945
 6828.00    1.08694   1.04995    9.200
 6829.00    1.06157   1.04874    9.420
 6830.00    1.05598   1.04725    9.470
 6831.00    1.06811   1.04565    9.362
 6832.00    1.08696   1.04382    9.200
 6833.00    1.09849   1.04187    9.103
 6834.00    1.09561   1.03955    9.127
 6835.00    1.08091   1.03764    9.251
 6836.00    1.06241   1.03564    9.413
 6837.00    1.04936   1.03416    9.530
 6838.00    1.04432   1.03302    9.576
 6839.00    1.04301   1.03248    9.588
 6840.00    1.04266   1.03267    9.591
 6841.00    1.04419   1.03309    9.577
 6842.00    1.05069   1.03385    9.518
 6843.00    1.06497   1.03432    9.390
 6844.00    1.08430   1.03493    9.223
 6845.00    1.10201   1.03534    9.074
 6846.00    1.11537   1.03547    8.966
 6847.00    1.12562   1.03526    8.884
 6848.00    1.13298   1.03471    8.826
 6849.00    1.13624   1.03383    8.801
 6850.00    1.13477   1.03248    8.812
 6851.00    1.12933   1.03113    8.855
 6852.00    1.12277   1.02941    8.907
 6853.00    1.11558   1.02800    8.964
 6854.00    1.09730   1.02707    9.113
 6855.00    1.06355   1.02593    9.403
 6856.00    1.04890   1.02519    9.534
 6857.00    1.08811   1.02464    9.190
 6858.00    1.13997   1.02432    8.772
 6859.00    1.13997   1.02435    8.772
 6860.00    1.10650   1.02469    9.037
 6861.00    1.09668   1.02518    9.118
 6862.00    1.11246   1.02534    8.989
 6863.00    1.12380   1.02553    8.898
 6864.00    1.12292   1.02564    8.905
 6865.00    1.11767   1.02586    8.947
 6866.00    1.11171   1.02635    8.995
 6867.00    1.10533   1.02701    9.047
 6868.00    1.09985   1.02755    9.092
 6869.00    1.09555   1.02805    9.128
 6870.00    1.08912   1.02873    9.182
 6871.00    1.07919   1.02959    9.266
 6872.00    1.07231   1.03042    9.326
 6873.00    1.07394   1.03138    9.312
 6874.00    1.07891   1.03239    9.269
 6875.00    1.08003   1.03362    9.259
 6876.00    1.07727   1.03456    9.283
 6877.00    1.07333   1.03558    9.317
 6878.00    1.06900   1.03643    9.355
 6879.00    1.06591   1.03764    9.382
 6880.00    1.06855   1.03907    9.358
 6881.00    1.07785   1.04074    9.278
 6882.00    1.08676   1.04280    9.202
 6883.00    1.08969   1.04442    9.177
 6884.00    1.08910   1.04645    9.182
 6885.00    1.08837   1.04845    9.188
 6886.00    1.08654   1.05031    9.203
 6887.00    1.08141   1.05194    9.247
 6888.00    1.07224   1.05339    9.326
 6889.00    1.06186   1.05476    9.417
 6890.00    1.05682   1.05559    9.462
 6891.00    1.06043   1.05663    9.430
 6892.00    1.06942   1.05715    9.351
 6893.00    1.07950   1.05761    9.264
 6894.00    1.08861   1.05822    9.186
 6895.00    1.09634   1.05879    9.121
 6896.00    1.10329   1.05925    9.064
 6897.00    1.10935   1.05962    9.014
 6898.00    1.11324   1.06014    8.983
 6899.00    1.11466   1.06088    8.971
 6900.00    1.11460   1.06124    8.972
 6901.00    1.11227   1.06154    8.991
 6902.00    1.10539   1.06157    9.047
 6903.00    1.09669   1.06157    9.118
 6904.00    1.09356   1.06159    9.144
 6905.00    1.09649   1.06087    9.120
 6906.00    1.09765   1.06027    9.110
 6907.00    1.09190   1.05916    9.158
 6908.00    1.08046   1.05822    9.255
 6909.00    1.06918   1.05676    9.353
 6910.00    1.06507   1.05566    9.389
 6911.00    1.06741   1.05439    9.368
 6912.00    1.06897   1.05316    9.355
 6913.00    1.06740   1.05269    9.369
 6914.00    1.06611   1.05146    9.380
 6915.00    1.06701   1.05121    9.372
 6916.00    1.06977   1.05055    9.348
 6917.00    1.07531   1.05025    9.300
 6918.00    1.08480   1.04979    9.218
 6919.00    1.09535   1.04919    9.129
 6920.00    1.10077   1.04877    9.085
 6921.00    1.09603   1.04769    9.124
 6922.00    1.08026   1.04739    9.257
 6923.00    1.06073   1.04716    9.427
 6924.00    1.04757   1.04733    9.546
 6925.00    1.04196   1.04760    9.597
 6926.00    1.03907   1.04764    9.624
 6927.00    1.03799   1.04803    9.634
 6928.00    1.04056   1.04822    9.610
 6929.00    1.04617   1.04875    9.559
 6930.00    1.05298   1.04906    9.497
 6931.00    1.06149   1.04966    9.421
 6932.00    1.07388   1.05059    9.312
 6933.00    1.09205   1.05078    9.157
 6934.00    1.11336   1.05109    8.982
 6935.00    1.12571   1.05105    8.883
 6936.00    1.11865   1.05109    8.939
 6937.00    1.09878   1.05088    9.101
 6938.00    1.07972   1.05052    9.262
 6939.00    1.06711   1.04982    9.371
 6940.00    1.06179   1.04884    9.418
 6941.00    1.06575   1.04801    9.383
 6942.00    1.07817   1.04702    9.275
 6943.00    1.09076   1.04657    9.168
 6944.00    1.09429   1.04666    9.138
 6945.00    1.08611   1.04649    9.207
 6946.00    1.07109   1.04644    9.336
 6947.00    1.06072   1.04665    9.428
 6948.00    1.06149   1.04660    9.421
 6949.00    1.06548   1.04715    9.385
 6950.00    1.06307   1.04816    9.407
 6951.00    1.05431   1.04935    9.485
 6952.00    1.04410   1.05095    9.578
 6953.00    1.03735   1.05262    9.640
 6954.00    1.03764   1.05450    9.637
 6955.00    1.04644   1.05590    9.556
 6956.00    1.06255   1.05779    9.411
 6957.00    1.08185   1.05937    9.243
 6958.00    1.09836   1.06104    9.104
 6959.00    1.10565   1.06245    9.044
 6960.00    1.10143   1.06356    9.079
 6961.00    1.08975   1.06455    9.176
 6962.00    1.07688   1.06485    9.286
 6963.00    1.06809   1.06480    9.363
 6964.00    1.06400   1.06442    9.398
 6965.00    1.06056   1.06390    9.429
 6966.00    1.05868   1.06223    9.446
 6967.00    1.06633   1.06019    9.378
 6968.00    1.08299   1.05769    9.234
 6969.00    1.09562   1.05506    9.127
 6970.00    1.09666   1.05297    9.119
 6971.00    1.09045   1.05030    9.171
 6972.00    1.08349   1.04785    9.229
 6973.00    1.07951   1.04560    9.264
 6974.00    1.07733   1.04399    9.282
 6975.00    1.07232   1.04269    9.326
 6976.00    1.06443   1.04219    9.395
 6977.00    1.05875   1.04378    9.445
 6978.00    1.05622   1.04560    9.468
 6979.00    1.05321   1.04764    9.495
 6980.00    1.05110   1.05001    9.514
 6981.00    1.05576   1.05235    9.472
 6982.00    1.06582   1.05464    9.382
 6983.00    1.07296   1.05676    9.320
 6984.00    1.07377   1.05880    9.313
 6985.00    1.07166   1.06043    9.331
 6986.00    1.07198   1.06145    9.329
 6987.00    1.07824   1.06214    9.274
 6988.00    1.08628   1.06259    9.206
 6989.00    1.08815   1.06245    9.190
 6990.00    1.08474   1.06198    9.219
 6991.00    1.08316   1.06101    9.232
 6992.00    1.08380   1.05986    9.227
 6993.00    1.08230   1.05878    9.240
 6994.00    1.07976   1.05728    9.261
 6995.00    1.07983   1.05592    9.261
 6996.00    1.07876   1.05413    9.270
 6997.00    1.07106   1.05251    9.337
 6998.00    1.06317   1.05151    9.406
 6999.00    1.06573   1.05071    9.383
 7000.00    1.07612   1.04997    9.293
 7001.00    1.08434   1.04874   -2.000
 7002.00    1.08752   1.04806   -2.000
 7003.00    1.08803   1.04751   -2.000
 7004.00    1.08689   1.04699   -2.000
 7005.00    1.08373   1.04658   -2.000
 7006.00    1.07825   1.04611   -2.000
 7007.00    1.07113   1.04566   -2.000
 7008.00    1.06476   1.04499   -2.000
 7009.00    1.06075   1.04449   -2.000
 7010.00    1.05685   1.04426   -2.000
 7011.00    1.05139   1.04373   -2.000
 7012.00    1.04837   1.04296   -2.000
 7013.00    1.05064   1.04175   -2.000
 7014.00    1.05251   1.04153   -2.000
 7015.00    1.04970   1.04264   -2.000
 7016.00    1.04967   1.04352   -2.000
 7017.00    1.05850   1.04419   -2.000
 7018.00    1.06828   1.04490   -2.000
 7019.00    1.07063   1.04549   -2.000
 7020.00    1.06944   1.04571   -2.000
 7021.00    1.07182   1.04640   -2.000
 7022.00    1.07924   1.04784   -2.000
 7023.00    1.08901   1.04969   -2.000
 7024.00    1.09634   1.05106   -2.000
 7025.00    1.09693   1.05238   -2.000
 7026.00    1.08899   1.05366   -2.000
 7027.00    1.07385   1.05485   -2.000
 7028.00    1.05640   1.05595   -2.000
 7029.00    1.04478   1.05720   -2.000
 7030.00    1.04814   1.05903   -2.000
 7031.00    1.06334   1.06091   -2.000
 7032.00    1.07244   1.06282   -2.000
 7033.00    1.07833   1.06499   -2.000
 7034.00    1.11384   1.06701   -2.000
 7035.00    1.17056   1.06815   -2.000
 7036.00    1.17947   1.07024   -2.000
 7037.00    1.12284   1.07359   -2.000
 7038.00    1.07135   1.07639   -2.000
 7039.00    1.06919   1.07867   -2.000
 7040.00    1.09011   1.07999   -2.000
 7041.00    1.10584   1.08064   -2.000
 7042.00    1.11443   1.07968   -2.000
 7043.00    1.11891   1.07866   -2.000
 7044.00    1.11876   1.07740   -2.000
 7045.00    1.11533   1.07486   -2.000
 7046.00    1.11246   1.07161   -2.000
 7047.00    1.10967   1.06686   -2.000
 7048.00    1.10176   1.06158   -2.000
 7049.00    1.08653   1.05507   -2.000
 7050.00    1.06625   1.04813   -2.000
 7051.00    1.04323   1.04202   -2.000
 7052.00    1.01981   1.03607   -2.000
 7053.00    1.00312   1.03084   -2.000
 7054.00    1.00161   1.02593   -2.000
 7055.00    1.01088   1.02125   -2.000
 7056.00    1.01730   1.01642   -2.000
 7057.00    1.01883   1.01203   -2.000
 7058.00    1.02393   1.00881   -2.000
 7059.00    1.03373   1.00679   -2.000
 7060.00    1.04124   1.00532   -2.000
 7061.00    1.04067   1.00467   -2.000
 7062.00    1.03029   1.00433   -2.000
 7063.00    1.01370   1.00372   -2.000
 7064.00    0.99752   1.00394   -2.000
 7065.00    0.98631   1.00432   -2.000
 7066.00    0.98211   1.00580   -2.000
 7067.00    0.98573   1.00795   -2.000
 7068.00    0.99543   1.01032   -2.000
 7069.00    1.00417   1.01212   -2.000
 7070.00    1.00399   1.01356   -2.000
 7071.00    0.99442   1.01499   -2.000
 7072.00    0.98192   1.01546   -2.000
 7073.00    0.97634   1.01557   -2.000
 7074.00    0.98516   1.01477   -2.000
 7075.00    1.00570   1.01350   -2.000
 7076.00    1.02795   1.01136   -2.000
 7077.00    1.04048   1.00826   -2.000
 7078.00    1.03676   1.00457   -2.000
 7079.00    1.02173   0.99987   -2.000
 7080.00    1.00416   0.99452   -2.000
 7081.00    0.98611   0.98879   -2.000
 7082.00    0.96822   0.98344   -2.000
 7083.00    0.95691   0.97886   -2.000
 7084.00    0.95770   0.97449   -2.000
 7085.00    0.96712   0.97000   -2.000
 7086.00    0.97705   0.96648   -2.000
 7087.00    0.98047   0.96341   -2.000
 7088.00    0.97516   0.96096   -2.000
 7089.00    0.96615   0.96033   -2.000
 7090.00    0.95886   0.95933   -2.000
 7091.00    0.95321   0.95979   -2.000
 7092.00    0.95062   0.95988   -2.000
 7093.00    0.95892   0.96051   -2.000
 7094.00    0.97826   0.96205   -2.000
 7095.00    0.99180   0.96306   -2.000
 7096.00    0.98591   0.96535   -2.000
 7097.00    0.96514   0.96618   -2.000
 7098.00    0.94265   0.96756   -2.000
 7099.00    0.93106   0.96846   -2.000
 7100.00    0.93261   0.96895   -2.000
 7101.00    0.93574   0.96973   -2.000
 7102.00    0.93405   0.97027   -2.000
 7103.00    0.93599   0.97078   -2.000
 7104.00    0.94948   0.97067   -2.000
 7105.00    0.97281   0.97056   -2.000
 7106.00    0.99784   0.97081   -2.000
 7107.00    1.01396   0.97067   -2.000
 7108.00    1.01761   0.97035   -2.000
 7109.00    1.01495   0.97058   -2.000
 7110.00    1.01033   0.97071   -2.000
 7111.00    1.00206   0.97111   -2.000
 7112.00    0.98973   0.97065   -2.000
 7113.00    0.97723   0.97084   -2.000
 7114.00    0.97042   0.97060   -2.000
 7115.00    0.97428   0.96953   -2.000
 7116.00    0.98560   0.96870   -2.000
 7117.00    0.99335   0.96712   -2.000
 7118.00    0.99092   0.96613   -2.000
 7119.00    0.97868   0.96380   -2.000
 7120.00    0.95643   0.96182   -2.000
 7121.00    0.92651   0.95990   -2.000
 7122.00    0.91248   0.95743   -2.000
 7123.00    0.94460   0.95526   -2.000
 7124.00    0.99681   0.95341   -2.000
 7125.00    1.00382   0.95242   -2.000
 7126.00    0.96620   0.95124   -2.000
 7127.00    0.94327   0.95061   -2.000
 7128.00    0.94988   0.95018   -2.000
 7129.00    0.95385   0.95071   -2.000
 7130.00    0.94307   0.95141   -2.000
 7131.00    0.93059   0.95292   -2.000
 7132.00    0.92496   0.95452   -2.000
 7133.00    0.92600   0.95562   -2.000
 7134.00    0.93216   0.95726   -2.000
 7135.00    0.94186   0.95817   -2.000
 7136.00    0.95272   0.95925   -2.000
 7137.00    0.96163   0.96002   -2.000
 7138.00    0.96527   0.96067   -2.000
 7139.00    0.96277   0.96125   -2.000
 7140.00    0.96006   0.96118   -2.000
 7141.00    0.96437   0.96151   -2.000
 7142.00    0.97363   0.96162   -2.000
 7143.00    0.98138   0.96188   -2.000
 7144.00    0.98725   0.96230   -2.000
 7145.00    0.99170   0.96209   -2.000
 7146.00    0.98595   0.96302   -2.000
 7147.00    0.96340   0.96447   -2.000
 7148.00    0.93709   0.96551   -2.000
 7149.00    0.92457   0.96708   -2.000
 7150.00    0.92487   0.96833   -2.000
 7151.00    0.92761   0.96950   -2.000
 7152.00    0.92813   0.97005   -2.000
 7153.00    0.92591   0.97061   -2.000
 7154.00    0.92076   0.97184   -2.000
 7155.00    0.91406   0.97156   -2.000
 7156.00    0.91022   0.97149   -2.000
 7157.00    0.91209   0.97126   -2.000
 7158.00    0.91625   0.97121   -2.000
 7159.00    0.91640   0.97134   -2.000
 7160.00    0.90768   0.97117   -2.000
 7161.00    0.89182   0.97123   -2.000
 7162.00    0.88022   0.97116   -2.000
 7163.00    0.88220   0.97222   -2.000
 7164.00    0.89527   0.97363   -2.000
 7165.00    0.91247   0.97521   -2.000
 7166.00    0.92882   0.97636   -2.000
 7167.00    0.93974   0.97732   -2.000
 7168.00    0.94043   0.97833   -2.000
 7169.00    0.93305   0.97918   -2.000
 7170.00    0.93007   0.97996   -2.000
 7171.00    0.94204   0.97999   -2.000
 7172.00    0.96888   0.97956   -2.000
 7173.00    0.99894   0.97856   -2.000
 7174.00    1.01270   0.97762   -2.000
 7175.00    1.00615   0.97709   -2.000
 7176.00    0.99884   0.97592   -2.000
 7177.00    1.00025   0.97369   -2.000
 7178.00    0.99720   0.97146   -2.000
 7179.00    0.98784   0.96958   -2.000
 7180.00    0.99251   0.96860   -2.000
 7181.00    1.01696   0.96783   -2.000
 7182.00    1.03908   0.96661   -2.000
 7183.00    1.03299   0.96571   -2.000
 7184.00    0.98521   0.96369   -2.000
 7185.00    0.91292   0.96274   -2.000
 7186.00    0.85985   0.96276   -2.000
 7187.00    0.84925   0.96297   -2.000
 7188.00    0.87054   0.96420   -2.000
 7189.00    0.90200   0.96422   -2.000
 7190.00    0.92431   0.96481   -2.000
 7191.00    0.93519   0.96538   -2.000
 7192.00    0.94636   0.96614   -2.000
 7193.00    0.95667   0.96771   -2.000
 7194.00    0.95216   0.96816   -2.000
 7195.00    0.93361   0.96954   -2.000
 7196.00    0.91687   0.97041   -2.000
 7197.00    0.90855   0.97029   -2.000
 7198.00    0.90382   0.97057   -2.000
 7199.00    0.89984   0.96995   -2.000
 7200.00    0.89864   0.97038   -2.000
 7201.00    0.90429   0.97071   -2.000
 7202.00    0.91839   0.97073   -2.000
 7203.00    0.93136   0.97115   -2.000
 7204.00    0.93007   0.96997   -2.000
 7205.00    0.91895   0.97012   -2.000
 7206.00    0.91301   0.97064   -2.000
 7207.00    0.91376   0.97175   -2.000
 7208.00    0.91201   0.97407   -2.000
 7209.00    0.90357   0.97515   -2.000
 7210.00    0.89319   0.97659   -2.000
 7211.00    0.89559   0.97734   -2.000
 7212.00    0.92270   0.97899   -2.000
 7213.00    0.96228   0.98109   -2.000
 7214.00    0.98889   0.98310   -2.000
 7215.00    0.98771   0.98587   -2.000
 7216.00    0.96023   0.98744   -2.000
 7217.00    0.92608   0.98946   -2.000
 7218.00    0.90860   0.99098   -2.000
