###################################################################
## OUTPUT of StarlightChains_v04.for    [Cid@UFSC - 01/Apr/2007] ##
###################################################################

## Some input info
2007A.txt                                [arq_obs]
Base.CB07.vall.4m                        [arq_base]
Masks.EmLines.NEW.gm                     [arq_masks]
StCv04.C11.config                        [arq_config]
   66                                    [N_base]
    0                                    [N_YAV_components = # of components with extra extinction!]
    0                                    [i_FitPowerLaw (1/0 = Yes/No)]
-9.99                                    [alpha_PowerLaw]
CCM                                      [red_law_option]
 1.458241                                [q_norm = A(l_norm)/A(V)]

## (Re)Sampling Parameters
 3741.00                                 [l_ini (A)]
 7218.00                                 [l_fin (A)]
    1.00                                 [dl    (A)]     (OBS: dl_cushion =    50.00 A)

## Normalization info
 4020.00                                 [l_norm (A) - for base]
 4010.00                                 [llow_norm (A) - window for f_obs]
 4060.00                                 [lupp_norm (A) - window for f_obs]
6.422075E-17                             [fobs_norm (in input units)]

## S/N
 3691.00                                 [llow_SN (A) - window for S/N]
 7268.00                                 [lupp_SN (A) - window for S/N]
  11.153                                 [S/N in S/N window]
  13.182                                 [S/N in norm. window]
  10.000                                 [S/N_err in S/N window]
  11.820                                 [S/N_err in norm. window]
  1.0000                                 [fscale_chi2]

## etc...
    -2007326                             [idum_orig]
  2221                                   [NOl_eff]
  2217                                   [Nl_eff]
     4    NSIGMA                         [Ntot_cliped & clip_method]
  1556030                                [Nglobal_steps]
   7                                     [N_chains]
  26                                     [NEX0s_base = N_base in EX0s-fits]
 0   0   1       69   2.0   1.411E+01    [Clip-Bug, RC-Crash & Burn-In warning-flags, n_censored_weights, wei_nsig_threshold & wei_limit]
    14     14.312     13.804      0.508  [idt_all, wdt_TotTime, wdt_UsrTime & wdt_SysTime (sec)]

## Synthesis Results - Best model ##

 1.78713E-01                             [chi2/Nl_eff]
     3.11421                             [adev (%)]

   100.86603                             [sum-of-x (%)]
 1.22827E-16                             [Flux_tot (units of input spectrum!)]
 1.69980E-12                             [Mini_tot (???)]
 8.69964E-13                             [Mcor_tot (???)]

 -38.09                                  [v0_min  (km/s)]
  94.00                                  [vd_min  (km/s)]
 0.4764                                  [AV_min  (mag)]
 0.0000                                  [YAV_min (mag)]

# j     x_j(%)      Mini_j(%)     Mcor_j(%)     age_j(yr)     Z_j      (L/M)_j    YAV?  Mstars   component_j        a/Fe...       SSP_chi2r SSP_adev(%)   SSP_AV   SSP_x(%)
  1      9.7922     6.4123E-02    1.2529E-01    1.000000E+06  0.00400  1.094E-02    0   1.0000   age020_m42            0.0000     5.8011E-01     6.0233   2.6918    87.1727
  2      0.0000     0.0000E+00    0.0000E+00    3.160000E+06  0.00400  4.007E-02    0   0.9999   age045_m42            0.0000     5.1428E-01     5.5008   1.9527    93.7906
  3      0.0000     0.0000E+00    0.0000E+00    5.010000E+06  0.00400  2.539E-02    0   0.9488   age055_m42            0.0000     5.1289E-01     5.5684   2.2793    91.2144
  4      0.0000     0.0000E+00    0.0000E+00    6.610000E+06  0.00400  2.620E-02    0   0.9220   age061_m42            0.0000     5.1282E-01     5.3659   1.8824    93.9408
  5      0.0021     1.1557E-05    2.0012E-05    1.000000E+07  0.00400  1.322E-02    0   0.8862   age070_m42            0.0000     3.5617E-01     4.3448   1.6187    95.5640
  6      0.0000     0.0000E+00    0.0000E+00    1.445000E+07  0.00400  7.883E-03    0   0.8571   age078_m42            0.0000     3.8468E-01     4.6044   1.9476    93.0067
  7      0.0000     0.0000E+00    0.0000E+00    2.512000E+07  0.00400  5.251E-03    0   0.8174   age090_m42            0.0000     3.4101E-01     4.1893   1.4900    96.1139
  8      0.0000     0.0000E+00    0.0000E+00    4.000000E+07  0.00400  3.649E-03    0   0.7851   age104_m42            0.0000     3.4302E-01     4.1748   1.2574    97.1205
  9      0.0000     0.0000E+00    0.0000E+00    5.500000E+07  0.00400  3.098E-03    0   0.7629   age110_m42            0.0000     4.4868E-01     4.7084   1.4036    97.3007
 10      0.0000     0.0000E+00    0.0000E+00    1.015200E+08  0.00400  2.228E-03    0   0.7207   age116_m42            0.0000     5.5429E-01     5.1152   1.4197    97.5755
 11      0.0000     0.0000E+00    0.0000E+00    2.861200E+08  0.00400  1.093E-03    0   0.6648   age125_m42            0.0000     5.5161E-01     4.8695   0.8624   100.3913
 12      0.0000     0.0000E+00    0.0000E+00    5.088000E+08  0.00400  6.597E-04    0   0.6365   age130_m42            0.0000     7.0389E-01     5.4637   0.8418   101.4972
 13      0.0055     1.8563E-03    2.1030E-03    1.434000E+09  0.00400  2.132E-04    0   0.5798   age139_m42            0.0000     6.6823E-01     5.4907  -0.1464   104.1159
 14      3.8079     4.6275E+00    4.8617E+00    4.250000E+09  0.00400  5.895E-05    0   0.5377   age158_m42            0.0000     7.1944E-01     6.1007  -0.5987   100.3193
 15      0.0000     0.0000E+00    0.0000E+00    7.500000E+09  0.00400  3.510E-05    0   0.5212   age171_m42            0.0000     8.6281E-01     6.6500  -0.7869    99.6353
 16      1.7920     6.4030E+00    6.2979E+00    1.300000E+10  0.00400  2.005E-05    0   0.5034   age193_m42            0.0000     1.0170E+00     7.1726  -0.9505    99.0270
 17      0.0000     0.0000E+00    0.0000E+00    1.800000E+10  0.00400  1.525E-05    0   0.4967   age213_m42            0.0000     9.7292E-01     7.0136  -0.9737    98.6003
 18      5.3139     3.0750E-02    6.0082E-02    1.000000E+06  0.00800  1.238E-02    0   1.0000   age020_m52            0.0000     5.7946E-01     6.0254   2.6872    87.3672
 19      0.0000     0.0000E+00    0.0000E+00    3.160000E+06  0.00800  3.074E-02    0   0.9966   age045_m52            0.0000     5.6972E-01     5.9664   2.6077    88.2336
 20      0.0000     0.0000E+00    0.0000E+00    5.010000E+06  0.00800  2.668E-02    0   0.9443   age055_m52            0.0000     5.0804E-01     5.5513   2.3629    90.3485
 21      0.0000     0.0000E+00    0.0000E+00    6.610000E+06  0.00800  2.136E-02    0   0.9177   age061_m52            0.0000     2.7215E-01     4.0384   1.1103    96.9254
 22      0.0000     0.0000E+00    0.0000E+00    1.000000E+07  0.00800  1.215E-02    0   0.8827   age070_m52            0.0000     3.2678E-01     4.1690   1.8079    95.1030
 23      0.0000     0.0000E+00    0.0000E+00    1.445000E+07  0.00800  8.717E-03    0   0.8552   age078_m52            0.0000     3.6263E-01     4.4374   1.9120    94.3608
 24      0.0000     0.0000E+00    0.0000E+00    2.512000E+07  0.00800  5.592E-03    0   0.8162   age090_m52            0.0000     3.2551E-01     4.0181   1.5566    97.2320
 25      0.0000     0.0000E+00    0.0000E+00    4.000000E+07  0.00800  3.896E-03    0   0.7841   age104_m52            0.0000     3.6099E-01     4.1795   1.4648    98.1491
 26      0.0000     0.0000E+00    0.0000E+00    1.015200E+08  0.00800  2.148E-03    0   0.7226   age116_m52            0.0000     4.6904E-01     4.6819   1.3926    98.2704
 27      0.0000     0.0000E+00    0.0000E+00    2.861200E+08  0.00800  9.925E-04    0   0.6683   age125_m52            0.0000     6.9702E-01     5.3011   0.9067   102.4732
 28      6.9182     1.5779E+00    1.8924E+00    9.047900E+08  0.00800  3.141E-04    0   0.6138   age135_m52            0.0000     8.9520E-01     6.3516   0.0950   107.2149
 29     11.2196     4.6758E+00    5.3473E+00    1.434000E+09  0.00800  1.719E-04    0   0.5853   age139_m52            0.0000     7.5784E-01     6.0505  -0.4868   105.1051
 30      0.0000     0.0000E+00    0.0000E+00    2.500000E+09  0.00800  7.872E-05    0   0.5600   age150_m52            0.0000     9.6852E-01     7.0144  -0.7701   102.6011
 31      0.0000     0.0000E+00    0.0000E+00    4.250000E+09  0.00800  4.336E-05    0   0.5426   age158_m52            0.0000     9.9461E-01     7.0886  -0.7852   101.5928
 32      0.0000     0.0000E+00    0.0000E+00    6.250000E+09  0.00800  3.159E-05    0   0.5319   age166_m52            0.0000     1.2460E+00     7.8857  -0.9919   101.6934
 33      0.0000     0.0000E+00    0.0000E+00    1.300000E+10  0.00800  1.361E-05    0   0.5073   age193_m52            0.0000     2.3493E+00    10.0034  -1.0000    85.3223
 34      0.0000     0.0000E+00    0.0000E+00    1.800000E+10  0.00800  9.886E-06    0   0.4990   age213_m52            0.0000     3.0045E+00    11.3841  -1.0000    81.2852
 35      6.3102     2.9278E-02    5.7206E-02    1.000000E+06  0.02000  1.544E-02    0   1.0000   age020_m62            0.0000     5.8412E-01     6.0554   2.6836    87.5561
 36      0.0000     0.0000E+00    0.0000E+00    3.160000E+06  0.02000  3.762E-02    0   0.9858   age045_m62            0.0000     5.8799E-01     6.0653   2.6215    88.3631
 37      0.0000     0.0000E+00    0.0000E+00    5.010000E+06  0.02000  3.296E-02    0   0.9342   age055_m62            0.0000     5.3211E-01     5.5934   2.2336    92.5490
 38     18.2913     1.1355E-01    1.9659E-01    8.710000E+06  0.02000  1.154E-02    0   0.8861   age067_m62            0.0000     3.8185E-01     4.4554   1.2994    96.8392
 39      0.0010     9.1008E-06    1.5065E-05    1.445000E+07  0.02000  7.663E-03    0   0.8472   age078_m62            0.0000     2.6322E-01     3.7054   1.4685    97.0468
 40      0.0000     0.0000E+00    0.0000E+00    2.512000E+07  0.02000  4.532E-03    0   0.8099   age090_m62            0.0000     2.8563E-01     3.7483   1.4643    96.7301
 41      0.0000     0.0000E+00    0.0000E+00    5.500000E+07  0.02000  2.733E-03    0   0.7595   age110_m62            0.0000     3.5634E-01     4.0983   1.4479    97.4084
 42      0.0000     0.0000E+00    0.0000E+00    1.609000E+08  0.02000  1.369E-03    0   0.6985   age120_m62            0.0000     6.0017E-01     4.9400   1.2734   100.5265
 43      0.0000     0.0000E+00    0.0000E+00    2.861200E+08  0.02000  9.013E-04    0   0.6714   age125_m62            0.0000     8.0484E-01     5.5169   1.0135   103.7596
 44      2.0551     2.9281E-01    3.6896E-01    5.088000E+08  0.02000  5.028E-04    0   0.6449   age130_m62            0.0000     1.0293E+00     6.6357   0.6225   106.9602
 45      0.0000     0.0000E+00    0.0000E+00    9.047900E+08  0.02000  2.428E-04    0   0.6179   age135_m62            0.0000     9.5482E-01     6.7967   0.0288   106.6120
 46      0.0000     0.0000E+00    0.0000E+00    1.434000E+09  0.02000  1.263E-04    0   0.5908   age139_m62            0.0000     9.6205E-01     6.8887  -0.4202   105.1763
 47      0.0000     0.0000E+00    0.0000E+00    2.500000E+09  0.02000  5.985E-05    0   0.5673   age150_m62            0.0000     1.2082E+00     7.7917  -0.7941   103.8933
 48      0.4458     9.7635E-01    1.0431E+00    4.250000E+09  0.02000  3.271E-05    0   0.5468   age158_m62            0.0000     1.6534E+00     8.7328  -1.0000    99.4278
 49      0.0000     0.0000E+00    0.0000E+00    1.000000E+10  0.02000  1.360E-05    0   0.5167   age181_m62            0.0000     2.8803E+00    11.0210  -1.0000    86.9140
 50      0.0000     0.0000E+00    0.0000E+00    1.800000E+10  0.02000  7.124E-06    0   0.5013   age213_m62            0.0000     4.0135E+00    13.1039  -1.0000    79.2255
 51      8.3583     2.3101E-02    4.5128E-02    1.000000E+06  0.05000  2.592E-02    0   0.9998   age020_m72            0.0000     5.9506E-01     6.1153   2.6771    87.5059
 52      0.0000     0.0000E+00    0.0000E+00    3.160000E+06  0.05000  4.845E-02    0   0.9577   age045_m72            0.0000     5.7264E-01     5.9245   2.4990    89.7453
 53      0.0000     0.0000E+00    0.0000E+00    5.010000E+06  0.05000  3.072E-02    0   0.9147   age055_m72            0.0000     3.6993E-01     4.5556   2.0591    93.0846
 54      8.0325     3.9549E-02    6.8597E-02    6.610000E+06  0.05000  1.455E-02    0   0.8877   age061_m72            0.0000     5.8344E-01     5.9063   1.4036    96.6652
 55      0.0000     0.0000E+00    0.0000E+00    1.000000E+07  0.05000  9.074E-03    0   0.8524   age070_m72            0.0000     4.4478E-01     5.0726   2.2683    92.3282
 56      0.0000     0.0000E+00    0.0000E+00    2.512000E+07  0.05000  4.250E-03    0   0.7902   age090_m72            0.0000     3.9534E-01     4.5402   1.9468    94.6537
 57      0.0000     0.0000E+00    0.0000E+00    4.000000E+07  0.05000  3.087E-03    0   0.7618   age104_m72            0.0000     3.9423E-01     4.3917   1.7175    96.3674
 58      0.0000     0.0000E+00    0.0000E+00    1.015200E+08  0.05000  1.700E-03    0   0.7096   age116_m72            0.0000     5.4213E-01     4.6538   1.4265    99.8552
 59      0.8798     8.5355E-02    1.1062E-01    2.861200E+08  0.05000  7.384E-04    0   0.6633   age125_m72            0.0000     9.2420E-01     6.0008   0.8737   105.4453
 60      7.3010     1.3696E+00    1.7051E+00    5.088000E+08  0.05000  3.819E-04    0   0.6372   age130_m72            0.0000     9.8385E-01     6.7496   0.3630   107.7377
 61      0.0000     0.0000E+00    0.0000E+00    9.047900E+08  0.05000  1.676E-04    0   0.6110   age135_m72            0.0000     1.1811E+00     7.7397  -0.3463   106.1697
 62      5.5902     4.5318E+00    5.2012E+00    1.434000E+09  0.05000  8.837E-05    0   0.5874   age139_m72            0.0000     1.3147E+00     8.0643  -0.7972   105.5230
 63      0.0000     0.0000E+00    0.0000E+00    2.500000E+09  0.05000  4.233E-05    0   0.5598   age150_m72            0.0000     1.8028E+00     9.1387  -1.0000   100.2459
 64      0.0000     0.0000E+00    0.0000E+00    6.250000E+09  0.05000  1.435E-05    0   0.5249   age166_m72            0.0000     3.2846E+00    11.9215  -1.0000    83.3027
 65      0.0000     0.0000E+00    0.0000E+00    1.300000E+10  0.05000  6.513E-06    0   0.5036   age193_m72            0.0000     4.9261E+00    14.7798  -1.0000    74.8647
 66      4.7493     7.5158E+01    7.2617E+01    1.800000E+10  0.05000  4.527E-06    0   0.4945   age213_m72            0.0000     5.9769E+00    16.4402  -1.0000    69.7063


## Synthesis Results - Average & Chains ##

# j      x_j: min, <> & last-chain-values for 1 ...  7 chains
  1      9.7922      5.2184      6.2587      8.2932      6.0864      4.3473      4.9221      7.4886      6.4792
  2      0.0000      0.4200      0.7388      0.0000      0.0000      0.0000      0.2569      0.0000      2.0954
  3      0.0000      0.3769      1.7996      0.0000      0.0000      0.0000      0.0000      0.1838      0.0000
  4      0.0000      0.3704      0.0000      0.0000      0.0736      0.5964      0.0000      0.0000      0.0730
  5      0.0021      0.5449      0.0000      0.0000      1.7701      0.0000      0.0000      0.0000      1.1144
  6      0.0000      0.4520      0.0000      2.1859      0.0000      0.2728      0.0000      0.0000      0.0000
  7      0.0000      0.6091      0.0000      0.0000      0.0000      0.0000      0.0000      0.0000      0.0000
  8      0.0000      0.5924      0.0000      0.0000      0.0000      0.0000      0.0000      0.0000      0.0000
  9      0.0000      0.3961      0.0000      0.0000      0.5502      0.0000      0.0000      0.0000      0.0000
 10      0.0000      0.4696      0.0000      0.0000      0.6958      0.0000      0.0000      0.0000      0.0000
 11      0.0000      0.5027      0.0000      0.0000      0.0000      0.0000      0.0000      0.0000      0.0000
 12      0.0000      0.4216      0.0000      0.0000      0.0000      0.0000      0.0000      0.0000      0.0000
 13      0.0055      0.8005      0.0000      0.2633      1.5242      0.0000      0.0000      0.0000      0.0000
 14      3.8079      5.8345      4.8263      6.5641      4.7795      5.9311      5.1687      4.4405      7.5432
 15      0.0000      0.6835      0.0000      0.0000      0.0000      0.0000      2.5313      0.0000      1.6543
 16      1.7920      2.5237      4.2676      3.5774      2.8580      3.3928      2.5098      3.5363      2.6395
 17      0.0000      0.1589      0.0000      0.0000      0.2637      0.0896      0.0000      0.0000      0.0000
 18      5.3139      3.7627      3.1401      4.5018      4.4889      4.7058      3.5472      6.5803      4.5121
 19      0.0000      2.3172      1.0524      2.3982      0.1678      3.6835      0.8434      0.0000      2.7019
 20      0.0000      0.3202      0.7373      0.0000      0.0874      0.0000      0.0000      0.1048      0.0000
 21      0.0000      1.5709      0.0665      0.0000      0.3571      0.0000      0.0000      1.4555      0.0000
 22      0.0000      0.4338      2.5173      0.0066      0.0000      0.0000      3.1986      0.0000      0.0845
 23      0.0000      0.4760      0.0000      0.0000      0.0163      0.4475      3.1129      0.0000      0.0401
 24      0.0000      0.5153      2.8126      1.1953      0.0000      0.0000      0.0000      0.0000      1.5860
 25      0.0000      0.4851      0.0000      0.0000      0.0000      0.0000      0.0000      0.0000      0.0000
 26      0.0000      0.3941      0.0000      0.0000      0.0622      0.0000      2.0815      0.0000      0.0000
 27      0.0000      0.5500      0.0000      0.0729      0.8125      0.0000      0.1953      0.1464      2.2537
 28      6.9182      3.1167      0.9987      0.0000      2.4490      5.1236      0.0000      1.7016      5.2301
 29     11.2196      2.1277      0.1269      3.4524      3.4117      2.7774      1.7399      3.7870      2.7640
 30      0.0000      0.1612      0.0801      0.0000      0.0000      0.0000      0.0000      0.0000      0.0000
 31      0.0000      0.8052      2.0608      0.0000      0.5316      0.0000      1.6386      1.0258      0.0000
 32      0.0000      0.1571      0.0000      0.0000      0.0000      0.0000      0.0000      0.8063      0.5250
 33      0.0000      0.0653      0.0000      0.0000      0.0000      0.0000      0.3194      0.0000      0.0000
 34      0.0000      0.0793      0.0000      0.0000      0.0000      0.0341      0.0000      0.0000      0.0000
 35      6.3102      2.9917      3.9952      4.5242      5.4146      5.6512      4.7773      2.4607      3.5173
 36      0.0000      1.0492      4.0675      0.0000      0.0000      0.0000      1.2196      1.1504      1.9549
 37      0.0000      0.3083      0.3636      0.0000      0.0000      2.1986      0.0000      0.0000      0.0000
 38     18.2913     15.3035     15.9814     15.1297     20.2342     16.8918     17.2072     17.7884     15.2955
 39      0.0010      1.0674      0.0000      2.6651      1.1511      0.0000      0.6692      0.1974      0.4119
 40      0.0000      0.5945      0.0000      0.0000      0.0000      1.4367      0.0000      3.1388      1.0683
 41      0.0000      0.7687      0.0000      0.0000      0.0000      0.0000      0.0000      0.0000      0.0000
 42      0.0000      0.3864      0.0000      0.0000      0.0000      0.1513      0.0000      0.0000      0.0000
 43      0.0000      0.4734      0.0000      1.2986      0.0000      0.5281      0.0000      0.0000      0.1041
 44      2.0551      1.3967      3.6201      2.8759      1.3650      3.7419      3.1809      0.0000      0.0000
 45      0.0000      2.7109      3.0341      1.2890      0.0000      2.4083      0.0000      2.8222      2.2609
 46      0.0000      1.4793      0.0000      1.2191      0.0000      1.3415      0.0000      4.3595      2.6729
 47      0.0000      1.0050      1.6013      0.8270      2.9759      0.0000      0.4862      0.6170      0.0000
 48      0.4458      1.2487      1.3763      1.6970      2.4098      0.0000      1.9197      1.4390      1.1024
 49      0.0000      0.1398      0.0000      0.0000      0.0000      0.5772      0.0000      0.0000      0.0000
 50      0.0000      0.1343      0.0000      0.5013      0.0000      0.0000      0.0000      0.0000      0.0000
 51      8.3583      1.9784      2.5825      3.1275      1.7807      1.6632      3.3254      3.8779      3.5144
 52      0.0000      0.5498      0.0000      2.4784      1.1462      0.3464      1.3951      0.0000      0.0000
 53      0.0000      0.5098      0.0000      0.9875      1.6963      0.0000      1.5106      0.0000      0.0000
 54      8.0325     14.9510     14.4616     12.1531     14.8358     17.3398     12.9246     14.9874     13.6025
 55      0.0000      0.4818      0.0000      0.0000      0.0000      0.0000      0.0000      0.0000      0.0000
 56      0.0000      0.3565      0.0000      0.0000      0.0000      0.0000      0.0000      0.0000      0.0000
 57      0.0000      0.6564      0.6526      0.4729      0.0000      0.0000      0.0000      0.0000      0.0000
 58      0.0000      0.4531      0.2894      0.0000      0.0000      0.0676      0.0000      0.0000      0.0000
 59      0.8798      0.9481      1.8642      3.3198      1.9599      1.0465      0.0000      0.4109      3.4272
 60      7.3010      4.1989      4.4592      3.8691      5.6292      6.3114     11.0947     10.8676      4.5041
 61      0.0000      2.6563      5.1678      4.5579      4.7419      2.5733      4.3946      3.1437      2.1839
 62      5.5902      2.6069      3.9200      2.8890      3.1553      2.3056      2.4989      1.7885      2.1095
 63      0.0000      0.1673      0.0000      0.0000      0.0000      0.5787      0.0000      0.0000      0.0000
 64      0.0000      0.2577      0.6638      0.4230      0.0000      0.2129      0.0607      0.0000      0.0000
 65      0.0000      0.1718      0.1274      0.6077      0.0000      0.0000      0.4847      0.0000      0.0000
 66      4.7493      0.4076      0.4723      0.4515      0.5400      1.2872      0.5818      0.0000      0.9474

# j      m_j: min, <> & last-chain-values for 1 ...  7 chains
  1  1.2529E-01  1.4043E-01  1.5271E-01  1.8544E-01  1.6614E-01  9.9508E-02  1.1652E-01  2.4815E-01  1.6158E-01
  2  0.0000E+00  3.0851E-03  4.9207E-03  0.0000E+00  0.0000E+00  0.0000E+00  1.6605E-03  0.0000E+00  1.4265E-02
  3  0.0000E+00  4.1466E-03  1.7951E-02  0.0000E+00  0.0000E+00  0.0000E+00  0.0000E+00  2.4897E-03  0.0000E+00
  4  0.0000E+00  3.8376E-03  0.0000E+00  0.0000E+00  7.7298E-04  5.2556E-03  0.0000E+00  0.0000E+00  7.0059E-04
  5  2.0012E-05  1.0753E-02  0.0000E+00  0.0000E+00  3.5436E-02  0.0000E+00  0.0000E+00  0.0000E+00  2.0382E-02
  6  0.0000E+00  1.4469E-02  0.0000E+00  5.8140E-02  0.0000E+00  7.4274E-03  0.0000E+00  0.0000E+00  0.0000E+00
  7  0.0000E+00  2.7913E-02  0.0000E+00  0.0000E+00  0.0000E+00  0.0000E+00  0.0000E+00  0.0000E+00  0.0000E+00
  8  0.0000E+00  3.7519E-02  0.0000E+00  0.0000E+00  0.0000E+00  0.0000E+00  0.0000E+00  0.0000E+00  0.0000E+00
  9  0.0000E+00  2.8714E-02  0.0000E+00  0.0000E+00  4.0460E-02  0.0000E+00  0.0000E+00  0.0000E+00  0.0000E+00
 10  0.0000E+00  4.4724E-02  0.0000E+00  0.0000E+00  6.7211E-02  0.0000E+00  0.0000E+00  0.0000E+00  0.0000E+00
 11  0.0000E+00  9.0017E-02  0.0000E+00  0.0000E+00  0.0000E+00  0.0000E+00  0.0000E+00  0.0000E+00  0.0000E+00
 12  0.0000E+00  1.1975E-01  0.0000E+00  0.0000E+00  0.0000E+00  0.0000E+00  0.0000E+00  0.0000E+00  0.0000E+00
 13  2.1030E-03  6.4085E-01  0.0000E+00  1.7516E-01  1.2378E+00  0.0000E+00  0.0000E+00  0.0000E+00  0.0000E+00
 14  4.8617E+00  1.5667E+01  1.1751E+01  1.4646E+01  1.3019E+01  1.3547E+01  1.2210E+01  1.4684E+01  1.8772E+01
 15  0.0000E+00  2.9879E+00  0.0000E+00  0.0000E+00  0.0000E+00  0.0000E+00  9.7346E+00  0.0000E+00  6.7019E+00
 16  6.2979E+00  1.8653E+01  2.8601E+01  2.1972E+01  2.1429E+01  2.1331E+01  1.6320E+01  3.2188E+01  1.8081E+01
 17  0.0000E+00  1.5239E+00  0.0000E+00  0.0000E+00  2.5651E+00  7.3106E-01  0.0000E+00  0.0000E+00  0.0000E+00
 18  6.0082E-02  8.9475E-02  6.7705E-02  8.8954E-02  1.0828E-01  9.5184E-02  7.4207E-02  1.9269E-01  9.9438E-02
 19  0.0000E+00  2.2116E-02  9.1076E-03  1.9019E-02  1.6246E-03  2.9904E-02  7.0818E-03  0.0000E+00  2.3899E-02
 20  0.0000E+00  3.3359E-03  6.9659E-03  0.0000E+00  9.2338E-04  0.0000E+00  0.0000E+00  1.3444E-03  0.0000E+00
 21  0.0000E+00  1.9868E-02  7.6250E-04  0.0000E+00  4.5813E-03  0.0000E+00  0.0000E+00  2.2669E-02  0.0000E+00
 22  0.0000E+00  9.2778E-03  4.8817E-02  1.1663E-04  0.0000E+00  0.0000E+00  6.0185E-02  0.0000E+00  1.6747E-03
 23  0.0000E+00  1.3748E-02  0.0000E+00  0.0000E+00  4.7803E-04  1.0994E-02  7.9095E-02  0.0000E+00  1.0721E-03
 24  0.0000E+00  2.2141E-02  1.0958E-01  4.2680E-02  0.0000E+00  0.0000E+00  0.0000E+00  0.0000E+00  6.3158E-02
 25  0.0000E+00  2.8741E-02  0.0000E+00  0.0000E+00  0.0000E+00  0.0000E+00  0.0000E+00  0.0000E+00  0.0000E+00
 26  0.0000E+00  3.9031E-02  0.0000E+00  0.0000E+00  6.2452E-03  0.0000E+00  1.8135E-01  0.0000E+00  0.0000E+00
 27  0.0000E+00  1.0903E-01  0.0000E+00  1.2010E-02  1.6337E-01  0.0000E+00  3.4066E-02  3.5726E-02  4.1404E-01
 28  1.8924E+00  1.7930E+00  5.2095E-01  0.0000E+00  1.4292E+00  2.5072E+00  0.0000E+00  1.2054E+00  2.7884E+00
 29  5.3473E+00  2.1328E+00  1.1536E-01  2.8756E+00  3.4691E+00  2.3680E+00  1.5343E+00  4.6745E+00  2.5676E+00
 30  0.0000E+00  3.3769E-01  1.5206E-01  0.0000E+00  0.0000E+00  0.0000E+00  0.0000E+00  0.0000E+00  0.0000E+00
 31  0.0000E+00  2.9663E+00  6.8836E+00  0.0000E+00  1.9865E+00  0.0000E+00  5.3106E+00  4.6536E+00  0.0000E+00
 32  0.0000E+00  7.7878E-01  0.0000E+00  0.0000E+00  0.0000E+00  0.0000E+00  0.0000E+00  4.9219E+00  2.4117E+00
 33  0.0000E+00  7.1622E-01  0.0000E+00  0.0000E+00  0.0000E+00  0.0000E+00  3.0836E+00  0.0000E+00  0.0000E+00
 34  0.0000E+00  1.1783E+00  0.0000E+00  0.0000E+00  0.0000E+00  4.3038E-01  0.0000E+00  0.0000E+00  0.0000E+00
 35  5.7206E-02  5.7041E-02  6.9069E-02  7.1679E-02  1.0473E-01  9.1652E-02  8.0134E-02  5.7776E-02  6.2151E-02
 36  0.0000E+00  8.0938E-03  2.8451E-02  0.0000E+00  0.0000E+00  0.0000E+00  8.2769E-03  1.0929E-02  1.3976E-02
 37  0.0000E+00  2.5723E-03  2.7508E-03  0.0000E+00  0.0000E+00  1.5604E-02  0.0000E+00  0.0000E+00  0.0000E+00
 38  1.9659E-01  3.4593E-01  3.2756E-01  2.8419E-01  4.6398E-01  3.2479E-01  3.4219E-01  4.9517E-01  3.2043E-01
 39  1.5065E-05  3.4741E-02  0.0000E+00  7.2077E-02  3.8006E-02  0.0000E+00  1.9160E-02  7.9123E-03  1.2424E-02
 40  0.0000E+00  3.1274E-02  0.0000E+00  0.0000E+00  0.0000E+00  6.4293E-02  0.0000E+00  2.0335E-01  5.2088E-02
 41  0.0000E+00  6.2889E-02  0.0000E+00  0.0000E+00  0.0000E+00  0.0000E+00  0.0000E+00  0.0000E+00  0.0000E+00
 42  0.0000E+00  5.8035E-02  0.0000E+00  0.0000E+00  0.0000E+00  1.9326E-02  0.0000E+00  0.0000E+00  0.0000E+00
 43  0.0000E+00  1.0382E-01  0.0000E+00  2.3663E-01  0.0000E+00  9.8519E-02  0.0000E+00  0.0000E+00  2.1166E-02
 44  3.6896E-01  5.2736E-01  1.2394E+00  9.0232E-01  5.2282E-01  1.2018E+00  1.0567E+00  0.0000E+00  0.0000E+00
 45  0.0000E+00  2.0310E+00  2.0611E+00  8.0247E-01  0.0000E+00  1.5348E+00  0.0000E+00  2.6038E+00  1.5698E+00
 46  0.0000E+00  2.0371E+00  0.0000E+00  1.3950E+00  0.0000E+00  1.5714E+00  0.0000E+00  7.3929E+00  3.4112E+00
 47  0.0000E+00  2.8044E+00  4.0515E+00  1.9177E+00  8.4238E+00  0.0000E+00  1.1937E+00  2.1202E+00  0.0000E+00
 48  1.0431E+00  6.1450E+00  6.1411E+00  6.9393E+00  1.2030E+01  0.0000E+00  8.3113E+00  8.7205E+00  5.0276E+00
 49  0.0000E+00  1.5642E+00  0.0000E+00  0.0000E+00  0.0000E+00  5.4911E+00  0.0000E+00  0.0000E+00  0.0000E+00
 50  0.0000E+00  2.7831E+00  0.0000E+00  8.6286E+00  0.0000E+00  0.0000E+00  0.0000E+00  0.0000E+00  0.0000E+00
 51  4.5128E-02  2.2465E-02  2.6589E-02  2.9510E-02  2.0512E-02  1.6065E-02  3.3221E-02  5.4227E-02  3.6984E-02
 52  0.0000E+00  3.1992E-03  0.0000E+00  1.1984E-02  6.7659E-03  1.7147E-03  7.1420E-03  0.0000E+00  0.0000E+00
 53  0.0000E+00  4.4684E-03  0.0000E+00  7.1926E-03  1.5083E-02  0.0000E+00  1.1649E-02  0.0000E+00  0.0000E+00
 54  6.8597E-02  2.6853E-01  2.3551E-01  1.8138E-01  2.7030E-01  2.6491E-01  2.0422E-01  3.3149E-01  2.2642E-01
 55  0.0000E+00  1.3323E-02  0.0000E+00  0.0000E+00  0.0000E+00  0.0000E+00  0.0000E+00  0.0000E+00  0.0000E+00
 56  0.0000E+00  1.9514E-02  0.0000E+00  0.0000E+00  0.0000E+00  0.0000E+00  0.0000E+00  0.0000E+00  0.0000E+00
 57  0.0000E+00  4.7688E-02  4.2987E-02  2.8545E-02  0.0000E+00  0.0000E+00  0.0000E+00  0.0000E+00  0.0000E+00
 58  0.0000E+00  5.5678E-02  3.2248E-02  0.0000E+00  0.0000E+00  7.0668E-03  0.0000E+00  0.0000E+00  0.0000E+00
 59  1.1062E-01  2.5073E-01  4.4700E-01  7.2951E-01  5.2577E-01  2.3541E-01  0.0000E+00  1.3381E-01  8.3994E-01
 60  1.7051E+00  2.0625E+00  1.9860E+00  1.5792E+00  2.8048E+00  2.6370E+00  4.7943E+00  6.5736E+00  2.0503E+00
 61  0.0000E+00  2.8508E+00  5.0289E+00  4.0647E+00  5.1624E+00  2.3491E+00  4.1492E+00  4.1548E+00  2.1722E+00
 62  5.2012E+00  5.1013E+00  6.9552E+00  4.6975E+00  6.2633E+00  3.8376E+00  4.3020E+00  4.3099E+00  3.8256E+00
 63  0.0000E+00  6.5143E-01  0.0000E+00  0.0000E+00  0.0000E+00  1.9163E+00  0.0000E+00  0.0000E+00  0.0000E+00
 64  0.0000E+00  2.7746E+00  6.4815E+00  3.7846E+00  0.0000E+00  1.9503E+00  5.7491E-01  0.0000E+00  0.0000E+00
 65  0.0000E+00  3.9107E+00  2.6291E+00  1.1495E+01  0.0000E+00  0.0000E+00  9.7061E+00  0.0000E+00  0.0000E+00
 66  7.2617E+01  1.3109E+01  1.3772E+01  1.2066E+01  1.7616E+01  3.5209E+01  1.6459E+01  0.0000E+00  2.8236E+01

# AV, chi2 & Mass for <> & i_chain = 1 ...  7 solutions
AV       0.4764      0.6525      0.6450      0.6473      0.6180      0.6640      0.6513      0.6462      0.6472
chi2 1.7871E-01  1.9013E-01  1.8774E-01  1.8685E-01  1.8658E-01  1.8762E-01  1.8821E-01  1.8662E-01  1.8777E-01
Mass 8.6996E-13  5.2402E-13  5.7213E-13  6.2624E-13  4.9316E-13  6.2564E-13  5.9472E-13  4.2193E-13  5.6144E-13
 -38.09                                  [v0_min (km/s) before EX0s...]
  94.00                                  [vd_min (km/s) before EX0s...]


## Synthetic spectrum (Best Model) ##l_obs f_obs f_syn wei
 3478    [Nl_obs]
 3741.00    0.79915   0.84848    0.000
 3742.00    0.72388   0.83929    0.000
 3743.00    0.70352   0.82175    0.000
 3744.00    0.68821   0.79931    0.000
 3745.00    0.61182   0.77245   14.109
 3746.00    0.60010   0.74004   14.109
 3747.00    0.64752   0.70160   14.109
 3748.00    0.63430   0.66383   14.109
 3749.00    0.58095   0.64346   14.109
 3750.00    0.59882   0.65449   14.109
 3751.00    0.67494   0.69344   14.109
 3752.00    0.62309   0.74336   14.109
 3753.00    0.63322   0.78921   14.109
 3754.00    0.84493   0.82335   11.835
 3755.00    0.91008   0.84110   10.988
 3756.00    0.80507   0.84110   12.421
 3757.00    0.73557   0.83074   13.595
 3758.00    0.75244   0.82311   13.290
 3759.00    0.77367   0.82577   12.925
 3760.00    0.73946   0.83605   13.523
 3761.00    0.71103   0.84593   14.064
 3762.00    0.79187   0.84952   12.628
 3763.00    0.92668   0.84602   10.791
 3764.00    0.93458   0.83557   10.700
 3765.00    0.85742   0.81610   11.663
 3766.00    0.78780   0.78733   12.694
 3767.00    0.73095   0.75297   13.681
 3768.00    0.68961   0.71719   14.109
 3769.00    0.69537   0.68669   14.109
 3770.00    0.76624   0.67487   13.051
 3771.00    0.83609   0.69139   11.960
 3772.00    0.83742   0.72877   11.941
 3773.00    0.77810   0.76979   12.852
 3774.00    0.74318   0.80477   13.456
 3775.00    0.74331   0.83392   13.453
 3776.00    0.75076   0.85935   13.320
 3777.00    0.81494   0.88183   12.271
 3778.00    0.90787   0.90232   11.015
 3779.00    0.93930   0.92088   10.646
 3780.00    0.89236   0.93504   11.206
 3781.00    0.88648   0.94289   11.281
 3782.00    0.96969   0.94576   10.313
 3783.00    0.98571   0.94426   10.145
 3784.00    0.93376   0.93547   10.709
 3785.00    0.90312   0.91829   11.073
 3786.00    0.90517   0.89813   11.048
 3787.00    0.94570   0.88153   10.574
 3788.00    0.98233   0.86957   10.180
 3789.00    0.93028   0.85978   10.749
 3790.00    0.82230   0.84967   12.161
 3791.00    0.75316   0.83586   13.277
 3792.00    0.74854   0.81385   13.359
 3793.00    0.69543   0.78111   14.109
 3794.00    0.64226   0.73896   14.109
 3795.00    0.73521   0.69128   13.602
 3796.00    0.75128   0.64567   13.311
 3797.00    0.67531   0.61714   14.109
 3798.00    0.74663   0.62180   13.393
 3799.00    0.85051   0.66105   11.758
 3800.00    0.85155   0.71848   11.743
 3801.00    0.79871   0.77508   12.520
 3802.00    0.80466   0.82088   12.428
 3803.00    0.85220   0.85229   11.734
 3804.00    0.84549   0.86807   11.827
 3805.00    0.79613   0.87237   12.561
 3806.00    0.78386   0.87608   12.757
 3807.00    0.84440   0.88896   11.843
 3808.00    0.90869   0.91013   11.005
 3809.00    0.95244   0.92988   10.499
 3810.00    0.96418   0.93919   10.372
 3811.00    0.89904   0.93482   11.123
 3812.00    0.85430   0.91986   11.706
 3813.00    0.90364   0.90227   11.066
 3814.00    0.93562   0.88996   10.688
 3815.00    0.86558   0.88542   11.553
 3816.00    0.79272   0.88366   12.615
 3817.00    0.88682   0.87455   11.276
 3818.00    0.96332   0.85371   10.381
 3819.00    0.87876   0.83311   11.380
 3820.00    0.78394   0.83049   12.756
 3821.00    0.76348   0.84621   13.098
 3822.00    0.78210   0.86184   12.786
 3823.00    0.78046   0.86243   12.813
 3824.00    0.79264   0.85022   12.616
 3825.00    0.84909   0.83581   11.777
 3826.00    0.89519   0.82433   11.171
 3827.00    0.82903   0.81384   12.062
 3828.00    0.72947   0.80100   13.709
 3829.00    0.74752   0.78268   13.378
 3830.00    0.78704   0.75484   12.706
 3831.00    0.75758   0.71478   13.200
 3832.00    0.69631   0.66559   14.109
 3833.00    0.68441   0.61692   14.109
 3834.00    0.71094   0.58247   14.066
 3835.00    0.72653   0.57453   13.764
 3836.00    0.75380   0.59474   13.266
 3837.00    0.78212   0.63234   12.786
 3838.00    0.77460   0.67483   12.910
 3839.00    0.74539   0.71646   13.416
 3840.00    0.78847   0.75651   12.683
 3841.00    0.89449   0.79455   11.180
 3842.00    0.89809   0.82780   11.135
 3843.00    0.85997   0.85298   11.628
 3844.00    0.89344   0.86999   11.193
 3845.00    0.95106   0.88205   10.515
 3846.00    0.97751   0.89194   10.230
 3847.00    0.97154   0.89871    0.000
 3848.00    0.95727   0.90024    0.000
 3849.00    0.91366   0.89946    0.000
 3850.00    0.90405   0.90291    0.000
 3851.00    1.00979   0.91167    0.000
 3852.00    1.04312   0.91919    0.000
 3853.00    0.92830   0.91952    0.000
 3854.00    0.83045   0.91326    0.000
 3855.00    0.84765   0.90545    0.000
 3856.00    0.90624   0.90024    0.000
 3857.00    0.89047   0.89691    0.000
 3858.00    0.85594   0.89337    0.000
 3859.00    0.85926   0.89280    0.000
 3860.00    0.88349   0.90005    0.000
 3861.00    0.89769   0.91288    0.000
 3862.00    0.90910   0.92343    0.000
 3863.00    0.93546   0.92691    0.000
 3864.00    0.95490   0.92464    0.000
 3865.00    0.94924   0.92047    0.000
 3866.00    0.94103   0.91757    0.000
 3867.00    0.98416   0.91743    0.000
 3868.00    1.07025   0.91781    0.000
 3869.00    1.11364   0.91248    0.000
 3870.00    1.03337   0.89817    0.000
 3871.00    0.91775   0.88131    0.000
 3872.00    0.87406   0.87348    0.000
 3873.00    0.87907   0.87855    0.000
 3874.00    0.87924   0.88744    0.000
 3875.00    0.86255   0.88795    0.000
 3876.00    0.85481   0.87683    0.000
 3877.00    0.84679   0.86112    0.000
 3878.00    0.85940   0.85024    0.000
 3879.00    0.92324   0.84574    0.000
 3880.00    0.94153   0.83995    0.000
 3881.00    0.87988   0.82707   11.365
 3882.00    0.82768   0.80917   12.082
 3883.00    0.82931   0.78715   12.058
 3884.00    0.80076   0.75521   12.488
 3885.00    0.70934   0.70962   14.098
 3886.00    0.79061   0.65627   12.649
 3887.00    0.96983   0.60808   -1.000
 3888.00    0.98202   0.58140   -1.000
 3889.00    0.93050   0.58987   -1.000
 3890.00    0.91556   0.63192   -1.000
 3891.00    0.90360   0.68880   11.067
 3892.00    0.85513   0.73994   11.694
 3893.00    0.79611   0.77667   12.561
 3894.00    0.75779   0.80191   13.196
 3895.00    0.72307   0.82199   13.830
 3896.00    0.75416   0.83920   13.260
 3897.00    0.84591   0.85146   11.822
 3898.00    0.84786   0.85919   11.794
 3899.00    0.81577   0.86804   12.258
 3900.00    0.83600   0.88117   11.962
 3901.00    0.84727   0.89384   11.803
 3902.00    0.87680   0.90007   11.405
 3903.00    0.92624   0.89984   10.796
 3904.00    0.91177   0.89697   10.968
 3905.00    0.87639   0.89642   11.410
 3906.00    0.90760   0.90363   11.018
 3907.00    0.99441   0.91930   10.056
 3908.00    0.99445   0.93711   10.056
 3909.00    0.94172   0.94993   10.619
 3910.00    0.99419   0.95554   10.058
 3911.00    1.01785   0.95558    9.825
 3912.00    0.95331   0.95252   10.490
 3913.00    0.92049   0.94860   10.864
 3914.00    0.95068   0.94490   10.519
 3915.00    0.99491   0.94017   10.051
 3916.00    1.00032   0.93217    9.997
 3917.00    0.97141   0.91991   10.294
 3918.00    0.93823   0.90474   10.658
 3919.00    0.92891   0.89121   10.765
 3920.00    0.94719   0.88484   10.558
 3921.00    0.93625   0.88675   10.681
 3922.00    0.89190   0.89214   11.212
 3923.00    0.91434   0.89462   10.937
 3924.00    0.90151   0.89022   11.092
 3925.00    0.79379   0.87854   12.598
 3926.00    0.79252   0.86234   12.618
 3927.00    0.88243   0.84455   11.332
 3928.00    0.90158   0.82543   11.092
 3929.00    0.80823   0.80309   12.373
 3930.00    0.75606   0.77568   13.226
 3931.00    0.76864   0.74413   13.010
 3932.00    0.67824   0.71507   14.109
 3933.00    0.61229   0.70010   14.109
 3934.00    0.65850   0.70803   14.109
 3935.00    0.69488   0.73682   14.109
 3936.00    0.74448   0.77546   13.432
 3937.00    0.83266   0.81313   12.010
 3938.00    0.90184   0.84448   11.088
 3939.00    0.93795   0.86740   10.662
 3940.00    0.96352   0.88039   10.379
 3941.00    0.98549   0.88387   10.147
 3942.00    0.96264   0.88152   10.388
 3943.00    0.90752   0.87979   11.019
 3944.00    0.88115   0.88491   11.349
 3945.00    0.89805   0.89645   11.135
 3946.00    0.92466   0.90652   10.815
 3947.00    0.91924   0.90985   10.879
 3948.00    0.88071   0.91022   11.354
 3949.00    0.85927   0.91266   11.638
 3950.00    0.89521   0.91561   11.171
 3951.00    0.95153   0.91541   10.509
 3952.00    0.95061   0.91312   10.520
 3953.00    0.89757   0.91116   11.141
 3954.00    0.90681   0.90724   11.028
 3955.00    0.94979   0.89866   10.529
 3956.00    0.94361   0.88886   10.598
 3957.00    0.89916   0.88257   11.121
 3958.00    0.86383   0.87653   11.576
 3959.00    0.86416   0.86159   11.572
 3960.00    0.87531   0.83409    0.000
 3961.00    0.83731   0.80058    0.000
 3962.00    0.76893   0.76870    0.000
 3963.00    0.74563   0.73785    0.000
 3964.00    0.70398   0.70243    0.000
 3965.00    0.62392   0.65871    0.000
 3966.00    0.60476   0.60656    0.000
 3967.00    0.69704   0.55097    0.000
 3968.00    0.80683   0.50450    0.000
 3969.00    0.82325   0.48388    0.000
 3970.00    0.83776   0.49924    0.000
 3971.00    0.85548   0.54524    0.000
 3972.00    0.80106   0.60552    0.000
 3973.00    0.75611   0.66560    0.000
 3974.00    0.77391   0.71864    0.000
 3975.00    0.81829   0.76262    0.000
 3976.00    0.84282   0.79845    0.000
 3977.00    0.84570   0.82903    0.000
 3978.00    0.82916   0.85581    0.000
 3979.00    0.77488   0.87650    0.000
 3980.00    0.79137   0.88790    0.000
 3981.00    0.92699   0.89119   10.788
 3982.00    1.01156   0.89295    9.886
 3983.00    0.98293   0.89938   10.174
 3984.00    0.91407   0.91070   10.940
 3985.00    0.88652   0.92314   11.280
 3986.00    0.89426   0.93413   11.182
 3987.00    0.91357   0.94288   10.946
 3988.00    0.96191   0.94824   10.396
 3989.00    1.03391   0.95079    9.672
 3990.00    1.05842   0.95413    9.448
 3991.00    0.98215   0.96008   10.182
 3992.00    0.94797   0.96515   10.549
 3993.00    1.01555   0.96445    9.847
 3994.00    1.06028   0.95745    9.431
 3995.00    1.01786   0.94811    9.825
 3996.00    0.95730   0.94140   10.446
 3997.00    0.97452   0.94172   10.261
 3998.00    1.01799   0.95100    9.823
 3999.00    1.03976   0.96540    9.618
 4000.00    1.04927   0.97754    9.530
 4001.00    1.04390   0.98273    9.580
 4002.00    1.02296   0.97947    9.776
 4003.00    1.01282   0.96699    9.873
 4004.00    1.04643   0.94916    9.556
 4005.00    1.02835   0.93648    9.724
 4006.00    0.91652   0.93632   10.911
 4007.00    0.89472   0.94466   11.177
 4008.00    0.95863   0.95330   10.432
 4009.00    0.99394   0.96020   10.061
 4010.00    1.00893   0.96729    9.911
 4011.00    1.01110   0.97439    9.890
 4012.00    0.99307   0.98017   10.070
 4013.00    0.97545   0.98482   10.252
 4014.00    1.01177   0.98875    9.884
 4015.00    1.08038   0.99096    9.256
 4016.00    1.08157   0.99110    9.246
 4017.00    1.04853   0.99184    9.537
 4018.00    1.03973   0.99527    9.618
 4019.00    1.04431   0.99817    9.576
 4020.00    1.05515   0.99509    9.477
 4021.00    1.05022   0.98425    9.522
 4022.00    1.00326   0.96662    9.968
 4023.00    0.94736   0.94401   10.556
 4024.00    0.92340   0.92249   10.830
 4025.00    0.94138   0.91309   10.623
 4026.00    0.98437   0.92204   10.159
 4027.00    1.01147   0.94113    9.887
 4028.00    0.99545   0.95335   10.046
 4029.00    0.96490   0.94934   10.364
 4030.00    0.93884   0.93506   10.651
 4031.00    0.92331   0.92281   10.831
 4032.00    0.93839   0.91967   10.657
 4033.00    0.95010   0.92646   10.525
 4034.00    0.93805   0.94228   10.660
 4035.00    0.96894   0.96498   10.321
 4036.00    1.02368   0.98879    9.769
 4037.00    1.03848   1.00542    9.629
 4038.00    1.01983   1.00969    9.806
 4039.00    1.00578   1.00358    9.943
 4040.00    1.00449   0.99425    9.955
 4041.00    0.98820   0.98614   10.119
 4042.00    0.98597   0.97532   10.142
 4043.00    0.99387   0.95563   10.062
 4044.00    0.95680   0.93151   10.451
 4045.00    0.95786   0.91848   10.440
 4046.00    1.00924   0.92689    9.908
 4047.00    1.00000   0.95004   10.000
 4048.00    1.00560   0.97297    9.944
 4049.00    1.06067   0.98728    9.428
 4050.00    1.06621   0.99234    9.379
 4051.00    1.02193   0.98918    9.785
 4052.00    0.96971   0.97977   10.312
 4053.00    0.93598   0.96825   10.684
 4054.00    0.94631   0.95909   10.567
 4055.00    1.00134   0.95391    9.987
 4056.00    1.04643   0.95134    9.556
 4057.00    0.99376   0.95091   10.063
 4058.00    0.92222   0.95419   10.843
 4059.00    0.95668   0.95956   10.453
 4060.00    1.01064   0.95962    9.895
 4061.00    0.99882   0.94833   10.012
 4062.00    0.93156   0.93032   10.735
 4063.00    0.87077   0.91882   11.484
 4064.00    0.85372   0.92119   11.713
 4065.00    0.88471   0.93066   11.303
 4066.00    0.95016   0.93722   10.525
 4067.00    0.99959   0.93950   10.004
 4068.00    0.99032   0.93946   10.098
 4069.00    0.94327   0.93471   10.601
 4070.00    0.93985   0.92476   10.640
 4071.00    1.00303   0.91757    9.970
 4072.00    1.05062   0.92030    9.518
 4073.00    1.04161   0.92690    9.600
 4074.00    0.99548   0.92401   10.045
 4075.00    0.94884   0.90809   10.539
 4076.00    0.90658   0.89015   11.031
 4077.00    0.88762   0.88457   11.266
 4078.00    0.92195   0.89691   10.847
 4079.00    0.97068   0.92051   10.302
 4080.00    0.97551   0.94229   10.251
 4081.00    0.94312   0.95174   10.603
 4082.00    0.97302   0.94716   10.277
 4083.00    1.02009   0.93548    9.803
 4084.00    0.97920   0.92625   10.212
 4085.00    0.96649   0.92491   10.347
 4086.00    0.97856   0.93008   10.219
 4087.00    0.92621   0.93603   10.797
 4088.00    0.90350   0.93802   11.068
 4089.00    0.93662   0.93515   10.677
 4090.00    0.96493   0.92839   10.363
 4091.00    0.97579   0.91852   10.248
 4092.00    0.96726   0.90605    0.000
 4093.00    0.92573   0.88958    0.000
 4094.00    0.84375   0.86558    0.000
 4095.00    0.77167   0.83357    0.000
 4096.00    0.75391   0.79825    0.000
 4097.00    0.77253   0.76239    0.000
 4098.00    0.82376   0.72199    0.000
 4099.00    0.92322   0.67330    0.000
 4100.00    1.06131   0.62503    0.000
 4101.00    1.15286   0.59866    0.000
 4102.00    1.15166   0.61046    0.000
 4103.00    1.09313   0.65531    0.000
 4104.00    0.96864   0.71315    0.000
 4105.00    0.81493   0.76621    0.000
 4106.00    0.74417   0.80604    0.000
 4107.00    0.80880   0.83142    0.000
 4108.00    0.89866   0.84560    0.000
 4109.00    0.87853   0.85402    0.000
 4110.00    0.86285   0.86222    0.000
 4111.00    0.90681   0.87376    0.000
 4112.00    0.93706   0.88847    0.000
 4113.00    0.96052   0.90304   10.411
 4114.00    0.98124   0.91402   10.191
 4115.00    0.97496   0.91995   10.257
 4116.00    0.94227   0.91999   10.613
 4117.00    0.90943   0.91336   10.996
 4118.00    0.89398   0.90277   11.186
 4119.00    0.88218   0.89488   11.336
 4120.00    0.88958   0.89438   11.241
 4121.00    0.92341   0.90106   10.829
 4122.00    0.93766   0.91263   10.665
 4123.00    0.92563   0.92622   10.803
 4124.00    0.91892   0.93725   10.882
 4125.00    0.93448   0.94063   10.701
 4126.00    0.93750   0.93510   10.667
 4127.00    0.90661   0.92520   11.030
 4128.00    0.87985   0.91660   11.366
 4129.00    0.88894   0.91016   11.249
 4130.00    0.91362   0.90305   10.945
 4131.00    0.90921   0.89556   10.999
 4132.00    0.90524   0.89325   11.047
 4133.00    0.91866   0.90104   10.885
 4134.00    0.91315   0.91736   10.951
 4135.00    0.88744   0.93544   11.268
 4136.00    0.89675   0.94922   11.151
 4137.00    0.96773   0.95768   10.333
 4138.00    0.98922   0.96235   10.109
 4139.00    0.96524   0.96119   10.360
 4140.00    0.98770   0.94848   10.125
 4141.00    0.97572   0.92184   10.249
 4142.00    0.89812   0.89010   11.134
 4143.00    0.82919   0.87151   12.060
 4144.00    0.81478   0.87784   12.273
 4145.00    0.83406   0.90154   11.990
 4146.00    0.85739   0.92454   11.663
 4147.00    0.90535   0.93571   11.045
 4148.00    0.95072   0.93567   10.518
 4149.00    0.96014   0.93096   10.415
 4150.00    0.96174   0.92710   10.398
 4151.00    0.94303   0.92455   10.604
 4152.00    0.89700   0.92095   11.148
 4153.00    0.87895   0.91624   11.377
 4154.00    0.90608   0.91300   11.037
 4155.00    0.94202   0.91349   10.616
 4156.00    0.94438   0.91869   10.589
 4157.00    0.93430   0.92824   10.703
 4158.00    0.94094   0.93921   10.628
 4159.00    0.95343   0.94740   10.488
 4160.00    0.95742   0.95147   10.445
 4161.00    0.96183   0.95366   10.397
 4162.00    0.97561   0.95559   10.250
 4163.00    0.95481   0.95596   10.473
 4164.00    0.92931   0.95322   10.761
 4165.00    0.96417   0.94760   10.372
 4166.00    0.96303   0.94093   10.384
 4167.00    0.91608   0.93625   10.916
 4168.00    0.91595   0.93478   10.918
 4169.00    0.92779   0.93209   10.778
 4170.00    0.91906   0.92183   10.881
 4171.00    0.89846   0.90464   11.130
 4172.00    0.85234   0.88981   11.732
 4173.00    0.79957   0.88589   12.507
 4174.00    0.79291   0.89173   12.612
 4175.00    0.85778   0.89911   11.658
 4176.00    0.91642   0.90248   10.912
 4177.00    0.89691   0.90376   11.149
 4178.00    0.85904   0.90788   11.641
 4179.00    0.86724   0.91526   11.531
 4180.00    0.92390   0.92118   10.824
 4181.00    0.97312   0.92290   10.276
 4182.00    0.96121   0.92333   10.404
 4183.00    0.91500   0.92564   10.929
 4184.00    0.91884   0.92764   10.883
 4185.00    0.92520   0.92474   10.808
 4186.00    0.89390   0.91711   11.187
 4187.00    0.89077   0.91163   11.226
 4188.00    0.93035   0.91397   10.749
 4189.00    0.95502   0.92175   10.471
 4190.00    0.92436   0.93003   10.818
 4191.00    0.92941   0.93818   10.760
 4192.00    0.95390   0.94591   10.483
 4193.00    0.89391   0.94795   11.187
 4194.00    0.86997   0.93905   11.495
 4195.00    0.90229   0.92130   11.083
 4196.00    0.87570   0.90144   11.419
 4197.00    0.84127   0.88457   11.887
 4198.00    0.85755   0.87389   11.661
 4199.00    0.89671   0.87130   11.152
 4200.00    0.90063   0.87508   11.103
 4201.00    0.88521   0.88181   11.297
 4202.00    0.89683   0.89065   11.150
 4203.00    0.91030   0.90168   10.985
 4204.00    0.89810   0.91360   11.135
 4205.00    0.88004   0.92537   11.363
 4206.00    0.90414   0.93605   11.060
 4207.00    0.93162   0.94319   10.734
 4208.00    0.91881   0.94501   10.884
 4209.00    0.91317   0.94340   10.951
 4210.00    0.93888   0.94246   10.651
 4211.00    0.97147   0.94319   10.294
 4212.00    0.97218   0.94126   10.286
 4213.00    0.93635   0.93226   10.680
 4214.00    0.89374   0.91890   11.189
 4215.00    0.87809   0.91123   11.388
 4216.00    0.88698   0.91725   11.274
 4217.00    0.91683   0.93347   10.907
 4218.00    0.96861   0.94901   10.324
 4219.00    0.99713   0.95688   10.029
 4220.00    0.97833   0.95584   10.221
 4221.00    0.94325   0.94560   10.602
 4222.00    0.93166   0.92591   10.734
 4223.00    0.94649   0.89822   10.565
 4224.00    0.94741   0.86618   10.555
 4225.00    0.89428   0.83806   11.182
 4226.00    0.83241   0.82683   12.013
 4227.00    0.82692   0.84117   12.093
 4228.00    0.83431   0.87473   11.986
 4229.00    0.85337   0.90928   11.718
 4230.00    0.91327   0.92965   10.950
 4231.00    0.96060   0.93213   10.410
 4232.00    0.92900   0.92283   10.764
 4233.00    0.85215   0.91179   11.735
 4234.00    0.86549   0.90506   11.554
 4235.00    0.90916   0.90229   10.999
 4236.00    0.87911   0.90239   11.375
 4237.00    0.85238   0.90561   11.732
 4238.00    0.88878   0.91108   11.251
 4239.00    0.94512   0.91814   10.581
 4240.00    0.93407   0.92693   10.706
 4241.00    0.89675   0.93660   11.151
 4242.00    0.90164   0.94602   11.091
 4243.00    0.93252   0.95394   10.724
 4244.00    0.94478   0.95639   10.585
 4245.00    0.93377   0.94923   10.709
 4246.00    0.93011   0.93471   10.751
 4247.00    0.91466   0.91991   10.933
 4248.00    0.88198   0.90884   11.338
 4249.00    0.86249   0.90142   11.594
 4250.00    0.85893   0.89827   11.642
 4251.00    0.87393   0.89959   11.443
 4252.00    0.91000   0.90117   10.989
 4253.00    0.93426   0.90007   10.704
 4254.00    0.92400   0.90130   10.823
 4255.00    0.89933   0.90986   11.119
 4256.00    0.90858   0.92044   11.006
 4257.00    0.93723   0.92225   10.670
 4258.00    0.93477   0.91205   10.698
 4259.00    0.90701   0.89842   11.025
 4260.00    0.89537   0.89398   11.169
 4261.00    0.91389   0.90492   10.942
 4262.00    0.92375   0.92624   10.825
 4263.00    0.94371   0.94634   10.597
 4264.00    0.97780   0.95624   10.227
 4265.00    0.95435   0.95371   10.478
 4266.00    0.92106   0.94193   10.857
 4267.00    0.92547   0.92663   10.805
 4268.00    0.90495   0.91109   11.050
 4269.00    0.88589   0.89338   11.288
 4270.00    0.90149   0.87303   11.093
 4271.00    0.89923   0.85647   11.121
 4272.00    0.84039   0.85048   11.899
 4273.00    0.78390   0.85433   12.757
 4274.00    0.81865   0.86431   12.215
 4275.00    0.85578   0.88039   -2.000
 4276.00    0.84908   0.90155   -2.000
 4277.00    0.88627   0.92071   -2.000
 4278.00    0.98956   0.92999   -2.000
 4279.00    1.06479   0.92777   -2.000
 4280.00    1.05961   0.91939   -2.000
 4281.00    1.14388   0.91164   -2.000
 4282.00    1.19510   0.90729   -2.000
 4283.00    0.96791   0.90536   -2.000
 4284.00    0.71253   0.90367   -2.000
 4285.00    0.62711   0.90050   -2.000
 4286.00    0.67256   0.89419   -2.000
 4287.00    0.77103   0.88216   -2.000
 4288.00    0.83329   0.86503   -2.000
 4289.00    0.82710   0.85157   -2.000
 4290.00    0.82534   0.85249   -2.000
 4291.00    0.86977   0.86767   11.497
 4292.00    0.91936   0.88486   10.877
 4293.00    0.90714   0.89282   11.024
 4294.00    0.88780   0.89125   11.264
 4295.00    0.89502   0.88543   11.173
 4296.00    0.84265   0.87595   11.867
 4297.00    0.77266   0.85981   12.942
 4298.00    0.77895   0.83846   12.838
 4299.00    0.84820   0.81938   11.790
 4300.00    0.84371   0.80968   11.852
 4301.00    0.76979   0.80919   12.990
 4302.00    0.79344   0.81326   12.603
 4303.00    0.85564   0.81886   11.687
 4304.00    0.86018   0.82309   11.626
 4305.00    0.83323   0.82148   12.001
 4306.00    0.82515   0.81302   12.119
 4307.00    0.82290   0.80328   12.152
 4308.00    0.78651   0.80103   12.714
 4309.00    0.76408   0.81094   13.088
 4310.00    0.78333   0.82887   12.766
 4311.00    0.82590   0.84608   12.108
 4312.00    0.88780   0.85792   11.264
 4313.00    0.91598   0.86792   10.917
 4314.00    0.88072   0.88347   11.354
 4315.00    0.87901   0.90675   11.376
 4316.00    0.93043   0.93019   10.748
 4317.00    0.97375   0.94338   10.270
 4318.00    0.98615   0.94357   10.140
 4319.00    0.97752   0.93559   10.230
 4320.00    0.95216   0.92452   10.502
 4321.00    0.89837   0.91082   11.131
 4322.00    0.85631   0.89080   11.678
 4323.00    0.85181   0.86259   11.740
 4324.00    0.84530   0.83387   11.830
 4325.00    0.84097   0.81974   11.891
 4326.00    0.85344   0.82953   11.717
 4327.00    0.86322   0.85588   11.584
 4328.00    0.86420   0.88023   11.571
 4329.00    0.88412   0.89002   11.311
 4330.00    0.93523   0.88697    0.000
 4331.00    0.92414   0.87961    0.000
 4332.00    0.86485   0.87259    0.000
 4333.00    0.88154   0.86382    0.000
 4334.00    0.90854   0.84716    0.000
 4335.00    0.87579   0.81510    0.000
 4336.00    0.84004   0.76421    0.000
 4337.00    0.91120   0.70105    0.000
 4338.00    1.14553   0.64060    0.000
 4339.00    1.46525   0.59967    0.000
 4340.00    1.66448   0.59202    0.000
 4341.00    1.64528   0.62059    0.000
 4342.00    1.44660   0.67106    0.000
 4343.00    1.13523   0.72281    0.000
 4344.00    0.88080   0.76566    0.000
 4345.00    0.81624   0.79967    0.000
 4346.00    0.85843   0.82691    0.000
 4347.00    0.89981   0.84842    0.000
 4348.00    0.89922   0.86206    0.000
 4349.00    0.87331   0.86246    0.000
 4350.00    0.85291   0.84965    0.000
 4351.00    0.83841   0.83581   11.927
 4352.00    0.79988   0.83601   12.502
 4353.00    0.75976   0.85277   13.162
 4354.00    0.77069   0.87633   12.975
 4355.00    0.84948   0.89693   11.772
 4356.00    0.93306   0.90986   10.717
 4357.00    0.96597   0.91374   10.352
 4358.00    0.95518   0.91213   10.469
 4359.00    0.91659   0.91297   10.910
 4360.00    0.89919   0.92102   11.121
 4361.00    0.94284   0.93340   10.606
 4362.00    0.96564   0.94487   10.356
 4363.00    0.94464   0.95306   10.586
 4364.00    0.94985   0.95637   10.528
 4365.00    0.97401   0.95178   10.267
 4366.00    0.98264   0.93930   10.177
 4367.00    0.97166   0.92562   10.292
 4368.00    0.96795   0.91831   10.331
 4369.00    0.96611   0.91841   10.351
 4370.00    0.94834   0.92092   10.545
 4371.00    0.94245   0.91997   10.611
 4372.00    0.94758   0.91190   10.553
 4373.00    0.92676   0.89831   10.790
 4374.00    0.86649   0.88794   11.541
 4375.00    0.84145   0.89066   11.884
 4376.00    0.90110   0.90678   11.098
 4377.00    0.96159   0.92559   10.399
 4378.00    0.96968   0.93540   10.313
 4379.00    0.94170   0.93185   10.619
 4380.00    0.91904   0.91534   10.881
 4381.00    0.91517   0.88666   10.927
 4382.00    0.90399   0.85094   11.062
 4383.00    0.85465   0.82245   11.701
 4384.00    0.80452   0.81558   12.430
 4385.00    0.80326   0.82964   12.449
 4386.00    0.84775   0.84995   11.796
 4387.00    0.88784   0.86459   11.263
 4388.00    0.90468   0.87379   11.054
 4389.00    0.92277   0.88264   10.837
 4390.00    0.92758   0.89295   10.781
 4391.00    0.90816   0.90320   11.011
 4392.00    0.88851   0.90982   11.255
 4393.00    0.90158   0.91063   11.092
 4394.00    0.93757   0.91012   10.666
 4395.00    0.95642   0.91609   10.456
 4396.00    0.94992   0.92856   10.527
 4397.00    0.92894   0.93739   10.765
 4398.00    0.90845   0.93435   11.008
 4399.00    0.90150   0.92320   11.093
 4400.00    0.90986   0.91396   10.991
 4401.00    0.92590   0.91033   10.800
 4402.00    0.94007   0.90538   10.637
 4403.00    0.94066   0.89259   10.631
 4404.00    0.91815   0.87806   10.891
 4405.00    0.87506   0.87317   11.428
 4406.00    0.83868   0.87932   11.924
 4407.00    0.84535   0.89004   11.829
 4408.00    0.90020   0.90316   11.109
 4409.00    0.93223   0.92019   10.727
 4410.00    0.91190   0.93774   10.966
 4411.00    0.91015   0.94787   10.987
 4412.00    0.93558   0.94422   10.689
 4413.00    0.94792   0.92602   10.549
 4414.00    0.92767   0.90161   10.780
 4415.00    0.90768   0.88610   11.017
 4416.00    0.91236   0.88905   10.961
 4417.00    0.92761   0.90697   10.780
 4418.00    0.94228   0.92910   10.613
 4419.00    0.94510   0.94458   10.581
 4420.00    0.92972   0.94720   10.756
 4421.00    0.91529   0.93951   10.925
 4422.00    0.92049   0.93051   10.864
 4423.00    0.94156   0.92705   10.621
 4424.00    0.95220   0.92813   10.502
 4425.00    0.93485   0.92921   10.697
 4426.00    0.91215   0.92912   10.963
 4427.00    0.93951   0.92913   10.644
 4428.00    0.98312   0.92884   10.172
 4429.00    0.97929   0.92692   10.211
 4430.00    0.96241   0.92438   10.391
 4431.00    0.96458   0.92233   10.367
 4432.00    0.97213   0.91724   10.287
 4433.00    0.95121   0.90635   10.513
 4434.00    0.90792   0.89568   11.014
 4435.00    0.87990   0.89572   11.365
 4436.00    0.89758   0.91061   11.141
 4437.00    0.96012   0.93324   10.415
 4438.00    1.00736   0.95063    9.927
 4439.00    0.97205   0.95300   10.287
 4440.00    0.94544   0.93933   10.577
 4441.00    0.96477   0.91847   10.365
 4442.00    0.93334   0.90407   10.714
 4443.00    0.92220   0.90541   10.844
 4444.00    0.96839   0.92073   10.326
 4445.00    0.97733   0.93908   10.232
 4446.00    0.95613   0.95032   10.459
 4447.00    0.95019   0.95324   10.524
 4448.00    0.96232   0.95211   10.392
 4449.00    0.96247   0.94919   10.390
 4450.00    0.94836   0.94483   10.544
 4451.00    0.94557   0.93888   10.576
 4452.00    0.94966   0.92867   10.530
 4453.00    0.93062   0.91264   10.745
 4454.00    0.89525   0.89557   11.170
 4455.00    0.92028   0.88540   10.866
 4456.00    0.95070   0.88458   10.519
 4457.00    0.90464   0.88749   11.054
 4458.00    0.87861   0.88804   11.382
 4459.00    0.88875   0.88571   11.252
 4460.00    0.88004   0.88391   11.363
 4461.00    0.86975   0.88675    0.000
 4462.00    0.89347   0.89641    0.000
 4463.00    0.94029   0.90946    0.000
 4464.00    0.95041   0.91813    0.000
 4465.00    0.92529   0.91877    0.000
 4466.00    0.88807   0.91329    0.000
 4467.00    0.83995   0.90385    0.000
 4468.00    0.83038   0.89212    0.000
 4469.00    0.86747   0.88201    0.000
 4470.00    0.89130   0.87968    0.000
 4471.00    0.92443   0.88967    0.000
 4472.00    0.97139   0.91080    0.000
 4473.00    0.97756   0.93488    0.000
 4474.00    0.96345   0.95317    0.000
 4475.00    0.97363   0.96413    0.000
 4476.00    1.00456   0.96998    0.000
 4477.00    0.99623   0.96844    0.000
 4478.00    0.94668   0.95429    0.000
 4479.00    0.91478   0.92902    0.000
 4480.00    0.90953   0.90471    0.000
 4481.00    0.91182   0.89602    0.000
 4482.00    0.91126   0.90835   10.974
 4483.00    0.92256   0.93374   10.839
 4484.00    0.96281   0.95802   10.386
 4485.00    1.01008   0.97096    9.900
 4486.00    0.99691   0.96924   10.031
 4487.00    0.93574   0.95558   10.687
 4488.00    0.89791   0.93830   11.137
 4489.00    0.91027   0.92769   10.986
 4490.00    0.92408   0.92851   10.822
 4491.00    0.91587   0.93577   10.919
 4492.00    0.94097   0.93970   10.627
 4493.00    0.95082   0.93540   10.517
 4494.00    0.90551   0.92743   11.044
 4495.00    0.88683   0.92490   11.276
 4496.00    0.93399   0.93183   10.707
 4497.00    0.99278   0.94448   10.073
 4498.00    0.98372   0.95551   10.165
 4499.00    0.94779   0.96003   10.551
 4500.00    0.94232   0.96032   10.612
 4501.00    0.95481   0.96413   10.473
 4502.00    0.96134   0.97617   10.402
 4503.00    0.97497   0.99133   10.257
 4504.00    1.01469   0.99992    9.855
 4505.00    1.02361   0.99825    9.769
 4506.00    0.99650   0.99039   10.035
 4507.00    0.99401   0.98307   10.060
 4508.00    1.01726   0.98049    9.830
 4509.00    1.02818   0.98159    9.726
 4510.00    1.00183   0.98132    9.982
 4511.00    0.96152   0.97564   10.400
 4512.00    0.94102   0.96540   10.627
 4513.00    0.94524   0.95517   10.579
 4514.00    0.94202   0.94895   10.615
 4515.00    0.92712   0.94766   10.786
 4516.00    0.92586   0.94932   10.801
 4517.00    0.94804   0.95169   10.548
 4518.00    0.95379   0.95512   10.485
 4519.00    0.92852   0.95978   10.770
 4520.00    0.93035   0.96225   10.749
 4521.00    0.94988   0.95878   10.528
 4522.00    0.95964   0.94959   10.421
 4523.00    0.97310   0.93857   10.276
 4524.00    0.94821   0.92757   10.546
 4525.00    0.88156   0.91464   11.344
 4526.00    0.85192   0.89963   11.738
 4527.00    0.86151   0.88616   11.608
 4528.00    0.86812   0.87898   11.519
 4529.00    0.85645   0.88064   11.676
 4530.00    0.85458   0.88860   11.702
 4531.00    0.87732   0.89602   11.398
 4532.00    0.89938   0.89721   11.119
 4533.00    0.89176   0.89298   11.214
 4534.00    0.86481   0.89211   11.563
 4535.00    0.86142   0.90316   11.609
 4536.00    0.89977   0.92408   11.114
 4537.00    0.93821   0.94262   10.659
 4538.00    0.94273   0.94742   10.607
 4539.00    0.97077   0.93911   10.301
 4540.00    0.98480   0.92802   10.154
 4541.00    0.93174   0.92359   10.733
 4542.00    0.92284   0.92692   10.836
 4543.00    0.96097   0.93183   10.406
 4544.00    0.96856   0.93333   10.325
 4545.00    0.95957   0.93218   10.421
 4546.00    0.94168   0.92963   10.619
 4547.00    0.91683   0.92431   10.907
 4548.00    0.91078   0.91689   10.980
 4549.00    0.90496   0.91212   11.050
 4550.00    0.88628   0.91299    0.000
 4551.00    0.88808   0.91511    0.000
 4552.00    0.89994   0.91269    0.000
 4553.00    0.90023   0.90778    0.000
 4554.00    0.89746   0.90722    0.000
 4555.00    0.89628   0.91567    0.000
 4556.00    0.89581   0.93198    0.000
 4557.00    0.89707   0.94968    0.000
 4558.00    0.90470   0.96247    0.000
 4559.00    0.93016   0.96897    0.000
 4560.00    0.96936   0.97007    0.000
 4561.00    0.97224   0.96554    0.000
 4562.00    0.94772   0.95529    0.000
 4563.00    0.94796   0.94284    0.000
 4564.00    0.93825   0.93573    0.000
 4565.00    0.91172   0.93900    0.000
 4566.00    0.91590   0.95035    0.000
 4567.00    0.96183   0.96208    0.000
 4568.00    0.99068   0.96669    0.000
 4569.00    0.95470   0.96213    0.000
 4570.00    0.91484   0.95268    0.000
 4571.00    0.91951   0.94606    0.000
 4572.00    0.94597   0.94810    0.000
 4573.00    0.93391   0.95614    0.000
 4574.00    0.89295   0.96230    0.000
 4575.00    0.88141   0.96347    0.000
 4576.00    0.91995   0.96071    0.000
 4577.00    0.95038   0.95381    0.000
 4578.00    0.93487   0.94266    0.000
 4579.00    0.91689   0.93034    0.000
 4580.00    0.88714   0.92181    0.000
 4581.00    0.85000   0.91924    0.000
 4582.00    0.86198   0.92023    0.000
 4583.00    0.88854   0.92153    0.000
 4584.00    0.88984   0.92313    0.000
 4585.00    0.89227   0.92704    0.000
 4586.00    0.91446   0.93414    0.000
 4587.00    0.92893   0.94306    0.000
 4588.00    0.89887   0.94959    0.000
 4589.00    0.86619   0.94964    0.000
 4590.00    0.87664   0.94323    0.000
 4591.00    0.91524   0.93471    0.000
 4592.00    0.92008   0.92871    0.000
 4593.00    0.89464   0.92636    0.000
 4594.00    0.89496   0.92592    0.000
 4595.00    0.91387   0.92666    0.000
 4596.00    0.90477   0.92933    0.000
 4597.00    0.86819   0.93306    0.000
 4598.00    0.89105   0.93524    0.000
 4599.00    0.93820   0.93431    0.000
 4600.00    0.92970   0.93146    0.000
 4601.00    0.91939   0.93004    0.000
 4602.00    0.93169   0.93132    0.000
 4603.00    0.93312   0.93345    0.000
 4604.00    0.90408   0.93572    0.000
 4605.00    0.88853   0.94006    0.000
 4606.00    0.90791   0.94889    0.000
 4607.00    0.90981   0.96127    0.000
 4608.00    0.90945   0.97220    0.000
 4609.00    0.93809   0.97655    0.000
 4610.00    0.96838   0.97350    0.000
 4611.00    0.96020   0.96714    0.000
 4612.00    0.92147   0.96234    0.000
 4613.00    0.90893   0.96128    0.000
 4614.00    0.94153   0.96341    0.000
 4615.00    0.97263   0.96560    0.000
 4616.00    0.94897   0.96481    0.000
 4617.00    0.91937   0.96139    0.000
 4618.00    0.91851   0.95754    0.000
 4619.00    0.91604   0.95656    0.000
 4620.00    0.89584   0.96063    0.000
 4621.00    0.89176   0.96695    0.000
 4622.00    0.93157   0.97082    0.000
 4623.00    0.95430   0.97091    0.000
 4624.00    0.93581   0.96820    0.000
 4625.00    0.91628   0.96413    0.000
 4626.00    0.92652   0.96019    0.000
 4627.00    0.95206   0.95669    0.000
 4628.00    0.96258   0.95349    0.000
 4629.00    0.95974   0.95198    0.000
 4630.00    0.95699   0.95326    0.000
 4631.00    0.95695   0.95451    0.000
 4632.00    0.95072   0.95189    0.000
 4633.00    0.95504   0.94625    0.000
 4634.00    0.96655   0.94128    0.000
 4635.00    0.94157   0.93761    0.000
 4636.00    0.90885   0.93309    0.000
 4637.00    0.90971   0.92699    0.000
 4638.00    0.92633   0.92189    0.000
 4639.00    0.93268   0.92098    0.000
 4640.00    0.93245   0.92475    0.000
 4641.00    0.94437   0.93066    0.000
 4642.00    0.93794   0.93381    0.000
 4643.00    0.90454   0.93008    0.000
 4644.00    0.88859   0.91882    0.000
 4645.00    0.91241   0.90295    0.000
 4646.00    0.93167   0.88859    0.000
 4647.00    0.89585   0.88275    0.000
 4648.00    0.86688   0.88767    0.000
 4649.00    0.88458   0.89973    0.000
 4650.00    0.91505   0.91355    0.000
 4651.00    0.92501   0.92452    0.000
 4652.00    0.91570   0.92957    0.000
 4653.00    0.91976   0.92795    0.000
 4654.00    0.96216   0.92279    0.000
 4655.00    0.98643   0.92135    0.000
 4656.00    0.95560   0.92881    0.000
 4657.00    0.96133   0.94418    0.000
 4658.00    0.98969   0.96106    0.000
 4659.00    0.97398   0.97092    0.000
 4660.00    0.94898   0.96919    0.000
 4661.00    0.95185   0.95820    0.000
 4662.00    0.96696   0.94405    0.000
 4663.00    0.94756   0.93046    0.000
 4664.00    0.90987   0.91635    0.000
 4665.00    0.88427   0.89940    0.000
 4666.00    0.86092   0.88211    0.000
 4667.00    0.84182   0.87276    0.000
 4668.00    0.85085   0.87778    0.000
 4669.00    0.89641   0.89412    0.000
 4670.00    0.91437   0.91226    0.000
 4671.00    0.89148   0.92447    0.000
 4672.00    0.89271   0.92916    0.000
 4673.00    0.91326   0.93030    0.000
 4674.00    0.92843   0.93254    0.000
 4675.00    0.93585   0.93627    0.000
 4676.00    0.93104   0.93807    0.000
 4677.00    0.91625   0.93462    0.000
 4678.00    0.90354   0.92656    0.000
 4679.00    0.90307   0.91799    0.000
 4680.00    0.90876   0.91257    0.000
 4681.00    0.91127   0.91125    0.000
 4682.00    0.92098   0.91254    0.000
 4683.00    0.94228   0.91356    0.000
 4684.00    0.95838   0.91225    0.000
 4685.00    0.94432   0.91022    0.000
 4686.00    0.92150   0.91108    0.000
 4687.00    0.92864   0.91516    0.000
 4688.00    0.95928   0.91977    0.000
 4689.00    0.96227   0.92273    0.000
 4690.00    0.92408   0.92388    0.000
 4691.00    0.90833   0.92525    0.000
 4692.00    0.92577   0.92930    0.000
 4693.00    0.94643   0.93576    0.000
 4694.00    0.95414   0.94186    0.000
 4695.00    0.94729   0.94388    0.000
 4696.00    0.93264   0.93886    0.000
 4697.00    0.91754   0.92761    0.000
 4698.00    0.90339   0.91511    0.000
 4699.00    0.89686   0.90658    0.000
 4700.00    0.90091   0.90247    0.000
 4701.00    0.88666   0.89993    0.000
 4702.00    0.86456   0.89855    0.000
 4703.00    0.87615   0.90029    0.000
 4704.00    0.89310   0.90466    0.000
 4705.00    0.88960   0.90757    0.000
 4706.00    0.88073   0.90618    0.000
 4707.00    0.88536   0.90285    0.000
 4708.00    0.89194   0.90243    0.000
 4709.00    0.88354   0.90691    0.000
 4710.00    0.88258   0.91345    0.000
 4711.00    0.88611   0.91669    0.000
 4712.00    0.87650   0.91381    0.000
 4713.00    0.87040   0.90923    0.000
 4714.00    0.87565   0.91004    0.000
 4715.00    0.88874   0.91892    0.000
 4716.00    0.91165   0.93261    0.000
 4717.00    0.93322   0.94585    0.000
 4718.00    0.93884   0.95544    0.000
 4719.00    0.92998   0.96065    0.000
 4720.00    0.92402   0.96157    0.000
 4721.00    0.92917   0.95980    0.000
 4722.00    0.93142   0.95832    0.000
 4723.00    0.92360   0.95859    0.000
 4724.00    0.91679   0.95761    0.000
 4725.00    0.92628   0.95017    0.000
 4726.00    0.93721   0.93492    0.000
 4727.00    0.93150   0.91681    0.000
 4728.00    0.91119   0.90362    0.000
 4729.00    0.88899   0.89934    0.000
 4730.00    0.88351   0.90247    0.000
 4731.00    0.89479   0.90979    0.000
 4732.00    0.88007   0.91853    0.000
 4733.00    0.86092   0.92545    0.000
 4734.00    0.89297   0.92846    0.000
 4735.00    0.92431   0.92858    0.000
 4736.00    0.92473   0.92836    0.000
 4737.00    0.91915   0.93070    0.000
 4738.00    0.91512   0.93525    0.000
 4739.00    0.92360   0.93797    0.000
 4740.00    0.94481   0.93777    0.000
 4741.00    0.94514   0.93753    0.000
 4742.00    0.92437   0.93912    0.000
 4743.00    0.91339   0.94185    0.000
 4744.00    0.92668   0.94443    0.000
 4745.00    0.94102   0.94688    0.000
 4746.00    0.94825   0.94970    0.000
 4747.00    0.98025   0.95185    0.000
 4748.00    0.99783   0.95234    0.000
 4749.00    0.96552   0.95129    0.000
 4750.00    0.92745   0.94829    0.000
 4751.00    0.91222   0.94268    0.000
 4752.00    0.91776   0.93556    0.000
 4753.00    0.92982   0.92927    0.000
 4754.00    0.93394   0.92532    0.000
 4755.00    0.92345   0.92423    0.000
 4756.00    0.90894   0.92557    0.000
 4757.00    0.92031   0.92843    0.000
 4758.00    0.94231   0.93084    0.000
 4759.00    0.92841   0.92995    0.000
 4760.00    0.90277   0.92380    0.000
 4761.00    0.89606   0.91289   11.160
 4762.00    0.90219   0.90071   11.084
 4763.00    0.90013   0.89121   11.110
 4764.00    0.87980   0.88584   11.366
 4765.00    0.85631   0.88514   11.678
 4766.00    0.86155   0.89012   11.607
 4767.00    0.89278   0.89998   11.201
 4768.00    0.91953   0.91052   10.875
 4769.00    0.92732   0.91733   10.784
 4770.00    0.91960   0.91906   10.874
 4771.00    0.91066   0.91849   10.981
 4772.00    0.91575   0.92045   10.920
 4773.00    0.93810   0.92650   10.660
 4774.00    0.96065   0.93375   10.410
 4775.00    0.95996   0.93848   10.417
 4776.00    0.95650   0.93973   10.455
 4777.00    0.95694   0.93855   10.450
 4778.00    0.92640   0.93522   10.795
 4779.00    0.90440   0.93009   11.057
 4780.00    0.92211   0.92431   10.845
 4781.00    0.93933   0.91853   10.646
 4782.00    0.94517   0.91306   10.580
 4783.00    0.94428   0.90881   10.590
 4784.00    0.93218   0.90667   10.728
 4785.00    0.91444   0.90550   10.936
 4786.00    0.90594   0.90403   11.038
 4787.00    0.91265   0.90371   10.957
 4788.00    0.91354   0.90526   10.946
 4789.00    0.91457   0.90827   10.934
 4790.00    0.93125   0.91398   10.738
 4791.00    0.91830   0.92309   10.890
 4792.00    0.88594   0.93443   11.287
 4793.00    0.89111   0.94562   11.222
 4794.00    0.91913   0.95285   10.880
 4795.00    0.92412   0.95286   10.821
 4796.00    0.90404   0.94571   11.061
 4797.00    0.92101   0.93502   10.858
 4798.00    0.93832   0.92576   10.657
 4799.00    0.89855   0.92216   11.129
 4800.00    0.86881   0.92539   11.510
 4801.00    0.88498   0.93201   11.300
 4802.00    0.92133   0.93612   10.854
 4803.00    0.94401   0.93412   10.593
 4804.00    0.94306   0.92714   10.604
 4805.00    0.92321   0.91924   10.832
 4806.00    0.89661   0.91412   11.153
 4807.00    0.90451   0.91245   11.056
 4808.00    0.93283   0.91363   10.720
 4809.00    0.90939   0.91670   10.996
 4810.00    0.88232   0.91971   11.334
 4811.00    0.89439   0.92144   11.181
 4812.00    0.90357   0.92251   11.067
 4813.00    0.90947   0.92430   10.995
 4814.00    0.91313   0.92766   10.951
 4815.00    0.89950   0.93235   11.117
 4816.00    0.89504   0.93746   11.173
 4817.00    0.91070   0.94169   10.981
 4818.00    0.92611   0.94364   10.798
 4819.00    0.93712   0.94208   10.671
 4820.00    0.94404   0.93563   10.593
 4821.00    0.93335   0.92438   10.714
 4822.00    0.88668   0.91156   11.278
 4823.00    0.86184   0.90262   11.603
 4824.00    0.90343   0.90208   11.069
 4825.00    0.91510   0.90782   10.928
 4826.00    0.88065   0.91283   11.355
 4827.00    0.86808   0.91327   11.520
 4828.00    0.89214   0.91029   11.209
 4829.00    0.89892   0.90648   11.124
 4830.00    0.87442   0.90322   11.436
 4831.00    0.89627   0.90105   11.157
 4832.00    0.92348   0.90145   10.829
 4833.00    0.90367   0.90522   11.066
 4834.00    0.89914   0.90969   11.122
 4835.00    0.91921   0.91147   10.879
 4836.00    0.91454   0.90951   10.934
 4837.00    0.86094   0.90455   11.615
 4838.00    0.83535   0.89781   11.971
 4839.00    0.87106   0.89138   11.480
 4840.00    0.89681   0.88731   11.151
 4841.00    0.89369   0.88583   11.190
 4842.00    0.87734   0.88596   11.398
 4843.00    0.85942   0.88746   11.636
 4844.00    0.85311   0.89018   11.722
 4845.00    0.86596   0.89113   11.548
 4846.00    0.88978   0.88692   11.239
 4847.00    0.89870   0.87858   11.127
 4848.00    0.88287   0.87055    0.000
 4849.00    0.85987   0.86613    0.000
 4850.00    0.85243   0.86379    0.000
 4851.00    0.84589   0.85831    0.000
 4852.00    0.81781   0.84620    0.000
 4853.00    0.79506   0.82777    0.000
 4854.00    0.79709   0.80592    0.000
 4855.00    0.80220   0.78453    0.000
 4856.00    0.77874   0.76396    0.000
 4857.00    0.81482   0.73779    0.000
 4858.00    1.10749   0.69991    0.000
 4859.00    1.77458   0.65572    0.000
 4860.00    2.50685   0.62161    0.000
 4861.00    2.89450   0.61394    0.000
 4862.00    2.81544   0.63695    0.000
 4863.00    2.26397   0.67866    0.000
 4864.00    1.48844   0.72204    0.000
 4865.00    0.95302   0.75833    0.000
 4866.00    0.77535   0.78545    0.000
 4867.00    0.78718   0.80299    0.000
 4868.00    0.80187   0.81085    0.000
 4869.00    0.79537   0.81034    0.000
 4870.00    0.78454   0.80570    0.000
 4871.00    0.75753   0.80425    0.000
 4872.00    0.75700   0.81175    0.000
 4873.00    0.78364   0.82624    0.000
 4874.00    0.79134   0.84107    0.000
 4875.00    0.80173   0.85303   12.473
 4876.00    0.83216   0.86364   12.017
 4877.00    0.85938   0.87422   11.636
 4878.00    0.85968   0.88331   11.632
 4879.00    0.85460   0.88859   11.701
 4880.00    0.86944   0.88831   11.502
 4881.00    0.87058   0.88382   11.487
 4882.00    0.86987   0.87875   11.496
 4883.00    0.88579   0.87390   11.289
 4884.00    0.86464   0.86833   11.566
 4885.00    0.82233   0.86341   12.161
 4886.00    0.81646   0.86116   12.248
 4887.00    0.84278   0.86044   11.865
 4888.00    0.84754   0.85753   11.799
 4889.00    0.82050   0.85207   12.188
 4890.00    0.82800   0.84968   12.077
 4891.00    0.86211   0.85776   11.599
 4892.00    0.88420   0.87876   11.310
 4893.00    0.90025   0.90544   11.108
 4894.00    0.92647   0.92789   10.794
 4895.00    0.94546   0.94129   10.577
 4896.00    0.92096   0.94482   10.858
 4897.00    0.88342   0.94030   11.320
 4898.00    0.86502   0.93117   11.560
 4899.00    0.85810   0.92123   11.654
 4900.00    0.85929   0.91381   11.637
 4901.00    0.86050   0.91023   11.621
 4902.00    0.85695   0.90944   11.669
 4903.00    0.87209   0.91168   11.467
 4904.00    0.88690   0.91781   11.275
 4905.00    0.87158   0.92480   11.473
 4906.00    0.87927   0.92672   11.373
 4907.00    0.90015   0.92027   11.109
 4908.00    0.87740   0.90830   11.397
 4909.00    0.83835   0.89723   11.928
 4910.00    0.82147   0.89265   12.173
 4911.00    0.82551   0.89658   12.114
 4912.00    0.82228   0.90637   12.161
 4913.00    0.83376   0.91699   11.994
 4914.00    0.87116   0.92368   11.479
 4915.00    0.87160   0.92188   11.473
 4916.00    0.84251   0.90773   11.869
 4917.00    0.82824   0.88187   12.074
 4918.00    0.82608   0.85144   12.105
 4919.00    0.81787   0.82736   12.227
 4920.00    0.79730   0.81791   12.542
 4921.00    0.78059   0.82333   12.811
 4922.00    0.79501   0.83783   12.578
 4923.00    0.83593   0.85467   11.963
 4924.00    0.86059   0.87181   11.620
 4925.00    0.85307   0.89039   11.722
 4926.00    0.84624   0.90993   11.817
 4927.00    0.88044   0.92666   11.358
 4928.00    0.92179   0.93792   10.848
 4929.00    0.93703   0.94263   10.672
 4930.00    0.92827   0.93925   10.773
 4931.00    0.88955   0.92837   11.242
 4932.00    0.84638   0.91409   11.815
 4933.00    0.84114   0.90205   11.889
 4934.00    0.86320   0.89599   11.585
 4935.00    0.86355   0.89313   11.580
 4936.00    0.82429   0.88716   12.132
 4937.00    0.80693   0.87817   12.393
 4938.00    0.81111   0.87352   12.329
 4939.00    0.79765   0.87930   12.537
 4940.00    0.79570   0.89427    0.000
 4941.00    0.83613   0.91143    0.000
 4942.00    0.89639   0.92423    0.000
 4943.00    0.91204   0.93116    0.000
 4944.00    0.89464   0.93339    0.000
 4945.00    0.89273   0.93344    0.000
 4946.00    0.91128   0.93461    0.000
 4947.00    0.93417   0.93840    0.000
 4948.00    0.93496   0.94313    0.000
 4949.00    0.90091   0.94651    0.000
 4950.00    0.88432   0.94706    0.000
 4951.00    0.90938   0.94385    0.000
 4952.00    0.92762   0.93618    0.000
 4953.00    0.92465   0.92373    0.000
 4954.00    0.90011   0.90577    0.000
 4955.00    0.85523   0.88301    0.000
 4956.00    0.83483   0.86185    0.000
 4957.00    0.86449   0.85222    0.000
 4958.00    0.92122   0.86049    0.000
 4959.00    0.97352   0.88103    0.000
 4960.00    0.99592   0.90049    0.000
 4961.00    0.97775   0.91103    0.000
 4962.00    0.93066   0.91227    0.000
 4963.00    0.88357   0.90682    0.000
 4964.00    0.85615   0.89756    0.000
 4965.00    0.83765   0.88798    0.000
 4966.00    0.84136   0.88206    0.000
 4967.00    0.86976   0.88126    0.000
 4968.00    0.86518   0.88439    0.000
 4969.00    0.84007   0.89032    0.000
 4970.00    0.84619   0.89792    0.000
 4971.00    0.87382   0.90611    0.000
 4972.00    0.88021   0.91362    0.000
 4973.00    0.85808   0.91858    0.000
 4974.00    0.85548   0.91989    0.000
 4975.00    0.86769   0.91669    0.000
 4976.00    0.86686   0.90912    0.000
 4977.00    0.85732   0.89868    0.000
 4978.00    0.85014   0.88643    0.000
 4979.00    0.84469   0.87256    0.000
 4980.00    0.83292   0.85660    0.000
 4981.00    0.82460   0.84003    0.000
 4982.00    0.81921   0.82802    0.000
 4983.00    0.80576   0.82647    0.000
 4984.00    0.81024   0.83652    0.000
 4985.00    0.83992   0.85345    0.000
 4986.00    0.86798   0.87070    0.000
 4987.00    0.88752   0.88302    0.000
 4988.00    0.88908   0.88766    0.000
 4989.00    0.86865   0.88643    0.000
 4990.00    0.86035   0.88374    0.000
 4991.00    0.85860   0.88250    0.000
 4992.00    0.84269   0.88369    0.000
 4993.00    0.85613   0.88620    0.000
 4994.00    0.88751   0.88903    0.000
 4995.00    0.88427   0.89157    0.000
 4996.00    0.85503   0.89088    0.000
 4997.00    0.85103   0.88445    0.000
 4998.00    0.88034   0.87296    0.000
 4999.00    0.87066   0.85960    0.000
 5000.00    0.83531   0.84910    0.000
 5001.00    0.81995   0.84404    0.000
 5002.00    0.81200   0.84210    0.000
 5003.00    0.85079   0.83922    0.000
 5004.00    0.94987   0.83379    0.000
 5005.00    1.04390   0.82959    0.000
 5006.00    1.14376   0.83217    0.000
 5007.00    1.22027   0.84249    0.000
 5008.00    1.16815   0.85439    0.000
 5009.00    1.04723   0.85951    0.000
 5010.00    0.95036   0.85431    0.000
 5011.00    0.88137   0.84130    0.000
 5012.00    0.82888   0.82580    0.000
 5013.00    0.80349   0.81408    0.000
 5014.00    0.81772   0.80952    0.000
 5015.00    0.83526   0.81136    0.000
 5016.00    0.83654   0.81673    0.000
 5017.00    0.83093   0.82275    0.000
 5018.00    0.80750   0.82897    0.000
 5019.00    0.78781   0.83538    0.000
 5020.00    0.80990   0.84078    0.000
 5021.00    0.85330   0.84483    0.000
 5022.00    0.85554   0.84923    0.000
 5023.00    0.81619   0.85517    0.000
 5024.00    0.84768   0.86052    0.000
 5025.00    0.89773   0.86211    0.000
 5026.00    0.86147   0.86095    0.000
 5027.00    0.81784   0.86071    0.000
 5028.00    0.83199   0.86476    0.000
 5029.00    0.87825   0.87336   11.386
 5030.00    0.89064   0.88330   11.228
 5031.00    0.87488   0.89174   11.430
 5032.00    0.86569   0.89561   11.551
 5033.00    0.86176   0.89188   11.604
 5034.00    0.86216   0.88089   11.599
 5035.00    0.86165   0.86703   11.606
 5036.00    0.84906   0.85465   11.778
 5037.00    0.83745   0.84360   11.941
 5038.00    0.83523   0.82986   11.973
 5039.00    0.82778   0.81435   12.081
 5040.00    0.80523   0.80531   12.419
 5041.00    0.78943   0.81060   12.667
 5042.00    0.81376   0.83087   12.289
 5043.00    0.86135   0.85772   11.610
 5044.00    0.89306   0.87988   11.197
 5045.00    0.88676   0.89077   11.277
 5046.00    0.85816   0.88868   11.653
 5047.00    0.84528   0.87661   11.830
 5048.00    0.86429   0.86158   11.570
 5049.00    0.87444   0.85069   11.436
 5050.00    0.85607   0.84755   11.681
 5051.00    0.83160   0.85168   12.025
 5052.00    0.82801   0.86073   12.077
 5053.00    0.84421   0.87144   11.845
 5054.00    0.86726   0.88061   11.531
 5055.00    0.89413   0.88698   11.184
 5056.00    0.88950   0.89173   11.242
 5057.00    0.85384   0.89631   11.712
 5058.00    0.86702   0.90126   11.534
 5059.00    0.92656   0.90543   10.793
 5060.00    0.95314   0.90724   10.492
 5061.00    0.89779   0.90407   11.138
 5062.00    0.84520   0.89378   11.832
 5063.00    0.85773   0.87843   11.659
 5064.00    0.87115   0.86379   11.479
 5065.00    0.84874   0.85514   11.782
 5066.00    0.82006   0.85362   12.194
 5067.00    0.82902   0.85594   12.062
 5068.00    0.84389   0.85925   11.850
 5069.00    0.84722   0.86207   11.803
 5070.00    0.86376   0.86309   11.577
 5071.00    0.86906   0.86211   11.507
 5072.00    0.84552   0.86092   11.827
 5073.00    0.82135   0.86145   12.175
 5074.00    0.83823   0.86275   11.930
 5075.00    0.87196   0.86224   11.468
 5076.00    0.86949   0.85783   11.501
 5077.00    0.85334   0.84802   11.719
 5078.00    0.83346   0.83420   11.998
 5079.00    0.80309   0.82146   12.452
 5080.00    0.79199   0.81616   12.626
 5081.00    0.80149   0.81962   12.477
 5082.00    0.81288   0.82823   12.302
 5083.00    0.82906   0.83838   12.062
 5084.00    0.83943   0.84847   11.913
 5085.00    0.83426   0.85720   11.987
 5086.00    0.82935   0.86343   12.058
 5087.00    0.83455   0.86752   11.983
 5088.00    0.85206   0.87079   11.736
 5089.00    0.87761   0.87432   11.395
 5090.00    0.88033   0.87848   11.359
 5091.00    0.86547   0.88318   11.554
 5092.00    0.88037   0.88691   11.359
 5093.00    0.88575   0.88679   11.290
 5094.00    0.85887   0.88055   11.643
 5095.00    0.84913   0.86865   11.777
 5096.00    0.85439   0.85385   11.704
 5097.00    0.84489   0.84032   11.836
 5098.00    0.81484   0.83269   12.272
 5099.00    0.79654   0.83363   12.554
 5100.00    0.80750   0.84195   12.384
 5101.00    0.82993   0.85203   12.049
 5102.00    0.84238   0.85820   11.871
 5103.00    0.84398   0.85872   11.849
 5104.00    0.84533   0.85490   11.830
 5105.00    0.84468   0.84875   11.839
 5106.00    0.85830   0.84226   11.651
 5107.00    0.88225   0.83697   11.335
 5108.00    0.85315   0.83465   11.721
 5109.00    0.80967   0.83636   12.351
 5110.00    0.82010   0.84150   12.194
 5111.00    0.83323   0.84919   12.001
 5112.00    0.82716   0.85771   12.090
 5113.00    0.82713   0.86532   12.090
 5114.00    0.84372   0.87229   11.852
 5115.00    0.86273   0.87883   11.591
 5116.00    0.87882   0.88399   11.379
 5117.00    0.90703   0.88619   11.025
 5118.00    0.91884   0.88342   10.883
 5119.00    0.88822   0.87515   11.259
 5120.00    0.84332   0.86271   11.858
 5121.00    0.83226   0.84802   12.016
 5122.00    0.83903   0.83395   11.919
 5123.00    0.80654   0.82333   12.399
 5124.00    0.79841   0.81797   12.525
 5125.00    0.82424   0.81726   12.132
 5126.00    0.80915   0.81840   12.359
 5127.00    0.81784   0.81976   12.227
 5128.00    0.85855   0.82205   11.647
 5129.00    0.85115   0.82664   11.749
 5130.00    0.83515   0.83341   11.974
 5131.00    0.83881   0.84105   11.922
 5132.00    0.83791   0.84791   11.934
 5133.00    0.84115   0.85340   11.889
 5134.00    0.84468   0.85635   11.839
 5135.00    0.83641   0.85508   11.956
 5136.00    0.83373   0.84843   11.994
 5137.00    0.82728   0.83887   12.088
 5138.00    0.80410   0.83157   12.436
 5139.00    0.79604   0.82840   12.562
 5140.00    0.81156   0.82804   12.322
 5141.00    0.83395   0.82804   11.991
 5142.00    0.85190   0.82707   11.738
 5143.00    0.85172   0.82655   11.741
 5144.00    0.83722   0.82655   11.944
 5145.00    0.83429   0.82550   11.986
 5146.00    0.83473   0.82411   11.980
 5147.00    0.81583   0.82429   12.258
 5148.00    0.78448   0.82543   12.747
 5149.00    0.78983   0.82561   12.661
 5150.00    0.83421   0.82319   11.987
 5151.00    0.85330   0.81930   11.719
 5152.00    0.84127   0.81717   11.887
 5153.00    0.83095   0.81959   12.034
 5154.00    0.83880   0.82772   11.922
 5155.00    0.84128   0.84044   11.887
 5156.00    0.83635   0.85423   11.957
 5157.00    0.84669   0.86500   11.811
 5158.00    0.85537   0.87084   11.691
 5159.00    0.85770   0.87130   11.659
 5160.00    0.86574   0.86735   11.551
 5161.00    0.86308   0.85951   11.586
 5162.00    0.85085   0.84683   11.753
 5163.00    0.83883   0.82757   11.921
 5164.00    0.80621   0.80003   12.404
 5165.00    0.76461   0.76615   13.079
 5166.00    0.73703   0.73470   13.568
 5167.00    0.70739   0.71569   14.109
 5168.00    0.69033   0.71199   14.109
 5169.00    0.69785   0.71586   14.109
 5170.00    0.69174   0.71715   14.109
 5171.00    0.67726   0.71479   14.109
 5172.00    0.68636   0.71786   14.109
 5173.00    0.72109   0.73481   13.868
 5174.00    0.75668   0.76296   13.216
 5175.00    0.78222   0.79138   12.784
 5176.00    0.81317   0.81133   12.297
 5177.00    0.83549   0.82064   11.969
 5178.00    0.83779   0.81987   11.936
 5179.00    0.83013   0.80889   12.046
 5180.00    0.79973   0.78767   12.504
 5181.00    0.76289   0.75962   13.108
 5182.00    0.75682   0.73473   13.213
 5183.00    0.74407   0.72542   13.440
 5184.00    0.73760   0.73793   13.558
 5185.00    0.78780   0.76631   12.694
 5186.00    0.81277   0.79620   12.304
 5187.00    0.79703   0.81744   12.547
 5188.00    0.80936   0.82710   12.355
 5189.00    0.82204   0.82604   12.165
 5190.00    0.80733   0.81733    0.000
 5191.00    0.78501   0.80579    0.000
 5192.00    0.78107   0.79811    0.000
 5193.00    0.78661   0.79823    0.000
 5194.00    0.78550   0.80467    0.000
 5195.00    0.79981   0.81378    0.000
 5196.00    0.83973   0.82408    0.000
 5197.00    0.88657   0.83451    0.000
 5198.00    0.91332   0.84288    0.000
 5199.00    0.92397   0.84736    0.000
 5200.00    0.92284   0.84625    0.000
 5201.00    0.89224   0.83893    0.000
 5202.00    0.85972   0.82519    0.000
 5203.00    0.83609   0.80652    0.000
 5204.00    0.78376   0.78660    0.000
 5205.00    0.73833   0.77031    0.000
 5206.00    0.74166   0.76107    0.000
 5207.00    0.76988   0.76008    0.000
 5208.00    0.77975   0.76692    0.000
 5209.00    0.77398   0.78190    0.000
 5210.00    0.79584   0.80320    0.000
 5211.00    0.83776   0.82523   11.937
 5212.00    0.85376   0.84178   11.713
 5213.00    0.82009   0.84855   12.194
 5214.00    0.78878   0.84683   12.678
 5215.00    0.78940   0.84258   12.668
 5216.00    0.80315   0.84256   12.451
 5217.00    0.82665   0.84939   12.097
 5218.00    0.85869   0.86027   11.646
 5219.00    0.87929   0.87023   11.373
 5220.00    0.85842   0.87477   11.649
 5221.00    0.83680   0.87129   11.950
 5222.00    0.85037   0.85861   11.760
 5223.00    0.82776   0.83775   12.081
 5224.00    0.77812   0.81314   12.851
 5225.00    0.76098   0.79286   13.141
 5226.00    0.76446   0.78575   13.081
 5227.00    0.77011   0.79500   12.985
 5228.00    0.78835   0.81568   12.685
 5229.00    0.83692   0.83665   11.949
 5230.00    0.86721   0.84792   11.531
 5231.00    0.84762   0.84796   11.798
 5232.00    0.82202   0.84184   12.165
 5233.00    0.79526   0.83750   12.575
 5234.00    0.77729   0.84099   12.865
 5235.00    0.80989   0.85162   12.347
 5236.00    0.87045   0.86458   11.488
 5237.00    0.90417   0.87473   11.060
 5238.00    0.88448   0.87987   11.306
 5239.00    0.84243   0.88123   11.870
 5240.00    0.83785   0.88092   11.935
 5241.00    0.88562   0.88079   11.292
 5242.00    0.89452   0.88125   11.179
 5243.00    0.85801   0.88081   11.655
 5244.00    0.85148   0.87662   11.744
 5245.00    0.84427   0.86715   11.845
 5246.00    0.83500   0.85463   11.976
 5247.00    0.84708   0.84350   11.805
 5248.00    0.82064   0.83668   12.186
 5249.00    0.78432   0.83423   12.750
 5250.00    0.80815   0.83494   12.374
 5251.00    0.84329   0.83835   11.858
 5252.00    0.83805   0.84275   11.932
 5253.00    0.80422   0.84652   12.434
 5254.00    0.79757   0.85134   12.538
 5255.00    0.82692   0.85962   12.093
 5256.00    0.86235   0.87143   11.596
 5257.00    0.88354   0.88191   11.318
 5258.00    0.88589   0.88461   11.288
 5259.00    0.87846   0.87619   11.383
 5260.00    0.86953   0.85731   11.501
 5261.00    0.84034   0.83187   11.900
 5262.00    0.80383   0.80517   12.440
 5263.00    0.80234   0.78251   12.464
 5264.00    0.78267   0.76783   12.777
 5265.00    0.74239   0.76222   13.470
 5266.00    0.76083   0.76147   13.144
 5267.00    0.78425   0.75959   12.751
 5268.00    0.75568   0.75542   13.233
 5269.00    0.71654   0.75465   13.956
 5270.00    0.73691   0.76424   13.570
 5271.00    0.78752   0.78334   12.698
 5272.00    0.79448   0.80328   12.587
 5273.00    0.81666   0.81720   12.245
 5274.00    0.86188   0.82682   11.603
 5275.00    0.86944   0.83743   11.502
 5276.00    0.85475   0.85126   11.699
 5277.00    0.85114   0.86507   11.749
 5278.00    0.85191   0.87213   11.738
 5279.00    0.82050   0.86937   12.188
 5280.00    0.81586   0.85935   12.257
 5281.00    0.87068   0.84790   11.485
 5282.00    0.86342   0.84149   11.582
 5283.00    0.82000   0.84480   12.195
 5284.00    0.82675   0.85779   12.096
 5285.00    0.84822   0.87567   11.789
 5286.00    0.87893   0.89126   11.377
 5287.00    0.91106   0.90048   10.976
 5288.00    0.89410   0.90433   11.184
 5289.00    0.86476   0.90551   11.564
 5290.00    0.87431   0.90527   11.438
 5291.00    0.90429   0.90299   11.058
 5292.00    0.91278   0.89807   10.956
 5293.00    0.89307   0.88969   11.197
 5294.00    0.87616   0.87684   11.413
 5295.00    0.86367   0.85964   11.578
 5296.00    0.84772   0.84198   11.796
 5297.00    0.83497   0.83049   11.976
 5298.00    0.83727   0.82905   11.944
 5299.00    0.83375   0.83592   11.994
 5300.00    0.81143   0.84646   12.324
 5301.00    0.83951   0.85782   11.912
 5302.00    0.89187   0.87031   11.212
 5303.00    0.88684   0.88305   11.276
 5304.00    0.88026   0.89308   11.360
 5305.00    0.90265   0.89795   11.078
 5306.00    0.91225   0.89876   10.962
 5307.00    0.88349   0.89883   11.319
 5308.00    0.87270   0.90037   11.459
 5309.00    0.91238   0.90262   10.960
 5310.00    0.91592   0.90329   10.918
 5311.00    0.90270   0.90105   11.078
 5312.00    0.92294   0.89651   10.835
 5313.00    0.91751   0.89057   10.899
 5314.00    0.87072   0.88410   11.485
 5315.00    0.83557   0.87844   11.968
 5316.00    0.85893   0.87502   11.642
 5317.00    0.88185   0.87462   11.340
 5318.00    0.86635   0.87628   11.543
 5319.00    0.86970   0.87736   11.498
 5320.00    0.88768   0.87561   11.265
 5321.00    0.87772   0.86998   11.393
 5322.00    0.83645   0.86067   11.955
 5323.00    0.83051   0.84937   12.041
 5324.00    0.85696   0.83637   11.669
 5325.00    0.83531   0.82050   11.972
 5326.00    0.78506   0.80186   12.738
 5327.00    0.75549   0.78661   13.236
 5328.00    0.75782   0.78366   13.196
 5329.00    0.77509   0.79692   12.902
 5330.00    0.80221   0.81987   12.466
 5331.00    0.83963   0.84219   11.910
 5332.00    0.86196   0.85863   11.601
 5333.00    0.87280   0.86927   11.457
 5334.00    0.88158   0.87566   11.343
 5335.00    0.85458   0.87766   11.702
 5336.00    0.81982   0.87456   12.198
 5337.00    0.82702   0.86644   12.092
 5338.00    0.84952   0.85517   11.771
 5339.00    0.84669   0.84497   11.811
 5340.00    0.82204   0.84076   12.165
 5341.00    0.82157   0.84455   12.172
 5342.00    0.83308   0.85328   12.004
 5343.00    0.83655   0.86049   11.954
 5344.00    0.85872   0.86288   11.645
 5345.00    0.88455   0.86109   11.305
 5346.00    0.88121   0.85743   11.348
 5347.00    0.85440   0.85465   11.704
 5348.00    0.85500   0.85479   11.696
 5349.00    0.87747   0.85963   11.396
 5350.00    0.86316   0.86938   11.585
 5351.00    0.86903   0.88136   11.507
 5352.00    0.90842   0.89282   11.008
 5353.00    0.90860   0.90243   11.006
 5354.00    0.89809   0.91025   11.135
 5355.00    0.90170   0.91616   11.090
 5356.00    0.89942   0.91937   11.118
 5357.00    0.90810   0.91966   11.012
 5358.00    0.90998   0.91670   10.989
 5359.00    0.89352   0.91027   -2.000
 5360.00    0.94269   0.90090   -2.000
 5361.00    0.98129   0.89031   -2.000
 5362.00    0.88111   0.88044   -2.000
 5363.00    0.76006   0.87272   -2.000
 5364.00    0.74980   0.86733   -2.000
 5365.00    0.83464   0.86314   -2.000
 5366.00    0.88851   0.85858   -2.000
 5367.00    0.95199   0.85090   -2.000
 5368.00    1.01346   0.83904   -2.000
 5369.00    0.86025   0.82612   -2.000
 5370.00    0.75920   0.81895   -2.000
 5371.00    0.89848   0.82366   -2.000
 5372.00    0.90991   0.84010   -2.000
 5373.00    0.83808   0.86149   -2.000
 5374.00    0.85885   0.87921   11.643
 5375.00    0.87383   0.88938   11.444
 5376.00    0.88219   0.89312   11.335
 5377.00    0.90144   0.89320   11.093
 5378.00    0.88658   0.89147   11.279
 5379.00    0.88826   0.88808   11.258
 5380.00    0.91564   0.88320   10.921
 5381.00    0.90139   0.87834   11.094
 5382.00    0.87732   0.87572   11.398
 5383.00    0.87018   0.87631   11.492
 5384.00    0.86269   0.87935   11.592
 5385.00    0.87789   0.88239   11.391
 5386.00    0.90082   0.88240   11.101
 5387.00    0.88302   0.87828   11.325
 5388.00    0.83636   0.87090   11.957
 5389.00    0.81404   0.86244   12.284
 5390.00    0.83745   0.85516   11.941
 5391.00    0.84880   0.85019   11.781
 5392.00    0.84325   0.84663   11.859
 5393.00    0.85409   0.84259   11.708
 5394.00    0.86211   0.83633   11.599
 5395.00    0.84216   0.82886   11.874
 5396.00    0.81580   0.82409   12.258
 5397.00    0.83961   0.82552   11.910
 5398.00    0.86867   0.83351   11.512
 5399.00    0.85298   0.84340   11.724
 5400.00    0.84093   0.84936   11.892
 5401.00    0.84403   0.84794   11.848
 5402.00    0.85053   0.83840   11.757
 5403.00    0.86223   0.82311   11.598
 5404.00    0.84981   0.80816   11.767
 5405.00    0.80636   0.80001   12.401
 5406.00    0.77205   0.80004   12.953
 5407.00    0.76484   0.80437   13.075
 5408.00    0.79326   0.80844   12.606
 5409.00    0.84486   0.81225   11.836
 5410.00    0.84214   0.81902   11.875
 5411.00    0.80760   0.83043   12.382
 5412.00    0.83760   0.84374   11.939
 5413.00    0.87455   0.85557   11.434
 5414.00    0.87977   0.86517   11.367
 5415.00    0.89057   0.87316   11.229
 5416.00    0.90702   0.87943   11.025
 5417.00    0.91147   0.88239   10.971
 5418.00    0.90140   0.88130   11.094
 5419.00    0.89603   0.87783   11.160
 5420.00    0.89035   0.87398   11.231
 5421.00    0.87511   0.87030   11.427
 5422.00    0.87324   0.86691   11.452
 5423.00    0.87446   0.86478   11.436
 5424.00    0.86399   0.86547   11.574
 5425.00    0.86661   0.86863   11.539
 5426.00    0.86973   0.86930   11.498
 5427.00    0.85231   0.86296   11.733
 5428.00    0.83498   0.85130   11.976
 5429.00    0.84154   0.84009   11.883
 5430.00    0.86570   0.83389   11.551
 5431.00    0.87343   0.83182   11.449
 5432.00    0.85589   0.82947   11.684
 5433.00    0.83797   0.82682   11.934
 5434.00    0.84868   0.82750   11.783
 5435.00    0.87083   0.83458   11.483
 5436.00    0.87612   0.84832   11.414
 5437.00    0.87039   0.86535   11.489
 5438.00    0.89791   0.88163   11.137
 5439.00    0.94116   0.89381   10.625
 5440.00    0.94048   0.90041   10.633
 5441.00    0.93364   0.90095   10.711
 5442.00    0.93708   0.89458   10.671
 5443.00    0.92196   0.88087   10.846
 5444.00    0.90417   0.86135   11.060
 5445.00    0.86970   0.84191   11.498
 5446.00    0.81405   0.83013   12.284
 5447.00    0.82315   0.83013   12.149
 5448.00    0.86708   0.83967   11.533
 5449.00    0.86423   0.85098   11.571
 5450.00    0.85977   0.85728   11.631
 5451.00    0.86082   0.85571   11.617
 5452.00    0.85041   0.84682   11.759
 5453.00    0.86214   0.83412   11.599
 5454.00    0.86435   0.82373   11.569
 5455.00    0.83664   0.82135   11.953
 5456.00    0.84128   0.82894   11.887
 5457.00    0.85472   0.84206   11.700
 5458.00    0.84815   0.85274   11.790
 5459.00    0.86747   0.85606   11.528
 5460.00    0.89889   0.85213   11.125
 5461.00    0.89750   0.84506   11.142
 5462.00    0.85623   0.83989   11.679
 5463.00    0.81917   0.83928   12.208
 5464.00    0.81925   0.84326   12.206
 5465.00    0.84113   0.84921   11.889
 5466.00    0.85307   0.85410   11.722
 5467.00    0.85403   0.85672   11.709
 5468.00    0.86467   0.85669   11.565
 5469.00    0.86924   0.85418   -2.000
 5470.00    0.86248   0.84989   -2.000
 5471.00    0.86837   0.84450   -2.000
 5472.00    0.89709   0.83809   -2.000
 5473.00    0.87750   0.82995   -2.000
 5474.00    0.79915   0.82074   -2.000
 5475.00    0.84733   0.81316   -2.000
 5476.00    0.87517   0.81025   -2.000
 5477.00    0.70314   0.81378   -2.000
 5478.00    0.66220   0.82132   -2.000
 5479.00    0.78810   0.82743   -2.000
 5480.00    0.93547   0.83023   -2.000
 5481.00    1.18235   0.83254   -2.000
 5482.00    1.24169   0.83808   -2.000
 5483.00    0.96052   0.84630   -2.000
 5484.00    0.79354   0.85309   -2.000
 5485.00    0.83812   0.85516   -2.000
 5486.00    0.88881   0.85267   -2.000
 5487.00    0.85763   0.84895   -2.000
 5488.00    0.84449   0.84749   -2.000
 5489.00    0.88755   0.84923   -2.000
 5490.00    0.87539   0.85203   -2.000
 5491.00    0.85021   0.85415   -2.000
 5492.00    0.86742   0.85489   -2.000
 5493.00    0.88833   0.85403   11.257
 5494.00    0.90880   0.85220   11.003
 5495.00    0.90949   0.85003   10.995
 5496.00    0.86519   0.84834   11.558
 5497.00    0.84331   0.84797   11.858
 5498.00    0.85659   0.84862   11.674
 5499.00    0.85743   0.84828   11.663
 5500.00    0.87747   0.84519   11.396
 5501.00    0.90276   0.84063   11.077
 5502.00    0.88080   0.83698   11.353
 5503.00    0.84150   0.83458   11.884
 5504.00    0.82970   0.83236   12.052
 5505.00    0.85437   0.83065   11.705
 5506.00    0.88456   0.83071   11.305
 5507.00    0.88121   0.83320   11.348
 5508.00    0.85038   0.83628   11.759
 5509.00    0.85166   0.83612   11.742
 5510.00    0.86752   0.83179   11.527
 5511.00    0.85664   0.82547   11.674
 5512.00    0.84348   0.82053   11.856
 5513.00    0.84417   0.82010   11.846
 5514.00    0.85041   0.82485   11.759
 5515.00    0.85074   0.83354   11.754
 5516.00    0.85208   0.84432   11.736
 5517.00    0.85825   0.85475   11.652
 5518.00    0.85859   0.86289   11.647
 5519.00    0.85608   0.86742   11.681
 5520.00    0.85312   0.86850   11.722
 5521.00    0.84757   0.86747   11.798
 5522.00    0.85605   0.86495   11.682
 5523.00    0.87899   0.86043   11.377
 5524.00    0.88788   0.85316   11.263
 5525.00    0.86165   0.84330   11.606
 5526.00    0.82424   0.83343   12.132
 5527.00    0.81822   0.82753   12.222
 5528.00    0.83524   0.82823   11.973
 5529.00    0.85359   0.83497   11.715
 5530.00    0.86178   0.84338   11.604
 5531.00    0.85288   0.84867   11.725
 5532.00    0.83036   0.84937   12.043
 5533.00    0.81696   0.84735   12.240
 5534.00    0.84373   0.84547   11.852
 5535.00    0.88033   0.84557   11.359
 5536.00    0.88232   0.84839   11.334
 5537.00    0.86973   0.85306   11.498
 5538.00    0.86786   0.85821   11.523
 5539.00    0.87730   0.86277   11.399
 5540.00    0.88338   0.86508   11.320
 5541.00    0.89333   0.86416   11.194
 5542.00    0.91003   0.86083   10.989
 5543.00    0.90662   0.85715   11.030
 5544.00    0.86538   0.85544   11.556
 5545.00    0.81562   0.85674   12.261
 5546.00    0.81447   0.86068   12.278
 5547.00    0.85162   0.86629   11.742
 5548.00    0.89078   0.87173   11.226
 5549.00    0.91532   0.87479   10.925
 5550.00    0.91437   0.87449   10.937
 5551.00    0.89538   0.87121   11.168
 5552.00    0.88206   0.86620   11.337
 5553.00    0.88449   0.86129   11.306
 5554.00    0.88340   0.85795   11.320
 5555.00    0.86155   0.85658   11.607
 5556.00    0.85394   0.85653   11.710
 5557.00    0.87167   0.85675   11.472
 5558.00    0.88562   0.85658   11.292
 5559.00    0.87993   0.85556   11.365
 5560.00    0.87054   0.85306   11.487
 5561.00    0.87336   0.84940   11.450
 5562.00    0.86798   0.84542   11.521
 5563.00    0.85591   0.84176   11.683
 5564.00    0.85831   0.83889   11.651
 5565.00    0.87290   0.83659   11.456
 5566.00    0.86176   0.83491   11.604
 5567.00    0.82506   0.83428   12.120
 5568.00    0.83076   0.83467   12.037
 5569.00    0.84947   0.83542   11.772
 5570.00    0.83968   0.83599   11.909
 5571.00    0.84795   0.83661   11.793
 5572.00    0.88410   0.83734   11.311
 5573.00    0.89938   0.83921   11.119
 5574.00    0.85715   0.84294   11.667
 5575.00    0.84007   0.84681   11.904
 5576.00    0.86803   0.84963   11.520
 5577.00    0.85332   0.85189   11.719
 5578.00    0.84576   0.85325   11.824
 5579.00    0.85541   0.85332   11.690
 5580.00    0.82043   0.85232   12.189
 5581.00    0.83340   0.84981   11.999
 5582.00    0.87356   0.84539   11.447
 5583.00    0.82962   0.83860   12.054
 5584.00    0.82641   0.82828   12.100
 5585.00    0.86383   0.81504   11.576
 5586.00    0.81988   0.80191   12.197
 5587.00    0.77960   0.79286   12.827
 5588.00    0.78164   0.79068   12.794
 5589.00    0.77902   0.79467   12.837
 5590.00    0.78849   0.80188   12.683
 5591.00    0.82354   0.80909   12.143
 5592.00    0.85946   0.81496   11.635
 5593.00    0.85805   0.82053   11.654
 5594.00    0.83078   0.82629   12.037
 5595.00    0.82129   0.83071   12.176
 5596.00    0.84616   0.83154   11.818
 5597.00    0.86343   0.82724   11.582
 5598.00    0.84677   0.81964   11.810
 5599.00    0.83398   0.81248   11.991
 5600.00    0.82940   0.80798   12.057
 5601.00    0.82514   0.80756   12.119
 5602.00    0.83519   0.81279   11.973
 5603.00    0.85844   0.82351   11.649
 5604.00    0.87191   0.83747   11.469
 5605.00    0.85806   0.85050   11.654
 5606.00    0.84909   0.85963   11.777
 5607.00    0.86456   0.86437   11.567
 5608.00    0.88296   0.86599   11.326
 5609.00    0.89112   0.86613   11.222
 5610.00    0.89109   0.86502   11.222
 5611.00    0.89192   0.86105   11.212
 5612.00    0.89708   0.85194   11.147
 5613.00    0.88929   0.83806   11.245
 5614.00    0.85348   0.82352   11.717
 5615.00    0.81805   0.81396   12.224
 5616.00    0.81898   0.81289   12.210
 5617.00    0.84875   0.81829   11.782
 5618.00    0.84633   0.82512   11.816
 5619.00    0.82446   0.83053   12.129
 5620.00    0.82855   0.83352   12.069
 5621.00    0.83316   0.83314   12.002
 5622.00    0.82830   0.82892   12.073
 5623.00    0.81559   0.82263   12.261
 5624.00    0.78171   0.81798   12.792
 5625.00    0.77056   0.81848   12.977
 5626.00    0.81645   0.82447   12.248
 5627.00    0.87031   0.83303   11.490
 5628.00    0.87213   0.84130   11.466
 5629.00    0.83355   0.84782   11.997
 5630.00    0.82950   0.85154   12.056
 5631.00    0.85110   0.85213   11.750
 5632.00    0.85656   0.84993   11.675
 5633.00    0.84078   0.84560   11.894
 5634.00    0.81948   0.84001   12.203
 5635.00    0.81396   0.83436   12.286
 5636.00    0.83131   0.82976   12.029
 5637.00    0.84454   0.82684   11.841
 5638.00    0.82801   0.82539   12.077
 5639.00    0.79282   0.82467   12.613
 5640.00    0.78951   0.82426   12.666
 5641.00    0.82776   0.82447   12.081
 5642.00    0.85364   0.82623   11.715
 5643.00    0.81342   0.82921   12.294
 5644.00    0.76595   0.83246   13.056
 5645.00    0.79440   0.83549   12.588
 5646.00    0.83731   0.83775   11.943
 5647.00    0.83735   0.83922   11.942
 5648.00    0.81172   0.84040   12.319
 5649.00    0.81400   0.84199   12.285
 5650.00    0.84405   0.84421   11.848
 5651.00    0.86025   0.84607   11.625
 5652.00    0.84373   0.84581   11.852
 5653.00    0.82462   0.84258   12.127
 5654.00    0.83559   0.83649   11.968
 5655.00    0.86018   0.82809   11.625
 5656.00    0.85164   0.81878   11.742
 5657.00    0.81057   0.81033   12.337
 5658.00    0.79719   0.80503   12.544
 5659.00    0.80327   0.80486   12.449
 5660.00    0.80719   0.80844   12.389
 5661.00    0.81757   0.81262   12.231
 5662.00    0.80819   0.81683   12.373
 5663.00    0.79056   0.82200   12.649
 5664.00    0.80888   0.82718   12.363
 5665.00    0.81579   0.83022   12.258
 5666.00    0.81146   0.83051   12.324
 5667.00    0.84445   0.82947   11.842
 5668.00    0.84771   0.82940   11.796
 5669.00    0.83809   0.83181   11.932
 5670.00    0.89105   0.83658   11.223
 5671.00    0.92000   0.84262   10.870
 5672.00    0.89280   0.84848   11.201
 5673.00    0.86938   0.85278   11.502
 5674.00    0.86286   0.85489   11.589
 5675.00    0.85446   0.85523   11.703
 5676.00    0.84644   0.85464   11.814
 5677.00    0.87734   0.85299   11.398
 5678.00    0.90847   0.84975   11.008
 5679.00    0.88429   0.84506   11.309
 5680.00    0.84035   0.83973   11.900
 5681.00    0.83328   0.83473   12.001
 5682.00    0.86632   0.83098   11.543
 5683.00    0.88157   0.82917   11.343
 5684.00    0.86854   0.82855   11.514
 5685.00    0.84237   0.82740   11.871
 5686.00    0.81463   0.82564   12.276
 5687.00    0.84263   0.82520   11.868
 5688.00    0.88947   0.82811   11.243
 5689.00    0.84634   0.83445   11.816
 5690.00    0.84003   0.84232   11.904
 5691.00    0.89425   0.84901   11.183
 5692.00    0.85260   0.85298   11.729
 5693.00    0.82036   0.85382   12.190
 5694.00    0.85649   0.85205   11.676
 5695.00    0.85907   0.84860   11.640
 5696.00    0.84617   0.84410   11.818
 5697.00    0.86449   0.83872   11.568
 5698.00    0.89308   0.83262   11.197
 5699.00    0.86433   0.82697   11.570
 5700.00    0.81929   0.82280   12.206
 5701.00    0.84267   0.82068   11.867
 5702.00    0.87991   0.82079   11.365
 5703.00    0.87975   0.82157   11.367
 5704.00    0.85681   0.82048   11.671
 5705.00    0.84924   0.81593   11.775
 5706.00    0.85449   0.80854   11.703
 5707.00    0.85195   0.80109   11.738
 5708.00    0.84917   0.79593   11.776
 5709.00    0.84786   0.79446   11.794
 5710.00    0.84200   0.79783   11.876
 5711.00    0.83550   0.80516   11.969
 5712.00    0.84953   0.81489   11.771
 5713.00    0.87857   0.82575   11.382
 5714.00    0.88239   0.83506   11.333
 5715.00    0.87469   0.84143   11.433
 5716.00    0.88163   0.84561   11.343
 5717.00    0.89461   0.84858   11.178
 5718.00    0.89730   0.85141   11.145
 5719.00    0.88475   0.85495   11.303
 5720.00    0.86964   0.85867   11.499
 5721.00    0.87437   0.86171   11.437
 5722.00    0.90828   0.86324   11.010
 5723.00    0.94200   0.86231   10.616
 5724.00    0.91215   0.85867   10.963
 5725.00    0.86594   0.85367   11.548
 5726.00    0.88906   0.84909   11.248
 5727.00    0.89277   0.84633   11.201
 5728.00    0.87693   0.84568   11.403
 5729.00    0.90848   0.84592   11.007
 5730.00    0.90144   0.84602   11.093
 5731.00    0.85961   0.84657   11.633
 5732.00    0.86173   0.84891   11.605
 5733.00    0.88335   0.85250   11.321
 5734.00    0.88346   0.85522   11.319
 5735.00    0.86992   0.85594   11.495
 5736.00    0.88473   0.85482   11.303
 5737.00    0.89074   0.85294   11.227
 5738.00    0.87368   0.85139   11.446
 5739.00    0.91293   0.85042   10.954
 5740.00    0.94154   0.84999    0.000
 5741.00    0.89372   0.85022    0.000
 5742.00    0.85588   0.85133    0.000
 5743.00    0.87173   0.85314    0.000
 5744.00    0.90852   0.85490    0.000
 5745.00    0.91753   0.85505    0.000
 5746.00    0.91177   0.85313    0.000
 5747.00    0.91426   0.85037    0.000
 5748.00    0.91281   0.84849    0.000
 5749.00    0.88878   0.84777    0.000
 5750.00    0.87277   0.84612    0.000
 5751.00    0.90118   0.84190    0.000
 5752.00    0.90140   0.83674    0.000
 5753.00    0.86674   0.83426    0.000
 5754.00    0.87302   0.83687    0.000
 5755.00    0.90997   0.84375    0.000
 5756.00    0.93201   0.85087    0.000
 5757.00    0.92139   0.85397    0.000
 5758.00    0.90125   0.85145    0.000
 5759.00    0.87257   0.84429    0.000
 5760.00    0.83863   0.83577    0.000
 5761.00    0.84843   0.83006    0.000
 5762.00    0.87325   0.82986    0.000
 5763.00    0.86420   0.83527    0.000
 5764.00    0.85877   0.84407    0.000
 5765.00    0.87059   0.85231    0.000
 5766.00    0.88779   0.85746    0.000
 5767.00    0.90692   0.85942    0.000
 5768.00    0.89247   0.85888    0.000
 5769.00    0.86422   0.85664    0.000
 5770.00    0.90317   0.85376    0.000
 5771.00    0.91991   0.85090    0.000
 5772.00    0.85772   0.84850    0.000
 5773.00    0.82545   0.84729    0.000
 5774.00    0.84670   0.84713    0.000
 5775.00    0.88697   0.84739    0.000
 5776.00    0.90922   0.84694    0.000
 5777.00    0.85161   0.84368    0.000
 5778.00    0.77272   0.83640    0.000
 5779.00    0.79496   0.82608    0.000
 5780.00    0.83149   0.81512    0.000
 5781.00    0.81372   0.80635   -2.000
 5782.00    0.81299   0.80167   -2.000
 5783.00    0.89858   0.80103   -2.000
 5784.00    0.90982   0.80353   -2.000
 5785.00    0.75587   0.80873   -2.000
 5786.00    0.82209   0.81645   -2.000
 5787.00    0.98373   0.82451   -2.000
 5788.00    0.94322   0.83015   -2.000
 5789.00    1.05975   0.83330   -2.000
 5790.00    1.02538   0.83517   -2.000
 5791.00    0.62795   0.83774   -2.000
 5792.00    0.77064   0.84237   -2.000
 5793.00    1.10709   0.84736   -2.000
 5794.00    0.97795   0.85031   -2.000
 5795.00    0.93096   0.85047   -2.000
 5796.00    0.94329   0.84896   -2.000
 5797.00    0.79561   0.84824   -2.000
 5798.00    0.78665   0.85062   -2.000
 5799.00    0.87661   0.85607   -2.000
 5800.00    0.91062   0.86144   -2.000
 5801.00    0.93923   0.86372    0.000
 5802.00    0.92183   0.86234    0.000
 5803.00    0.85465   0.85830    0.000
 5804.00    0.84052   0.85365    0.000
 5805.00    0.87636   0.85084    0.000
 5806.00    0.90232   0.85048    0.000
 5807.00    0.89011   0.85180    0.000
 5808.00    0.86658   0.85363    0.000
 5809.00    0.85973   0.85501    0.000
 5810.00    0.87436   0.85545    0.000
 5811.00    0.90673   0.85450    0.000
 5812.00    0.91459   0.85184    0.000
 5813.00    0.87288   0.84795    0.000
 5814.00    0.85659   0.84416    0.000
 5815.00    0.89219   0.84213    0.000
 5816.00    0.92264   0.84333    0.000
 5817.00    0.89544   0.84778    0.000
 5818.00    0.85238   0.85359    0.000
 5819.00    0.85565   0.85814    0.000
 5820.00    0.87828   0.86025    0.000
 5821.00    0.89472   0.86035    0.000
 5822.00    0.89493   0.85947    0.000
 5823.00    0.87510   0.85878    0.000
 5824.00    0.89208   0.85890    0.000
 5825.00    0.93720   0.85970    0.000
 5826.00    0.90161   0.86063    0.000
 5827.00    0.86389   0.86142    0.000
 5828.00    0.89951   0.86195    0.000
 5829.00    0.92535   0.86214    0.000
 5830.00    0.93139   0.86166    0.000
 5831.00    0.93391   0.86020    0.000
 5832.00    0.91709   0.85817    0.000
 5833.00    0.90073   0.85613    0.000
 5834.00    0.90280   0.85439    0.000
 5835.00    0.90517   0.85330    0.000
 5836.00    0.87458   0.85316    0.000
 5837.00    0.82771   0.85363    0.000
 5838.00    0.81768   0.85477    0.000
 5839.00    0.84682   0.85723    0.000
 5840.00    0.88926   0.86051    0.000
 5841.00    0.90892   0.86298    0.000
 5842.00    0.87215   0.86339    0.000
 5843.00    0.83127   0.86134    0.000
 5844.00    0.84434   0.85711    0.000
 5845.00    0.84649   0.85185    0.000
 5846.00    0.82478   0.84690    0.000
 5847.00    0.82948   0.84305    0.000
 5848.00    0.87269   0.84030    0.000
 5849.00    0.91416   0.83754    0.000
 5850.00    0.91238   0.83349    0.000
 5851.00    0.87741   0.82825    0.000
 5852.00    0.84931   0.82283    0.000
 5853.00    0.84670   0.81803    0.000
 5854.00    0.84435   0.81404    0.000
 5855.00    0.82957   0.81029    0.000
 5856.00    0.81294   0.80665    0.000
 5857.00    0.81135   0.80469    0.000
 5858.00    0.82395   0.80647    0.000
 5859.00    0.83905   0.81143    0.000
 5860.00    0.84612   0.81697    0.000
 5861.00    0.83978   0.82130    0.000
 5862.00    0.82857   0.82362    0.000
 5863.00    0.83153   0.82449    0.000
 5864.00    0.85396   0.82486    0.000
 5865.00    0.85268   0.82517    0.000
 5866.00    0.80629   0.82604    0.000
 5867.00    0.82390   0.82849    0.000
 5868.00    0.88001   0.83235    0.000
 5869.00    0.86303   0.83563    0.000
 5870.00    0.85607   0.83658    0.000
 5871.00    0.86285   0.83457    0.000
 5872.00    0.83791   0.82999    0.000
 5873.00    0.89445   0.82429    0.000
 5874.00    1.01394   0.81894    0.000
 5875.00    1.07508   0.81517    0.000
 5876.00    1.06184   0.81307    0.000
 5877.00    0.99965   0.81217    0.000
 5878.00    0.92851   0.81179    0.000
 5879.00    0.89113   0.81107    0.000
 5880.00    0.86367   0.81041    0.000
 5881.00    0.82832   0.81009    0.000
 5882.00    0.82142   0.80947    0.000
 5883.00    0.80079   0.80684    0.000
 5884.00    0.77347   0.80033    0.000
 5885.00    0.82919   0.78717    0.000
 5886.00    0.85413   0.76423    0.000
 5887.00    0.76653   0.73267    0.000
 5888.00    0.68071   0.70002    0.000
 5889.00    0.67582   0.67608    0.000
 5890.00    0.70222   0.66846    0.000
 5891.00    0.67554   0.67629    0.000
 5892.00    0.67746   0.68755    0.000
 5893.00    0.72809   0.69228    0.000
 5894.00    0.73873   0.69127    0.000
 5895.00    0.72810   0.69031    0.000
 5896.00    0.72304   0.69729    0.000
 5897.00    0.71790   0.71605    0.000
 5898.00    0.73238   0.74049    0.000
 5899.00    0.76127   0.76295    0.000
 5900.00    0.78355   0.78077    0.000
 5901.00    0.80776   0.79330   12.380
 5902.00    0.81785   0.80072   12.227
 5903.00    0.80015   0.80466   12.498
 5904.00    0.79304   0.80677   12.610
 5905.00    0.80645   0.80815   12.400
 5906.00    0.81898   0.80981   12.210
 5907.00    0.81972   0.81215   12.199
 5908.00    0.81850   0.81457   12.217
 5909.00    0.83090   0.81604   12.035
 5910.00    0.85082   0.81570   11.753
 5911.00    0.83111   0.81314   12.032
 5912.00    0.77784   0.80863   12.856
 5913.00    0.77599   0.80336   12.887
 5914.00    0.82127   0.79967   12.176
 5915.00    0.84396   0.79936   11.849
 5916.00    0.80849   0.80197   12.369
 5917.00    0.78465   0.80623   12.745
 5918.00    0.81630   0.81029   12.250
 5919.00    0.85074   0.81288   11.754
 5920.00    0.83304   0.81421   12.004
 5921.00    0.79959   0.81462   12.506
 5922.00    0.81996   0.81493   12.196
 5923.00    0.83458   0.81604   11.982
 5924.00    0.82132   0.81740   12.175
 5925.00    0.82853   0.81788   12.070
 5926.00    0.84747   0.81677   11.800
 5927.00    0.86130   0.81408   11.610
 5928.00    0.85999   0.81123   11.628
 5929.00    0.82454   0.80974   12.128
 5930.00    0.79786   0.81006   12.533
 5931.00    0.81818   0.81161   12.222
 5932.00    0.82860   0.81287   12.069
 5933.00    0.83127   0.81306   12.030
 5934.00    0.85620   0.81300   11.680
 5935.00    0.87013   0.81421   11.493
 5936.00    0.86470   0.81692   11.565
 5937.00    0.85041   0.81912   11.759
 5938.00    0.82249   0.81928   12.158
 5939.00    0.79165   0.81765   12.632
 5940.00    0.77573   0.81505   12.891
 5941.00    0.78482   0.81328   12.742
 5942.00    0.82574   0.81416   12.110
 5943.00    0.86321   0.81716   11.585
 5944.00    0.84262   0.82021   11.868
 5945.00    0.80898   0.82140   12.361
 5946.00    0.80887   0.81996   12.363
 5947.00    0.82288   0.81666   12.152
 5948.00    0.82826   0.81303   12.073
 5949.00    0.81971   0.81036   12.199
 5950.00    0.80860   0.80919   12.367
 5951.00    0.81079   0.80882   12.334
 5952.00    0.82284   0.80820   12.153
 5953.00    0.81780   0.80747   12.228
 5954.00    0.77576   0.80721   12.891
 5955.00    0.75953   0.80699   13.166
 5956.00    0.81830   0.80686   12.220
 5957.00    0.84605   0.80832   11.820
 5958.00    0.82359   0.81208   12.142
 5959.00    0.82168   0.81721   12.170
 5960.00    0.84208   0.82211   11.875
 5961.00    0.83714   0.82544   11.945
 5962.00    0.79780   0.82643   12.534
 5963.00    0.79291   0.82554   12.612
 5964.00    0.82238   0.82416   12.160
 5965.00    0.83632   0.82331   11.957
 5966.00    0.82547   0.82390   12.114
 5967.00    0.83730   0.82627   11.943
 5968.00    0.85636   0.82927   11.677
 5969.00    0.80052   0.83179   12.492
 5970.00    0.78485   0.83328   12.741
 5971.00    0.84583   0.83308   11.823
 5972.00    0.83063   0.83068   12.039
 5973.00    0.81164   0.82625   12.321
 5974.00    0.84040   0.82045   11.899
 5975.00    0.82490   0.81446   12.123
 5976.00    0.81615   0.81011   12.253
 5977.00    0.83934   0.80877   11.914
 5978.00    0.83053   0.81009   12.041
 5979.00    0.80900   0.81244   12.361
 5980.00    0.81336   0.81351   12.295
 5981.00    0.83506   0.81164   11.975
 5982.00    0.82836   0.80759   12.072
 5983.00    0.80705   0.80356   12.391
 5984.00    0.81607   0.80172   12.254
 5985.00    0.83142   0.80350   12.028
 5986.00    0.84291   0.80784   11.864
 5987.00    0.85676   0.81222   11.672
 5988.00    0.84791   0.81549   11.794
 5989.00    0.81084   0.81783   12.333
 5990.00    0.78491   0.81972   12.740
 5991.00    0.82052   0.82165   12.187
 5992.00    0.86865   0.82406   11.512
 5993.00    0.87033   0.82622   11.490
 5994.00    0.85873   0.82632   11.645
 5995.00    0.84612   0.82383   11.819
 5996.00    0.83428   0.81994   11.986
 5997.00    0.84106   0.81635   11.890
 5998.00    0.84266   0.81430   11.867
 5999.00    0.82330   0.81358   12.146
 6000.00    0.80840   0.81324   12.370
 6001.00    0.80573   0.81276   12.411
 6002.00    0.81506   0.81168   12.269
 6003.00    0.83800   0.81022   11.933
 6004.00    0.85787   0.80847   11.657
 6005.00    0.85187   0.80564   11.739
 6006.00    0.82337   0.80257   12.145
 6007.00    0.82449   0.80118   12.129
 6008.00    0.85901   0.80236   11.641
 6009.00    0.87200   0.80576   11.468
 6010.00    0.84272   0.80907   11.866
 6011.00    0.80741   0.81009   12.385
 6012.00    0.80981   0.80888   12.349
 6013.00    0.83315   0.80688   12.003
 6014.00    0.85370   0.80562   11.714
 6015.00    0.86140   0.80510   11.609
 6016.00    0.84843   0.80426   11.786
 6017.00    0.82217   0.80316   12.163
 6018.00    0.81491   0.80226   12.271
 6019.00    0.85578   0.80137   11.685
 6020.00    0.87165   0.80095   11.473
 6021.00    0.82113   0.80193   12.178
 6022.00    0.80193   0.80449   12.470
 6023.00    0.81500   0.80795   12.270
 6024.00    0.80949   0.81176   12.353
 6025.00    0.79802   0.81602   12.531
 6026.00    0.81697   0.82011   12.240
 6027.00    0.85120   0.82350   11.748
 6028.00    0.84094   0.82658   11.891
 6029.00    0.81428   0.82919   12.281
 6030.00    0.81143   0.83102   12.324
 6031.00    0.82452   0.83247   12.128
 6032.00    0.85076   0.83393   11.754
 6033.00    0.86730   0.83513   11.530
 6034.00    0.84602   0.83569   11.820
 6035.00    0.82378   0.83560   12.139
 6036.00    0.84103   0.83490   11.890
 6037.00    0.88100   0.83367   11.351
 6038.00    0.87365   0.83219   11.446
 6039.00    0.83243   0.83079   12.013
 6040.00    0.81928   0.83028   12.206
 6041.00    0.80679   0.83123   12.395
 6042.00    0.81655   0.83336   12.247
 6043.00    0.86502   0.83629   11.560
 6044.00    0.84841   0.83909   11.787
 6045.00    0.80822   0.84091   12.373
 6046.00    0.83801   0.84177   11.933
 6047.00    0.86848   0.84202   11.514
 6048.00    0.85584   0.84170   11.684
 6049.00    0.83454   0.84079   11.983
 6050.00    0.84618   0.83933   11.818
 6051.00    0.83981   0.83689   11.907
 6052.00    0.80329   0.83332   12.449
 6053.00    0.83026   0.82930   12.044
 6054.00    0.87398   0.82586   11.442
 6055.00    0.86071   0.82364   11.618
 6056.00    0.82679   0.82312   12.095
 6057.00    0.82862   0.82447   12.068
 6058.00    0.84809   0.82694   11.791
 6059.00    0.82629   0.82898   12.102
 6060.00    0.82564   0.82897   12.112
 6061.00    0.85342   0.82608   11.718
 6062.00    0.82784   0.82084   12.080
 6063.00    0.78989   0.81560   12.660
 6064.00    0.79648   0.81305   12.555
 6065.00    0.83357   0.81464   11.997
 6066.00    0.84904   0.82084   11.778
 6067.00    0.83885   0.82954   11.921
 6068.00    0.83803   0.83722   11.933
 6069.00    0.84371   0.84245   11.852
 6070.00    0.84467   0.84546   11.839
 6071.00    0.84725   0.84688   11.803
 6072.00    0.86775   0.84711   11.524
 6073.00    0.87865   0.84613   11.381
 6074.00    0.85222   0.84363   11.734
 6075.00    0.82386   0.83944   12.138
 6076.00    0.81915   0.83398   12.208
 6077.00    0.83240   0.82820   12.013
 6078.00    0.84293   0.82276   11.863
 6079.00    0.83079   0.81854   12.037
 6080.00    0.80471   0.81599   12.427
 6081.00    0.80231   0.81435   12.464
 6082.00    0.82689   0.81353   12.093
 6083.00    0.85025   0.81416   11.761
 6084.00    0.84926   0.81567   11.775
 6085.00    0.84039   0.81706   11.899
 6086.00    0.83157   0.81800   12.025
 6087.00    0.81124   0.81801   12.327
 6088.00    0.81293   0.81675   12.301
 6089.00    0.83446   0.81448   11.984
 6090.00    0.83166   0.81252   12.024
 6091.00    0.82873   0.81273   12.067
 6092.00    0.83701   0.81528   11.947
 6093.00    0.83035   0.81894   12.043
 6094.00    0.81802   0.82286   12.225
 6095.00    0.83127   0.82603   12.030
 6096.00    0.86727   0.82747   11.530
 6097.00    0.85671   0.82718   11.673
 6098.00    0.80636   0.82480   12.401
 6099.00    0.78423   0.81914   12.751
 6100.00    0.79606   0.81052   12.562
 6101.00    0.80349   0.80141   12.446
 6102.00    0.79031   0.79516   12.653
 6103.00    0.79587   0.79535   12.565
 6104.00    0.81223   0.80190   12.312
 6105.00    0.81693   0.81014   12.241
 6106.00    0.83158   0.81662   12.025
 6107.00    0.83908   0.82065   11.918
 6108.00    0.82354   0.82281   12.143
 6109.00    0.81894   0.82432   12.211
 6110.00    0.83986   0.82550   11.907
 6111.00    0.86638   0.82649   11.542
 6112.00    0.86957   0.82792   11.500
 6113.00    0.85381   0.82939   11.712
 6114.00    0.83429   0.82976   11.986
 6115.00    0.81533   0.82830   12.265
 6116.00    0.80285   0.82487   12.456
 6117.00    0.80311   0.81981   12.452
 6118.00    0.81556   0.81276   12.261
 6119.00    0.82516   0.80365   12.119
 6120.00    0.80358   0.79512   12.444
 6121.00    0.75615   0.79023   13.225
 6122.00    0.76843   0.79042   13.014
 6123.00    0.82786   0.79570   12.079
 6124.00    0.83684   0.80272   11.950
 6125.00    0.79733   0.80757   12.542
 6126.00    0.76743   0.81017   13.031
 6127.00    0.77680   0.81224   12.873
 6128.00    0.78566   0.81497   12.728
 6129.00    0.78621   0.81871   12.719
 6130.00    0.79647   0.82228   12.555
 6131.00    0.80394   0.82300   12.439
 6132.00    0.81555   0.81857   12.262
 6133.00    0.82683   0.80837   12.094
 6134.00    0.79863   0.79402   12.522
 6135.00    0.77361   0.78002   12.926
 6136.00    0.78938   0.77151   12.668
 6137.00    0.79173   0.77146   12.631
 6138.00    0.76835   0.77939   13.015
 6139.00    0.76145   0.79064   13.133
 6140.00    0.80003   0.80009   12.500
 6141.00    0.82114   0.80667   12.178
 6142.00    0.80243   0.81259   12.462
 6143.00    0.80447   0.81887   12.431
 6144.00    0.79727   0.82348   12.543
 6145.00    0.76860   0.82434   13.011
 6146.00    0.76793   0.82148   13.022
 6147.00    0.77838   0.81632   12.847
 6148.00    0.77549   0.81091   12.895
 6149.00    0.77620   0.80728   12.883
 6150.00    0.80913   0.80632   12.359
 6151.00    0.84021   0.80721   11.902
 6152.00    0.82094   0.80823   12.181
 6153.00    0.80269   0.80793   12.458
 6154.00    0.80410   0.80574   12.436
 6155.00    0.79053   0.80231   12.650
 6156.00    0.76079   0.79780   13.144
 6157.00    0.75079   0.79032   13.319
 6158.00    0.76984   0.77842   12.990
 6159.00    0.75968   0.76285   13.163
 6160.00    0.72338   0.74629   13.824
 6161.00    0.70527   0.73302   14.109
 6162.00    0.70917   0.72775   14.101
 6163.00    0.71999   0.73171   13.889
 6164.00    0.73545   0.74121   13.597
 6165.00    0.76262   0.75037   13.113
 6166.00    0.75667   0.75530   13.216
 6167.00    0.71114   0.75602   14.062
 6168.00    0.70027   0.75451   14.109
 6169.00    0.72703   0.75346   13.755
 6170.00    0.74292   0.75615   13.460
 6171.00    0.72629   0.76280   13.769
 6172.00    0.72315   0.76984   13.828
 6173.00    0.73480   0.77465   13.609
 6174.00    0.71171   0.77774   14.051
 6175.00    0.70483   0.78012   14.109
 6176.00    0.73698   0.78219   13.569
 6177.00    0.76091   0.78455   13.142
 6178.00    0.77508   0.78755   12.902
 6179.00    0.79648   0.79038   12.555
 6180.00    0.81686   0.79243   12.242
 6181.00    0.80151   0.79393   12.476
 6182.00    0.78736   0.79417   12.701
 6183.00    0.80729   0.79213   12.387
 6184.00    0.77072   0.78798   12.975
 6185.00    0.73822   0.78222   -2.000
 6186.00    0.78323   0.77530   -2.000
 6187.00    0.74908   0.76792   -2.000
 6188.00    0.68126   0.76073   -2.000
 6189.00    0.68777   0.75463   -2.000
 6190.00    0.66798   0.75082   -2.000
 6191.00    0.69390   0.75076   -2.000
 6192.00    0.79962   0.75602   -2.000
 6193.00    0.78146   0.76520   -2.000
 6194.00    0.71100   0.77403   -2.000
 6195.00    0.71917   0.77973   -2.000
 6196.00    0.72744   0.78161   -2.000
 6197.00    0.71056   0.78020   14.073
 6198.00    0.72031   0.77718   13.883
 6199.00    0.77863   0.77487   12.843
 6200.00    0.77911   0.77549   12.835
 6201.00    0.72775   0.77929   13.741
 6202.00    0.75866   0.78424   13.181
 6203.00    0.79275   0.78830   12.614
 6204.00    0.77744   0.79081   12.863
 6205.00    0.78316   0.79212   12.769
 6206.00    0.79798   0.79248   12.532
 6207.00    0.79269   0.79164   12.615
 6208.00    0.77252   0.78919   12.945
 6209.00    0.75399   0.78469   13.263
 6210.00    0.75433   0.77775   13.257
 6211.00    0.76681   0.76890   13.041
 6212.00    0.75154   0.75935   13.306
 6213.00    0.72959   0.75070   13.706
 6214.00    0.74165   0.74511   13.483
 6215.00    0.75427   0.74340   13.258
 6216.00    0.74252   0.74437   13.468
 6217.00    0.71938   0.74635   13.901
 6218.00    0.71361   0.74772   14.013
 6219.00    0.73839   0.74819   13.543
 6220.00    0.76999   0.74903   12.987
 6221.00    0.76248   0.75096   13.115
 6222.00    0.72315   0.75348   13.828
 6223.00    0.70084   0.75569   14.109
 6224.00    0.72553   0.75707   13.783
 6225.00    0.75114   0.75743   13.313
 6226.00    0.74590   0.75570   13.407
 6227.00    0.74042   0.75099   13.506
 6228.00    0.73398   0.74405   13.624
 6229.00    0.73026   0.73686   13.694
 6230.00    0.74334   0.73239   13.453
 6231.00    0.72961   0.73374   13.706
 6232.00    0.70042   0.74084   14.109
 6233.00    0.72351   0.75033   13.822
 6234.00    0.77157   0.75875   12.961
 6235.00    0.78013   0.76314   12.818
 6236.00    0.74257   0.76223   13.467
 6237.00    0.74220   0.75746   13.473
 6238.00    0.77228   0.75123   12.949
 6239.00    0.76264   0.74524   13.112
 6240.00    0.74474   0.74059   13.428
 6241.00    0.73950   0.73771   13.523
 6242.00    0.73058   0.73570   13.688
 6243.00    0.71664   0.73458   13.954
 6244.00    0.70522   0.73606   14.109
 6245.00    0.70257   0.74019   14.109
 6246.00    0.71518   0.74577   13.982
 6247.00    0.76622   0.75173   13.051
 6248.00    0.81577   0.75583   12.258
 6249.00    0.76125   0.75589   13.136
 6250.00    0.69727   0.75198   14.109
 6251.00    0.71113   0.74562   14.062
 6252.00    0.71198   0.73873   14.045
 6253.00    0.71698   0.73323   13.947
 6254.00    0.75820   0.72927   13.189
 6255.00    0.77207   0.72606   12.952
 6256.00    0.72416   0.72367   13.809
 6257.00    0.68923   0.72334   14.109
 6258.00    0.75206   0.72653   13.297
 6259.00    0.77372   0.73388   12.924
 6260.00    0.72161   0.74368   13.858
 6261.00    0.73839   0.75270   13.543
 6262.00    0.79267   0.75938   12.616
 6263.00    0.80143   0.76323   12.478
 6264.00    0.75861   0.76404   13.182
 6265.00    0.72931   0.76322   13.712
 6266.00    0.75015   0.76289   13.331
 6267.00    0.78521   0.76334   12.735
 6268.00    0.77210   0.76385   12.952
 6269.00    0.75689   0.76465   13.212
 6270.00    0.80262   0.76624   12.459
 6271.00    0.82847   0.76832   12.071
 6272.00    0.79867   0.77025   12.521
 6273.00    0.76017   0.77147   13.155
 6274.00    0.76050   0.77173   13.149
 6275.00    0.79497   0.77127   12.579
 6276.00    0.82465   0.77002   12.126
 6277.00    0.82227   0.76781   12.162
 6278.00    0.79619   0.76509   12.560
 6279.00    0.77468   0.76267   12.909
 6280.00    0.77708   0.76160    0.000
 6281.00    0.79549   0.76293    0.000
 6282.00    0.80455   0.76639    0.000
 6283.00    0.79046   0.77083    0.000
 6284.00    0.78341   0.77531    0.000
 6285.00    0.80148   0.77933    0.000
 6286.00    0.81869   0.78297    0.000
 6287.00    0.81032   0.78573    0.000
 6288.00    0.79523   0.78661    0.000
 6289.00    0.80729   0.78523    0.000
 6290.00    0.81457   0.78209    0.000
 6291.00    0.81086   0.77839    0.000
 6292.00    0.82223   0.77494    0.000
 6293.00    0.82053   0.77172    0.000
 6294.00    0.81477   0.76857    0.000
 6295.00    0.82826   0.76524    0.000
 6296.00    0.80780   0.76199    0.000
 6297.00    0.78305   0.75983    0.000
 6298.00    0.82684   0.75908    0.000
 6299.00    0.90068   0.75897    0.000
 6300.00    0.93398   0.75880    0.000
 6301.00    0.90290   0.75891    0.000
 6302.00    0.85131   0.76063    0.000
 6303.00    0.81647   0.76460    0.000
 6304.00    0.80216   0.76990    0.000
 6305.00    0.79404   0.77527    0.000
 6306.00    0.79376   0.78017    0.000
 6307.00    0.80266   0.78383    0.000
 6308.00    0.80475   0.78499    0.000
 6309.00    0.79487   0.78344    0.000
 6310.00    0.77869   0.78009    0.000
 6311.00    0.76872   0.77611    0.000
 6312.00    0.78721   0.77245    0.000
 6313.00    0.81155   0.76909    0.000
 6314.00    0.79547   0.76528    0.000
 6315.00    0.78998   0.76155    0.000
 6316.00    0.80297   0.75924    0.000
 6317.00    0.77851   0.75845    0.000
 6318.00    0.76645   0.75930    0.000
 6319.00    0.78672   0.76278    0.000
 6320.00    0.79692   0.76819    0.000
 6321.00    0.80861   0.77359   12.367
 6322.00    0.80405   0.77821   12.437
 6323.00    0.76183   0.78222   13.126
 6324.00    0.75539   0.78552   13.238
 6325.00    0.79900   0.78772   12.516
 6326.00    0.83550   0.78888   11.969
 6327.00    0.83978   0.78944   11.908
 6328.00    0.82316   0.78997   12.148
 6329.00    0.80514   0.79050   12.420
 6330.00    0.78995   0.79041   12.659
 6331.00    0.78619   0.78935   12.720
 6332.00    0.78597   0.78664   12.723
 6333.00    0.76220   0.78177   13.120
 6334.00    0.75539   0.77545   13.238
 6335.00    0.78410   0.76991   12.754
 6336.00    0.78580   0.76805   12.726
 6337.00    0.77897   0.77061   12.837
 6338.00    0.78917   0.77526   12.672
 6339.00    0.78560   0.77925   12.729
 6340.00    0.79380   0.78120   12.598
 6341.00    0.81144   0.78043   12.324
 6342.00    0.78828   0.77731   12.686
 6343.00    0.77069   0.77369   12.975
 6344.00    0.77780   0.77190   12.857
 6345.00    0.76621   0.77314   13.051
 6346.00    0.76729   0.77664   13.033
 6347.00    0.77803   0.78115   12.853
 6348.00    0.76384   0.78569   13.092
 6349.00    0.78587   0.78902   12.725
 6350.00    0.82170   0.78999   12.170
 6351.00    0.80141   0.78848   12.478
 6352.00    0.80030   0.78501   12.495
 6353.00    0.82157   0.78010   12.172
 6354.00    0.80352   0.77444   12.445
 6355.00    0.78000   0.76895   12.821
 6356.00    0.76432   0.76393   13.083
 6357.00    0.74105   0.75857   13.494
 6358.00    0.72655   0.75273   13.764
 6359.00    0.73522   0.74788   13.601
 6360.00    0.75791   0.74513   13.194
 6361.00    0.77024   0.74455   12.983
 6362.00    0.77421   0.74640   12.916
 6363.00    0.78818   0.75110   12.687
 6364.00    0.81309   0.75807   12.299
 6365.00    0.81485   0.76581   12.272
 6366.00    0.79173   0.77293   12.630
 6367.00    0.79388   0.77869   12.596
 6368.00    0.81330   0.78289   12.296
 6369.00    0.81751   0.78571   12.232
 6370.00    0.80452   0.78802   12.430
 6371.00    0.80029   0.79084   12.495
 6372.00    0.80588   0.79415   12.409
 6373.00    0.80108   0.79668   12.483
 6374.00    0.81127   0.79736   12.326
 6375.00    0.82035   0.79615   12.190
 6376.00    0.78823   0.79360   12.687
 6377.00    0.77306   0.79009   12.936
 6378.00    0.78939   0.78643   12.668
 6379.00    0.79534   0.78387   12.573
 6380.00    0.80668   0.78293   12.397
 6381.00    0.81467   0.78322   12.275
 6382.00    0.79650   0.78428   12.555
 6383.00    0.78473   0.78551   12.743
 6384.00    0.78584   0.78664   12.725
 6385.00    0.79174   0.78807   12.630
 6386.00    0.82657   0.78975   12.098
 6387.00    0.86786   0.79076   11.523
 6388.00    0.85678   0.79013   11.672
 6389.00    0.78082   0.78746   12.807
 6390.00    0.75617   0.78297   13.225
 6391.00    0.81890   0.77766   12.212
 6392.00    0.81955   0.77326   12.202
 6393.00    0.79374   0.77198   12.599
 6394.00    0.80884   0.77483   12.363
 6395.00    0.79854   0.77947   12.523
 6396.00    0.77744   0.78201   12.863
 6397.00    0.77664   0.78097   12.876
 6398.00    0.77349   0.77760   12.928
 6399.00    0.77023   0.77457   12.983
 6400.00    0.77281   0.77526   12.940
 6401.00    0.77429   0.78099   12.915
 6402.00    0.78143   0.78854   12.797
 6403.00    0.79735   0.79369   12.541
 6404.00    0.80750   0.79503   12.384
 6405.00    0.79182   0.79329   12.629
 6406.00    0.77632   0.78988   12.881
 6407.00    0.79181   0.78626   12.629
 6408.00    0.78762   0.78377   12.697
 6409.00    0.75971   0.78279   13.163
 6410.00    0.75367   0.78205   13.268
 6411.00    0.76675   0.78116   13.042
 6412.00    0.77311   0.78148   12.935
 6413.00    0.77326   0.78329   12.932
 6414.00    0.80111   0.78533   12.483
 6415.00    0.80975   0.78646   12.349
 6416.00    0.76513   0.78575   13.070
 6417.00    0.74755   0.78279   13.377
 6418.00    0.75453   0.77866   13.253
 6419.00    0.75800   0.77530   13.193
 6420.00    0.79220   0.77461   12.623
 6421.00    0.81316   0.77780   12.298
 6422.00    0.77468   0.78433   12.909
 6423.00    0.72526   0.79159   13.788
 6424.00    0.74417   0.79697   13.438
 6425.00    0.80934   0.79965   12.356
 6426.00    0.80964   0.79958   12.351
 6427.00    0.77163   0.79650   12.960
 6428.00    0.76485   0.79081   13.075
 6429.00    0.79001   0.78416   12.658
 6430.00    0.79631   0.77911   12.558
 6431.00    0.77346   0.77814   12.929
 6432.00    0.75586   0.78158   13.230
 6433.00    0.73795   0.78663   13.551
 6434.00    0.74268   0.79005   13.465
 6435.00    0.78497   0.79026   12.739
 6436.00    0.77553   0.78771   12.894
 6437.00    0.74056   0.78416   13.503
 6438.00    0.76525   0.78204   13.068
 6439.00    0.77940   0.78398   12.830
 6440.00    0.77442   0.79045   12.913
 6441.00    0.79677   0.79861   12.551
 6442.00    0.81319   0.80532   12.297
 6443.00    0.81416   0.80927   12.283
 6444.00    0.80962   0.80980   12.351
 6445.00    0.78556   0.80624   12.730
 6446.00    0.77039   0.79841   12.980
 6447.00    0.77476   0.78745   12.907
 6448.00    0.74975   0.77593   13.338
 6449.00    0.72504   0.76759   13.792
 6450.00    0.74532   0.76580   13.417
 6451.00    0.78293   0.77041   12.773
 6452.00    0.78924   0.77732   12.670
 6453.00    0.76455   0.78285   13.080
 6454.00    0.75956   0.78607   13.165
 6455.00    0.77924   0.78817   12.833
 6456.00    0.80619   0.79112   12.404
 6457.00    0.82635   0.79505   12.101
 6458.00    0.81511   0.79742   12.268
 6459.00    0.78908   0.79588   12.673
 6460.00    0.78430   0.79053   12.750
 6461.00    0.76680   0.78355   13.041
 6462.00    0.74246   0.77855   13.469
 6463.00    0.75766   0.77898   13.199
 6464.00    0.78771   0.78467   12.695
 6465.00    0.80752   0.79188   12.384
 6466.00    0.81556   0.79744   12.261
 6467.00    0.80376   0.80007   12.442
 6468.00    0.78361   0.79975   12.761
 6469.00    0.77755   0.79752   12.861
 6470.00    0.78792   0.79489   12.692
 6471.00    0.79859   0.79292   12.522
 6472.00    0.79240   0.79224   12.620
 6473.00    0.77081   0.79261   12.973
 6474.00    0.75714   0.79315   13.208
 6475.00    0.76380   0.79379   13.092
 6476.00    0.77412   0.79468   12.918
 6477.00    0.78991   0.79464   12.660
 6478.00    0.80110   0.79228   12.483
 6479.00    0.77809   0.78765   12.852
 6480.00    0.76054   0.78187   13.149
 6481.00    0.77793   0.77651   12.855
 6482.00    0.79634   0.77367   12.557
 6483.00    0.80377   0.77465   12.441
 6484.00    0.79824   0.77847   12.528
 6485.00    0.77393   0.78277   12.921
 6486.00    0.74814   0.78563   13.367
 6487.00    0.75632   0.78607   13.222
 6488.00    0.79932   0.78346   12.511
 6489.00    0.79180   0.77718   12.630
 6490.00    0.74813   0.76709   13.367
 6491.00    0.75605   0.75380   13.227
 6492.00    0.76510   0.73847   13.070
 6493.00    0.74722   0.72323   13.383
 6494.00    0.73383   0.71152   13.627
 6495.00    0.72018   0.70683   13.885
 6496.00    0.70990   0.70983   14.086
 6497.00    0.71646   0.71838   13.958
 6498.00    0.73184   0.72981   13.664
 6499.00    0.74908   0.74184   13.350
 6500.00    0.76500   0.75347   13.072
 6501.00    0.77296   0.76386   12.937
 6502.00    0.77357   0.77221   12.927
 6503.00    0.77011   0.77830   12.985
 6504.00    0.76106   0.78222   13.140
 6505.00    0.74781   0.78422   13.372
 6506.00    0.74817   0.78476   13.366
 6507.00    0.78139   0.78442   12.798
 6508.00    0.80924   0.78409   12.357
 6509.00    0.81088   0.78456   12.332
 6510.00    0.81588   0.78556   12.257
 6511.00    0.80368   0.78597   12.443
 6512.00    0.77885   0.78494   12.840
 6513.00    0.78837   0.78247   12.684
 6514.00    0.80044   0.77891   12.493
 6515.00    0.77577   0.77512   12.890
 6516.00    0.73677   0.77247   13.573
 6517.00    0.74519   0.77192   13.419
 6518.00    0.77502   0.77353   12.903
 6519.00    0.75868   0.77700   13.181
 6520.00    0.75706   0.78143   13.209
 6521.00    0.78011   0.78520   12.819
 6522.00    0.76561   0.78724   13.061
 6523.00    0.72349   0.78755   13.822
 6524.00    0.73254   0.78663   13.651
 6525.00    0.80125   0.78500   12.481
 6526.00    0.78664   0.78325   12.712
 6527.00    0.73771   0.78221   13.556
 6528.00    0.76225   0.78213    0.000
 6529.00    0.76877   0.78217    0.000
 6530.00    0.77584   0.78161    0.000
 6531.00    0.81613   0.78061    0.000
 6532.00    0.78838   0.78010    0.000
 6533.00    0.75061   0.78087    0.000
 6534.00    0.77347   0.78292    0.000
 6535.00    0.77891   0.78537    0.000
 6536.00    0.76716   0.78730    0.000
 6537.00    0.76985   0.78846    0.000
 6538.00    0.76977   0.78902    0.000
 6539.00    0.76271   0.78867    0.000
 6540.00    0.76674   0.78645    0.000
 6541.00    0.79129   0.78182    0.000
 6542.00    0.79810   0.77531    0.000
 6543.00    0.78362   0.76813    0.000
 6544.00    0.82377   0.76154    0.000
 6545.00    1.01602   0.75645    0.000
 6546.00    1.35142   0.75355    0.000
 6547.00    1.69996   0.75299    0.000
 6548.00    1.91547   0.75330    0.000
 6549.00    1.87335   0.75238    0.000
 6550.00    1.56415   0.74915    0.000
 6551.00    1.17969   0.74381    0.000
 6552.00    0.91612   0.73721    0.000
 6553.00    0.82446   0.73001    0.000
 6554.00    0.79925   0.72272    0.000
 6555.00    0.77963   0.71564    0.000
 6556.00    0.78329   0.70788    0.000
 6557.00    0.81812   0.69671    0.000
 6558.00    0.86103   0.67905    0.000
 6559.00    1.45219   0.65441    0.000
 6560.00    3.61252   0.62639    0.000
 6561.00    6.63744   0.60191    0.000
 6562.00    9.06721   0.58974    0.000
 6563.00   10.13445   0.59702    0.000
 6564.00    9.13285   0.62220    0.000
 6565.00    6.38845   0.65418    0.000
 6566.00    3.57244   0.68238    0.000
 6567.00    1.79396   0.70259    0.000
 6568.00    1.09036   0.71465    0.000
 6569.00    0.86483   0.72055    0.000
 6570.00    0.79443   0.72310    0.000
 6571.00    0.77855   0.72415    0.000
 6572.00    0.76111   0.72482    0.000
 6573.00    0.74191   0.72665    0.000
 6574.00    0.73195   0.73087    0.000
 6575.00    0.73758   0.73731    0.000
 6576.00    0.77617   0.74451    0.000
 6577.00    0.82066   0.75044    0.000
 6578.00    0.83089   0.75395    0.000
 6579.00    0.88183   0.75533    0.000
 6580.00    1.27214   0.75582    0.000
 6581.00    2.18471   0.75672    0.000
 6582.00    3.26362   0.75873    0.000
 6583.00    4.07056   0.76142    0.000
 6584.00    4.25620   0.76405    0.000
 6585.00    3.60967   0.76647    0.000
 6586.00    2.47932   0.76866    0.000
 6587.00    1.50609   0.77027    0.000
 6588.00    1.04641   0.76997    0.000
 6589.00    0.91576   0.76650    0.000
 6590.00    0.84030   0.76008    0.000
 6591.00    0.83308   0.75222    0.000
 6592.00    0.81019   0.74550    0.000
 6593.00    0.73616   0.74265    0.000
 6594.00    0.73357   0.74467    0.000
 6595.00    0.75969   0.74963    0.000
 6596.00    0.76323   0.75474    0.000
 6597.00    0.79646   0.75895    0.000
 6598.00    0.82997   0.76266    0.000
 6599.00    0.80528   0.76641    0.000
 6600.00    0.73612   0.76987    0.000
 6601.00    0.73478   0.77181    0.000
 6602.00    0.81824   0.77134    0.000
 6603.00    0.87519   0.76863    0.000
 6604.00    0.84576   0.76442    0.000
 6605.00    0.79311   0.75984    0.000
 6606.00    0.79101   0.75601    0.000
 6607.00    0.76616   0.75375    0.000
 6608.00    0.73886   0.75359    0.000
 6609.00    0.77729   0.75583   12.865
 6610.00    0.79601   0.76020   12.563
 6611.00    0.77762   0.76510   12.860
 6612.00    0.77147   0.76887   12.962
 6613.00    0.77061   0.77131   12.977
 6614.00    0.78959   0.77320   12.665
 6615.00    0.83040   0.77494   12.042
 6616.00    0.83780   0.77612   11.936
 6617.00    0.81353   0.77664   12.292
 6618.00    0.80099   0.77677   12.484
 6619.00    0.81548   0.77633   12.263
 6620.00    0.82049   0.77471   12.188
 6621.00    0.79512   0.77157   12.577
 6622.00    0.77206   0.76723   12.952
 6623.00    0.76729   0.76274   13.033
 6624.00    0.77504   0.75943   12.902
 6625.00    0.78742   0.75820   12.700
 6626.00    0.80552   0.75876   12.414
 6627.00    0.81003   0.75954   12.345
 6628.00    0.78475   0.75927   12.743
 6629.00    0.78776   0.75756   12.694
 6630.00    0.81583   0.75466   12.257
 6631.00    0.80425   0.75136   12.434
 6632.00    0.78200   0.74867   12.788
 6633.00    0.77086   0.74771   12.973
 6634.00    0.76338   0.74918   13.100
 6635.00    0.78535   0.75264   12.733
 6636.00    0.79220   0.75654   12.623
 6637.00    0.74877   0.75941   13.355
 6638.00    0.76013   0.76066   13.156
 6639.00    0.79890   0.76042   12.517
 6640.00    0.78204   0.75931   12.787
 6641.00    0.77926   0.75780   12.833
 6642.00    0.79208   0.75606   12.625
 6643.00    0.77908   0.75473   12.836
 6644.00    0.77061   0.75490   12.977
 6645.00    0.77167   0.75644   12.959
 6646.00    0.77421   0.75801   12.916
 6647.00    0.79213   0.75878   12.624
 6648.00    0.80969   0.75876   12.350
 6649.00    0.79974   0.75808   12.504
 6650.00    0.76571   0.75680   13.060
 6651.00    0.75530   0.75534   13.240
 6652.00    0.77950   0.75428   12.829
 6653.00    0.78872   0.75385   12.679
 6654.00    0.77513   0.75379   12.901
 6655.00    0.77286   0.75377   12.939
 6656.00    0.79966   0.75344   12.505
 6657.00    0.79704   0.75260   12.546
 6658.00    0.75312   0.75103   13.278
 6659.00    0.73311   0.74843   13.640
 6660.00    0.76515   0.74496   13.069
 6661.00    0.79453   0.74128   12.586
 6662.00    0.76832   0.73820   13.015
 6663.00    0.75598   0.73652   13.228
 6664.00    0.76937   0.73694   12.998
 6665.00    0.76244   0.73911   13.116
 6666.00    0.75843   0.74211   13.185
 6667.00    0.75155   0.74567   13.306
 6668.00    0.71913   0.74969   13.906
 6669.00    0.69547   0.75369   14.109
 6670.00    0.72045   0.75687   13.880
 6671.00    0.77539   0.75848   12.897
 6672.00    0.78566   0.75803   12.728
 6673.00    0.76999   0.75524   12.987
 6674.00    0.77746   0.75006   12.862
 6675.00    0.78859   0.74296   12.681
 6676.00    0.78503   0.73522   12.738
 6677.00    0.77148   0.72893   12.962
 6678.00    0.76808   0.72647   13.019
 6679.00    0.79383   0.72850   12.597
 6680.00    0.80930   0.73304   12.356
 6681.00    0.75406   0.73766   13.262
 6682.00    0.71085   0.74152   14.068
 6683.00    0.74493   0.74453   13.424
 6684.00    0.79779   0.74649   12.535
 6685.00    0.79292   0.74745   12.612
 6686.00    0.73746   0.74778   13.560
 6687.00    0.70393   0.74793   14.109
 6688.00    0.70969   0.74823   14.091
 6689.00    0.74731   0.74872   13.381
 6690.00    0.79279   0.74899   12.614
 6691.00    0.78849   0.74851   12.683
 6692.00    0.74986   0.74704   13.336
 6693.00    0.73871   0.74464   13.537
 6694.00    0.75167   0.74173   13.304
 6695.00    0.77418   0.73911   12.917
 6696.00    0.78170   0.73784    0.000
 6697.00    0.73897   0.73864    0.000
 6698.00    0.74084   0.74103    0.000
 6699.00    0.82361   0.74377    0.000
 6700.00    0.81709   0.74568    0.000
 6701.00    0.79711   0.74608    0.000
 6702.00    0.84873   0.74522    0.000
 6703.00    0.80582   0.74407    0.000
 6704.00    0.73856   0.74358    0.000
 6705.00    0.76927   0.74407    0.000
 6706.00    0.82081   0.74499    0.000
 6707.00    0.83426   0.74552    0.000
 6708.00    0.81346   0.74519    0.000
 6709.00    0.79525   0.74393    0.000
 6710.00    0.82101   0.74169    0.000
 6711.00    0.86220   0.73856    0.000
 6712.00    0.87345   0.73435    0.000
 6713.00    0.98200   0.72900    0.000
 6714.00    1.31649   0.72322    0.000
 6715.00    1.82608   0.71822    0.000
 6716.00    2.24749   0.71523    0.000
 6717.00    2.31460   0.71507    0.000
 6718.00    1.97745   0.71780    0.000
 6719.00    1.49278   0.72227    0.000
 6720.00    1.12431   0.72659    0.000
 6721.00    0.94019   0.72980    0.000
 6722.00    0.82885   0.73194    0.000
 6723.00    0.77977   0.73325    0.000
 6724.00    0.81208   0.73380    0.000
 6725.00    0.78952   0.73391    0.000
 6726.00    0.74231   0.73429    0.000
 6727.00    0.82990   0.73541    0.000
 6728.00    1.10174   0.73698    0.000
 6729.00    1.44362   0.73836    0.000
 6730.00    1.72413   0.73919    0.000
 6731.00    1.89627   0.73936    0.000
 6732.00    1.82696   0.73904    0.000
 6733.00    1.50366   0.73851    0.000
 6734.00    1.16372   0.73790    0.000
 6735.00    0.95577   0.73705    0.000
 6736.00    0.86545   0.73570    0.000
 6737.00    0.80959   0.73387    0.000
 6738.00    0.78737   0.73202    0.000
 6739.00    0.80752   0.73072    0.000
 6740.00    0.82195   0.73005    0.000
 6741.00    0.78023   0.72962    0.000
 6742.00    0.73346   0.72907    0.000
 6743.00    0.76770   0.72855    0.000
 6744.00    0.80113   0.72815    0.000
 6745.00    0.79630   0.72741    0.000
 6746.00    0.78314   0.72600    0.000
 6747.00    0.68876   0.72422    0.000
 6748.00    0.57834   0.72259    0.000
 6749.00    0.57615   0.72156    0.000
 6750.00    0.58504   0.72138    0.000
 6751.00    0.55013   0.72217    0.000
 6752.00    0.52823   0.72375    0.000
 6753.00    0.56217   0.72618   14.109
 6754.00    0.61279   0.72967   14.109
 6755.00    0.62743   0.73365   14.109
 6756.00    0.62843   0.73750   14.109
 6757.00    0.64362   0.74085   14.109
 6758.00    0.67833   0.74327   14.109
 6759.00    0.71789   0.74456   13.930
 6760.00    0.73139   0.74481   13.673
 6761.00    0.72934   0.74415   13.711
 6762.00    0.76213   0.74279   13.121
 6763.00    0.78324   0.74088   12.768
 6764.00    0.76068   0.73837   13.146
 6765.00    0.73922   0.73540   13.528
 6766.00    0.69097   0.73256   14.109
 6767.00    0.63800   0.73068   14.109
 6768.00    0.66792   0.73028   14.109
 6769.00    0.72080   0.73116   13.874
 6770.00    0.73937   0.73289   13.525
 6771.00    0.74387   0.73551   13.443
 6772.00    0.72169   0.73913   13.856
 6773.00    0.68733   0.74323   14.109
 6774.00    0.68024   0.74692   14.109
 6775.00    0.68518   0.74961   14.109
 6776.00    0.69237   0.75106   14.109
 6777.00    0.71664   0.75117   13.954
 6778.00    0.76015   0.74983   13.155
 6779.00    0.79463   0.74677   12.584
 6780.00    0.78249   0.74179   12.780
 6781.00    0.72109   0.73540   13.868
 6782.00    0.66866   0.72888   14.109
 6783.00    0.67598   0.72380   14.109
 6784.00    0.71007   0.72138   14.083
 6785.00    0.72030   0.72184   13.883
 6786.00    0.71350   0.72430   14.016
 6787.00    0.74611   0.72749   13.403
 6788.00    0.76144   0.73018   13.133
 6789.00    0.73195   0.73167   13.662
 6790.00    0.74762   0.73201   13.376
 6791.00    0.74926   0.73161   13.346
 6792.00    0.69271   0.73080   14.109
 6793.00    0.67371   0.73001   14.109
 6794.00    0.70759   0.72989   14.109
 6795.00    0.73929   0.73063   13.527
 6796.00    0.73909   0.73196   13.530
 6797.00    0.76226   0.73364   13.119
 6798.00    0.78407   0.73536   12.754
 6799.00    0.72669   0.73692   13.761
 6800.00    0.70614   0.73815   14.109
 6801.00    0.77480   0.73882   12.907
 6802.00    0.83384   0.73884   11.993
 6803.00    0.82473   0.73830   12.125
 6804.00    0.77933   0.73755   12.832
 6805.00    0.75266   0.73692   13.286
 6806.00    0.72913   0.73637   13.715
 6807.00    0.71815   0.73595   13.925
 6808.00    0.74100   0.73581   13.495
 6809.00    0.75579   0.73570   13.231
 6810.00    0.73423   0.73548   13.620
 6811.00    0.70379   0.73522   14.109
 6812.00    0.71963   0.73477   13.896
 6813.00    0.75566   0.73421   13.233
 6814.00    0.75841   0.73391   13.185
 6815.00    0.73914   0.73427   13.529
 6816.00    0.72851   0.73531   13.727
 6817.00    0.71991   0.73642   13.891
 6818.00    0.68566   0.73711   14.109
 6819.00    0.70343   0.73767   14.109
 6820.00    0.77859   0.73872   12.844
 6821.00    0.78375   0.74048   12.759
 6822.00    0.75878   0.74240   13.179
 6823.00    0.75376   0.74363   13.267
 6824.00    0.71953   0.74363   13.898
 6825.00    0.67834   0.74242   14.109
 6826.00    0.68028   0.74047   14.109
 6827.00    0.71259   0.73852   14.033
 6828.00    0.68084   0.73742   14.109
 6829.00    0.63558   0.73769   14.109
 6830.00    0.70470   0.73897   14.109
 6831.00    0.77536   0.74048   12.897
 6832.00    0.76833   0.74167   13.015
 6833.00    0.73436   0.74241   13.617
 6834.00    0.70700   0.74252   14.109
 6835.00    0.68743   0.74140   14.109
 6836.00    0.67892   0.73860   14.109
 6837.00    0.70316   0.73432   14.109
 6838.00    0.70702   0.72931   14.109
 6839.00    0.66457   0.72467   -2.000
 6840.00    0.00000   0.72163   -2.000
 6841.00    0.00000   0.72112   -2.000
 6842.00    0.00000   0.72335   -2.000
 6843.00    0.00000   0.72757   -2.000
 6844.00    0.00000   0.73231   -2.000
 6845.00    0.00000   0.73619   -2.000
 6846.00    0.00000   0.73855   -2.000
 6847.00    0.00000   0.73953   -2.000
 6848.00    0.00000   0.73951   -2.000
 6849.00    0.00000   0.73870   -2.000
 6850.00    0.00000   0.73727   -2.000
 6851.00    0.00000   0.73526   -2.000
 6852.00    0.00000   0.73260   -2.000
 6853.00    0.00000   0.72947   -2.000
 6854.00    0.00000   0.72637   -2.000
 6855.00    0.00000   0.72415   -2.000
 6856.00    0.00000   0.72332   -2.000
 6857.00    0.00000   0.72337   -2.000
 6858.00    0.00000   0.72354   -2.000
 6859.00    0.00000   0.72371   -2.000
 6860.00    0.00000   0.72420   -2.000
 6861.00    0.00000   0.72554   -2.000
 6862.00    0.00000   0.72802   -2.000
 6863.00    0.00000   0.73077   -2.000
 6864.00    0.00000   0.73226   -2.000
 6865.00    0.00000   0.73174   -2.000
 6866.00    0.00000   0.72984   -2.000
 6867.00    0.00000   0.72778   -2.000
 6868.00    0.00000   0.72652   -2.000
 6869.00    0.00000   0.72635   -2.000
 6870.00    0.00000   0.72675   -2.000
 6871.00    0.00000   0.72719   -2.000
 6872.00    0.00000   0.72792   -2.000
 6873.00    0.00000   0.72946   -2.000
 6874.00    0.00000   0.73176   -2.000
 6875.00    0.00000   0.73437   -2.000
 6876.00    0.00000   0.73684   -2.000
 6877.00    0.00000   0.73855   -2.000
 6878.00    0.00000   0.73879   -2.000
 6879.00    0.00000   0.73734   -2.000
 6880.00    0.00000   0.73481   -2.000
 6881.00    0.00000   0.73228   -2.000
 6882.00    0.00000   0.73089   -2.000
 6883.00    0.00000   0.73128   -2.000
 6884.00    0.00000   0.73331   -2.000
 6885.00    0.00000   0.73620   -2.000
 6886.00    0.00000   0.73931   -2.000
 6887.00    0.00000   0.74248   -2.000
 6888.00    0.00000   0.74532   -2.000
 6889.00    0.00000   0.74735   -2.000
 6890.00    0.00000   0.74845   -2.000
 6891.00    0.00000   0.74868   -2.000
 6892.00    0.00000   0.74818   -2.000
 6893.00    0.00000   0.74738   -2.000
 6894.00    0.00000   0.74666   -2.000
 6895.00    0.00000   0.74619   -2.000
 6896.00    0.00000   0.74607   -2.000
 6897.00    0.00000   0.74626   -2.000
 6898.00    0.00000   0.74655   -2.000
 6899.00    0.00000   0.74681   -2.000
 6900.00    0.00000   0.74727   -2.000
 6901.00    0.00000   0.74821   -2.000
 6902.00    0.00000   0.74947   -2.000
 6903.00    0.00000   0.75068   -2.000
 6904.00    0.00000   0.75185   -2.000
 6905.00    0.00000   0.75315   -2.000
 6906.00    0.00000   0.75454   -2.000
 6907.00    0.00000   0.75557   -2.000
 6908.00    0.00000   0.75565   -2.000
 6909.00    0.00000   0.75455   -2.000
 6910.00    0.00000   0.75232   -2.000
 6911.00    0.00000   0.74938   -2.000
 6912.00    0.00000   0.74644   -2.000
 6913.00    0.00000   0.74413   -2.000
 6914.00    0.00000   0.74294   -2.000
 6915.00    0.00000   0.74314   -2.000
 6916.00    0.00000   0.74438   -2.000
 6917.00    0.00000   0.74615   -2.000
 6918.00    0.00000   0.74814   -2.000
 6919.00    0.00000   0.74973   -2.000
 6920.00    0.00000   0.75027   -2.000
 6921.00    0.00000   0.74934   -2.000
 6922.00    0.00000   0.74697   -2.000
 6923.00    0.00000   0.74395   -2.000
 6924.00    0.00000   0.74153   -2.000
 6925.00    0.00000   0.74093   -2.000
 6926.00    0.00000   0.74235   -2.000
 6927.00    0.00000   0.74493   -2.000
 6928.00    0.00000   0.74731   -2.000
 6929.00    0.00000   0.74862   -2.000
 6930.00    0.00000   0.74880   -2.000
 6931.00    0.00000   0.74831   -2.000
 6932.00    0.00000   0.74783   -2.000
 6933.00    0.00000   0.74796   -2.000
 6934.00    0.00000   0.74899   -2.000
 6935.00    0.00000   0.75051   -2.000
 6936.00    0.00000   0.75199   -2.000
 6937.00    0.00000   0.75337   -2.000
 6938.00    0.00000   0.75463   -2.000
 6939.00    0.00000   0.75543   -2.000
 6940.00    0.00000   0.75519   -2.000
 6941.00    0.00000   0.75350   -2.000
 6942.00    0.00000   0.75069   -2.000
 6943.00    0.00000   0.74789   -2.000
 6944.00    0.00000   0.74637   -2.000
 6945.00    0.00000   0.74686   -2.000
 6946.00    0.00000   0.74919   -2.000
 6947.00    0.00000   0.75195   -2.000
 6948.00    0.00000   0.75355   -2.000
 6949.00    0.00000   0.75335   -2.000
 6950.00    0.00000   0.75166   -2.000
 6951.00    0.00000   0.74946   -2.000
 6952.00    0.00000   0.74800   -2.000
 6953.00    0.00000   0.74797   -2.000
 6954.00    0.00000   0.74936   -2.000
 6955.00    0.00000   0.75180   -2.000
 6956.00    0.00000   0.75454   -2.000
 6957.00    0.00000   0.75686   -2.000
 6958.00    0.00000   0.75857   -2.000
 6959.00    0.00000   0.75985   -2.000
 6960.00    0.00000   0.76089   -2.000
 6961.00    0.00000   0.76171   -2.000
 6962.00    0.00000   0.76223   -2.000
 6963.00    0.00000   0.76248   -2.000
 6964.00    0.00000   0.76266   -2.000
 6965.00    0.00000   0.76299   -2.000
 6966.00    0.00000   0.76368   -2.000
 6967.00    0.00000   0.76466   -2.000
 6968.00    0.00000   0.76534   -2.000
 6969.00    0.00000   0.76525   -2.000
 6970.00    0.00000   0.76444   -2.000
 6971.00    0.00000   0.76311   -2.000
 6972.00    0.00000   0.76112   -2.000
 6973.00    0.00000   0.75778   -2.000
 6974.00    0.00000   0.75248   -2.000
 6975.00    0.00000   0.74572   -2.000
 6976.00    0.00000   0.73899   -2.000
 6977.00    0.00000   0.73417   -2.000
 6978.00    0.00000   0.73297   -2.000
 6979.00    0.00000   0.73638   -2.000
 6980.00    0.00000   0.74352   -2.000
 6981.00    0.00000   0.75185   -2.000
 6982.00    0.00000   0.75911   -2.000
 6983.00    0.00000   0.76414   -2.000
 6984.00    0.00000   0.76662   -2.000
 6985.00    0.00000   0.76688   -2.000
 6986.00    0.00000   0.76561   -2.000
 6987.00    0.00000   0.76361   -2.000
 6988.00    0.00000   0.76174   -2.000
 6989.00    0.00000   0.76076   -2.000
 6990.00    0.00000   0.76102   -2.000
 6991.00    0.00000   0.76213   -2.000
 6992.00    0.00000   0.76322   -2.000
 6993.00    0.00000   0.76367   -2.000
 6994.00    0.00000   0.76334   -2.000
 6995.00    0.00000   0.76241   -2.000
 6996.00    0.00000   0.76094   -2.000
 6997.00    0.00000   0.75895   -2.000
 6998.00    0.00000   0.75675   -2.000
 6999.00    0.00000   0.75496   -2.000
 7000.00    0.00000   0.75414   -2.000
 7001.00    0.00000   0.75418   -2.000
 7002.00    0.00000   0.75430   -2.000
 7003.00    0.00000   0.75392   -2.000
 7004.00    0.00000   0.75340   -2.000
 7005.00    0.00000   0.75356   -2.000
 7006.00    0.00000   0.75476   -2.000
 7007.00    0.00000   0.75664   -2.000
 7008.00    0.00000   0.75858   -2.000
 7009.00    0.00000   0.75995   -2.000
 7010.00    0.00000   0.76022   -2.000
 7011.00    0.00000   0.75916   -2.000
 7012.00    0.00000   0.75679   -2.000
 7013.00    0.00000   0.75327   -2.000
 7014.00    0.00000   0.74933   -2.000
 7015.00    0.00000   0.74655   -2.000
 7016.00    0.00000   0.74669   -2.000
 7017.00    0.00000   0.75031   -2.000
 7018.00    0.00000   0.75573   -2.000
 7019.00    0.00000   0.76009   -2.000
 7020.00    0.00000   0.76167   -2.000
 7021.00    0.00000   0.76041   -2.000
 7022.00    0.00000   0.75744   -2.000
 7023.00    0.00000   0.75454   -2.000
 7024.00    0.00000   0.75337   -2.000
 7025.00    0.00000   0.75448   -2.000
 7026.00    0.00000   0.75717   -2.000
 7027.00    0.00000   0.76033   -2.000
 7028.00    0.00000   0.76323   -2.000
 7029.00    0.00000   0.76549   -2.000
 7030.00    0.00000   0.76691   -2.000
 7031.00    0.00000   0.76748   -2.000
 7032.00    0.00000   0.76744   -2.000
 7033.00    0.00000   0.76703   -2.000
 7034.00    0.00000   0.76628   -2.000
 7035.00    0.00000   0.76523   -2.000
 7036.00    0.00000   0.76427   -2.000
 7037.00    0.00000   0.76424   -2.000
 7038.00    0.00000   0.76635   -2.000
 7039.00    0.00000   0.77131   -2.000
 7040.00    0.00000   0.77787   -2.000
 7041.00    0.00000   0.78359   -2.000
 7042.00    0.00000   0.78692   -2.000
 7043.00    0.00000   0.78800   -2.000
 7044.00    0.00000   0.78796   -2.000
 7045.00    0.00000   0.78811   -2.000
 7046.00    0.00000   0.78896   -2.000
 7047.00    0.00000   0.78955   -2.000
 7048.00    0.00000   0.78822   -2.000
 7049.00    0.00000   0.78369   -2.000
 7050.00    0.00000   0.77566   -2.000
 7051.00    0.00000   0.76505   -2.000
 7052.00    0.00000   0.75360   -2.000
 7053.00    0.00000   0.74351   -2.000
 7054.00    0.00000   0.73637   -2.000
 7055.00    0.00000   0.73235   -2.000
 7056.00    0.00000   0.73038   -2.000
 7057.00    0.00000   0.72884   -2.000
 7058.00    0.00000   0.72677   -2.000
 7059.00    0.00000   0.72444   -2.000
 7060.00    0.00000   0.72284   -2.000
 7061.00    0.00000   0.72261   -2.000
 7062.00    0.00000   0.72324   -2.000
 7063.00    0.00000   0.72364   -2.000
 7064.00    0.00000   0.72301   -2.000
 7065.00    0.00000   0.72120   -2.000
 7066.00    0.00000   0.71908   -2.000
 7067.00    0.00000   0.71817   -2.000
 7068.00    0.00000   0.71962   -2.000
 7069.00    0.00000   0.72354   -2.000
 7070.00    0.00000   0.72884   -2.000
 7071.00    0.00000   0.73383   -2.000
 7072.00    0.00000   0.73744   -2.000
 7073.00    0.00000   0.73961   -2.000
 7074.00    0.00000   0.74079   -2.000
 7075.00    0.00000   0.74152   -2.000
 7076.00    0.00000   0.74225   -2.000
 7077.00    0.00000   0.74306   -2.000
 7078.00    0.00000   0.74347   -2.000
 7079.00    0.00000   0.74267   -2.000
 7080.00    0.00000   0.73987   -2.000
 7081.00    0.00000   0.73468   -2.000
 7082.00    0.00000   0.72739   -2.000
 7083.00    0.00000   0.71917   -2.000
 7084.00    0.00000   0.71139   -2.000
 7085.00    0.00000   0.70500   -2.000
 7086.00    0.00000   0.69998   -2.000
 7087.00    0.00000   0.69576   -2.000
 7088.00    0.00000   0.69237   -2.000
 7089.00    0.00000   0.69025   -2.000
 7090.00    0.00000   0.68942   -2.000
 7091.00    0.00000   0.68957   -2.000
 7092.00    0.00000   0.69025   -2.000
 7093.00    0.00000   0.69109   -2.000
 7094.00    0.00000   0.69224   -2.000
 7095.00    0.00000   0.69387   -2.000
 7096.00    0.00000   0.69605   -2.000
 7097.00    0.00000   0.69862   -2.000
 7098.00    0.00000   0.70109   -2.000
 7099.00    0.00000   0.70297   -2.000
 7100.00    0.00000   0.70395   -2.000
 7101.00    0.00000   0.70430   -2.000
 7102.00    0.00000   0.70463   -2.000
 7103.00    0.00000   0.70535   -2.000
 7104.00    0.00000   0.70633   -2.000
 7105.00    0.00000   0.70696   -2.000
 7106.00    0.00000   0.70672   -2.000
 7107.00    0.00000   0.70564   -2.000
 7108.00    0.00000   0.70414   -2.000
 7109.00    0.00000   0.70259   -2.000
 7110.00    0.00000   0.70142   -2.000
 7111.00    0.00000   0.70129   -2.000
 7112.00    0.00000   0.70261   -2.000
 7113.00    0.00000   0.70499   -2.000
 7114.00    0.00000   0.70759   -2.000
 7115.00    0.00000   0.70973   -2.000
 7116.00    0.00000   0.71116   -2.000
 7117.00    0.00000   0.71176   -2.000
 7118.00    0.00000   0.71155   -2.000
 7119.00    0.00000   0.71073   -2.000
 7120.00    0.00000   0.70938   -2.000
 7121.00    0.00000   0.70748   -2.000
 7122.00    0.00000   0.70487   -2.000
 7123.00    0.00000   0.70147   -2.000
 7124.00    0.00000   0.69717   -2.000
 7125.00    0.00000   0.69216   -2.000
 7126.00    0.00000   0.68727   -2.000
 7127.00    0.00000   0.68324   -2.000
 7128.00    0.00000   0.68022   -2.000
 7129.00    0.00000   0.67821   -2.000
 7130.00    0.00000   0.67763   -2.000
 7131.00    0.00000   0.67905   -2.000
 7132.00    0.00000   0.68234   -2.000
 7133.00    0.00000   0.68646   -2.000
 7134.00    0.00000   0.69025   -2.000
 7135.00    0.00000   0.69292   -2.000
 7136.00    0.00000   0.69432   -2.000
 7137.00    0.00000   0.69484   -2.000
 7138.00    0.00000   0.69496   -2.000
 7139.00    0.00000   0.69528   -2.000
 7140.00    0.00000   0.69618   -2.000
 7141.00    0.00000   0.69730   -2.000
 7142.00    0.00000   0.69784   -2.000
 7143.00    0.00000   0.69733   -2.000
 7144.00    0.00000   0.69571   -2.000
 7145.00    0.00000   0.69319   -2.000
 7146.00    0.00000   0.69045   -2.000
 7147.00    0.00000   0.68849   -2.000
 7148.00    0.00000   0.68844   -2.000
 7149.00    0.00000   0.69099   -2.000
 7150.00    0.00000   0.69549   -2.000
 7151.00    0.00000   0.70057   -2.000
 7152.00    0.00000   0.70519   -2.000
 7153.00    0.00000   0.70864   -2.000
 7154.00    0.00000   0.71072   -2.000
 7155.00    0.00000   0.71169   -2.000
 7156.00    0.00000   0.71193   -2.000
 7157.00    0.00000   0.71137   -2.000
 7158.00    0.00000   0.70973   -2.000
 7159.00    0.00000   0.70726   -2.000
 7160.00    0.00000   0.70436   -2.000
 7161.00    0.00000   0.70118   -2.000
 7162.00    0.00000   0.69781   -2.000
 7163.00    0.00000   0.69475   -2.000
 7164.00    0.00000   0.69326   -2.000
 7165.00    0.00000   0.69446   -2.000
 7166.00    0.00000   0.69823   -2.000
 7167.00    0.00000   0.70319   -2.000
 7168.00    0.00000   0.70784   -2.000
 7169.00    0.00000   0.71149   -2.000
 7170.00    0.00000   0.71419   -2.000
 7171.00    0.00000   0.71605   -2.000
 7172.00    0.00000   0.71686   -2.000
 7173.00    0.00000   0.71645   -2.000
 7174.00    0.00000   0.71507   -2.000
 7175.00    0.00000   0.71323   -2.000
 7176.00    0.00000   0.71137   -2.000
 7177.00    0.00000   0.70958   -2.000
 7178.00    0.00000   0.70767   -2.000
 7179.00    0.00000   0.70576   -2.000
 7180.00    0.00000   0.70469   -2.000
 7181.00    0.00000   0.70530   -2.000
 7182.00    0.00000   0.70722   -2.000
 7183.00    0.00000   0.70880   -2.000
 7184.00    0.00000   0.70831   -2.000
 7185.00    0.00000   0.70541   -2.000
 7186.00    0.00000   0.70127   -2.000
 7187.00    0.00000   0.69775   -2.000
 7188.00    0.00000   0.69642   -2.000
 7189.00    0.00000   0.69758   -2.000
 7190.00    0.00000   0.70032   -2.000
 7191.00    0.00000   0.70340   -2.000
 7192.00    0.00000   0.70587   -2.000
 7193.00    0.00000   0.70757   -2.000
 7194.00    0.00000   0.70864   -2.000
 7195.00    0.00000   0.70910   -2.000
 7196.00    0.00000   0.70893   -2.000
 7197.00    0.00000   0.70849   -2.000
 7198.00    0.00000   0.70828   -2.000
 7199.00    0.00000   0.70834   -2.000
 7200.00    0.00000   0.70848   -2.000
 7201.00    0.00000   0.70862   -2.000
 7202.00    0.00000   0.70863   -2.000
 7203.00    0.00000   0.70800   -2.000
 7204.00    0.00000   0.70600   -2.000
 7205.00    0.00000   0.70255   -2.000
 7206.00    0.00000   0.69889   -2.000
 7207.00    0.00000   0.69700   -2.000
 7208.00    0.00000   0.69819   -2.000
 7209.00    0.00000   0.70189   -2.000
 7210.00    0.00000   0.70632   -2.000
 7211.00    0.00000   0.70978   -2.000
 7212.00    0.00000   0.71154   -2.000
 7213.00    0.00000   0.71221   -2.000
 7214.00    0.00000   0.71298   -2.000
 7215.00    0.00000   0.71455   -2.000
 7216.00    0.00000   0.71680   -2.000
 7217.00    0.00000   0.71904   -2.000
 7218.00    0.00000   0.72049   -2.000
