###################################################################
## OUTPUT of StarlightChains_v04.for    [Cid@UFSC - 01/Apr/2007] ##
###################################################################

## Some input info
2007Q.txt                                [arq_obs]
Base.CB07.vall.4m                        [arq_base]
Masks.EmLines.NEW.gm                     [arq_masks]
StCv04.C11.config                        [arq_config]
   66                                    [N_base]
    0                                    [N_YAV_components = # of components with extra extinction!]
    0                                    [i_FitPowerLaw (1/0 = Yes/No)]
-9.99                                    [alpha_PowerLaw]
CCM                                      [red_law_option]
 1.458241                                [q_norm = A(l_norm)/A(V)]

## (Re)Sampling Parameters
 3741.00                                 [l_ini (A)]
 7218.00                                 [l_fin (A)]
    1.00                                 [dl    (A)]     (OBS: dl_cushion =    50.00 A)

## Normalization info
 4020.00                                 [l_norm (A) - for base]
 4010.00                                 [llow_norm (A) - window for f_obs]
 4060.00                                 [lupp_norm (A) - window for f_obs]
3.094898E-17                             [fobs_norm (in input units)]

## S/N
 3691.00                                 [llow_SN (A) - window for S/N]
 7268.00                                 [lupp_SN (A) - window for S/N]
   5.136                                 [S/N in S/N window]
   4.156                                 [S/N in norm. window]
  24.500                                 [S/N_err in S/N window]
  19.828                                 [S/N_err in norm. window]
  1.0000                                 [fscale_chi2]

## etc...
    -2007338                             [idum_orig]
  2324                                   [NOl_eff]
  2322                                   [Nl_eff]
     2    NSIGMA                         [Ntot_cliped & clip_method]
  1512980                                [Nglobal_steps]
   7                                     [N_chains]
  23                                     [NEX0s_base = N_base in EX0s-fits]
 0   0   1        2   2.0   2.964E+01    [Clip-Bug, RC-Crash & Burn-In warning-flags, n_censored_weights, wei_nsig_threshold & wei_limit]
    14     14.070     13.559      0.511  [idt_all, wdt_TotTime, wdt_UsrTime & wdt_SysTime (sec)]

## Synthesis Results - Best model ##

 5.54369E-01                             [chi2/Nl_eff]
     2.47595                             [adev (%)]

   105.72834                             [sum-of-x (%)]
 4.37481E-17                             [Flux_tot (units of input spectrum!)]
 1.11891E-12                             [Mini_tot (???)]
 6.03242E-13                             [Mcor_tot (???)]

-209.18                                  [v0_min  (km/s)]
 163.58                                  [vd_min  (km/s)]
 0.2162                                  [AV_min  (mag)]
 0.0000                                  [YAV_min (mag)]

# j     x_j(%)      Mini_j(%)     Mcor_j(%)     age_j(yr)     Z_j      (L/M)_j    YAV?  Mstars   component_j        a/Fe...       SSP_chi2r SSP_adev(%)   SSP_AV   SSP_x(%)
  1      0.0000     0.0000E+00    0.0000E+00    1.000000E+06  0.00400  1.094E-02    0   1.0000   age020_m42            0.0000     4.4660E+00     8.2345   3.6700    91.8003
  2      0.0000     0.0000E+00    0.0000E+00    3.160000E+06  0.00400  4.007E-02    0   0.9999   age045_m42            0.0000     3.7870E+00     7.1188   2.9631    97.2462
  3      0.0000     0.0000E+00    0.0000E+00    5.010000E+06  0.00400  2.539E-02    0   0.9488   age055_m42            0.0000     4.0481E+00     7.5936   3.2742    95.2704
  4      0.0000     0.0000E+00    0.0000E+00    6.610000E+06  0.00400  2.620E-02    0   0.9220   age061_m42            0.0000     3.7623E+00     7.1278   2.8877    97.5646
  5      0.0187     5.2364E-05    8.6073E-05    1.000000E+07  0.00400  1.322E-02    0   0.8862   age070_m42            0.0000     4.2401E+00     7.9587   2.5794   100.8678
  6      0.0000     0.0000E+00    0.0000E+00    1.445000E+07  0.00400  7.883E-03    0   0.8571   age078_m42            0.0000     4.3779E+00     8.1413   2.9060    98.3577
  7      0.0000     0.0000E+00    0.0000E+00    2.512000E+07  0.00400  5.251E-03    0   0.8174   age090_m42            0.0000     4.3893E+00     8.1181   2.4465   101.5622
  8      0.0000     0.0000E+00    0.0000E+00    4.000000E+07  0.00400  3.649E-03    0   0.7851   age104_m42            0.0000     4.0981E+00     7.7844   2.2226   102.2359
  9      0.0000     0.0000E+00    0.0000E+00    5.500000E+07  0.00400  3.098E-03    0   0.7629   age110_m42            0.0000     3.8079E+00     7.2923   2.3917   101.5380
 10      0.0000     0.0000E+00    0.0000E+00    1.015200E+08  0.00400  2.228E-03    0   0.7207   age116_m42            0.0000     3.6400E+00     7.0070   2.4227   101.2431
 11      0.0000     0.0000E+00    0.0000E+00    2.861200E+08  0.00400  1.093E-03    0   0.6648   age125_m42            0.0000     3.7043E+00     7.2372   1.8558   104.3784
 12      0.0000     0.0000E+00    0.0000E+00    5.088000E+08  0.00400  6.597E-04    0   0.6365   age130_m42            0.0000     3.1467E+00     6.5450   1.8581   104.6570
 13     19.4866     3.3800E+00    3.6350E+00    1.434000E+09  0.00400  2.132E-04    0   0.5798   age139_m42            0.0000     1.7585E+00     4.8855   0.8852   106.7776
 14      0.8392     5.2642E-01    5.2502E-01    4.250000E+09  0.00400  5.895E-05    0   0.5377   age158_m42            0.0000     9.8816E-01     3.4998   0.4508   102.4126
 15      0.0071     7.4477E-03    7.1999E-03    7.500000E+09  0.00400  3.510E-05    0   0.5212   age171_m42            0.0000     8.1962E-01     3.1561   0.2696   101.5200
 16      0.0000     0.0000E+00    0.0000E+00    1.300000E+10  0.00400  2.005E-05    0   0.5034   age193_m42            0.0000     7.8047E-01     3.0822   0.1113   100.7790
 17      2.0636     5.0041E+00    4.6102E+00    1.800000E+10  0.00400  1.525E-05    0   0.4967   age213_m42            0.0000     7.8127E-01     3.1085   0.0861   100.4067
 18      0.0000     0.0000E+00    0.0000E+00    1.000000E+06  0.00800  1.238E-02    0   1.0000   age020_m52            0.0000     4.4583E+00     8.2276   3.6671    91.9509
 19      0.6046     7.2738E-04    1.3446E-03    3.160000E+06  0.00800  3.074E-02    0   0.9966   age045_m52            0.0000     4.3794E+00     8.1023   3.5912    92.7196
 20      0.0000     0.0000E+00    0.0000E+00    5.010000E+06  0.00800  2.668E-02    0   0.9443   age055_m52            0.0000     4.0879E+00     7.7195   3.3518    94.6296
 21      0.0000     0.0000E+00    0.0000E+00    6.610000E+06  0.00800  2.136E-02    0   0.9177   age061_m52            0.0000     3.3991E+00     7.3809   2.0724   102.3373
 22      0.2685     8.1727E-04    1.3381E-03    1.000000E+07  0.00800  1.215E-02    0   0.8827   age070_m52            0.0000     4.5401E+00     8.4081   2.7530   101.0091
 23      0.0000     0.0000E+00    0.0000E+00    1.445000E+07  0.00800  8.717E-03    0   0.8552   age078_m52            0.0000     4.2521E+00     8.0147   2.8722    99.6992
 24      0.0000     0.0000E+00    0.0000E+00    2.512000E+07  0.00800  5.592E-03    0   0.8162   age090_m52            0.0000     4.3196E+00     8.0688   2.5122   102.7590
 25      0.0000     0.0000E+00    0.0000E+00    4.000000E+07  0.00800  3.896E-03    0   0.7841   age104_m52            0.0000     4.0532E+00     7.7030   2.4346   103.1169
 26      0.0000     0.0000E+00    0.0000E+00    1.015200E+08  0.00800  2.148E-03    0   0.7226   age116_m52            0.0000     3.6007E+00     7.1147   2.3866   102.2829
 27      0.0017     6.2016E-05    7.6873E-05    2.861200E+08  0.00800  9.925E-04    0   0.6683   age125_m52            0.0000     3.0059E+00     6.4452   1.9225   105.6841
 28      6.1928     7.2911E-01    8.3008E-01    9.047900E+08  0.00800  3.141E-04    0   0.6138   age135_m52            0.0000     1.6891E+00     4.6919   1.1442   109.2005
 29      0.0000     0.0000E+00    0.0000E+00    1.434000E+09  0.00800  1.719E-04    0   0.5853   age139_m52            0.0000     1.1433E+00     3.8409   0.5603   107.2643
 30      0.0000     0.0000E+00    0.0000E+00    2.500000E+09  0.00800  7.872E-05    0   0.5600   age150_m52            0.0000     6.9849E-01     2.8644   0.2990   104.0372
 31      0.0000     0.0000E+00    0.0000E+00    4.250000E+09  0.00800  4.336E-05    0   0.5426   age158_m52            0.0000     7.1941E-01     2.8979   0.2824   103.0897
 32      0.0000     0.0000E+00    0.0000E+00    6.250000E+09  0.00800  3.159E-05    0   0.5319   age166_m52            0.0000     6.6580E-01     2.7743   0.0895   102.7520
 33      0.0000     0.0000E+00    0.0000E+00    1.300000E+10  0.00800  1.361E-05    0   0.5073   age193_m52            0.0000     7.8485E-01     3.0796  -0.3685   101.6951
 34      2.3681     8.8583E+00    8.1989E+00    1.800000E+10  0.00800  9.886E-06    0   0.4990   age213_m52            0.0000     1.0504E+00     3.6808  -0.4642   100.7333
 35      0.0000     0.0000E+00    0.0000E+00    1.000000E+06  0.02000  1.544E-02    0   1.0000   age020_m62            0.0000     4.4839E+00     8.2530   3.6624    92.1985
 36      0.0000     0.0000E+00    0.0000E+00    3.160000E+06  0.02000  3.762E-02    0   0.9858   age045_m62            0.0000     4.4759E+00     8.2191   3.6017    93.0098
 37      0.0000     0.0000E+00    0.0000E+00    5.010000E+06  0.02000  3.296E-02    0   0.9342   age055_m62            0.0000     3.8545E+00     7.2764   3.2381    96.2884
 38      0.0000     0.0000E+00    0.0000E+00    8.710000E+06  0.02000  1.154E-02    0   0.8861   age067_m62            0.0000     7.5787E+00    11.6141   2.1545   106.4088
 39      0.0000     0.0000E+00    0.0000E+00    1.445000E+07  0.02000  7.663E-03    0   0.8472   age078_m62            0.0000     5.0148E+00     9.1385   2.3889   103.9836
 40      1.8482     1.5081E-02    2.2655E-02    2.512000E+07  0.02000  4.532E-03    0   0.8099   age090_m62            0.0000     5.2930E+00     9.3375   2.3821   103.7032
 41      0.0000     0.0000E+00    0.0000E+00    5.500000E+07  0.02000  2.733E-03    0   0.7595   age110_m62            0.0000     3.9404E+00     7.6564   2.4140   102.5298
 42      0.0000     0.0000E+00    0.0000E+00    1.609000E+08  0.02000  1.369E-03    0   0.6985   age120_m62            0.0000     3.4650E+00     6.9424   2.2742   104.3296
 43      0.0000     0.0000E+00    0.0000E+00    2.861200E+08  0.02000  9.013E-04    0   0.6714   age125_m62            0.0000     3.1275E+00     6.5521   2.0326   106.8832
 44      0.4528     3.3304E-02    3.9837E-02    5.088000E+08  0.02000  5.028E-04    0   0.6449   age130_m62            0.0000     2.3230E+00     5.5993   1.6763   108.7471
 45      0.0000     0.0000E+00    0.0000E+00    9.047900E+08  0.02000  2.428E-04    0   0.6179   age135_m62            0.0000     1.2337E+00     3.8799   1.0944   108.0308
 46      0.0000     0.0000E+00    0.0000E+00    1.434000E+09  0.02000  1.263E-04    0   0.5908   age139_m62            0.0000     8.1914E-01     3.1143   0.6479   106.5876
 47      0.0000     0.0000E+00    0.0000E+00    2.500000E+09  0.02000  5.985E-05    0   0.5673   age150_m62            0.0000     6.6198E-01     2.7898   0.2902   104.8300
 48     20.5573     2.3241E+01    2.3572E+01    4.250000E+09  0.02000  3.271E-05    0   0.5468   age158_m62            0.0000     7.6461E-01     3.0295  -0.0035   103.5093
 49      1.1726     3.1885E+00    3.0558E+00    1.000000E+10  0.02000  1.360E-05    0   0.5167   age181_m62            0.0000     1.3258E+00     4.2280  -0.3332   102.3848
 50      1.4228     7.3860E+00    6.8676E+00    1.800000E+10  0.02000  7.124E-06    0   0.5013   age213_m62            0.0000     1.9946E+00     5.3171  -0.5257   100.9217
 51      0.0000     0.0000E+00    0.0000E+00    1.000000E+06  0.05000  2.592E-02    0   0.9998   age020_m72            0.0000     4.5745E+00     8.3577   3.6517    92.3060
 52      0.0000     0.0000E+00    0.0000E+00    3.160000E+06  0.05000  4.845E-02    0   0.9577   age045_m72            0.0000     4.2472E+00     7.8325   3.4916    93.9420
 53      0.9714     1.1693E-03    1.9839E-03    5.010000E+06  0.05000  3.072E-02    0   0.9147   age055_m72            0.0000     4.6412E+00     8.6775   2.9984    99.1970
 54      0.0000     0.0000E+00    0.0000E+00    6.610000E+06  0.05000  1.455E-02    0   0.8877   age061_m72            0.0000     1.0865E+01    14.0802   2.2240   107.4938
 55      0.0000     0.0000E+00    0.0000E+00    1.000000E+07  0.05000  9.074E-03    0   0.8524   age070_m72            0.0000     5.0915E+00     9.1385   3.2107    98.2296
 56      0.0000     0.0000E+00    0.0000E+00    2.512000E+07  0.05000  4.250E-03    0   0.7902   age090_m72            0.0000     4.8101E+00     8.6476   2.8973   100.2383
 57      0.3749     4.4912E-03    6.3461E-03    4.000000E+07  0.05000  3.087E-03    0   0.7618   age104_m72            0.0000     4.9605E+00     8.7476   2.6675   101.9826
 58      0.0000     0.0000E+00    0.0000E+00    1.015200E+08  0.05000  1.700E-03    0   0.7096   age116_m72            0.0000     3.8800E+00     7.4307   2.4140   104.1259
 59      0.1421     7.1179E-03    8.7572E-03    2.861200E+08  0.05000  7.384E-04    0   0.6633   age125_m72            0.0000     2.6585E+00     6.0191   1.9120   107.8242
 60      2.8548     2.7644E-01    3.2672E-01    5.088000E+08  0.05000  3.819E-04    0   0.6372   age130_m72            0.0000     1.5775E+00     4.5023   1.4293   109.1186
 61      0.0008     1.8572E-04    2.1048E-04    9.047900E+08  0.05000  1.676E-04    0   0.6110   age135_m72            0.0000     8.2326E-01     3.0867   0.7450   106.7757
 62      0.0012     4.8590E-04    5.2940E-04    1.434000E+09  0.05000  8.837E-05    0   0.5874   age139_m72            0.0000     6.6154E-01     2.8365   0.2936   106.2228
 63     38.8943     3.3979E+01    3.5281E+01    2.500000E+09  0.05000  4.233E-05    0   0.5598   age150_m72            0.0000     8.9290E-01     3.3172   0.0024   104.1586
 64      5.1842     1.3360E+01    1.3007E+01    6.250000E+09  0.05000  1.435E-05    0   0.5249   age166_m72            0.0000     1.5402E+00     4.5465  -0.4238   101.7413
 65      0.0000     0.0000E+00    0.0000E+00    1.300000E+10  0.05000  6.513E-06    0   0.5036   age193_m72            0.0000     2.5439E+00     5.9906  -0.6812   101.8390
 66      0.0000     0.0000E+00    0.0000E+00    1.800000E+10  0.05000  4.527E-06    0   0.4945   age213_m72            0.0000     3.3090E+00     6.8775  -0.8262   101.0234


## Synthesis Results - Average & Chains ##

# j      x_j: min, <> & last-chain-values for 1 ...  7 chains
  1      0.0000      0.0949      0.0000      0.3065      0.4699      0.0000      0.1274      0.0000      0.0414
  2      0.0000      0.1585      0.0000      0.0000      0.0000      0.0000      0.0000      0.0000      0.0390
  3      0.0000      0.0883      0.0000      0.4342      0.0000      0.0000      0.0000      0.3273      0.0000
  4      0.0000      0.1139      0.0000      0.0000      0.1174      0.0000      0.0000      0.0000      0.0000
  5      0.0187      0.0734      0.5625      0.0000      0.0000      0.0000      1.0314      0.7200      0.0000
  6      0.0000      0.0944      0.0000      0.0000      0.0000      0.0000      0.0000      0.0000      0.0000
  7      0.0000      0.4282      0.0526      0.0000      0.9640      0.0000      0.0685      0.0000      0.5727
  8      0.0000      0.1257      0.0000      0.0000      0.0000      0.0000      0.0000      0.0000      0.0000
  9      0.0000      0.1342      0.0528      0.0000      0.0000      0.0000      0.0000      0.4447      0.0000
 10      0.0000      0.3535      0.0000      0.6451      0.0000      1.1176      1.5177      0.0000      0.2883
 11      0.0000      0.1425      0.0000      0.7785      0.0977      0.0000      0.0000      0.0000      0.0000
 12      0.0000      0.3588      0.0000      0.0000      0.4512      0.0000      0.0000      1.3804      0.0000
 13     19.4866      9.0423     12.6289      9.5873     11.7786     10.6847      9.8239     10.2061     11.5777
 14      0.8392      1.4245      1.0098      3.5357      1.3365      0.0000      1.6926      3.0761      0.0000
 15      0.0071      1.2279      0.6697      1.1403      1.3446      0.0000      2.4850      0.0000      1.1218
 16      0.0000      0.5863      0.0188      0.4081      0.0000      0.0000      1.4175      0.0000      0.0082
 17      2.0636      1.2726      0.8240      0.6604      1.8374      1.8121      0.3239      0.1210      2.2022
 18      0.0000      0.1137      0.0000      0.0000      0.3139      0.2165      0.0000      0.0000      0.0000
 19      0.6046      0.1146      0.6661      0.0000      0.0000      0.0000      0.0000      0.0571      0.0000
 20      0.0000      0.1424      0.0000      0.0000      0.0000      2.3166      0.0000      0.0000      0.0000
 21      0.0000      0.0985      0.4310      0.0000      0.0000      0.0000      0.0000      0.0000      0.0000
 22      0.2685      0.1791      0.4998      0.0000      0.0000      0.0000      0.3124      0.1374      0.0000
 23      0.0000      0.0421      0.0000      0.0000      0.2240      0.0000      0.0000      0.0000      0.0000
 24      0.0000      0.1229      0.0915      0.3874      0.0000      0.0000      0.0295      0.0000      1.3314
 25      0.0000      0.0849      0.0000      0.0000      0.0000      0.0000      0.0000      0.3311      0.0000
 26      0.0000      0.0905      0.2125      0.0000      0.0000      0.0000      0.0000      0.0000      0.0000
 27      0.0017      0.1527      0.5963      0.0000      0.0000      0.0000      0.0000      0.0000      0.0000
 28      6.1928      6.5201      7.7110      6.0420      6.4035      6.4795      6.9113      7.7388      6.7342
 29      0.0000      1.9217      0.0000      0.1855      1.8189      1.9196      0.6024      0.0000      1.5269
 30      0.0000      0.9338      0.0721      0.0000      0.0000      0.0000      0.0000      0.0000      0.3476
 31      0.0000      0.5793      0.0000      0.3926      0.0000      0.0000      0.0000      0.0000      0.0000
 32      0.0000      0.4476      0.0000      0.0000      0.0000      0.7581      0.0000      1.1579      0.0000
 33      0.0000      0.2607      0.1179      0.0000      0.3018      0.1155      0.0000      1.4666      0.5500
 34      2.3681      2.8635      2.7531      3.3962      3.4990      3.1070      3.5494      2.7176      2.1066
 35      0.0000      0.1705      0.0000      0.0000      0.0000      0.0000      0.0000      0.0946      0.0000
 36      0.0000      0.1752      0.0000      0.0000      0.9879      0.4975      0.3761      0.4994      0.3266
 37      0.0000      0.1681      0.0000      0.0331      0.0000      0.0000      0.7734      0.0000      0.5831
 38      0.0000      0.2444      0.0000      0.5019      0.5643      0.1123      0.0779      1.3952      0.3496
 39      0.0000      0.2328      0.0000      0.8824      0.0000      0.0000      0.0000      0.0000      0.3275
 40      1.8482      0.2777      0.5820      0.6161      0.0000      0.0000      1.6750      0.0000      0.0299
 41      0.0000      0.1523      0.0000      0.0652      0.0000      0.0000      0.0000      0.0000      0.0267
 42      0.0000      0.1271      0.0000      0.0000      0.0000      0.0000      0.0000      0.0000      0.0776
 43      0.0000      0.1222      0.0000      0.0851      0.0000      0.3770      0.0000      0.0000      0.0866
 44      0.4528      1.5475      2.1417      2.3691      1.4848      1.7130      0.0000      1.7723      1.8179
 45      0.0000      0.1993      0.0000      0.0000      0.0000      1.3726      0.0000      0.0000      0.0000
 46      0.0000      0.4368      0.0000      0.0000      0.8275      0.0000      0.0000      0.0000      0.0000
 47      0.0000      1.0566      0.0000      0.0000      0.5365      1.0873      0.0000      0.0000      0.6150
 48     20.5573     19.6909     21.0507     20.8462     20.4772     20.8689     19.1938     20.9245     20.8118
 49      1.1726      1.3468      2.0192      1.0055      1.2829      1.6794      1.2939      1.7018      1.6271
 50      1.4228      1.9490      2.1136      1.6369      2.6209      2.3721      2.2089      1.9173      2.7427
 51      0.0000      0.1111      0.0000      0.5862      0.0000      0.2229      0.0000      0.0000      0.0000
 52      0.0000      0.0576      0.1569      0.0000      0.0000      0.2488      0.0000      0.0000      0.3836
 53      0.9714      0.0752      0.8332      0.1939      0.0000      0.0000      0.0000      0.0000      0.0000
 54      0.0000      0.0562      0.0000      0.0000      0.0000      0.0000      0.0000      0.0000      0.0000
 55      0.0000      0.0679      0.0284      0.0000      0.0000      0.0000      0.3980      0.0000      0.0000
 56      0.0000      0.1233      0.0000      0.0000      0.2705      0.0888      0.0000      0.0000      0.0000
 57      0.3749      0.1051      0.5210      0.9089      0.0000      0.2135      0.0000      0.0000      0.0000
 58      0.0000      0.0820      0.0000      0.0000      0.0000      0.0000      0.0565      0.0000      0.0000
 59      0.1421      0.5192      0.9910      0.0000      0.4946      0.9242      1.1674      1.6219      1.0762
 60      2.8548      2.7209      2.9449      2.8518      3.5981      3.2316      5.3290      2.0950      2.5572
 61      0.0008      2.6321      0.4505      2.2589      2.1788      0.0000      1.5540      1.8097      2.8549
 62      0.0012      6.6428      6.2247      5.5546      3.4859      6.5560      0.0000      6.6535      7.5301
 63     38.8943     33.5262     35.6594     35.9210     35.9312     35.0505     41.1561     35.2737     33.3564
 64      5.1842      0.4611      0.7307      0.0315      0.0000      0.7516      0.1302      0.0000      0.0000
 65      0.0000      0.1709      0.0000      0.3660      0.0000      0.0000      0.1083      0.0000      0.0000
 66      0.0000      0.1980      0.4458      1.0764      0.0000      0.0000      0.3119      0.3985      0.2655

# j      m_j: min, <> & last-chain-values for 1 ...  7 chains
  1  0.0000E+00  6.2245E-04  0.0000E+00  1.9007E-03  3.0028E-03  0.0000E+00  8.0141E-04  0.0000E+00  2.6741E-04
  2  0.0000E+00  2.8366E-04  0.0000E+00  0.0000E+00  0.0000E+00  0.0000E+00  0.0000E+00  0.0000E+00  6.8737E-05
  3  0.0000E+00  2.3667E-04  0.0000E+00  1.1009E-03  0.0000E+00  0.0000E+00  0.0000E+00  8.7025E-04  0.0000E+00
  4  0.0000E+00  2.8744E-04  0.0000E+00  0.0000E+00  2.8873E-04  0.0000E+00  0.0000E+00  0.0000E+00  0.0000E+00
  5  8.6073E-05  3.5297E-04  2.6620E-03  0.0000E+00  0.0000E+00  0.0000E+00  4.7567E-03  3.4346E-03  0.0000E+00
  6  0.0000E+00  7.3658E-04  0.0000E+00  0.0000E+00  0.0000E+00  0.0000E+00  0.0000E+00  0.0000E+00  0.0000E+00
  7  0.0000E+00  4.7815E-03  5.7757E-04  0.0000E+00  1.0490E-02  0.0000E+00  7.3332E-04  0.0000E+00  6.2997E-03
  8  0.0000E+00  1.9397E-03  0.0000E+00  0.0000E+00  0.0000E+00  0.0000E+00  0.0000E+00  0.0000E+00  0.0000E+00
  9  0.0000E+00  2.3696E-03  9.1743E-04  0.0000E+00  0.0000E+00  0.0000E+00  0.0000E+00  7.7920E-03  0.0000E+00
 10  0.0000E+00  8.2027E-03  0.0000E+00  1.4156E-02  0.0000E+00  2.5487E-02  3.3778E-02  0.0000E+00  6.5909E-03
 11  0.0000E+00  6.2155E-03  0.0000E+00  3.2125E-02  4.1526E-03  0.0000E+00  0.0000E+00  0.0000E+00  0.0000E+00
 12  0.0000E+00  2.4834E-02  0.0000E+00  0.0000E+00  3.0434E-02  0.0000E+00  0.0000E+00  9.4774E-02  0.0000E+00
 13  3.6350E+00  1.7638E+00  2.4245E+00  1.7688E+00  2.2392E+00  2.0485E+00  1.8381E+00  1.9750E+00  2.2251E+00
 14  5.2502E-01  9.3202E-01  6.5024E-01  2.1878E+00  8.5217E-01  0.0000E+00  1.0622E+00  1.9965E+00  0.0000E+00
 15  7.1999E-03  1.3078E+00  7.0199E-01  1.1487E+00  1.3957E+00  0.0000E+00  2.5388E+00  0.0000E+00  1.1772E+00
 16  0.0000E+00  1.0558E+00  3.3378E-02  6.9509E-01  0.0000E+00  0.0000E+00  2.4487E+00  0.0000E+00  1.4597E-02
 17  4.6102E+00  2.9730E+00  1.8946E+00  1.4593E+00  4.1835E+00  4.1611E+00  7.2578E-01  2.8046E-01  5.0690E+00
 18  0.0000E+00  6.5879E-04  0.0000E+00  0.0000E+00  1.7725E-03  1.2329E-03  0.0000E+00  0.0000E+00  0.0000E+00
 19  1.3446E-03  2.6646E-04  1.5245E-03  0.0000E+00  0.0000E+00  0.0000E+00  0.0000E+00  1.3182E-04  0.0000E+00
 20  0.0000E+00  3.6157E-04  0.0000E+00  0.0000E+00  0.0000E+00  5.7805E-03  0.0000E+00  0.0000E+00  0.0000E+00
 21  0.0000E+00  3.0368E-04  1.3072E-03  0.0000E+00  0.0000E+00  0.0000E+00  0.0000E+00  0.0000E+00  0.0000E+00
 22  1.3381E-03  9.3324E-04  2.5634E-03  0.0000E+00  0.0000E+00  0.0000E+00  1.5616E-03  7.1023E-04  0.0000E+00
 23  0.0000E+00  2.9596E-04  0.0000E+00  0.0000E+00  1.5365E-03  0.0000E+00  0.0000E+00  0.0000E+00  0.0000E+00
 24  0.0000E+00  1.2862E-03  9.4264E-04  3.8360E-03  0.0000E+00  0.0000E+00  2.9667E-04  0.0000E+00  1.3733E-02
 25  0.0000E+00  1.2257E-03  0.0000E+00  0.0000E+00  0.0000E+00  0.0000E+00  0.0000E+00  4.7423E-03  0.0000E+00
 26  0.0000E+00  2.1832E-03  5.0458E-03  0.0000E+00  0.0000E+00  0.0000E+00  0.0000E+00  0.0000E+00  0.0000E+00
 27  7.6873E-05  7.3746E-03  2.8347E-02  0.0000E+00  0.0000E+00  0.0000E+00  0.0000E+00  0.0000E+00  0.0000E+00
 28  8.3008E-01  9.1391E-01  1.0637E+00  8.0100E-01  8.7474E-01  8.9267E-01  9.2923E-01  1.0761E+00  9.2999E-01
 29  0.0000E+00  4.6932E-01  0.0000E+00  4.2845E-02  4.3291E-01  4.6080E-01  1.4113E-01  0.0000E+00  3.6739E-01
 30  0.0000E+00  4.7650E-01  3.6199E-02  0.0000E+00  0.0000E+00  0.0000E+00  0.0000E+00  0.0000E+00  1.7475E-01
 31  0.0000E+00  5.1995E-01  0.0000E+00  3.3332E-01  0.0000E+00  0.0000E+00  0.0000E+00  0.0000E+00  0.0000E+00
 32  0.0000E+00  5.4062E-01  0.0000E+00  0.0000E+00  0.0000E+00  8.9990E-01  0.0000E+00  1.3873E+00  0.0000E+00
 33  0.0000E+00  6.9712E-01  3.1016E-01  0.0000E+00  7.8632E-01  3.0363E-01  0.0000E+00  3.8898E+00  1.4488E+00
 34  8.1989E+00  1.0367E+01  9.8100E+00  1.1629E+01  1.2346E+01  1.1056E+01  1.2326E+01  9.7608E+00  7.5145E+00
 35  0.0000E+00  7.9217E-04  0.0000E+00  0.0000E+00  0.0000E+00  0.0000E+00  0.0000E+00  4.3582E-04  0.0000E+00
 36  0.0000E+00  3.2927E-04  0.0000E+00  0.0000E+00  1.8095E-03  9.1901E-04  6.7800E-04  9.3112E-04  6.0472E-04
 37  0.0000E+00  3.4184E-04  0.0000E+00  6.3669E-05  0.0000E+00  0.0000E+00  1.5082E-03  0.0000E+00  1.1680E-03
 38  0.0000E+00  1.3459E-03  0.0000E+00  2.6144E-03  3.0288E-03  6.0806E-04  4.1128E-04  7.6230E-03  1.8969E-03
 39  0.0000E+00  1.8461E-03  0.0000E+00  6.6180E-03  0.0000E+00  0.0000E+00  0.0000E+00  0.0000E+00  2.5591E-03
 40  2.2655E-02  3.5590E-03  7.3428E-03  7.4688E-03  0.0000E+00  0.0000E+00  2.0595E-02  0.0000E+00  3.7760E-04
 41  0.0000E+00  3.0362E-03  0.0000E+00  1.2291E-03  0.0000E+00  0.0000E+00  0.0000E+00  0.0000E+00  5.2500E-04
 42  0.0000E+00  4.6510E-03  0.0000E+00  0.0000E+00  0.0000E+00  0.0000E+00  0.0000E+00  0.0000E+00  2.7987E-03
 43  0.0000E+00  6.5314E-03  0.0000E+00  4.3026E-03  0.0000E+00  1.9800E-02  0.0000E+00  0.0000E+00  4.5605E-03
 44  3.9837E-02  1.4237E-01  1.9392E-01  2.0614E-01  1.3313E-01  1.5490E-01  0.0000E+00  1.6175E-01  1.6478E-01
 45  0.0000E+00  3.6374E-02  0.0000E+00  0.0000E+00  0.0000E+00  2.4627E-01  0.0000E+00  0.0000E+00  0.0000E+00
 46  0.0000E+00  1.4656E-01  0.0000E+00  0.0000E+00  2.7060E-01  0.0000E+00  0.0000E+00  0.0000E+00  0.0000E+00
 47  0.0000E+00  7.1835E-01  0.0000E+00  0.0000E+00  3.5548E-01  7.2662E-01  0.0000E+00  0.0000E+00  4.1196E-01
 48  2.3572E+01  2.3610E+01  2.4842E+01  2.3641E+01  2.3929E+01  2.4595E+01  2.2075E+01  2.4890E+01  2.4586E+01
 49  3.0558E+00  3.6703E+00  5.4155E+00  2.5915E+00  3.4071E+00  4.4984E+00  3.3821E+00  4.6007E+00  4.3685E+00
 50  6.8676E+00  9.8373E+00  1.0499E+01  7.8140E+00  1.2892E+01  1.1768E+01  1.0694E+01  9.6003E+00  1.3639E+01
 51  0.0000E+00  3.0727E-04  0.0000E+00  1.5339E-03  0.0000E+00  6.0623E-04  0.0000E+00  0.0000E+00  0.0000E+00
 52  0.0000E+00  8.1605E-05  2.1893E-04  0.0000E+00  0.0000E+00  3.4667E-04  0.0000E+00  0.0000E+00  5.3579E-04
 53  1.9839E-03  1.6061E-04  1.7514E-03  3.9176E-04  0.0000E+00  0.0000E+00  0.0000E+00  0.0000E+00  0.0000E+00
 54  0.0000E+00  2.4594E-04  0.0000E+00  0.0000E+00  0.0000E+00  0.0000E+00  0.0000E+00  0.0000E+00  0.0000E+00
 55  0.0000E+00  4.5732E-04  1.8805E-04  0.0000E+00  0.0000E+00  0.0000E+00  2.5725E-03  0.0000E+00  0.0000E+00
 56  0.0000E+00  1.6445E-03  0.0000E+00  0.0000E+00  3.5160E-03  1.1635E-03  0.0000E+00  0.0000E+00  0.0000E+00
 57  6.3461E-03  1.8598E-03  9.0761E-03  1.5217E-02  0.0000E+00  3.7148E-03  0.0000E+00  0.0000E+00  0.0000E+00
 58  0.0000E+00  2.4543E-03  0.0000E+00  0.0000E+00  0.0000E+00  0.0000E+00  1.6230E-03  0.0000E+00  0.0000E+00
 59  8.7572E-03  3.3455E-02  6.2845E-02  0.0000E+00  3.1058E-02  5.8529E-02  7.2152E-02  1.0367E-01  6.8321E-02
 60  3.2672E-01  3.2563E-01  3.4687E-01  3.2280E-01  4.1966E-01  3.8013E-01  6.1175E-01  2.4873E-01  3.0152E-01
 61  2.1048E-04  6.8827E-01  1.1595E-01  5.5868E-01  5.5524E-01  0.0000E+00  3.8978E-01  4.6946E-01  7.3551E-01
 62  5.2940E-04  3.1672E+00  2.9209E+00  2.5048E+00  1.6197E+00  3.0723E+00  0.0000E+00  3.1470E+00  3.5372E+00
 63  3.5281E+01  3.1802E+01  3.3291E+01  3.2227E+01  3.3217E+01  3.2679E+01  3.7447E+01  3.3194E+01  3.1174E+01
 64  1.3007E+01  1.2099E+00  1.8869E+00  7.8151E-02  0.0000E+00  1.9383E+00  3.2761E-01  0.0000E+00  0.0000E+00
 65  0.0000E+00  9.4773E-01  0.0000E+00  1.9200E+00  0.0000E+00  0.0000E+00  5.7636E-01  0.0000E+00  0.0000E+00
 66  0.0000E+00  1.5512E+00  3.4380E+00  7.9769E+00  0.0000E+00  0.0000E+00  2.3438E+00  3.0972E+00  2.0496E+00

# AV, chi2 & Mass for <> & i_chain = 1 ...  7 solutions
AV       0.2162      0.2561      0.2585      0.2472      0.2498      0.2555      0.2521      0.2467      0.2555
chi2 5.5437E-01  5.6595E-01  5.6225E-01  5.6288E-01  5.6261E-01  5.6365E-01  5.6252E-01  5.6307E-01  5.6350E-01
Mass 6.0324E-13  6.0862E-13  6.2038E-13  6.3587E-13  6.1921E-13  6.1874E-13  6.3110E-13  6.0583E-13  6.1723E-13
-209.18                                  [v0_min (km/s) before EX0s...]
 163.58                                  [vd_min (km/s) before EX0s...]


## Synthetic spectrum (Best Model) ##l_obs f_obs f_syn wei
 3478    [Nl_obs]
 3741.00    0.44155   0.51227    0.000
 3742.00    0.39488   0.47934    0.000
 3743.00    0.35905   0.44674    0.000
 3744.00    0.33852   0.41777    0.000
 3745.00    0.33540   0.39762   12.974
 3746.00    0.35389   0.39218   12.943
 3747.00    0.39546   0.40475   12.482
 3748.00    0.45462   0.43664   12.304
 3749.00    0.52194   0.48420   12.727
 3750.00    0.58693   0.53622   13.044
 3751.00    0.64043   0.57860   12.659
 3752.00    0.67602   0.60167   12.057
 3753.00    0.68936   0.60356   11.825
 3754.00    0.67882   0.58886   12.203
 3755.00    0.65086   0.56683   13.055
 3756.00    0.61965   0.54839   13.704
 3757.00    0.59340   0.54131   13.675
 3758.00    0.57079   0.54550   13.320
 3759.00    0.55213   0.55403   13.168
 3760.00    0.54109   0.55984   13.500
 3761.00    0.53520   0.55986   13.968
 3762.00    0.52696   0.55478   13.775
 3763.00    0.51681   0.54745   13.299
 3764.00    0.51245   0.53965   13.597
 3765.00    0.51651   0.53254   14.417
 3766.00    0.52658   0.53030   14.408
 3767.00    0.54313   0.53659   13.763
 3768.00    0.56944   0.55026   13.717
 3769.00    0.60760   0.56894   14.294
 3770.00    0.65477   0.59132   14.623
 3771.00    0.69838   0.61416   14.099
 3772.00    0.72382   0.63370   13.111
 3773.00    0.72765   0.65011   12.836
 3774.00    0.71733   0.66640   13.990
 3775.00    0.70727   0.68436   15.504
 3776.00    0.71002   0.70322   15.217
 3777.00    0.72635   0.72120   13.997
 3778.00    0.74600   0.73655   13.492
 3779.00    0.75130   0.74603   13.731
 3780.00    0.73188   0.74564   14.319
 3781.00    0.69697   0.73403   15.046
 3782.00    0.66409   0.71217   15.664
 3783.00    0.64758   0.68235   15.711
 3784.00    0.65020   0.64913   15.164
 3785.00    0.65987   0.61995   14.672
 3786.00    0.66534   0.60059   14.536
 3787.00    0.66525   0.58953   14.445
 3788.00    0.66129   0.58158   14.306
 3789.00    0.65418   0.57219   14.502
 3790.00    0.64435   0.55785   15.029
 3791.00    0.63184   0.53658   15.202
 3792.00    0.61356   0.51065   14.726
 3793.00    0.58526   0.48602   14.124
 3794.00    0.55292   0.46903   13.893
 3795.00    0.53196   0.46448   14.214
 3796.00    0.53056   0.47520   14.661
 3797.00    0.54590   0.50221   14.395
 3798.00    0.56987   0.54193   13.705
 3799.00    0.59344   0.58530   13.549
 3800.00    0.61302   0.62234   13.950
 3801.00    0.63026   0.64781   14.261
 3802.00    0.64792   0.66199   14.279
 3803.00    0.66830   0.66839   14.287
 3804.00    0.69202   0.67270   14.387
 3805.00    0.71692   0.67970   14.512
 3806.00    0.73692   0.68985   14.681
 3807.00    0.74540   0.69847   14.946
 3808.00    0.74063   0.69817   15.230
 3809.00    0.72520   0.68463   15.456
 3810.00    0.70399   0.66037   15.757
 3811.00    0.68191   0.63282   16.214
 3812.00    0.66144   0.60950   16.478
 3813.00    0.64229   0.59416   16.310
 3814.00    0.62177   0.58505   16.191
 3815.00    0.59931   0.57849   16.523
 3816.00    0.57951   0.57158   16.986
 3817.00    0.56444   0.56228   17.128
 3818.00    0.54838   0.55149   16.979
 3819.00    0.52679   0.54171   16.831
 3820.00    0.50196   0.53257   16.970
 3821.00    0.47789   0.52032   17.491
 3822.00    0.45723   0.50294   18.196
 3823.00    0.44347   0.48434   18.618
 3824.00    0.44078   0.47034   18.243
 3825.00    0.44743   0.46190   17.294
 3826.00    0.45438   0.45512   16.575
 3827.00    0.45244   0.44556   16.423
 3828.00    0.43655   0.43107   16.642
 3829.00    0.40975   0.41276   16.685
 3830.00    0.38175   0.39401   16.075
 3831.00    0.36023   0.37941   15.548
 3832.00    0.34895   0.37273   16.240
 3833.00    0.35050   0.37388   17.571
 3834.00    0.36635   0.38077   17.294
 3835.00    0.39519   0.39237   15.976
 3836.00    0.43295   0.40952   15.742
 3837.00    0.47386   0.43425   16.473
 3838.00    0.51152   0.46735   16.796
 3839.00    0.54070   0.50571   16.492
 3840.00    0.55867   0.54414   16.379
 3841.00    0.56671   0.57761   16.832
 3842.00    0.56793   0.60216   17.694
 3843.00    0.56386   0.61749   18.237
 3844.00    0.55585   0.62569   17.914
 3845.00    0.54738   0.62928   17.551
 3846.00    0.54182   0.63074   17.920
 3847.00    0.53995   0.63142    0.000
 3848.00    0.54338   0.63244    0.000
 3849.00    0.55734   0.63442    0.000
 3850.00    0.58307   0.63545    0.000
 3851.00    0.61207   0.63175    0.000
 3852.00    0.63440   0.62182    0.000
 3853.00    0.64519   0.60793    0.000
 3854.00    0.64352   0.59322    0.000
 3855.00    0.63154   0.58118    0.000
 3856.00    0.61541   0.57591    0.000
 3857.00    0.60420   0.58001    0.000
 3858.00    0.60160   0.59442    0.000
 3859.00    0.60383   0.61687    0.000
 3860.00    0.60950   0.64039    0.000
 3861.00    0.62175   0.65725    0.000
 3862.00    0.63842   0.66388    0.000
 3863.00    0.65077   0.66167    0.000
 3864.00    0.65291   0.65374    0.000
 3865.00    0.64433   0.64203    0.000
 3866.00    0.62748   0.62736    0.000
 3867.00    0.60612   0.61165    0.000
 3868.00    0.58329   0.59888    0.000
 3869.00    0.56162   0.59331    0.000
 3870.00    0.54517   0.59700    0.000
 3871.00    0.53802   0.60710    0.000
 3872.00    0.54062   0.61714    0.000
 3873.00    0.54925   0.62038    0.000
 3874.00    0.55687   0.61361    0.000
 3875.00    0.55773   0.59952    0.000
 3876.00    0.55406   0.58430    0.000
 3877.00    0.55046   0.57307    0.000
 3878.00    0.54524   0.56687    0.000
 3879.00    0.53607   0.56192    0.000
 3880.00    0.52773   0.55405    0.000
 3881.00    0.52447   0.54232   18.963
 3882.00    0.52184   0.52677   19.505
 3883.00    0.51611   0.50809   19.771
 3884.00    0.51303   0.49068   19.373
 3885.00    0.51941   0.48301   18.564
 3886.00    0.53562   0.49110   18.178
 3887.00    0.55711   0.51388   18.594
 3888.00    0.57687   0.54602   19.328
 3889.00    0.59165   0.58079   19.576
 3890.00    0.60466   0.61114   18.911
 3891.00    0.61814   0.63324   17.935
 3892.00    0.62992   0.64800   17.742
 3893.00    0.63778   0.65872   18.186
 3894.00    0.64174   0.66816   17.788
 3895.00    0.64427   0.67738   16.687
 3896.00    0.64935   0.68545   16.602
 3897.00    0.65896   0.69138   17.666
 3898.00    0.67131   0.69520   18.240
 3899.00    0.67992   0.69648   17.801
 3900.00    0.67750   0.69465   17.646
 3901.00    0.66797   0.69086   18.003
 3902.00    0.66326   0.69003   18.049
 3903.00    0.66652   0.69716   17.769
 3904.00    0.67429   0.71328   17.818
 3905.00    0.69033   0.73681   18.086
 3906.00    0.71897   0.76302   17.953
 3907.00    0.74682   0.78545   17.477
 3908.00    0.75629   0.80037   17.224
 3909.00    0.75376   0.80748   17.636
 3910.00    0.75610   0.80815   18.784
 3911.00    0.76370   0.80338   19.757
 3912.00    0.76874   0.79395   19.391
 3913.00    0.77097   0.78107   18.346
 3914.00    0.77366   0.76514   17.789
 3915.00    0.77656   0.74626   17.966
 3916.00    0.77682   0.72617   18.573
 3917.00    0.77102   0.70732   18.888
 3918.00    0.75720   0.69211   18.597
 3919.00    0.73634   0.68192   18.527
 3920.00    0.71133   0.67510   19.180
 3921.00    0.68549   0.66670   19.765
 3922.00    0.65929   0.65102   19.509
 3923.00    0.62917   0.62464   18.878
 3924.00    0.59473   0.58742   18.420
 3925.00    0.56077   0.54235   18.169
 3926.00    0.52413   0.49348   18.224
 3927.00    0.47200   0.44458   18.861
 3928.00    0.40719   0.39967   19.619
 3929.00    0.35313   0.36301   18.919
 3930.00    0.32431   0.33945   16.218
 3931.00    0.31793   0.33365   13.115
 3932.00    0.32966   0.34812   11.521
 3933.00    0.35791   0.38132   12.454
 3934.00    0.39832   0.42731   16.027
 3935.00    0.44369   0.47777   18.883
 3936.00    0.48868   0.52504   18.256
 3937.00    0.53094   0.56410   18.094
 3938.00    0.57042   0.59321   19.258
 3939.00    0.60785   0.61382   19.523
 3940.00    0.64197   0.63014   18.872
 3941.00    0.67034   0.64714   18.961
 3942.00    0.69190   0.66753   19.207
 3943.00    0.70708   0.69109   18.354
 3944.00    0.71735   0.71514   17.891
 3945.00    0.72561   0.73578   19.124
 3946.00    0.73676   0.75142   19.160
 3947.00    0.75328   0.76356   15.712
 3948.00    0.76993   0.77302   13.015
 3949.00    0.77969   0.77867   12.506
 3950.00    0.78074   0.77974   12.812
 3951.00    0.77378   0.77714   12.764
 3952.00    0.75888   0.77219   13.254
 3953.00    0.73817   0.76408   15.366
 3954.00    0.71728   0.75093   18.009
 3955.00    0.69794   0.73228   18.425
 3956.00    0.67325   0.70727   17.193
 3957.00    0.63639   0.67344   16.409
 3958.00    0.58642   0.63011   16.931
 3959.00    0.52674   0.58034   18.884
 3960.00    0.46378   0.52910    0.000
 3961.00    0.40582   0.47937    0.000
 3962.00    0.36106   0.43061    0.000
 3963.00    0.33180   0.38249    0.000
 3964.00    0.31408   0.33890    0.000
 3965.00    0.30665   0.30697    0.000
 3966.00    0.31290   0.29368    0.000
 3967.00    0.33519   0.30264    0.000
 3968.00    0.37303   0.33277    0.000
 3969.00    0.42409   0.37911    0.000
 3970.00    0.48472   0.43500    0.000
 3971.00    0.55058   0.49453    0.000
 3972.00    0.61653   0.55384    0.000
 3973.00    0.67624   0.61075    0.000
 3974.00    0.72413   0.66360    0.000
 3975.00    0.75960   0.71058    0.000
 3976.00    0.78622   0.75004    0.000
 3977.00    0.80860   0.78029    0.000
 3978.00    0.82802   0.80069    0.000
 3979.00    0.83710   0.81305    0.000
 3980.00    0.83046   0.82141    0.000
 3981.00    0.81954   0.83029   20.247
 3982.00    0.82039   0.84213   21.092
 3983.00    0.83670   0.85655   20.956
 3984.00    0.86324   0.87164   19.442
 3985.00    0.89194   0.88553   18.240
 3986.00    0.91399   0.89752   18.350
 3987.00    0.92172   0.90721   19.167
 3988.00    0.91322   0.91440   19.655
 3989.00    0.89507   0.91959   19.442
 3990.00    0.87594   0.92200   18.894
 3991.00    0.86163   0.92002   18.689
 3992.00    0.85527   0.91427   19.115
 3993.00    0.85761   0.90839   19.846
 3994.00    0.86722   0.90732   20.414
 3995.00    0.88124   0.91423   20.544
 3996.00    0.89852   0.92875   20.080
 3997.00    0.91976   0.94666   19.091
 3998.00    0.94210   0.96086   18.272
 3999.00    0.95844   0.96488   18.508
 4000.00    0.96418   0.95728   19.732
 4001.00    0.95951   0.94187   20.709
 4002.00    0.94792   0.92515   20.733
 4003.00    0.93442   0.91480   20.415
 4004.00    0.92215   0.91690   20.167
 4005.00    0.91260   0.93134   19.947
 4006.00    0.90898   0.95124   19.862
 4007.00    0.91558   0.96938   20.051
 4008.00    0.93448   0.98302   20.140
 4009.00    0.96292   0.99285   19.595
 4010.00    0.99022   1.00023   18.703
 4011.00    1.00537   1.00603   18.195
 4012.00    1.01052   1.01060   18.615
 4013.00    1.01487   1.01419   20.045
 4014.00    1.02192   1.01725   21.097
 4015.00    1.03026   1.01990   20.159
 4016.00    1.03706   1.02228   18.691
 4017.00    1.03935   1.02376   18.357
 4018.00    1.03488   1.02225   19.044
 4019.00    1.02390   1.01728   20.009
 4020.00    1.01050   1.01179   20.577
 4021.00    1.00022   1.00920   20.414
 4022.00    0.99722   1.01069   19.786
 4023.00    1.00010   1.01475   19.319
 4024.00    1.00000   1.01689   19.663
 4025.00    0.98919   1.01054   20.801
 4026.00    0.96713   0.99157   21.478
 4027.00    0.93890   0.96205   21.028
 4028.00    0.91314   0.92993   20.670
 4029.00    0.89706   0.90617   20.975
 4030.00    0.89450   0.89939   21.086
 4031.00    0.90924   0.91146   20.656
 4032.00    0.94395   0.93863   20.465
 4033.00    0.98925   0.97376   20.841
 4034.00    1.02507   1.00784   21.279
 4035.00    1.04179   1.03270   21.119
 4036.00    1.04403   1.04358   20.152
 4037.00    1.03771   1.03995   19.154
 4038.00    1.02606   1.02389   19.085
 4039.00    1.01049   0.99799   19.894
 4040.00    0.99230   0.96520   20.641
 4041.00    0.97579   0.93047   20.483
 4042.00    0.96655   0.90250   19.473
 4043.00    0.96623   0.89207   18.682
 4044.00    0.97376   0.90522   19.015
 4045.00    0.98967   0.93713   20.083
 4046.00    1.01297   0.97371   20.663
 4047.00    1.03510   1.00129   20.350
 4048.00    1.04616   1.01398   19.629
 4049.00    1.04494   1.01228   18.884
 4050.00    1.03523   0.99988   18.401
 4051.00    1.01958   0.98236   18.587
 4052.00    1.00122   0.96500   19.574
 4053.00    0.98670   0.95148   20.575
 4054.00    0.98090   0.94382   20.624
 4055.00    0.98216   0.94153   20.061
 4056.00    0.98493   0.94193   19.659
 4057.00    0.98280   0.94101   19.677
 4058.00    0.97090   0.93430   20.100
 4059.00    0.94825   0.92039   20.792
 4060.00    0.92170   0.90395   21.411
 4061.00    0.90589   0.89370   21.453
 4062.00    0.90802   0.89656   20.978
 4063.00    0.92122   0.91205   20.745
 4064.00    0.93702   0.93221   20.996
 4065.00    0.95139   0.94896   21.187
 4066.00    0.96103   0.95868   21.116
 4067.00    0.96264   0.96051   21.229
 4068.00    0.95704   0.95550   21.556
 4069.00    0.94853   0.94741   21.546
 4070.00    0.93724   0.94040   21.125
 4071.00    0.91961   0.93413   20.811
 4072.00    0.89809   0.92440   20.886
 4073.00    0.88057   0.91108   21.269
 4074.00    0.87102   0.90130   21.641
 4075.00    0.87021   0.90371   21.585
 4076.00    0.88320   0.92141   20.988
 4077.00    0.91377   0.94871   20.232
 4078.00    0.95020   0.97489   20.180
 4079.00    0.97523   0.99157   21.508
 4080.00    0.98839   0.99721   23.387
 4081.00    0.99989   0.99715   23.741
 4082.00    1.01471   0.99929   22.501
 4083.00    1.03175   1.00806   21.217
 4084.00    1.04649   1.02214   20.678
 4085.00    1.05409   1.03630   20.951
 4086.00    1.05280   1.04445   21.530
 4087.00    1.04326   1.04297   21.865
 4088.00    1.02723   1.03229   22.065
 4089.00    1.00598   1.01505   22.173
 4090.00    0.97928   0.99318   21.486
 4091.00    0.94940   0.96742   20.112
 4092.00    0.92339   0.93758    0.000
 4093.00    0.90438   0.90352    0.000
 4094.00    0.88649   0.86702    0.000
 4095.00    0.86456   0.83021    0.000
 4096.00    0.84017   0.79442    0.000
 4097.00    0.81923   0.76255    0.000
 4098.00    0.80921   0.74050    0.000
 4099.00    0.81347   0.73538    0.000
 4100.00    0.82940   0.75146    0.000
 4101.00    0.85216   0.78541    0.000
 4102.00    0.87641   0.82719    0.000
 4103.00    0.89599   0.86648    0.000
 4104.00    0.90612   0.89665    0.000
 4105.00    0.91083   0.91555    0.000
 4106.00    0.92051   0.92576    0.000
 4107.00    0.93763   0.93250    0.000
 4108.00    0.95672   0.94085    0.000
 4109.00    0.97490   0.95359    0.000
 4110.00    0.99143   0.97018    0.000
 4111.00    1.00086   0.98722    0.000
 4112.00    0.99716   1.00011    0.000
 4113.00    0.98439   1.00554   21.170
 4114.00    0.97271   1.00333   21.618
 4115.00    0.96786   0.99584   23.054
 4116.00    0.97152   0.98702   23.879
 4117.00    0.98451   0.98156   23.814
 4118.00    1.00522   0.98182   23.543
 4119.00    1.02737   0.98616   22.965
 4120.00    1.04388   0.99186   22.070
 4121.00    1.05176   0.99702   21.852
 4122.00    1.05047   0.99967   22.879
 4123.00    1.03984   0.99755   24.016
 4124.00    1.02133   0.98966   23.798
 4125.00    0.99918   0.97738   22.742
 4126.00    0.97863   0.96303   21.892
 4127.00    0.96425   0.94862   21.513
 4128.00    0.95852   0.93618   21.593
 4129.00    0.96110   0.92874   22.112
 4130.00    0.97035   0.93012   22.879
 4131.00    0.98429   0.94295   23.407
 4132.00    1.00073   0.96528   23.340
 4133.00    1.01724   0.99155   22.772
 4134.00    1.03094   1.01487   22.008
 4135.00    1.03859   1.02905   21.351
 4136.00    1.03772   1.03119   21.081
 4137.00    1.02747   1.02037   21.426
 4138.00    1.01030   0.99826   22.358
 4139.00    0.99109   0.97085   23.438
 4140.00    0.97290   0.94710   23.734
 4141.00    0.95656   0.93564   22.595
 4142.00    0.94362   0.94010   21.250
 4143.00    0.93587   0.95545   21.261
 4144.00    0.93236   0.97148   22.411
 4145.00    0.93025   0.98118   23.250
 4146.00    0.92831   0.98318   23.343
 4147.00    0.92656   0.97938   23.355
 4148.00    0.92409   0.97302   23.240
 4149.00    0.91964   0.96644   22.656
 4150.00    0.91310   0.96024   22.152
 4151.00    0.90598   0.95560   22.435
 4152.00    0.90167   0.95454   23.430
 4153.00    0.90402   0.95928   24.494
 4154.00    0.91542   0.97019   24.846
 4155.00    0.93534   0.98596   24.146
 4156.00    0.95936   1.00437   22.955
 4157.00    0.98412   1.02199   22.024
 4158.00    1.01134   1.03601   21.771
 4159.00    1.04015   1.04511   22.230
 4160.00    1.06146   1.04883   22.986
 4161.00    1.06869   1.04629   23.548
 4162.00    1.06524   1.03799   23.747
 4163.00    1.05635   1.02701   23.490
 4164.00    1.04353   1.01587   22.677
 4165.00    1.02634   1.00509   21.881
 4166.00    1.00423   0.99392   22.207
 4167.00    0.97965   0.97994   23.839
 4168.00    0.95816   0.96143   25.340
 4169.00    0.94177   0.94108   25.348
 4170.00    0.92794   0.92493   24.301
 4171.00    0.91771   0.91813   23.171
 4172.00    0.91629   0.92084   22.520
 4173.00    0.92364   0.92894   22.405
 4174.00    0.93424   0.93842   22.598
 4175.00    0.94653   0.94746   22.995
 4176.00    0.96307   0.95603   23.627
 4177.00    0.98334   0.96422   24.351
 4178.00    1.00384   0.97128   24.781
 4179.00    1.02293   0.97687   24.478
 4180.00    1.03945   0.98192   23.440
 4181.00    1.04791   0.98654   22.572
 4182.00    1.04386   0.98908   22.695
 4183.00    1.03481   0.98860   23.449
 4184.00    1.03229   0.98623   23.851
 4185.00    1.03667   0.98595   23.668
 4186.00    1.04145   0.99178   23.262
 4187.00    1.04251   1.00284   22.805
 4188.00    1.03899   1.01444   22.351
 4189.00    1.03254   1.02244   22.031
 4190.00    1.02565   1.02408   21.972
 4191.00    1.01986   1.01648   22.214
 4192.00    1.01504   0.99860   22.714
 4193.00    1.00929   0.97445   23.328
 4194.00    1.00208   0.95098   23.738
 4195.00    0.99629   0.93339   23.487
 4196.00    0.99461   0.92375   22.590
 4197.00    0.99698   0.92251   21.723
 4198.00    1.00272   0.92828   21.475
 4199.00    1.01187   0.93914   22.100
 4200.00    1.02437   0.95490   23.349
 4201.00    1.03940   0.97514   24.217
 4202.00    1.05450   0.99711   24.071
 4203.00    1.06597   1.01783   23.460
 4204.00    1.07246   1.03505   23.008
 4205.00    1.07589   1.04700   22.928
 4206.00    1.07882   1.05324   23.214
 4207.00    1.08258   1.05442   23.726
 4208.00    1.08494   1.05165   24.246
 4209.00    1.08160   1.04547   24.544
 4210.00    1.07272   1.03583   24.559
 4211.00    1.06298   1.02479   24.360
 4212.00    1.05682   1.01756   23.849
 4213.00    1.05680   1.01986   22.991
 4214.00    1.06280   1.03381   22.307
 4215.00    1.07134   1.05443   22.389
 4216.00    1.07497   1.07178   23.155
 4217.00    1.06584   1.07713   24.050
 4218.00    1.04207   1.06534   24.594
 4219.00    1.00588   1.03456   24.594
 4220.00    0.95940   0.98764   24.227
 4221.00    0.90737   0.93326   23.822
 4222.00    0.86115   0.88426   23.583
 4223.00    0.83434   0.85412   23.518
 4224.00    0.83661   0.85254   23.427
 4225.00    0.86874   0.88042   23.296
 4226.00    0.91898   0.92658   23.598
 4227.00    0.96989   0.97309   -2.000
 4228.00    1.00574   1.00603   -2.000
 4229.00    1.02008   1.02033   -2.000
 4230.00    1.01983   1.01873   -2.000
 4231.00    1.01564   1.00903   -2.000
 4232.00    1.01489   0.99884   -2.000
 4233.00    1.02279   0.99249   -2.000
 4234.00    1.04215   0.99265   -2.000
 4235.00    1.06748   1.00038   -2.000
 4236.00    1.08524   1.01431   -2.000
 4237.00    1.09016   1.03260   -2.000
 4238.00    1.08972   1.05333   -2.000
 4239.00    1.08997   1.07319   -2.000
 4240.00    1.09068   1.08831   -2.000
 4241.00    1.08987   1.09569   -2.000
 4242.00    1.08591   1.09265   -2.000
 4243.00    1.07858   1.07797   23.288
 4244.00    1.06903   1.05476   23.606
 4245.00    1.05884   1.02951   23.666
 4246.00    1.04939   1.00841   23.381
 4247.00    1.04146   0.99497   23.066
 4248.00    1.03502   0.99013   23.168
 4249.00    1.02934   0.99233   23.567
 4250.00    1.02417   0.99761   23.768
 4251.00    1.02159   1.00318   23.595
 4252.00    1.02250   1.00896   23.290
 4253.00    1.02062   1.01427   23.328
 4254.00    1.00970   1.01569   23.970
 4255.00    0.99492   1.01067   24.672
 4256.00    0.98684   1.00250   24.693
 4257.00    0.99165   0.99959   24.302
 4258.00    1.00930   1.00957   24.207
 4259.00    1.03319   1.03386   24.725
 4260.00    1.05605   1.06561   25.648
 4261.00    1.07509   1.09376   26.068
 4262.00    1.08688   1.10934   25.411
 4263.00    1.08338   1.10764   24.429
 4264.00    1.05945   1.08781   23.892
 4265.00    1.01849   1.05307   23.883
 4266.00    0.96902   1.00978   24.285
 4267.00    0.92163   0.96541   24.998
 4268.00    0.88548   0.92818   25.793
 4269.00    0.86631   0.90641   26.265
 4270.00    0.86615   0.90467   26.312
 4271.00    0.88320   0.92110   26.268
 4272.00    0.91196   0.95064   26.082
 4273.00    0.94464   0.98669   25.268
 4274.00    0.97651   1.02045   24.118
 4275.00    1.00665   1.04403   23.507
 4276.00    1.03308   1.05424   23.620
 4277.00    1.05206   1.05345   23.991
 4278.00    1.06130   1.04756   24.191
 4279.00    1.06078   1.04070   24.058
 4280.00    1.05216   1.03348   23.704
 4281.00    1.03728   1.02440   23.311
 4282.00    1.01526   1.01138   22.770
 4283.00    0.98429   0.99417   22.064
 4284.00    0.94666   0.97426   21.971
 4285.00    0.90957   0.95402   23.224
 4286.00    0.88441   0.93767   24.763
 4287.00    0.88053   0.93097   24.617
 4288.00    0.89601   0.93655   23.867
 4289.00    0.92055   0.95040   24.399
 4290.00    0.94198   0.96393   25.396
 4291.00    0.95136   0.96897   25.046
 4292.00    0.94771   0.96174   23.844
 4293.00    0.93283   0.94166   23.131
 4294.00    0.90573   0.91051   23.276
 4295.00    0.86814   0.87344   24.137
 4296.00    0.82945   0.83767   25.274
 4297.00    0.79882   0.81063   26.101
 4298.00    0.77872   0.79600   26.253
 4299.00    0.76800   0.79131   25.935
 4300.00    0.76465   0.79169   25.851
 4301.00    0.76674   0.79208   26.099
 4302.00    0.77280   0.78838   25.811
 4303.00    0.78109   0.78041   24.977
 4304.00    0.78963   0.77216   24.842
 4305.00    0.79839   0.77005   25.632
 4306.00    0.80997   0.78027   26.050
 4307.00    0.82789   0.80507   25.722
 4308.00    0.85516   0.84271   25.849
 4309.00    0.89205   0.89007   26.508
 4310.00    0.93621   0.94426   26.274
 4311.00    0.98579   1.00275   24.839
 4312.00    1.03863   1.06213   23.372
 4313.00    1.08705   1.11620   22.751
 4314.00    1.11993   1.15636   23.285
 4315.00    1.13197   1.17662   24.479
 4316.00    1.12408   1.17550   25.238
 4317.00    1.09908   1.15456   25.460
 4318.00    1.06146   1.11744   25.867
 4319.00    1.01887   1.06950   26.233
 4320.00    0.98036   1.01830   25.942
 4321.00    0.95285   0.97511   25.716
 4322.00    0.94094   0.95229   26.383
 4323.00    0.94737   0.95719   26.826
 4324.00    0.97069   0.98704   25.827
 4325.00    1.00239   1.02960   25.100
 4326.00    1.03240   1.07061   26.136
 4327.00    1.05573   1.10141   27.330
 4328.00    1.07084   1.12013   26.631
 4329.00    1.07719   1.12781   25.715
 4330.00    1.07465   1.12446    0.000
 4331.00    1.06315   1.10806    0.000
 4332.00    1.04130   1.07543    0.000
 4333.00    1.00655   1.02581    0.000
 4334.00    0.96374   0.96502    0.000
 4335.00    0.92882   0.90509    0.000
 4336.00    0.91410   0.85931    0.000
 4337.00    0.91996   0.83811    0.000
 4338.00    0.94040   0.84541    0.000
 4339.00    0.96751   0.87634    0.000
 4340.00    0.99616   0.92092    0.000
 4341.00    1.02537   0.96978    0.000
 4342.00    1.05442   1.01569    0.000
 4343.00    1.08115   1.05348    0.000
 4344.00    1.10159   1.08025    0.000
 4345.00    1.11095   1.09373    0.000
 4346.00    1.10704   1.09221    0.000
 4347.00    1.09158   1.07784    0.000
 4348.00    1.07071   1.05931    0.000
 4349.00    1.05249   1.04772    0.000
 4350.00    1.04065   1.04946    0.000
 4351.00    1.03556   1.06391   27.067
 4352.00    1.03935   1.08576   27.179
 4353.00    1.05356   1.10804   26.532
 4354.00    1.07273   1.12548   26.059
 4355.00    1.09038   1.13779   26.725
 4356.00    1.11008   1.14897   27.341
 4357.00    1.13859   1.16279   26.298
 4358.00    1.17341   1.17955   25.099
 4359.00    1.20645   1.19692   25.359
 4360.00    1.23086   1.21155   26.016
 4361.00    1.24206   1.21947   25.526
 4362.00    1.23809   1.21754   24.822
 4363.00    1.22156   1.20616   25.084
 4364.00    1.20096   1.18958   25.793
 4365.00    1.18442   1.17277   26.081
 4366.00    1.17425   1.15839   26.084
 4367.00    1.16804   1.14635   26.151
 4368.00    1.16047   1.13442   26.126
 4369.00    1.14753   1.12046   25.886
 4370.00    1.12944   1.10568   25.670
 4371.00    1.11106   1.09523   25.680
 4372.00    1.10030   1.09434   25.871
 4373.00    1.09915   1.10353   26.010
 4374.00    1.10053   1.11699   25.831
 4375.00    1.09489   1.12508   25.574
 4376.00    1.07446   1.11879   25.904
 4377.00    1.03705   1.09343   26.819
 4378.00    0.98763   1.05108   27.432
 4379.00    0.93854   1.00187   27.198
 4380.00    0.90577   0.96121   26.429
 4381.00    0.89782   0.94198   25.625
 4382.00    0.91364   0.94756   25.093
 4383.00    0.94644   0.97163   24.752
 4384.00    0.98671   1.00320   24.343
 4385.00    1.02688   1.03259   23.894
 4386.00    1.06202   1.05522   23.627
 4387.00    1.08907   1.07165   23.622
 4388.00    1.10709   1.08444   23.842
 4389.00    1.11789   1.09563   24.230
 4390.00    1.12482   1.10685   24.667
 4391.00    1.13059   1.11975   24.890
 4392.00    1.13684   1.13464   24.735
 4393.00    1.14410   1.14904   24.485
 4394.00    1.15139   1.15871   24.400
 4395.00    1.15599   1.16013   24.199
 4396.00    1.15497   1.15277   23.777
 4397.00    1.14687   1.13873   23.843
 4398.00    1.13215   1.11986   24.833
 4399.00    1.11337   1.09739   25.914
 4400.00    1.09344   1.07433   26.148
 4401.00    1.07455   1.05556   26.009
 4402.00    1.06063   1.04566   26.154
 4403.00    1.05831   1.04798   26.405
 4404.00    1.07078   1.06388   26.228
 4405.00    1.09440   1.09117   25.289
 4406.00    1.12222   1.12420   24.173
 4407.00    1.14649   1.15567   24.030
 4408.00    1.16083   1.17787   24.914
 4409.00    1.16187   1.18522   25.504
 4410.00    1.15182   1.17812   25.459
 4411.00    1.13763   1.16349   26.047
 4412.00    1.12394   1.15114   27.055
 4413.00    1.11201   1.14896   26.426
 4414.00    1.10561   1.15904   24.734
 4415.00    1.10943   1.17651   24.372
 4416.00    1.11933   1.19300   25.250
 4417.00    1.12579   1.20196   25.414
 4418.00    1.12956   1.20191   24.634
 4419.00    1.13919   1.19597   24.339
 4420.00    1.15646   1.18897   24.915
 4421.00    1.17678   1.18464   25.812
 4422.00    1.19653   1.18402   26.363
 4423.00    1.21311   1.18569   26.205
 4424.00    1.22276   1.18715   25.720
 4425.00    1.22216   1.18668   25.558
 4426.00    1.21149   1.18365   25.960
 4427.00    1.19379   1.17773   26.604
 4428.00    1.17327   1.16888   26.435
 4429.00    1.15428   1.15800   25.197
 4430.00    1.14027   1.14781   24.686
 4431.00    1.13505   1.14276   26.049
 4432.00    1.14366   1.14709   27.826
 4433.00    1.16731   1.16193   27.865
 4434.00    1.19922   1.18308   26.918
 4435.00    1.22909   1.20237   26.345
 4436.00    1.24755   1.21209   26.007
 4437.00    1.25065   1.20971   25.559
 4438.00    1.24218   1.19952   25.176
 4439.00    1.22997   1.19001   25.103
 4440.00    1.22265   1.18872   25.403
 4441.00    1.22506   1.19826   25.942
 4442.00    1.23611   1.21561   26.393
 4443.00    1.25020   1.23437   26.507
 4444.00    1.25932   1.24858   26.322
 4445.00    1.25858   1.25511   26.267
 4446.00    1.24818   1.25327   26.839
 4447.00    1.23201   1.24353   27.343
 4448.00    1.21563   1.22653   26.274
 4449.00    1.20164   1.20335   24.586
 4450.00    1.18907   1.17616   24.329
 4451.00    1.17571   1.14854   25.176
 4452.00    1.15940   1.12466   25.236
 4453.00    1.13976   1.10738   24.795
 4454.00    1.11905   1.09704   25.501
 4455.00    1.10308   1.09239   26.449
 4456.00    1.09708   1.09233   25.205
 4457.00    1.09793   1.09690   22.747
 4458.00    1.09995   1.10693   21.321
 4459.00    1.10640   1.12240   21.595
 4460.00    1.12351   1.14118   23.438
 4461.00    1.14948   1.15939    0.000
 4462.00    1.17729   1.17337    0.000
 4463.00    1.20045   1.18155    0.000
 4464.00    1.21529   1.18525    0.000
 4465.00    1.22253   1.18805    0.000
 4466.00    1.22549   1.19412    0.000
 4467.00    1.22823   1.20633    0.000
 4468.00    1.23601   1.22503    0.000
 4469.00    1.25501   1.24801    0.000
 4470.00    1.28512   1.27153    0.000
 4471.00    1.31612   1.29175    0.000
 4472.00    1.33913   1.30546    0.000
 4473.00    1.35333   1.31010    0.000
 4474.00    1.35871   1.30395    0.000
 4475.00    1.35261   1.28735    0.000
 4476.00    1.33535   1.26415    0.000
 4477.00    1.31273   1.24181    0.000
 4478.00    1.29344   1.22872    0.000
 4479.00    1.28564   1.22999    0.000
 4480.00    1.28898   1.24447    0.000
 4481.00    1.29378   1.26506    0.000
 4482.00    1.28970   1.28234   16.119
 4483.00    1.27080   1.28924   16.131
 4484.00    1.24128   1.28421   16.327
 4485.00    1.21374   1.27116   16.572
 4486.00    1.20001   1.25654   16.806
 4487.00    1.20584   1.24537   17.051
 4488.00    1.22487   1.23887   17.228
 4489.00    1.24455   1.23521   17.190
 4490.00    1.26081   1.23247   16.891
 4491.00    1.27573   1.23096   16.475
 4492.00    1.28801   1.23315   16.298
 4493.00    1.29647   1.24126   16.581
 4494.00    1.30775   1.25518   16.935
 4495.00    1.32942   1.27247   16.826
 4496.00    1.35876   1.29037   16.497
 4497.00    1.38244   1.30789   16.393
 4498.00    1.37990   1.32569   16.405
 4499.00    1.34640   1.34437   16.343
 4500.00    1.31361   1.36262   16.435
 4501.00    1.31106   1.37741   16.845
 4502.00    1.33031   1.38601   17.197
 4503.00    1.34955   1.38792   17.125
 4504.00    1.35702   1.38495   16.847
 4505.00    1.35290   1.37955   16.652
 4506.00    1.34751   1.37298   16.543
 4507.00    1.34821   1.36480   16.511
 4508.00    1.35203   1.35409   16.668
 4509.00    1.35203   1.34095   16.980
 4510.00    1.34279   1.32710   17.154
 4511.00    1.32746   1.31514   16.999
 4512.00    1.31804   1.30723   16.649
 4513.00    1.32133   1.30428   16.474
 4514.00    1.33559   1.30585   16.851
 4515.00    1.36101   1.31032   17.488
 4516.00    1.39740   1.31506   17.442
 4517.00    1.42340   1.31677   16.821
 4518.00    1.40789   1.31239   16.654
 4519.00    1.36199   1.30010   17.028
 4520.00    1.32904   1.27992   17.207
 4521.00    1.32091   1.25360   16.946
 4522.00    1.31753   1.22415   16.644
 4523.00    1.30307   1.19542   16.647
 4524.00    1.27428   1.17153   17.023
 4525.00    1.23980   1.15576   17.362
 4526.00    1.21259   1.14934   17.146
 4527.00    1.19741   1.15084   16.673
 4528.00    1.19285   1.15714   16.507
 4529.00    1.19761   1.16552   16.625
 4530.00    1.20977   1.17556   16.721
 4531.00    1.22473   1.18909   16.672
 4532.00    1.23804   1.20800   16.580
 4533.00    1.24887   1.23156   16.702
 4534.00    1.25926   1.25573   17.104
 4535.00    1.27248   1.27522   17.346
 4536.00    1.28969   1.28680   17.081
 4537.00    1.30738   1.29069   16.682
 4538.00    1.32097   1.28953   16.511
 4539.00    1.32803   1.28599   16.453
 4540.00    1.32958   1.28127   16.324
 4541.00    1.32973   1.27537   16.145
 4542.00    1.32877   1.26811   16.108
 4543.00    1.32039   1.25980   16.471
 4544.00    1.29941   1.25131   17.080
 4545.00    1.26712   1.24387   17.217
 4546.00    1.23541   1.23849   16.853
 4547.00    1.22260   1.23557   16.890
 4548.00    1.22927   1.23474   17.471
 4549.00    1.23749   1.23570   17.707
 4550.00    1.24455   1.23914    0.000
 4551.00    1.26578   1.24681    0.000
 4552.00    1.30392   1.26035    0.000
 4553.00    1.34463   1.27954    0.000
 4554.00    1.37236   1.30161    0.000
 4555.00    1.37826   1.32210    0.000
 4556.00    1.36761   1.33657    0.000
 4557.00    1.35460   1.34224    0.000
 4558.00    1.34747   1.33881    0.000
 4559.00    1.34641   1.32872    0.000
 4560.00    1.34600   1.31655    0.000
 4561.00    1.34036   1.30767    0.000
 4562.00    1.33067   1.30587    0.000
 4563.00    1.32312   1.31139    0.000
 4564.00    1.32386   1.32077    0.000
 4565.00    1.33342   1.32906    0.000
 4566.00    1.34149   1.33304    0.000
 4567.00    1.33855   1.33293    0.000
 4568.00    1.32917   1.33173    0.000
 4569.00    1.32676   1.33247    0.000
 4570.00    1.34503   1.33587    0.000
 4571.00    1.37977   1.33973    0.000
 4572.00    1.39885   1.34051    0.000
 4573.00    1.38342   1.33533    0.000
 4574.00    1.35425   1.32342    0.000
 4575.00    1.32943   1.30650    0.000
 4576.00    1.30010   1.28804    0.000
 4577.00    1.26389   1.27193    0.000
 4578.00    1.23995   1.26101    0.000
 4579.00    1.23868   1.25632    0.000
 4580.00    1.25078   1.25741    0.000
 4581.00    1.27175   1.26340    0.000
 4582.00    1.30736   1.27347    0.000
 4583.00    1.34954   1.28645    0.000
 4584.00    1.37634   1.30014    0.000
 4585.00    1.38488   1.31123    0.000
 4586.00    1.39234   1.31653    0.000
 4587.00    1.40340   1.31461    0.000
 4588.00    1.40702   1.30658    0.000
 4589.00    1.39503   1.29549    0.000
 4590.00    1.36774   1.28480    0.000
 4591.00    1.33439   1.27698    0.000
 4592.00    1.30928   1.27295    0.000
 4593.00    1.30359   1.27231    0.000
 4594.00    1.31788   1.27389    0.000
 4595.00    1.33302   1.27642    0.000
 4596.00    1.32821   1.27897    0.000
 4597.00    1.31080   1.28136    0.000
 4598.00    1.30097   1.28402    0.000
 4599.00    1.30430   1.28779    0.000
 4600.00    1.31551   1.29374    0.000
 4601.00    1.32796   1.30300    0.000
 4602.00    1.34004   1.31639    0.000
 4603.00    1.35933   1.33352    0.000
 4604.00    1.38860   1.35218    0.000
 4605.00    1.41419   1.36872    0.000
 4606.00    1.42404   1.37965    0.000
 4607.00    1.42231   1.38348    0.000
 4608.00    1.41908   1.38157    0.000
 4609.00    1.42114   1.37715    0.000
 4610.00    1.42717   1.37352    0.000
 4611.00    1.42736   1.37236    0.000
 4612.00    1.41741   1.37337    0.000
 4613.00    1.40459   1.37526    0.000
 4614.00    1.39827   1.37695    0.000
 4615.00    1.40289   1.37826    0.000
 4616.00    1.41009   1.37968    0.000
 4617.00    1.40152   1.38161    0.000
 4618.00    1.37252   1.38373    0.000
 4619.00    1.33788   1.38515    0.000
 4620.00    1.32032   1.38505    0.000
 4621.00    1.33756   1.38321    0.000
 4622.00    1.37743   1.38019    0.000
 4623.00    1.40641   1.37694    0.000
 4624.00    1.40921   1.37423    0.000
 4625.00    1.39398   1.37239    0.000
 4626.00    1.37991   1.37101    0.000
 4627.00    1.38414   1.36911    0.000
 4628.00    1.40240   1.36546    0.000
 4629.00    1.41780   1.35915    0.000
 4630.00    1.42222   1.35012    0.000
 4631.00    1.41517   1.33911    0.000
 4632.00    1.39666   1.32733    0.000
 4633.00    1.37090   1.31608    0.000
 4634.00    1.35160   1.30672    0.000
 4635.00    1.34748   1.30041    0.000
 4636.00    1.34628   1.29768    0.000
 4637.00    1.33309   1.29762    0.000
 4638.00    1.30985   1.29770    0.000
 4639.00    1.28377   1.29469    0.000
 4640.00    1.25594   1.28630    0.000
 4641.00    1.22946   1.27280    0.000
 4642.00    1.21443   1.25745    0.000
 4643.00    1.21096   1.24526    0.000
 4644.00    1.20211   1.24083    0.000
 4645.00    1.18638   1.24611    0.000
 4646.00    1.19073   1.25947    0.000
 4647.00    1.23045   1.27644    0.000
 4648.00    1.29058   1.29185    0.000
 4649.00    1.34537   1.30217    0.000
 4650.00    1.37209   1.30707    0.000
 4651.00    1.36695   1.30946    0.000
 4652.00    1.34630   1.31373    0.000
 4653.00    1.32756   1.32319    0.000
 4654.00    1.32090   1.33789    0.000
 4655.00    1.32619   1.35412    0.000
 4656.00    1.33565   1.36611    0.000
 4657.00    1.34334   1.36866    0.000
 4658.00    1.34693   1.35938    0.000
 4659.00    1.34500   1.33911    0.000
 4660.00    1.33557   1.31098    0.000
 4661.00    1.31439   1.27922    0.000
 4662.00    1.28119   1.24867    0.000
 4663.00    1.25112   1.22449    0.000
 4664.00    1.24237   1.21148    0.000
 4665.00    1.25309   1.21220    0.000
 4666.00    1.26995   1.22557    0.000
 4667.00    1.28600   1.24700    0.000
 4668.00    1.30016   1.27050    0.000
 4669.00    1.31326   1.29131    0.000
 4670.00    1.32714   1.30712    0.000
 4671.00    1.34404   1.31758    0.000
 4672.00    1.36355   1.32285    0.000
 4673.00    1.37997   1.32286    0.000
 4674.00    1.38574   1.31777    0.000
 4675.00    1.37508   1.30898    0.000
 4676.00    1.34871   1.29935    0.000
 4677.00    1.31631   1.29231    0.000
 4678.00    1.29021   1.29031    0.000
 4679.00    1.27975   1.29363    0.000
 4680.00    1.28439   1.30042    0.000
 4681.00    1.29304   1.30777    0.000
 4682.00    1.30107   1.31313    0.000
 4683.00    1.31529   1.31530    0.000
 4684.00    1.33597   1.31457    0.000
 4685.00    1.35153   1.31220    0.000
 4686.00    1.35108   1.30985    0.000
 4687.00    1.33231   1.30900    0.000
 4688.00    1.31040   1.31065    0.000
 4689.00    1.31001   1.31486    0.000
 4690.00    1.33260   1.32042    0.000
 4691.00    1.35726   1.32491    0.000
 4692.00    1.36980   1.32551    0.000
 4693.00    1.36761   1.32030    0.000
 4694.00    1.35200   1.30925    0.000
 4695.00    1.32527   1.29444    0.000
 4696.00    1.28880   1.27908    0.000
 4697.00    1.24723   1.26615    0.000
 4698.00    1.21607   1.25754    0.000
 4699.00    1.20858   1.25367    0.000
 4700.00    1.21446   1.25378    0.000
 4701.00    1.21764   1.25624    0.000
 4702.00    1.22445   1.25940    0.000
 4703.00    1.24674   1.26231    0.000
 4704.00    1.27749   1.26533    0.000
 4705.00    1.30179   1.26961    0.000
 4706.00    1.31159   1.27596    0.000
 4707.00    1.30523   1.28400    0.000
 4708.00    1.28593   1.29235    0.000
 4709.00    1.26559   1.29996    0.000
 4710.00    1.26526   1.30727    0.000
 4711.00    1.29413   1.31613    0.000
 4712.00    1.33683   1.32840    0.000
 4713.00    1.37255   1.34445    0.000
 4714.00    1.38964   1.36258    0.000
 4715.00    1.39424   1.37985    0.000
 4716.00    1.40790   1.39356    0.000
 4717.00    1.43434   1.40225    0.000
 4718.00    1.45107   1.40579    0.000
 4719.00    1.44565   1.40451    0.000
 4720.00    1.42753   1.39832    0.000
 4721.00    1.41066   1.38650    0.000
 4722.00    1.40373   1.36859    0.000
 4723.00    1.40130   1.34570    0.000
 4724.00    1.38796   1.32125    0.000
 4725.00    1.35837   1.30008    0.000
 4726.00    1.32036   1.28656    0.000
 4727.00    1.28706   1.28267    0.000
 4728.00    1.26962   1.28742    0.000
 4729.00    1.26619   1.29761    0.000
 4730.00    1.26740   1.30955    0.000
 4731.00    1.27166   1.32051    0.000
 4732.00    1.28440   1.32948    0.000
 4733.00    1.31104   1.33684    0.000
 4734.00    1.34879   1.34339    0.000
 4735.00    1.37742   1.34964    0.000
 4736.00    1.37920   1.35553    0.000
 4737.00    1.36563   1.36088    0.000
 4738.00    1.35855   1.36576    0.000
 4739.00    1.36431   1.37057    0.000
 4740.00    1.37890   1.37566    0.000
 4741.00    1.39623   1.38108    0.000
 4742.00    1.40846   1.38648    0.000
 4743.00    1.40642   1.39114    0.000
 4744.00    1.38661   1.39415    0.000
 4745.00    1.35606   1.39458    0.000
 4746.00    1.32612   1.39170    0.000
 4747.00    1.30705   1.38534    0.000
 4748.00    1.30306   1.37612    0.000
 4749.00    1.31059   1.36545    0.000
 4750.00    1.32465   1.35527    0.000
 4751.00    1.34200   1.34744    0.000
 4752.00    1.35888   1.34308    0.000
 4753.00    1.37056   1.34204    0.000
 4754.00    1.37405   1.34279    0.000
 4755.00    1.36905   1.34283    0.000
 4756.00    1.35714   1.33956    0.000
 4757.00    1.34129   1.33142    0.000
 4758.00    1.32512   1.31859    0.000
 4759.00    1.31090   1.30324    0.000
 4760.00    1.29495   1.28881    0.000
 4761.00    1.27271   1.27889   20.434
 4762.00    1.25386   1.27609   20.501
 4763.00    1.25481   1.28116   20.310
 4764.00    1.27534   1.29280   19.972
 4765.00    1.30257   1.30816   19.804
 4766.00    1.32800   1.32408   19.699
 4767.00    1.34806   1.33848   19.433
 4768.00    1.35990   1.35090   19.241
 4769.00    1.36583   1.36212   19.386
 4770.00    1.37979   1.37300   19.491
 4771.00    1.41302   1.38351   19.084
 4772.00    1.45576   1.39258   18.442
 4773.00    1.48892   1.39876   18.071
 4774.00    1.50010   1.40088   18.174
 4775.00    1.48665   1.39852   18.652
 4776.00    1.45608   1.39197   19.059
 4777.00    1.41820   1.38215   19.088
 4778.00    1.37871   1.37038   19.068
 4779.00    1.34464   1.35818   19.280
 4780.00    1.32730   1.34695   19.476
 4781.00    1.33244   1.33776   19.433
 4782.00    1.35374   1.33123   19.317
 4783.00    1.37584   1.32775   19.276
 4784.00    1.38031   1.32765   19.244
 4785.00    1.36601   1.33143   19.237
 4786.00    1.35306   1.33958   19.426
 4787.00    1.35312   1.35219   19.741
 4788.00    1.36049   1.36845   19.789
 4789.00    1.37204   1.38624   19.416
 4790.00    1.39043   1.40237   18.909
 4791.00    1.40656   1.41343   18.723
 4792.00    1.40295   1.41714   19.194
 4793.00    1.38214   1.41348   19.906
 4794.00    1.36423   1.40493   19.842
 4795.00    1.35692   1.39546   19.114
 4796.00    1.35481   1.38872   18.643
 4797.00    1.35681   1.38631   18.450
 4798.00    1.36433   1.38722   18.107
 4799.00    1.36934   1.38865   17.971
 4800.00    1.36262   1.38779   18.587
 4801.00    1.35229   1.38340   19.325
 4802.00    1.35254   1.37638   19.077
 4803.00    1.36112   1.36912   18.449
 4804.00    1.36597   1.36409   18.510
 4805.00    1.35961   1.36280   18.979
 4806.00    1.34330   1.36529   19.084
 4807.00    1.32873   1.37061   18.874
 4808.00    1.32675   1.37752   18.792
 4809.00    1.33589   1.38517   18.978
 4810.00    1.35046   1.39328   19.280
 4811.00    1.36898   1.40187   19.334
 4812.00    1.38992   1.41070   18.980
 4813.00    1.40811   1.41892   18.550
 4814.00    1.41981   1.42494   18.365
 4815.00    1.42568   1.42690   18.456
 4816.00    1.42504   1.42342   18.734
 4817.00    1.41335   1.41432   19.075
 4818.00    1.38955   1.40118   19.371
 4819.00    1.35981   1.38697   19.570
 4820.00    1.33399   1.37496   19.727
 4821.00    1.32274   1.36736   19.944
 4822.00    1.33304   1.36427   20.019
 4823.00    1.36444   1.36399   19.528
 4824.00    1.40292   1.36410   18.770
 4825.00    1.42552   1.36293   18.513
 4826.00    1.42313   1.36028   18.766
 4827.00    1.40300   1.35726   18.909
 4828.00    1.37343   1.35535   18.907
 4829.00    1.34057   1.35547   19.229
 4830.00    1.31200   1.35742   19.581
 4831.00    1.29555   1.35979   19.230
 4832.00    1.29445   1.36070   18.699
 4833.00    1.30575   1.35863   18.935
 4834.00    1.31963   1.35327   19.471
 4835.00    1.32402   1.34566   19.190
 4836.00    1.31286   1.33786   18.564
 4837.00    1.28985   1.33197   18.591
 4838.00    1.27099   1.32945   19.013
 4839.00    1.27019   1.33049   19.036
 4840.00    1.28065   1.33402   18.633
 4841.00    1.28935   1.33815   18.219
 4842.00    1.29617   1.34089   17.991
 4843.00    1.30736   1.34097   18.016
 4844.00    1.32630   1.33819   18.356
 4845.00    1.35039   1.33315   18.913
 4846.00    1.36980   1.32636   19.262
 4847.00    1.37458   1.31757   19.177
 4848.00    1.36048   1.30567    0.000
 4849.00    1.32999   1.28941    0.000
 4850.00    1.29180   1.26828    0.000
 4851.00    1.25528   1.24265    0.000
 4852.00    1.22700   1.21322    0.000
 4853.00    1.21063   1.18044    0.000
 4854.00    1.20638   1.14482    0.000
 4855.00    1.20821   1.10822    0.000
 4856.00    1.20521   1.07477    0.000
 4857.00    1.19242   1.05060    0.000
 4858.00    1.17360   1.04156    0.000
 4859.00    1.15454   1.05048    0.000
 4860.00    1.14054   1.07538    0.000
 4861.00    1.13628   1.10996    0.000
 4862.00    1.14431   1.14615    0.000
 4863.00    1.16082   1.17673    0.000
 4864.00    1.17711   1.19735    0.000
 4865.00    1.18625   1.20733    0.000
 4866.00    1.18645   1.20920    0.000
 4867.00    1.18459   1.20764    0.000
 4868.00    1.19005   1.20783    0.000
 4869.00    1.20213   1.21360    0.000
 4870.00    1.21538   1.22637    0.000
 4871.00    1.23175   1.24507    0.000
 4872.00    1.25572   1.26698    0.000
 4873.00    1.28443   1.28897    0.000
 4874.00    1.31062   1.30825    0.000
 4875.00    1.32838   1.32278   20.924
 4876.00    1.33574   1.33118   20.849
 4877.00    1.33618   1.33292   20.458
 4878.00    1.33207   1.32843   20.205
 4879.00    1.31892   1.31902   20.346
 4880.00    1.29352   1.30651   20.768
 4881.00    1.26129   1.29280   20.889
 4882.00    1.23387   1.27954   20.521
 4883.00    1.22483   1.26795   20.383
 4884.00    1.23664   1.25918   20.778
 4885.00    1.25520   1.25476   20.958
 4886.00    1.26933   1.25674   20.460
 4887.00    1.28092   1.26732   19.855
 4888.00    1.29560   1.28782   19.741
 4889.00    1.31729   1.31720   20.298
 4890.00    1.34745   1.35155   21.039
 4891.00    1.38413   1.38493   20.854
 4892.00    1.41966   1.41149   19.854
 4893.00    1.44246   1.42745   19.313
 4894.00    1.44631   1.43220   19.570
 4895.00    1.43256   1.42800   20.038
 4896.00    1.40654   1.41865   20.209
 4897.00    1.37703   1.40818   20.030
 4898.00    1.35739   1.39981   19.895
 4899.00    1.35896   1.39513   20.247
 4900.00    1.37527   1.39394   20.810
 4901.00    1.38842   1.39435   20.869
 4902.00    1.38965   1.39362   20.498
 4903.00    1.37976   1.38937   20.296
 4904.00    1.36232   1.38087   20.373
 4905.00    1.34271   1.36967   20.515
 4906.00    1.32858   1.35920   20.631
 4907.00    1.32717   1.35306   20.752
 4908.00    1.34149   1.35305   20.924
 4909.00    1.36857   1.35784   21.077
 4910.00    1.39848   1.36316   20.919
 4911.00    1.41770   1.36340   20.414
 4912.00    1.41376   1.35397   20.145
 4913.00    1.38332   1.33349   20.447
 4914.00    1.33815   1.30487   20.774
 4915.00    1.29518   1.27446   20.620
 4916.00    1.26706   1.24976   20.366
 4917.00    1.25776   1.23671   20.430
 4918.00    1.26098   1.23779   20.710
 4919.00    1.26722   1.25182   20.993
 4920.00    1.27027   1.27529   21.216
 4921.00    1.27680   1.30407   21.305
 4922.00    1.30544   1.33451   21.112
 4923.00    1.35629   1.36357   20.672
 4924.00    1.40314   1.38847   20.255
 4925.00    1.42684   1.40657   20.190
 4926.00    1.42729   1.41585   20.697
 4927.00    1.41212   1.41560   21.367
 4928.00    1.38999   1.40683   21.242
 4929.00    1.36440   1.39187   20.547
 4930.00    1.33442   1.37364   20.446
 4931.00    1.30306   1.35492   21.050
 4932.00    1.27646   1.33803   21.527
 4933.00    1.25598   1.32512   21.575
 4934.00    1.23992   1.31838   21.620
 4935.00    1.23195   1.31971   21.939
 4936.00    1.24018   1.32992   22.419
 4937.00    1.27127   1.34777   22.449
 4938.00    1.32216   1.36988   21.617
 4939.00    1.36894   1.39196   20.796
 4940.00    1.38691   1.41064    0.000
 4941.00    1.38256   1.42444    0.000
 4942.00    1.37876   1.43389    0.000
 4943.00    1.38851   1.44053    0.000
 4944.00    1.41176   1.44572    0.000
 4945.00    1.43666   1.44972    0.000
 4946.00    1.45097   1.45154    0.000
 4947.00    1.45305   1.44934    0.000
 4948.00    1.44529   1.44131    0.000
 4949.00    1.42768   1.42639    0.000
 4950.00    1.40247   1.40493    0.000
 4951.00    1.37754   1.37935    0.000
 4952.00    1.36039   1.35417    0.000
 4953.00    1.35394   1.33484    0.000
 4954.00    1.35805   1.32591    0.000
 4955.00    1.37043   1.32894    0.000
 4956.00    1.38583   1.34180    0.000
 4957.00    1.39655   1.35908    0.000
 4958.00    1.39679   1.37440    0.000
 4959.00    1.38535   1.38297    0.000
 4960.00    1.36762   1.38324    0.000
 4961.00    1.35255   1.37688    0.000
 4962.00    1.33931   1.36744    0.000
 4963.00    1.31866   1.35900    0.000
 4964.00    1.29283   1.35480    0.000
 4965.00    1.27506   1.35635    0.000
 4966.00    1.27053   1.36337    0.000
 4967.00    1.27636   1.37428    0.000
 4968.00    1.29442   1.38663    0.000
 4969.00    1.32743   1.39759    0.000
 4970.00    1.36399   1.40451    0.000
 4971.00    1.38542   1.40533    0.000
 4972.00    1.38452   1.39892    0.000
 4973.00    1.36476   1.38524    0.000
 4974.00    1.33293   1.36516    0.000
 4975.00    1.29583   1.34034    0.000
 4976.00    1.25766   1.31316    0.000
 4977.00    1.22329   1.28685    0.000
 4978.00    1.20235   1.26513    0.000
 4979.00    1.20118   1.25160    0.000
 4980.00    1.21412   1.24867    0.000
 4981.00    1.23191   1.25660    0.000
 4982.00    1.25068   1.27306    0.000
 4983.00    1.26781   1.29375    0.000
 4984.00    1.27845   1.31396    0.000
 4985.00    1.28261   1.33025    0.000
 4986.00    1.28893   1.34127    0.000
 4987.00    1.30199   1.34759    0.000
 4988.00    1.31517   1.35097    0.000
 4989.00    1.32102   1.35310    0.000
 4990.00    1.31770   1.35457    0.000
 4991.00    1.30903   1.35480    0.000
 4992.00    1.30225   1.35248    0.000
 4993.00    1.29909   1.34636    0.000
 4994.00    1.29420   1.33599    0.000
 4995.00    1.28530   1.32199    0.000
 4996.00    1.27587   1.30587    0.000
 4997.00    1.27006   1.28948    0.000
 4998.00    1.27077   1.27439    0.000
 4999.00    1.27981   1.26177    0.000
 5000.00    1.29751   1.25254    0.000
 5001.00    1.32173   1.24751    0.000
 5002.00    1.34737   1.24721    0.000
 5003.00    1.36602   1.25115    0.000
 5004.00    1.37065   1.25729    0.000
 5005.00    1.36480   1.26250    0.000
 5006.00    1.35552   1.26361    0.000
 5007.00    1.33785   1.25887    0.000
 5008.00    1.30353   1.24887    0.000
 5009.00    1.25893   1.23638    0.000
 5010.00    1.21802   1.22505    0.000
 5011.00    1.18900   1.21778    0.000
 5012.00    1.17426   1.21585    0.000
 5013.00    1.17299   1.21879    0.000
 5014.00    1.18360   1.22520    0.000
 5015.00    1.20565   1.23356    0.000
 5016.00    1.23573   1.24277    0.000
 5017.00    1.26420   1.25230    0.000
 5018.00    1.28313   1.26178    0.000
 5019.00    1.29252   1.27090    0.000
 5020.00    1.29512   1.27950    0.000
 5021.00    1.29230   1.28739    0.000
 5022.00    1.28499   1.29475    0.000
 5023.00    1.27446   1.30250    0.000
 5024.00    1.26275   1.31186    0.000
 5025.00    1.25256   1.32345    0.000
 5026.00    1.24595   1.33651    0.000
 5027.00    1.24428   1.34897    0.000
 5028.00    1.25105   1.35805    0.000
 5029.00    1.27033   1.36087   23.053
 5030.00    1.29634   1.35553   22.358
 5031.00    1.31340   1.34167   21.882
 5032.00    1.30908   1.32045   22.032
 5033.00    1.28126   1.29472   22.665
 5034.00    1.24497   1.26840   23.233
 5035.00    1.22308   1.24585   23.115
 5036.00    1.21861   1.23154   22.671
 5037.00    1.21952   1.22911   22.728
 5038.00    1.22537   1.23993   23.086
 5039.00    1.24462   1.26178   22.912
 5040.00    1.27735   1.28915   22.232
 5041.00    1.31284   1.31515   21.706
 5042.00    1.33231   1.33361   21.739
 5043.00    1.32305   1.34110   22.333
 5044.00    1.29795   1.33831   22.875
 5045.00    1.27973   1.32928   22.703
 5046.00    1.27637   1.31961   22.175
 5047.00    1.28444   1.31439   21.878
 5048.00    1.29702   1.31638   21.681
 5049.00    1.30559   1.32561   21.285
 5050.00    1.30206   1.34018   20.777
 5051.00    1.28803   1.35722   20.396
 5052.00    1.28077   1.37408   20.298
 5053.00    1.29378   1.38893   20.480
 5054.00    1.32212   1.40068   20.740
 5055.00    1.35285   1.40844   20.898
 5056.00    1.37394   1.41103   20.974
 5057.00    1.37918   1.40762   21.088
 5058.00    1.37028   1.39818   21.356
 5059.00    1.35375   1.38346   21.726
 5060.00    1.33797   1.36548   21.928
 5061.00    1.32851   1.34744   21.806
 5062.00    1.32592   1.33255   21.491
 5063.00    1.32644   1.32255   21.299
 5064.00    1.32438   1.31757   21.540
 5065.00    1.31927   1.31674   22.072
 5066.00    1.31586   1.31831   22.315
 5067.00    1.31573   1.32048   22.081
 5068.00    1.31585   1.32210   21.726
 5069.00    1.31259   1.32257   21.565
 5070.00    1.30425   1.32109   21.684
 5071.00    1.29441   1.31647   21.862
 5072.00    1.28831   1.30790   21.743
 5073.00    1.28376   1.29548   21.306
 5074.00    1.27595   1.28039   20.867
 5075.00    1.26981   1.26501   20.855
 5076.00    1.27335   1.25258   21.479
 5077.00    1.28317   1.24620   22.185
 5078.00    1.29040   1.24762   22.211
 5079.00    1.29263   1.25651   21.933
 5080.00    1.29153   1.27093   22.062
 5081.00    1.28788   1.28826   22.424
 5082.00    1.28346   1.30601   22.599
 5083.00    1.28343   1.32232   22.798
 5084.00    1.29159   1.33644   23.265
 5085.00    1.30583   1.34857   23.565
 5086.00    1.32196   1.35891   23.245
 5087.00    1.33713   1.36705   22.546
 5088.00    1.34798   1.37188   21.959
 5089.00    1.34970   1.37194   21.812
 5090.00    1.34059   1.36585   22.036
 5091.00    1.32454   1.35327   22.132
 5092.00    1.30689   1.33606   22.023
 5093.00    1.29153   1.31774   22.379
 5094.00    1.27922   1.30216   23.456
 5095.00    1.26780   1.29227   24.537
 5096.00    1.25685   1.28934   24.717
 5097.00    1.24899   1.29245   23.822
 5098.00    1.24692   1.29877   22.757
 5099.00    1.25143   1.30461   22.643
 5100.00    1.25919   1.30717   23.288
 5101.00    1.26466   1.30549   23.397
 5102.00    1.26786   1.30020   22.856
 5103.00    1.27364   1.29346   22.712
 5104.00    1.28327   1.28818   22.982
 5105.00    1.29342   1.28670   22.829
 5106.00    1.29928   1.29025   22.201
 5107.00    1.29755   1.29885   21.748
 5108.00    1.29093   1.31143   21.891
 5109.00    1.28756   1.32654   22.619
 5110.00    1.29792   1.34245   23.189
 5111.00    1.32673   1.35709   22.779
 5112.00    1.36183   1.36844   21.995
 5113.00    1.38526   1.37486   21.787
 5114.00    1.39086   1.37497   22.070
 5115.00    1.38098   1.36787   22.348
 5116.00    1.35941   1.35374   22.499
 5117.00    1.33009   1.33418   22.653
 5118.00    1.29679   1.31196   22.904
 5119.00    1.26477   1.29005   23.134
 5120.00    1.24158   1.27112   22.944
 5121.00    1.22933   1.25705   22.371
 5122.00    1.21983   1.24874   22.218
 5123.00    1.20782   1.24627   22.767
 5124.00    1.19946   1.24898   23.107
 5125.00    1.20238   1.25568   22.631
 5126.00    1.21855   1.26521   22.030
 5127.00    1.24315   1.27659   21.835
 5128.00    1.26640   1.28845   21.864
 5129.00    1.28453   1.29867   21.900
 5130.00    1.30207   1.30529   21.948
 5131.00    1.31755   1.30707   21.990
 5132.00    1.32126   1.30383   21.943
 5133.00    1.31106   1.29698   21.909
 5134.00    1.29554   1.28797   22.144
 5135.00    1.28418   1.27805   22.639
 5136.00    1.28234   1.26942   23.083
 5137.00    1.28712   1.26354   23.252
 5138.00    1.28960   1.25989   23.142
 5139.00    1.28333   1.25772   22.871
 5140.00    1.26828   1.25645   22.606
 5141.00    1.25395   1.25575   22.520
 5142.00    1.25168   1.25551   22.695
 5143.00    1.25875   1.25525   22.958
 5144.00    1.26335   1.25470   23.065
 5145.00    1.25879   1.25420   23.097
 5146.00    1.24734   1.25378   23.271
 5147.00    1.24138   1.25392   23.508
 5148.00    1.25064   1.25610   23.555
 5149.00    1.26585   1.26164   23.263
 5150.00    1.27229   1.27115   22.738
 5151.00    1.26764   1.28418   22.357
 5152.00    1.25826   1.29927   22.414
 5153.00    1.25264   1.31447   22.837
 5154.00    1.25671   1.32682   23.309
 5155.00    1.27012   1.33301   23.398
 5156.00    1.28568   1.33114   23.059
 5157.00    1.29027   1.31977   22.882
 5158.00    1.27252   1.29726   23.256
 5159.00    1.22898   1.26328   23.932
 5160.00    1.16955   1.21969   24.455
 5161.00    1.11644   1.17140   24.533
 5162.00    1.08162   1.12494   24.286
 5163.00    1.05813   1.08530   24.195
 5164.00    1.03785   1.05403   24.514
 5165.00    1.02047   1.03135   25.019
 5166.00    1.01393   1.01916   24.986
 5167.00    1.02938   1.01986   23.749
 5168.00    1.06370   1.03338   22.315
 5169.00    1.10065   1.05773   22.227
 5170.00    1.13490   1.09073   23.120
 5171.00    1.17231   1.12876   23.101
 5172.00    1.20896   1.16610   22.204
 5173.00    1.23199   1.19651   22.051
 5174.00    1.23615   1.21433   22.598
 5175.00    1.22383   1.21495   22.655
 5176.00    1.19604   1.19736   22.361
 5177.00    1.15476   1.16802   22.660
 5178.00    1.11062   1.13846   23.218
 5179.00    1.07806   1.11831   23.088
 5180.00    1.06502   1.11295   22.679
 5181.00    1.07242   1.12349   22.817
 5182.00    1.09611   1.14774   23.066
 5183.00    1.12929   1.17982   22.676
 5184.00    1.16530   1.21060   22.090
 5185.00    1.19815   1.23296   21.989
 5186.00    1.22294   1.24525   22.264
 5187.00    1.23684   1.24890   22.445
 5188.00    1.24006   1.24676   22.198
 5189.00    1.23622   1.24373   21.653
 5190.00    1.23204   1.24436    0.000
 5191.00    1.23441   1.25061    0.000
 5192.00    1.24793   1.26207    0.000
 5193.00    1.27471   1.27686    0.000
 5194.00    1.31293   1.29199    0.000
 5195.00    1.34908   1.30388    0.000
 5196.00    1.35901   1.30945    0.000
 5197.00    1.33672   1.30661    0.000
 5198.00    1.30350   1.29446    0.000
 5199.00    1.28020   1.27463    0.000
 5200.00    1.27343   1.25074    0.000
 5201.00    1.27375   1.22635    0.000
 5202.00    1.26289   1.20557    0.000
 5203.00    1.23996   1.19311    0.000
 5204.00    1.22229   1.19189    0.000
 5205.00    1.21948   1.20217    0.000
 5206.00    1.22873   1.22186    0.000
 5207.00    1.24448   1.24667    0.000
 5208.00    1.26289   1.27117    0.000
 5209.00    1.28593   1.29130    0.000
 5210.00    1.31602   1.30617    0.000
 5211.00    1.34391   1.31706   20.726
 5212.00    1.35654   1.32571   20.742
 5213.00    1.35534   1.33364   21.246
 5214.00    1.35111   1.34156   21.721
 5215.00    1.35038   1.34869   21.795
 5216.00    1.35386   1.35252   21.480
 5217.00    1.35727   1.34987   21.178
 5218.00    1.35368   1.33849   21.241
 5219.00    1.33654   1.31820   21.568
 5220.00    1.30554   1.29219   21.884
 5221.00    1.27178   1.26731   22.087
 5222.00    1.25075   1.25053   22.097
 5223.00    1.25412   1.24479   21.723
 5224.00    1.28097   1.24963   21.072
 5225.00    1.31305   1.26220   20.707
 5226.00    1.33016   1.27764   20.920
 5227.00    1.32259   1.29230   21.404
 5228.00    1.29621   1.30507   21.756
 5229.00    1.27148   1.31631   21.847
 5230.00    1.26245   1.32722   21.758
 5231.00    1.26747   1.33897   21.655
 5232.00    1.28337   1.35208   21.501
 5233.00    1.31019   1.36610   21.095
 5234.00    1.33976   1.37988   20.708
 5235.00    1.35617   1.39193   20.965
 5236.00    1.35695   1.40052   21.673
 5237.00    1.35564   1.40528   21.755
 5238.00    1.36273   1.40673   21.143
 5239.00    1.37889   1.40414   20.860
 5240.00    1.39506   1.39618   21.174
 5241.00    1.39798   1.38386   21.587
 5242.00    1.38390   1.36976   21.726
 5243.00    1.35831   1.35482   21.610
 5244.00    1.32752   1.33998   21.554
 5245.00    1.29769   1.32829   21.856
 5246.00    1.27684   1.32184   22.282
 5247.00    1.27213   1.32023   22.344
 5248.00    1.28450   1.32253   22.090
 5249.00    1.30822   1.32877   21.931
 5250.00    1.33216   1.33953   22.134
 5251.00    1.34807   1.35351   22.646
 5252.00    1.36043   1.36775   22.904
 5253.00    1.37428   1.37868   22.551
 5254.00    1.38056   1.38227   22.290
 5255.00    1.36865   1.37533   22.715
 5256.00    1.34033   1.35657   23.266
 5257.00    1.30247   1.32732   23.327
 5258.00    1.25930   1.29064   23.396
 5259.00    1.21371   1.25092   23.847
 5260.00    1.16926   1.21401   23.973
 5261.00    1.13278   1.18509   23.449
 5262.00    1.11459   1.16395   23.218
 5263.00    1.11816   1.14825   23.760
 5264.00    1.13567   1.14072   24.386
 5265.00    1.15953   1.14508   24.528
 5266.00    1.18739   1.15947   24.481
 5267.00    1.21492   1.17999   24.449
 5268.00    1.23488   1.20460   24.182
 5269.00    1.24818   1.23119   23.653
 5270.00    1.26461   1.25929   23.197
 5271.00    1.28839   1.28922   23.085
 5272.00    1.31524   1.31776   23.375
 5273.00    1.34007   1.34040   23.783
 5274.00    1.35931   1.35517   23.793
 5275.00    1.36984   1.36262   23.314
 5276.00    1.36911   1.36429   22.717
 5277.00    1.35614   1.36224   22.380
 5278.00    1.33395   1.36038   22.461
 5279.00    1.31394   1.36357   22.653
 5280.00    1.30963   1.37361   22.493
 5281.00    1.32347   1.38890   22.113
 5282.00    1.34898   1.40714   21.923
 5283.00    1.37856   1.42641   21.931
 5284.00    1.40701   1.44438   21.909
 5285.00    1.43431   1.45801   21.736
 5286.00    1.46162   1.46492   21.446
 5287.00    1.48564   1.46430   21.192
 5288.00    1.49907   1.45694   21.087
 5289.00    1.49266   1.44351   21.080
 5290.00    1.46342   1.42391   21.160
 5291.00    1.42166   1.39938   21.520
 5292.00    1.38269   1.37452   22.110
 5293.00    1.35865   1.35530   22.251
 5294.00    1.35534   1.34416   21.716
 5295.00    1.37051   1.34067   21.407
 5296.00    1.39487   1.34530   21.837
 5297.00    1.41471   1.35836   22.457
 5298.00    1.42225   1.37805   22.687
 5299.00    1.42055   1.40062   -2.000
 5300.00    1.41688   1.42190   -2.000
 5301.00    1.41852   1.43922   -2.000
 5302.00    1.43057   1.45266   -2.000
 5303.00    1.45568   1.46337   -2.000
 5304.00    1.49644   1.47124   -2.000
 5305.00    1.55324   1.47561   -2.000
 5306.00    1.61334   1.47642   -2.000
 5307.00    1.65305   1.47410   -2.000
 5308.00    1.65555   1.46948   -2.000
 5309.00    1.61931   1.46294   -2.000
 5310.00    1.56443   1.45439   -2.000
 5311.00    1.52043   1.44498   -2.000
 5312.00    1.49444   1.43668   -2.000
 5313.00    1.47472   1.42987   -2.000
 5314.00    1.45331   1.42391   22.231
 5315.00    1.42950   1.41796   22.228
 5316.00    1.40696   1.41049   22.182
 5317.00    1.38975   1.39942   22.536
 5318.00    1.37711   1.38375   23.011
 5319.00    1.36602   1.36490   23.062
 5320.00    1.35581   1.34373   22.816
 5321.00    1.34523   1.31909   22.688
 5322.00    1.32847   1.29260   22.740
 5323.00    1.30008   1.27200   22.865
 5324.00    1.26101   1.26434   23.044
 5325.00    1.22182   1.27000   23.196
 5326.00    1.20329   1.28542   23.063
 5327.00    1.21928   1.30727   22.661
 5328.00    1.26362   1.33319   22.497
 5329.00    1.32044   1.35993   22.674
 5330.00    1.37347   1.38288   22.476
 5331.00    1.41122   1.39818   21.721
 5332.00    1.42936   1.40459   21.297
 5333.00    1.42650   1.40269   21.627
 5334.00    1.40349   1.39431   22.218
 5335.00    1.37210   1.38392   22.617
 5336.00    1.35393   1.37649   22.859
 5337.00    1.35728   1.37356   22.907
 5338.00    1.37098   1.37416   22.545
 5339.00    1.38050   1.37660   22.097
 5340.00    1.37727   1.37960   22.235
 5341.00    1.36751   1.38288   22.839
 5342.00    1.36772   1.38587   23.026
 5343.00    1.38316   1.38789   22.618
 5344.00    1.40599   1.39077   22.224
 5345.00    1.42711   1.39752   22.000
 5346.00    1.44091   1.40881   21.758
 5347.00    1.44852   1.42343   21.723
 5348.00    1.45628   1.44064   22.218
 5349.00    1.47113   1.45943   22.772
 5350.00    1.49471   1.47769   22.569
 5351.00    1.51548   1.49322   21.910
 5352.00    1.51975   1.50442   21.629
 5353.00    1.50995   1.51033   21.993
 5354.00    1.49823   1.51061   22.775
 5355.00    1.49384   1.50520   23.294
 5356.00    1.49755   1.49452   23.073
 5357.00    1.49812   1.48015   22.738
 5358.00    1.48511   1.46392   22.976
 5359.00    1.46175   1.44660   23.568
 5360.00    1.43664   1.42916   24.010
 5361.00    1.41485   1.41253   24.198
 5362.00    1.39613   1.39652   24.273
 5363.00    1.37515   1.38066   24.385
 5364.00    1.34951   1.36469   24.613
 5365.00    1.32421   1.35026   24.916
 5366.00    1.30399   1.34212   25.059
 5367.00    1.28998   1.34447   24.689
 5368.00    1.28761   1.35658   23.973
 5369.00    1.30741   1.37474   23.585
 5370.00    1.34712   1.39530   23.685
 5371.00    1.38738   1.41488   23.761
 5372.00    1.41014   1.43160   23.561
 5373.00    1.40820   1.44418   23.365
 5374.00    1.39071   1.45090   23.432
 5375.00    1.37835   1.45153   23.781
 5376.00    1.38234   1.44839   24.032
 5377.00    1.39997   1.44381   23.678
 5378.00    1.42154   1.43958   23.070
 5379.00    1.43653   1.43734   22.918
 5380.00    1.44315   1.43642   22.829
 5381.00    1.44576   1.43485   21.933
 5382.00    1.44438   1.43168   20.731
 5383.00    1.43628   1.42615   20.180
 5384.00    1.42307   1.41757   20.246
 5385.00    1.40931   1.40670   20.424
 5386.00    1.39790   1.39476   20.546
 5387.00    1.38913   1.38246   20.709
 5388.00    1.38066   1.37065   20.980
 5389.00    1.37171   1.36008   21.355
 5390.00    1.36767   1.35050   21.780
 5391.00    1.37171   1.34135   22.123
 5392.00    1.37559   1.33480   22.181
 5393.00    1.37065   1.33389   22.025
 5394.00    1.35891   1.33686   22.231
 5395.00    1.34540   1.34011   23.070
 5396.00    1.33090   1.34237   23.829
 5397.00    1.31488   1.34202   23.933
 5398.00    1.29829   1.33605   24.034
 5399.00    1.28384   1.32431   24.501
 5400.00    1.27524   1.31030   24.522
 5401.00    1.27268   1.29914   23.846
 5402.00    1.27158   1.29414   23.478
 5403.00    1.27031   1.29449   23.642
 5404.00    1.27330   1.29840   23.392
 5405.00    1.28608   1.30747   22.823
 5406.00    1.31022   1.32371   23.189
 5407.00    1.33312   1.34449   23.921
 5408.00    1.33695   1.36513   -2.000
 5409.00    1.34255   1.38313   -2.000
 5410.00    1.38876   1.39911   -2.000
 5411.00    1.42507   1.41404   -2.000
 5412.00    1.35554   1.42634   -2.000
 5413.00    1.24100   1.43341   -2.000
 5414.00    1.26623   1.43499   -2.000
 5415.00    1.53432   1.43289   -2.000
 5416.00    2.02611   1.42972   -2.000
 5417.00    2.62305   1.42637   -2.000
 5418.00    3.17489   1.42119   -2.000
 5419.00    3.60800   1.41507   -2.000
 5420.00    3.86653   1.41181   -2.000
 5421.00    3.79802   1.41134   -2.000
 5422.00    3.31473   1.40975   -2.000
 5423.00    2.62802   1.40291   -2.000
 5424.00    2.03796   1.39051   -2.000
 5425.00    1.64221   1.37855   -2.000
 5426.00    1.40915   1.37040   -2.000
 5427.00    1.29556   1.36251   -2.000
 5428.00    1.26120   1.35420   -2.000
 5429.00    1.27167   1.34895   -2.000
 5430.00    1.30120   1.35008   -2.000
 5431.00    1.33384   1.35931    7.565
 5432.00    1.35672   1.37563    7.514
 5433.00    1.35811   1.39626    7.334
 5434.00    1.34704   1.41804    7.379
 5435.00    1.35786   1.43789    7.375
 5436.00    1.40145   1.45276    7.141
 5437.00    1.44623   1.46059    6.918
 5438.00    1.46415   1.46004    6.849
 5439.00    1.45259   1.45051    6.858
 5440.00    1.42542   1.43337    6.951
 5441.00    1.40359   1.41289    7.221
 5442.00    1.39727   1.39620    7.344
 5443.00    1.40226   1.38864    6.839
 5444.00    1.41166   1.38827    6.624
 5445.00    1.41980   1.39077    8.495
 5446.00    1.42185   1.39367   16.162
 5447.00    1.41511   1.39533   29.422
 5448.00    1.40280   1.39440   25.111
 5449.00    1.39161   1.38946   21.483
 5450.00    1.38428   1.38141   23.128
 5451.00    1.38001   1.37613   24.825
 5452.00    1.37850   1.37776   24.490
 5453.00    1.38010   1.38370   24.319
 5454.00    1.38454   1.38993   24.467
 5455.00    1.38973   1.39430   23.936
 5456.00    1.39069   1.39639   23.503
 5457.00    1.38385   1.39597   24.191
 5458.00    1.37293   1.39380   25.139
 5459.00    1.36572   1.39289   24.892
 5460.00    1.36906   1.39396   23.929
 5461.00    1.38431   1.39548   23.212
 5462.00    1.40392   1.39788   22.591
 5463.00    1.41900   1.40112   21.887
 5464.00    1.42618   1.40275   21.599
 5465.00    1.42523   1.40112   21.999
 5466.00    1.41657   1.39655   22.590
 5467.00    1.40167   1.38894   22.852
 5468.00    1.38334   1.37805   22.885
 5469.00    1.36557   1.36601   22.895
 5470.00    1.35303   1.35378   22.847
 5471.00    1.34856   1.34060   22.690
 5472.00    1.35217   1.33064   22.510
 5473.00    1.36273   1.32871   22.542
 5474.00    1.37803   1.33259   23.052
 5475.00    1.39147   1.33750   23.752
 5476.00    1.39405   1.34236   23.773
 5477.00    1.38630   1.34972   23.179
 5478.00    1.37872   1.36073   22.953
 5479.00    1.37912   1.37336   23.274
 5480.00    1.38756   1.38436   23.516
 5481.00    1.39445   1.39105   23.458
 5482.00    1.38771   1.39353   23.424
 5483.00    1.37109   1.39509   23.611
 5484.00    1.36036   1.39735   23.923
 5485.00    1.36540   1.39907   23.941
 5486.00    1.38643   1.40031   23.423
 5487.00    1.41475   1.40126   23.115
 5488.00    1.43795   1.40139   23.778
 5489.00    1.44848   1.40192   24.658
 5490.00    1.44611   1.40357   24.489
 5491.00    1.43907   1.40420   24.003
 5492.00    1.43795   1.40283   24.363
 5493.00    1.44739   1.40196   24.964
 5494.00    1.46281   1.40263   24.738
 5495.00    1.46921   1.40186   24.112
 5496.00    1.45509   1.39756   23.889
 5497.00    1.42548   1.39153   24.063
 5498.00    1.39270   1.38636   24.306
 5499.00    1.36695   1.38257   24.387
 5500.00    1.35464   1.37868   24.198
 5501.00    1.35739   1.37367   23.764
 5502.00    1.37081   1.37017   23.229
 5503.00    1.38485   1.36999   22.802
 5504.00    1.39114   1.37032   22.577
 5505.00    1.38735   1.36874   22.480
 5506.00    1.37692   1.36518   22.400
 5507.00    1.36727   1.36055   22.252
 5508.00    1.36296   1.35769   22.009
 5509.00    1.36333   1.35855   21.714
 5510.00    1.36590   1.36312   21.480
 5511.00    1.36880   1.37128   21.446
 5512.00    1.37424   1.38270   21.604
 5513.00    1.38773   1.39662   21.798
 5514.00    1.41190   1.41075   21.880
 5515.00    1.44409   1.42206   21.805
 5516.00    1.47520   1.42916   21.713
 5517.00    1.49321   1.43196   21.745
 5518.00    1.49208   1.43057   21.600
 5519.00    1.47470   1.42532   20.916
 5520.00    1.45407   1.41650   20.152
 5521.00    1.44402   1.40533   19.923
 5522.00    1.44265   1.39347   20.007
 5523.00    1.44042   1.38312   19.885
 5524.00    1.43738   1.37775   19.703
 5525.00    1.43901   1.37854   19.790
 5526.00    1.44641   1.38267   19.837
 5527.00    1.45568   1.38725   19.506
 5528.00    1.45948   1.39160   19.234
 5529.00    1.45484   1.39566   19.493
 5530.00    1.45042   1.39934   20.069
 5531.00    1.45370   1.40328   20.555
 5532.00    1.45924   1.40752   20.941
 5533.00    1.45792   1.41170   21.397
 5534.00    1.44598   1.41653   21.960
 5535.00    1.42827   1.42221   22.446
 5536.00    1.41780   1.42733   22.475
 5537.00    1.42070   1.43036   22.086
 5538.00    1.42887   1.43093   21.916
 5539.00    1.43400   1.43082   22.224
 5540.00    1.43519   1.43179   22.582
 5541.00    1.43461   1.43368   22.780
 5542.00    1.43518   1.43681   23.135
 5543.00    1.44091   1.44181   23.421
 5544.00    1.45565   1.44751   22.798
 5545.00    1.47765   1.45211   21.724
 5546.00    1.49955   1.45456   21.524
 5547.00    1.51523   1.45419   22.095
 5548.00    1.52158   1.45102   22.102
 5549.00    1.51677   1.44599   21.428
 5550.00    1.50080   1.44066   21.140
 5551.00    1.47826   1.43627   21.409
 5552.00    1.45682   1.43240   21.669
 5553.00    1.44237   1.42853   21.783
 5554.00    1.43751   1.42517   21.993
 5555.00    1.44086   1.42204   22.198
 5556.00    1.44779   1.41810   22.148
 5557.00    1.45219   1.41273   22.083
 5558.00    1.44879   1.40639   22.400
 5559.00    1.43635   1.40046   23.013
 5560.00    1.41726   1.39531   23.553
 5561.00    1.39636   1.39041   23.822
 5562.00    1.37955   1.38636   23.835
 5563.00    1.37205   1.38389   23.734
 5564.00    1.37481   1.38271   23.698
 5565.00    1.38179   1.38289   23.858
 5566.00    1.38654   1.38480   24.202
 5567.00    1.38816   1.38703   24.489
 5568.00    1.38855   1.38887   24.548
 5569.00    1.38981   1.39271   24.505
 5570.00    1.39464   1.39885   24.404
 5571.00    1.40600   1.40463   24.022
 5572.00    1.42279   1.40950   23.446
 5573.00    1.43793   1.41374   23.212
 5574.00    1.44364   1.41689   23.520
 5575.00    1.43564   1.41859   23.991
 5576.00    1.41951   1.41710   24.205
 5577.00    1.40931   1.41117   24.009
 5578.00    1.41014   1.40202   23.469
 5579.00    1.41377   1.39004   22.797
 5580.00    1.41044   1.37483   22.302
 5581.00    1.39430   1.35713   22.263
 5582.00    1.36625   1.33885   22.648
 5583.00    1.33328   1.32357   23.122
 5584.00    1.30414   1.31427   23.315
 5585.00    1.28659   1.31168   23.068
 5586.00    1.28391   1.31534   22.735
 5587.00    1.29480   1.32305   22.710
 5588.00    1.31519   1.33234   22.501
 5589.00    1.33961   1.34204   21.500
 5590.00    1.36306   1.35180   20.539
 5591.00    1.38127   1.36108   20.547
 5592.00    1.39054   1.36673   20.950
 5593.00    1.38808   1.36589   20.795
 5594.00    1.37286   1.36136   20.742
 5595.00    1.34966   1.35747   21.756
 5596.00    1.33325   1.35539   23.132
 5597.00    1.33723   1.35530   23.471
 5598.00    1.36132   1.35923   23.101
 5599.00    1.39721   1.36979   22.918
 5600.00    1.43590   1.38667   22.730
 5601.00    1.47006   1.40565   22.198
 5602.00    1.49563   1.42304   21.606
 5603.00    1.51282   1.43739   21.142
 5604.00    1.52586   1.44748   20.526
 5605.00    1.53566   1.45195   19.780
 5606.00    1.53615   1.45034   19.453
 5607.00    1.52201   1.44373   19.866
 5608.00    1.49329   1.43293   20.875
 5609.00    1.45416   1.41759   22.046
 5610.00    1.41186   1.39863   22.768
 5611.00    1.37532   1.38151   22.899
 5612.00    1.35290   1.37256   22.981
 5613.00    1.34607   1.37069   23.224
 5614.00    1.34922   1.37062   23.277
 5615.00    1.35762   1.37080   23.011
 5616.00    1.36967   1.37290   22.710
 5617.00    1.38481   1.37682   22.679
 5618.00    1.40178   1.37900   23.037
 5619.00    1.41623   1.37693   23.391
 5620.00    1.42295   1.37378   23.066
 5621.00    1.42253   1.37500   22.085
 5622.00    1.42102   1.38160   20.953
 5623.00    1.42568   1.39048   19.824
 5624.00    1.44147   1.40002   18.744
 5625.00    1.46654   1.41010   18.060
 5626.00    1.49450   1.41913   18.058
 5627.00    1.51929   1.42465   18.535
 5628.00    1.53393   1.42532   19.077
 5629.00    1.52833   1.42183   19.557
 5630.00    1.49918   1.41569   20.073
 5631.00    1.46111   1.40777   20.688
 5632.00    1.43146   1.39897   21.357
 5633.00    1.41302   1.39112   21.874
 5634.00    1.40071   1.38596   22.124
 5635.00    1.39004   1.38320   22.336
 5636.00    1.37972   1.38129   22.693
 5637.00    1.37261   1.38049   22.994
 5638.00    1.37021   1.38248   23.126
 5639.00    1.36976   1.38670   23.380
 5640.00    1.37242   1.39129   23.814
 5641.00    1.38638   1.39587   23.900
 5642.00    1.41350   1.40071   23.380
 5643.00    1.44378   1.40566   22.702
 5644.00    1.46673   1.40924   22.326
 5645.00    1.47803   1.41063   22.407
 5646.00    1.48195   1.41115   22.604
 5647.00    1.48761   1.41143   22.267
 5648.00    1.49147   1.40932   21.713
 5649.00    1.47846   1.40257   21.985
 5650.00    1.44809   1.39239   23.031
 5651.00    1.41692   1.38233   23.536
 5652.00    1.39922   1.37314   22.869
 5653.00    1.39906   1.36194   21.772
 5654.00    1.40588   1.35052   21.212
 5655.00    1.40373   1.34587   21.641
 5656.00    1.39422   1.34869   22.154
 5657.00    1.39013   1.35297   21.408
 5658.00    1.39297   1.35680   20.479
 5659.00    1.39591   1.36328   20.949
 5660.00    1.39678   1.37313   22.106
 5661.00    1.39817   1.38237   22.112
 5662.00    1.40406   1.38802   21.429
 5663.00    1.41715   1.39194   21.461
 5664.00    1.43597   1.39738   22.037
 5665.00    1.45585   1.40442   22.317
 5666.00    1.47088   1.41170   22.145
 5667.00    1.47804   1.41944   21.836
 5668.00    1.48086   1.42832   21.635
 5669.00    1.48479   1.43684   21.697
 5670.00    1.49244   1.44250   22.131
 5671.00    1.50206   1.44521   22.775
 5672.00    1.50735   1.44635   23.032
 5673.00    1.50285   1.44508   22.646
 5674.00    1.48786   1.43994   22.192
 5675.00    1.46715   1.43242   22.046
 5676.00    1.44981   1.42456   21.990
 5677.00    1.44185   1.41585   22.016
 5678.00    1.44273   1.40584   22.548
 5679.00    1.44849   1.39743   23.489
 5680.00    1.45488   1.39280   23.863
 5681.00    1.46312   1.39056   23.310
 5682.00    1.47855   1.38892   22.586
 5683.00    1.49737   1.38900   22.135
 5684.00    1.50699   1.39302   21.855
 5685.00    1.50310   1.40069   21.657
 5686.00    1.49212   1.40976   21.549
 5687.00    1.48237   1.41834   21.501
 5688.00    1.47949   1.42591   21.445
 5689.00    1.48196   1.43100   21.388
 5690.00    1.48339   1.43261   21.382
 5691.00    1.47982   1.43122   21.409
 5692.00    1.47169   1.42691   21.401
 5693.00    1.46439   1.41944   21.341
 5694.00    1.46365   1.40965   21.216
 5695.00    1.46807   1.40031   20.951
 5696.00    1.47191   1.39170   20.528
 5697.00    1.47102   1.38270   20.145
 5698.00    1.46395   1.37485   19.923
 5699.00    1.45224   1.36884   19.606
 5700.00    1.43775   1.36295   19.069
 5701.00    1.42009   1.35513   18.766
 5702.00    1.40068   1.34559   19.075
 5703.00    1.38645   1.33706   19.804
 5704.00    1.38224   1.33107   20.502
 5705.00    1.38471   1.32850   20.843
 5706.00    1.38902   1.33108   20.967
 5707.00    1.39406   1.33813   21.558
 5708.00    1.39976   1.34944   22.774
 5709.00    1.40525   1.36547   23.476
 5710.00    1.40996   1.38300   22.940
 5711.00    1.41441   1.39939   22.145
 5712.00    1.42085   1.41438   21.934
 5713.00    1.43232   1.42752   22.332
 5714.00    1.44731   1.43883   22.854
 5715.00    1.45944   1.44860   22.713
 5716.00    1.46620   1.45630   21.850
 5717.00    1.47192   1.46195   -2.000
 5718.00    1.48589   1.46543   -2.000
 5719.00    1.51815   1.46660   -2.000
 5720.00    1.56928   1.46594   -2.000
 5721.00    1.62712   1.46333   -2.000
 5722.00    1.66708   1.45813   -2.000
 5723.00    1.66547   1.45198   -2.000
 5724.00    1.62925   1.44850   -2.000
 5725.00    1.58816   1.44762   -2.000
 5726.00    1.56376   1.44632   -2.000
 5727.00    1.56211   1.44419   -2.000
 5728.00    1.57308   1.44451   -2.000
 5729.00    1.58004   1.44840   -2.000
 5730.00    1.57508   1.45249   -2.000
 5731.00    1.55825   1.45467   -2.000
 5732.00    1.53277   1.45537   -2.000
 5733.00    1.50288   1.45563   -2.000
 5734.00    1.47219   1.45564   -2.000
 5735.00    1.44593   1.45509   -2.000
 5736.00    1.43283   1.45446   20.628
 5737.00    1.43647   1.45391   20.488
 5738.00    1.44816   1.45281   20.766
 5739.00    1.45766   1.45136   21.155
 5740.00    1.46231   1.45094    0.000
 5741.00    1.46227   1.45136    0.000
 5742.00    1.45705   1.45023    0.000
 5743.00    1.44912   1.44570    0.000
 5744.00    1.44502   1.43936    0.000
 5745.00    1.44783   1.43472    0.000
 5746.00    1.45320   1.43173    0.000
 5747.00    1.45192   1.42785    0.000
 5748.00    1.43508   1.42254    0.000
 5749.00    1.40980   1.41832    0.000
 5750.00    1.39862   1.41801    0.000
 5751.00    1.41140   1.42183    0.000
 5752.00    1.43795   1.42656    0.000
 5753.00    1.46118   1.42907    0.000
 5754.00    1.46628   1.42937    0.000
 5755.00    1.45366   1.42842    0.000
 5756.00    1.43660   1.42676    0.000
 5757.00    1.42564   1.42492    0.000
 5758.00    1.42461   1.42426    0.000
 5759.00    1.43139   1.42735    0.000
 5760.00    1.44044   1.43522    0.000
 5761.00    1.44747   1.44461    0.000
 5762.00    1.45067   1.45250    0.000
 5763.00    1.45123   1.45853    0.000
 5764.00    1.45262   1.46262    0.000
 5765.00    1.45903   1.46408    0.000
 5766.00    1.47026   1.46270    0.000
 5767.00    1.47602   1.45925    0.000
 5768.00    1.46803   1.45504    0.000
 5769.00    1.45382   1.45119    0.000
 5770.00    1.44269   1.44707    0.000
 5771.00    1.43054   1.44189    0.000
 5772.00    1.41156   1.43539    0.000
 5773.00    1.38955   1.42691    0.000
 5774.00    1.37221   1.41635    0.000
 5775.00    1.36479   1.40335    0.000
 5776.00    1.36322   1.38768    0.000
 5777.00    1.35261   1.37221    0.000
 5778.00    1.32724   1.36185    0.000
 5779.00    1.30023   1.35753    0.000
 5780.00    1.28807   1.35668    0.000
 5781.00    1.30041   1.35853    0.000
 5782.00    1.33502   1.36542    0.000
 5783.00    1.37794   1.37705    0.000
 5784.00    1.41392   1.38941    0.000
 5785.00    1.43262   1.40036    0.000
 5786.00    1.43475   1.40942    0.000
 5787.00    1.43059   1.41753    0.000
 5788.00    1.42842   1.42559    0.000
 5789.00    1.43113   1.43241    0.000
 5790.00    1.43769   1.43804    0.000
 5791.00    1.44576   1.44350    0.000
 5792.00    1.45683   1.44805    0.000
 5793.00    1.47347   1.45101    0.000
 5794.00    1.49076   1.45409    0.000
 5795.00    1.50077   1.45894    0.000
 5796.00    1.50407   1.46364    0.000
 5797.00    1.50567   1.46576    0.000
 5798.00    1.50491   1.46567    0.000
 5799.00    1.49954   1.46385    0.000
 5800.00    1.49367   1.46042    0.000
 5801.00    1.49187   1.45692    0.000
 5802.00    1.49064   1.45491    0.000
 5803.00    1.48556   1.45454    0.000
 5804.00    1.47993   1.45500    0.000
 5805.00    1.47870   1.45596    0.000
 5806.00    1.48152   1.45740    0.000
 5807.00    1.48316   1.45815    0.000
 5808.00    1.47584   1.45750    0.000
 5809.00    1.46027   1.45643    0.000
 5810.00    1.45118   1.45559    0.000
 5811.00    1.45713   1.45481    0.000
 5812.00    1.46923   1.45509    0.000
 5813.00    1.47827   1.45833    0.000
 5814.00    1.48411   1.46433    0.000
 5815.00    1.48854   1.47042    0.000
 5816.00    1.49140   1.47536    0.000
 5817.00    1.49124   1.47948    0.000
 5818.00    1.48655   1.48260    0.000
 5819.00    1.47917   1.48436    0.000
 5820.00    1.47411   1.48533    0.000
 5821.00    1.47419   1.48630    0.000
 5822.00    1.47893   1.48685    0.000
 5823.00    1.48739   1.48674    0.000
 5824.00    1.49827   1.48661    0.000
 5825.00    1.50804   1.48652    0.000
 5826.00    1.51280   1.48554    0.000
 5827.00    1.51365   1.48341    0.000
 5828.00    1.51593   1.48128    0.000
 5829.00    1.52479   1.47919    0.000
 5830.00    1.54043   1.47647    0.000
 5831.00    1.55189   1.47441    0.000
 5832.00    1.54630   1.47468    0.000
 5833.00    1.52510   1.47623    0.000
 5834.00    1.50005   1.47750    0.000
 5835.00    1.48366   1.47938    0.000
 5836.00    1.48120   1.48243    0.000
 5837.00    1.48364   1.48493    0.000
 5838.00    1.47963   1.48509    0.000
 5839.00    1.46888   1.48290    0.000
 5840.00    1.45591   1.47913    0.000
 5841.00    1.44297   1.47405    0.000
 5842.00    1.43124   1.46766    0.000
 5843.00    1.42251   1.46027    0.000
 5844.00    1.42028   1.45251    0.000
 5845.00    1.42931   1.44490    0.000
 5846.00    1.44754   1.43771    0.000
 5847.00    1.46287   1.43026    0.000
 5848.00    1.46510   1.42123    0.000
 5849.00    1.45294   1.41094    0.000
 5850.00    1.43399   1.40230    0.000
 5851.00    1.42128   1.39676    0.000
 5852.00    1.41920   1.39228    0.000
 5853.00    1.42101   1.38790    0.000
 5854.00    1.42283   1.38615    0.000
 5855.00    1.42675   1.38944    0.000
 5856.00    1.43275   1.39606    0.000
 5857.00    1.43785   1.40267    0.000
 5858.00    1.44183   1.40761    0.000
 5859.00    1.44844   1.41251    0.000
 5860.00    1.46374   1.41887    0.000
 5861.00    1.48944   1.42502    0.000
 5862.00    1.50965   1.42926    0.000
 5863.00    1.50283   1.43270    0.000
 5864.00    1.47081   1.43736    0.000
 5865.00    1.43381   1.44253    0.000
 5866.00    1.41144   1.44659    0.000
 5867.00    1.41356   1.44889    0.000
 5868.00    1.43227   1.44934    0.000
 5869.00    1.45153   1.44832    0.000
 5870.00    1.46181   1.44633    0.000
 5871.00    1.46004   1.44301    0.000
 5872.00    1.44725   1.43761    0.000
 5873.00    1.42736   1.43125    0.000
 5874.00    1.40624   1.42508    0.000
 5875.00    1.39175   1.41831    0.000
 5876.00    1.39278   1.41017    0.000
 5877.00    1.40911   1.40174    0.000
 5878.00    1.42517   1.39281    0.000
 5879.00    1.42326   1.38007    0.000
 5880.00    1.39412   1.36025    0.000
 5881.00    1.34206   1.33249    0.000
 5882.00    1.28443   1.29966    0.000
 5883.00    1.23330   1.26598    0.000
 5884.00    1.18819   1.23158    0.000
 5885.00    1.14946   1.19647    0.000
 5886.00    1.12332   1.16722    0.000
 5887.00    1.11454   1.15073    0.000
 5888.00    1.12303   1.14629    0.000
 5889.00    1.14339   1.15019    0.000
 5890.00    1.16734   1.15931    0.000
 5891.00    1.19158   1.17094    0.000
 5892.00    1.21826   1.18744    0.000
 5893.00    1.24902   1.21366    0.000
 5894.00    1.28296   1.24643    0.000
 5895.00    1.31609   1.27799    0.000
 5896.00    1.34294   1.30641    0.000
 5897.00    1.36031   1.33332    0.000
 5898.00    1.36754   1.35729    0.000
 5899.00    1.36549   1.37560    0.000
 5900.00    1.35747   1.38845    0.000
 5901.00    1.35085   1.39709   24.251
 5902.00    1.35230   1.40277   24.422
 5903.00    1.36077   1.40731   24.610
 5904.00    1.37178   1.41099   24.790
 5905.00    1.38385   1.41211   24.851
 5906.00    1.39473   1.41044   24.667
 5907.00    1.39693   1.40814   24.216
 5908.00    1.38669   1.40559   23.684
 5909.00    1.37226   1.40184   23.473
 5910.00    1.36361   1.39753   23.715
 5911.00    1.36296   1.39515   23.968
 5912.00    1.36743   1.39605   23.852
 5913.00    1.37237   1.39904   23.578
 5914.00    1.37669   1.40283   23.345
 5915.00    1.38523   1.40730   23.021
 5916.00    1.40255   1.41236   22.671
 5917.00    1.42876   1.41674   22.679
 5918.00    1.45808   1.41962   23.015
 5919.00    1.48013   1.42138   23.043
 5920.00    1.48868   1.42229   22.576
 5921.00    1.48456   1.42185   22.172
 5922.00    1.47106   1.41996   22.208
 5923.00    1.45283   1.41786   22.654
 5924.00    1.43871   1.41600   23.224
 5925.00    1.43877   1.41359   23.519
 5926.00    1.45247   1.41070   23.530
 5927.00    1.46877   1.40963   23.577
 5928.00    1.47675   1.41136   23.618
 5929.00    1.47003   1.41328   23.379
 5930.00    1.45022   1.41391   23.127
 5931.00    1.42519   1.41511   23.362
 5932.00    1.40387   1.41793   23.957
 5933.00    1.39398   1.42024   24.338
 5934.00    1.39985   1.42096   24.256
 5935.00    1.41995   1.42137   23.769
 5936.00    1.44386   1.42163   22.861
 5937.00    1.45798   1.42110   21.758
 5938.00    1.45424   1.42074   21.196
 5939.00    1.43428   1.42128   21.605
 5940.00    1.41199   1.42138   22.397
 5941.00    1.40016   1.42035   22.662
 5942.00    1.39666   1.41948   22.363
 5943.00    1.39406   1.41851   22.027
 5944.00    1.38996   1.41524   22.101
 5945.00    1.38388   1.41043   22.608
 5946.00    1.37446   1.40788   22.966
 5947.00    1.36215   1.40774   22.860
 5948.00    1.35134   1.40634   22.883
 5949.00    1.34921   1.40365   23.376
 5950.00    1.36318   1.40365   23.800
 5951.00    1.39136   1.40678   23.665
 5952.00    1.41969   1.40974   23.167
 5953.00    1.43536   1.41204   22.805
 5954.00    1.43400   1.41606   23.002
 5955.00    1.42094   1.42205   23.588
 5956.00    1.40892   1.42803   23.804
 5957.00    1.40805   1.43272   23.606
 5958.00    1.42123   1.43624   23.777
 5959.00    1.44238   1.43922   24.276
 5960.00    1.46006   1.44167   24.193
 5961.00    1.46921   1.44323   23.506
 5962.00    1.47226   1.44438   23.017
 5963.00    1.47271   1.44636   22.893
 5964.00    1.47272   1.44891   22.779
 5965.00    1.47172   1.45069   22.570
 5966.00    1.46784   1.45122   22.354
 5967.00    1.46133   1.45029   22.023
 5968.00    1.45249   1.44731   21.526
 5969.00    1.43742   1.44234   21.342
 5970.00    1.41421   1.43632   21.922
 5971.00    1.39304   1.42983   22.857
 5972.00    1.38749   1.42358   23.271
 5973.00    1.40097   1.41863   22.956
 5974.00    1.42557   1.41533   22.343
 5975.00    1.44431   1.41270   21.937
 5976.00    1.44602   1.40993   21.964
 5977.00    1.43915   1.40742   22.200
 5978.00    1.43679   1.40542   22.293
 5979.00    1.44190   1.40300   22.106
 5980.00    1.44900   1.40032   21.778
 5981.00    1.44813   1.40003   21.649
 5982.00    1.43552   1.40323   21.845
 5983.00    1.41933   1.40738   22.087
 5984.00    1.40819   1.41107   22.185
 5985.00    1.40414   1.41601   22.320
 5986.00    1.40535   1.42198   22.612
 5987.00    1.40854   1.42619   22.914
 5988.00    1.41232   1.42792   23.078
 5989.00    1.41788   1.42891   23.104
 5990.00    1.42508   1.42924   23.098
 5991.00    1.43172   1.42773   23.170
 5992.00    1.43692   1.42473   23.188
 5993.00    1.44118   1.42136   22.884
 5994.00    1.44241   1.41790   22.467
 5995.00    1.43761   1.41468   22.408
 5996.00    1.43088   1.41252   22.491
 5997.00    1.43117   1.41108   22.120
 5998.00    1.44120   1.40873   21.620
 5999.00    1.45598   1.40500   21.726
 6000.00    1.46605   1.40135   22.133
 6001.00    1.46251   1.39884   22.044
 6002.00    1.44500   1.39708   21.896
 6003.00    1.42085   1.39532   22.561
 6004.00    1.40067   1.39340   23.560
 6005.00    1.39199   1.39262   23.678
 6006.00    1.39133   1.39429   23.013
 6007.00    1.39044   1.39662   22.514
 6008.00    1.38568   1.39644   22.739
 6009.00    1.37791   1.39404   23.662
 6010.00    1.37054   1.39267   24.364
 6011.00    1.36508   1.39261   24.025
 6012.00    1.35763   1.39082   23.324
 6013.00    1.34624   1.38750   23.134
 6014.00    1.33684   1.38610   23.516
 6015.00    1.33565   1.38674   24.032
 6016.00    1.34309   1.38698   24.005
 6017.00    1.35464   1.38788   23.451
 6018.00    1.36300   1.39180   23.355
 6019.00    1.36509   1.39739   24.002
 6020.00    1.36488   1.40302   24.371
 6021.00    1.36667   1.40985   23.977
 6022.00    1.37217   1.41800   23.642
 6023.00    1.38416   1.42527   23.440
 6024.00    1.40593   1.43165   22.517
 6025.00    1.43231   1.43858   21.505
 6026.00    1.45067   1.44493   21.882
 6027.00    1.45698   1.44936   22.549
 6028.00    1.45799   1.45284   20.862
 6029.00    1.46001   1.45626   20.186
 6030.00    1.46518   1.45859   25.882
 6031.00    1.47120   1.45922   27.397
 6032.00    1.47367   1.45893   13.116
 6033.00    1.47160   1.45839    7.406
 6034.00    1.46649   1.45750    6.278
 6035.00    1.45789   1.45636    6.721
 6036.00    1.44611   1.45580    7.155
 6037.00    1.43849   1.45621    7.001
 6038.00    1.44273   1.45734    6.792
 6039.00    1.45500   1.45931    6.842
 6040.00    1.46643   1.46224    7.039
 6041.00    1.47470   1.46487    6.817
 6042.00    1.48325   1.46659    6.235
 6043.00    1.49761   1.46794    6.662
 6044.00    1.51821   1.46834   10.323
 6045.00    1.53398   1.46667   22.849
 6046.00    1.53306   1.46357   29.635
 6047.00    1.51358   1.46019   22.958
 6048.00    1.48194   1.45585   21.706
 6049.00    1.44976   1.45037   23.863
 6050.00    1.42718   1.44555   24.411
 6051.00    1.41795   1.44255   23.891
 6052.00    1.41976   1.44054   24.169
 6053.00    1.42581   1.43897   24.475
 6054.00    1.43161   1.43826   23.767
 6055.00    1.43798   1.43807   22.262
 6056.00    1.44672   1.43737   20.527
 6057.00    1.45799   1.43524   18.930
 6058.00    1.46918   1.43216   17.820
 6059.00    1.47579   1.43048   17.507
 6060.00    1.47672   1.43124   17.965
 6061.00    1.47548   1.43310   18.858
 6062.00    1.47701   1.43658   19.836
 6063.00    1.48482   1.44386   20.660
 6064.00    1.49608   1.45347   21.294
 6065.00    1.50405   1.46167   21.851
 6066.00    1.50791   1.46775   22.256
 6067.00    1.51098   1.47234   22.353
 6068.00    1.51077   1.47475   22.468
 6069.00    1.50197   1.47398   23.078
 6070.00    1.48644   1.46995   23.881
 6071.00    1.47117   1.46331   24.157
 6072.00    1.46123   1.45572   24.107
 6073.00    1.45937   1.44799   24.422
 6074.00    1.46732   1.43914   25.118
 6075.00    1.48421   1.43012   25.458
 6076.00    1.50436   1.42413   24.291
 6077.00    1.51921   1.42063   21.771
 6078.00    1.52035   1.41670   19.706
 6079.00    1.50511   1.41362   18.948
 6080.00    1.48090   1.41372   19.006
 6081.00    1.45526   1.41466   19.258
 6082.00    1.42733   1.41371   19.594
 6083.00    1.39676   1.41260   20.141
 6084.00    1.37077   1.41325   20.989
 6085.00    1.35775   1.41386   21.961
 6086.00    1.36183   1.41305   22.448
 6087.00    1.38003   1.41341   22.143
 6088.00    1.40223   1.41653   21.550
 6089.00    1.41958   1.41972   21.276
 6090.00    1.42906   1.42171   21.642
 6091.00    1.43264   1.42409   22.428
 6092.00    1.43510   1.42630   22.854
 6093.00    1.43719   1.42584   22.831
 6094.00    1.43499   1.42170   23.196
 6095.00    1.42804   1.41464   23.987
 6096.00    1.41970   1.40773   24.203
 6097.00    1.40860   1.40326   23.740
 6098.00    1.38973   1.39899   23.569
 6099.00    1.36553   1.39453   24.094
 6100.00    1.34605   1.39474   25.005
 6101.00    1.34149   1.40121   25.677
 6102.00    1.35656   1.40913   25.561
 6103.00    1.38300   1.41535   24.983
 6104.00    1.40629   1.42064   24.543
 6105.00    1.42116   1.42660   23.904
 6106.00    1.43012   1.43288   22.560
 6107.00    1.43600   1.43690   21.025
 6108.00    1.44060   1.43761   19.953
 6109.00    1.44451   1.43717   19.367
 6110.00    1.44644   1.43701   19.191
 6111.00    1.44285   1.43502   19.706
 6112.00    1.43325   1.42928   21.065
 6113.00    1.42530   1.42143   22.455
 6114.00    1.42487   1.41343   22.933
 6115.00    1.42679   1.40492   23.179
 6116.00    1.42759   1.39746   -2.000
 6117.00    1.43610   1.39273   -2.000
 6118.00    1.46178   1.38932   -2.000
 6119.00    1.50500   1.38795   -2.000
 6120.00    1.55670   1.39129   -2.000
 6121.00    1.59990   1.39671   -2.000
 6122.00    1.61744   1.40083   -2.000
 6123.00    1.59862   1.40496   -2.000
 6124.00    1.54927   1.40921   -2.000
 6125.00    1.49239   1.41110   -2.000
 6126.00    1.44747   1.41040   -2.000
 6127.00    1.42086   1.40749   -2.000
 6128.00    1.40680   1.40094   19.590
 6129.00    1.39258   1.38977   19.914
 6130.00    1.37448   1.37642   21.457
 6131.00    1.35923   1.36579   22.862
 6132.00    1.35107   1.35938   23.420
 6133.00    1.34951   1.35473   24.013
 6134.00    1.35448   1.35304   24.805
 6135.00    1.36530   1.35965   25.008
 6136.00    1.37513   1.37326   24.677
 6137.00    1.37643   1.38580   24.504
 6138.00    1.37453   1.39471   24.327
 6139.00    1.38067   1.40396   23.602
 6140.00    1.39454   1.41371   22.648
 6141.00    1.40673   1.41907   22.088
 6142.00    1.40804   1.41951   22.022
 6143.00    1.39603   1.41839   22.282
 6144.00    1.38140   1.41691   22.752
 6145.00    1.37696   1.41445   23.238
 6146.00    1.38332   1.41141   23.295
 6147.00    1.39292   1.40783   22.621
 6148.00    1.39671   1.40451   21.518
 6149.00    1.38956   1.40178   20.574
 6150.00    1.37433   1.39709   20.330
 6151.00    1.35752   1.38874   21.016
 6152.00    1.34474   1.37898   22.394
 6153.00    1.33694   1.36757   23.965
 6154.00    1.32898   1.35130   25.181
 6155.00    1.31764   1.33291   25.715
 6156.00    1.30609   1.31813   25.723
 6157.00    1.29923   1.30649   25.571
 6158.00    1.30034   1.29573   25.516
 6159.00    1.30905   1.28952   25.395
 6160.00    1.32114   1.29182   24.756
 6161.00    1.33183   1.29801   23.930
 6162.00    1.33747   1.30165   23.835
 6163.00    1.33625   1.30555   24.372
 6164.00    1.32899   1.31422   24.396
 6165.00    1.32097   1.32228   23.691
 6166.00    1.31962   1.32556   23.145
 6167.00    1.32643   1.33100   23.062
 6168.00    1.33781   1.34155   23.132
 6169.00    1.35351   1.35041   23.153
 6170.00    1.37324   1.35596   23.156
 6171.00    1.38452   1.36346   23.280
 6172.00    1.37280   1.37170   23.621
 6173.00    1.34608   1.37664   23.987
 6174.00    1.32677   1.38089   24.004
 6175.00    1.32866   1.38643   23.476
 6176.00    1.35112   1.38985   22.632
 6177.00    1.37749   1.39040   22.153
 6178.00    1.39039   1.39055   22.438
 6179.00    1.39179   1.38861   22.863
 6180.00    1.39415   1.38274   22.332
 6181.00    1.40610   1.37516   20.521
 6182.00    1.42387   1.36767   18.364
 6183.00    1.42647   1.35853   17.217
 6184.00    1.39886   1.34772   17.598
 6185.00    1.35186   1.34037   19.161
 6186.00    1.30672   1.33912   21.183
 6187.00    1.28018   1.33956   22.793
 6188.00    1.27772   1.34007   23.399
 6189.00    1.29126   1.34558   23.318
 6190.00    1.31081   1.35578   23.209
 6191.00    1.33119   1.36362   23.477
 6192.00    1.34824   1.36759   24.013
 6193.00    1.35765   1.37133   24.198
 6194.00    1.36056   1.37582   23.879
 6195.00    1.36424   1.37883   23.639
 6196.00    1.37307   1.37998   23.619
 6197.00    1.38530   1.38191   23.387
 6198.00    1.39506   1.38626   23.052
 6199.00    1.39594   1.39110   23.262
 6200.00    1.38917   1.39420   24.128
 6201.00    1.38204   1.39576   25.057
 6202.00    1.37620   1.39609   25.332
 6203.00    1.36807   1.39405   24.737
 6204.00    1.35810   1.38895   24.151
 6205.00    1.35028   1.38136   24.545
 6206.00    1.34602   1.37109   25.272
 6207.00    1.34285   1.35895   24.917
 6208.00    1.33480   1.34696   24.176
 6209.00    1.31670   1.33598   24.518
 6210.00    1.29115   1.32641   25.643
 6211.00    1.26596   1.31955   26.273
 6212.00    1.24866   1.31520   26.185
 6213.00    1.24425   1.31324   25.907
 6214.00    1.25328   1.31471   25.488
 6215.00    1.27162   1.31797   24.871
 6216.00    1.29081   1.32043   24.389
 6217.00    1.30328   1.32297   24.316
 6218.00    1.30729   1.32711   24.494
 6219.00    1.30515   1.33080   24.653
 6220.00    1.30083   1.33164   24.691
 6221.00    1.29659   1.33047   24.685
 6222.00    1.29112   1.32829   24.826
 6223.00    1.28442   1.32355   25.143
 6224.00    1.28041   1.31781   25.361
 6225.00    1.28243   1.31444   25.357
 6226.00    1.29040   1.31226   25.384
 6227.00    1.30129   1.31125   25.644
 6228.00    1.31039   1.31451   26.059
 6229.00    1.31602   1.32074   26.278
 6230.00    1.32031   1.32589   25.887
 6231.00    1.32416   1.33022   25.224
 6232.00    1.32606   1.33262   25.151
 6233.00    1.32526   1.33068   25.746
 6234.00    1.32245   1.32651   26.213
 6235.00    1.31795   1.32139   25.896
 6236.00    1.31088   1.31398   24.885
 6237.00    1.29853   1.30715   24.054
 6238.00    1.27947   1.30442   24.225
 6239.00    1.26076   1.30280   25.009
 6240.00    1.25412   1.30154   25.255
 6241.00    1.26439   1.30447   24.914
 6242.00    1.28744   1.30908   24.713
 6243.00    1.31112   1.31172   24.584
 6244.00    1.32344   1.31378   24.191
 6245.00    1.32498   1.31416   24.053
 6246.00    1.32333   1.31065   24.702
 6247.00    1.32246   1.30496   25.415
 6248.00    1.32147   1.29800   25.244
 6249.00    1.31524   1.28933   24.883
 6250.00    1.29970   1.28156   25.240
 6251.00    1.27718   1.27653   25.878
 6252.00    1.25366   1.27480   26.163
 6253.00    1.23555   1.27684   26.581
 6254.00    1.22853   1.28143   27.533
 6255.00    1.23647   1.28830   28.174
 6256.00    1.25787   1.29925   27.812
 6257.00    1.28417   1.31182   27.164
 6258.00    1.30613   1.32083   26.784
 6259.00    1.31866   1.32870   26.313
 6260.00    1.32357   1.33759   25.518
 6261.00    1.32877   1.34304   24.711
 6262.00    1.33732   1.34443   24.244
 6263.00    1.34403   1.34680   24.252
 6264.00    1.34556   1.35042   24.405
 6265.00    1.34392   1.35245   24.047
 6266.00    1.34250   1.35386   23.341
 6267.00    1.34345   1.35607   23.141
 6268.00    1.34479   1.35840   23.571
 6269.00    1.34228   1.36021   24.031
 6270.00    1.33747   1.36093   24.290
 6271.00    1.33674   1.36033   24.586
 6272.00    1.34271   1.35913   24.749
 6273.00    1.35294   1.35715   24.457
 6274.00    1.36261   1.35476   24.343
 6275.00    1.36752   1.35354   25.211
 6276.00    1.36874   1.35365   26.107
 6277.00    1.36961   1.35472   25.293
 6278.00    1.36900   1.35777   23.728
 6279.00    1.36475   1.36279   23.120
 6280.00    1.36033   1.36862    0.000
 6281.00    1.36093   1.37442    0.000
 6282.00    1.36696   1.37885    0.000
 6283.00    1.37485   1.38180    0.000
 6284.00    1.37931   1.38330    0.000
 6285.00    1.37746   1.38287    0.000
 6286.00    1.37231   1.38022    0.000
 6287.00    1.36787   1.37572    0.000
 6288.00    1.36451   1.37055    0.000
 6289.00    1.36013   1.36473    0.000
 6290.00    1.35203   1.35787    0.000
 6291.00    1.34095   1.35159    0.000
 6292.00    1.33284   1.34647    0.000
 6293.00    1.33229   1.34123    0.000
 6294.00    1.33861   1.33630    0.000
 6295.00    1.34785   1.33345    0.000
 6296.00    1.35472   1.33367    0.000
 6297.00    1.35607   1.33590    0.000
 6298.00    1.35197   1.33850    0.000
 6299.00    1.34330   1.34264    0.000
 6300.00    1.33111   1.34982    0.000
 6301.00    1.31851   1.35745    0.000
 6302.00    1.30986   1.36260    0.000
 6303.00    1.30623   1.36614    0.000
 6304.00    1.30537   1.36846    0.000
 6305.00    1.30557   1.36784    0.000
 6306.00    1.30571   1.36481    0.000
 6307.00    1.30260   1.35965    0.000
 6308.00    1.29350   1.35186    0.000
 6309.00    1.28265   1.34459    0.000
 6310.00    1.27729   1.33966    0.000
 6311.00    1.27761   1.33352    0.000
 6312.00    1.28072   1.32748    0.000
 6313.00    1.29012   1.32732    0.000
 6314.00    1.31094   1.33046    0.000
 6315.00    1.34082   1.33259    0.000
 6316.00    1.37099   1.33763    0.000
 6317.00    1.39016   1.34690    0.000
 6318.00    1.39371   1.35586    0.000
 6319.00    1.39234   1.36295    0.000
 6320.00    1.39646   1.36973    0.000
 6321.00    1.40090   1.37635   22.685
 6322.00    1.39596   1.38139   22.771
 6323.00    1.37857   1.38412   23.451
 6324.00    1.35386   1.38452   25.057
 6325.00    1.33404   1.38405   26.134
 6326.00    1.32714   1.38287   25.682
 6327.00    1.33052   1.37930   25.258
 6328.00    1.33777   1.37366   25.780
 6329.00    1.34331   1.36745   26.247
 6330.00    1.34302   1.36244   25.995
 6331.00    1.33553   1.35821   25.749
 6332.00    1.32706   1.35328   25.754
 6333.00    1.32986   1.35018   25.308
 6334.00    1.34765   1.35103   24.270
 6335.00    1.37196   1.35282   23.254
 6336.00    1.39073   1.35298   22.488
 6337.00    1.39454   1.35356   21.858
 6338.00    1.38557   1.35559   21.620
 6339.00    1.37562   1.35752   22.194
 6340.00    1.37342   1.35860   23.177
 6341.00    1.38080   1.36051   23.505
 6342.00    1.39224   1.36497   23.291
 6343.00    1.39996   1.36955   23.389
 6344.00    1.40415   1.37221   23.246
 6345.00    1.41024   1.37439   21.885
 6346.00    1.42011   1.37596   20.228
 6347.00    1.43046   1.37433   19.484
 6348.00    1.43331   1.36925   19.675
 6349.00    1.42224   1.36299   20.452
 6350.00    1.40064   1.35607   21.810
 6351.00    1.37623   1.34644   23.778
 6352.00    1.35293   1.33512   25.642
 6353.00    1.33222   1.32622   26.266
 6354.00    1.31545   1.31907   25.547
 6355.00    1.30242   1.31124   24.431
 6356.00    1.29047   1.30582   23.973
 6357.00    1.28120   1.30575   24.301
 6358.00    1.28444   1.30879   24.202
 6359.00    1.30457   1.31349   23.196
 6360.00    1.33195   1.32130   22.661
 6361.00    1.35535   1.33219   23.249
 6362.00    1.37049   1.34388   23.931
 6363.00    1.37897   1.35457   23.592
 6364.00    1.38613   1.36447   22.327
 6365.00    1.39429   1.37412   20.798
 6366.00    1.40028   1.38234   19.533
 6367.00    1.39976   1.38813   18.751
 6368.00    1.39014   1.39213   18.508
 6369.00    1.37411   1.39544   18.981
 6370.00    1.35937   1.39740   20.444
 6371.00    1.35315   1.39672   22.530
 6372.00    1.35934   1.39462   23.764
 6373.00    1.37582   1.39279   23.556
 6374.00    1.39554   1.39050   22.910
 6375.00    1.41130   1.38753   22.167
 6376.00    1.41832   1.38613   21.177
 6377.00    1.41702   1.38600   20.649
 6378.00    1.41180   1.38575   21.405
 6379.00    1.40737   1.38679   22.894
 6380.00    1.40650   1.38890   23.503
 6381.00    1.40751   1.38988   23.007
 6382.00    1.40635   1.38984   22.429
 6383.00    1.40058   1.38927   22.228
 6384.00    1.39089   1.38753   22.408
 6385.00    1.38199   1.38426   22.901
 6386.00    1.37704   1.37937   23.363
 6387.00    1.37163   1.37394   22.948
 6388.00    1.36141   1.37039   21.584
 6389.00    1.35044   1.36761   20.648
 6390.00    1.34671   1.36381   20.768
 6391.00    1.35645   1.36274   20.897
 6392.00    1.37646   1.36449   20.389
 6393.00    1.39073   1.36400   20.445
 6394.00    1.38859   1.36307   21.881
 6395.00    1.37597   1.36614   23.771
 6396.00    1.36290   1.36921   24.723
 6397.00    1.35479   1.36987   24.769
 6398.00    1.35092   1.37321   24.710
 6399.00    1.34573   1.37825   25.139
 6400.00    1.33819   1.37994   26.030
 6401.00    1.33406   1.37857   26.673
 6402.00    1.33667   1.37730   26.629
 6403.00    1.34389   1.37682   26.193
 6404.00    1.35206   1.37406   25.778
 6405.00    1.35777   1.36982   25.534
 6406.00    1.35886   1.36927   25.078
 6407.00    1.35489   1.37030   23.985
 6408.00    1.34767   1.36890   23.019
 6409.00    1.34117   1.36859   23.210
 6410.00    1.34089   1.37035   23.953
 6411.00    1.35046   1.37020   23.679
 6412.00    1.36504   1.36899   22.879
 6413.00    1.37530   1.36878   22.975
 6414.00    1.37762   1.36791   23.419
 6415.00    1.37512   1.36743   22.862
 6416.00    1.37579   1.36982   22.019
 6417.00    1.38559   1.37365   22.164
 6418.00    1.39936   1.37748   23.012
 6419.00    1.40689   1.38284   23.665
 6420.00    1.40249   1.38866   24.225
 6421.00    1.38656   1.39166   25.231
 6422.00    1.36560   1.39234   26.463
 6423.00    1.34766   1.39158   27.258
 6424.00    1.33777   1.38838   27.291
 6425.00    1.33673   1.38428   26.748
 6426.00    1.34098   1.38154   26.128
 6427.00    1.34752   1.37914   25.731
 6428.00    1.35719   1.37716   25.450
 6429.00    1.37096   1.37739   25.150
 6430.00    1.38684   1.37911   24.869
 6431.00    1.39743   1.38055   24.611
 6432.00    1.39159   1.38084   24.292
 6433.00    1.37000   1.38202   24.041
 6434.00    1.34903   1.38593   24.195
 6435.00    1.34079   1.38982   24.688
 6436.00    1.34531   1.39300   24.913
 6437.00    1.35753   1.39837   24.543
 6438.00    1.37140   1.40384   23.867
 6439.00    1.38401   1.40545   23.363
 6440.00    1.39508   1.40378   23.395
 6441.00    1.40128   1.40033   23.883
 6442.00    1.39651   1.39370   24.437
 6443.00    1.37754   1.38335   25.035
 6444.00    1.34758   1.37370   25.928
 6445.00    1.32044   1.36755   26.692
 6446.00    1.31280   1.36220   26.538
 6447.00    1.32659   1.35945   25.879
 6448.00    1.35125   1.36219   25.635
 6449.00    1.37485   1.36631   25.643
 6450.00    1.38852   1.37048   25.309
 6451.00    1.39006   1.37642   24.907
 6452.00    1.38349   1.38110   24.925
 6453.00    1.37690   1.38303   25.051
 6454.00    1.37593   1.38508   24.813
 6455.00    1.37653   1.38569   24.479
 6456.00    1.37301   1.38245   24.432
 6457.00    1.36742   1.38016   24.483
 6458.00    1.36651   1.38081   24.283
 6459.00    1.37694   1.38008   23.790
 6460.00    1.39678   1.38022   23.286
 6461.00    1.41088   1.38419   23.243
 6462.00    1.40826   1.38778   23.805
 6463.00    1.39353   1.38958   24.509
 6464.00    1.37533   1.39180   24.943
 6465.00    1.35848   1.39282   25.262
 6466.00    1.34667   1.39239   25.577
 6467.00    1.34361   1.39304   25.642
 6468.00    1.34994   1.39280   25.529
 6469.00    1.36235   1.39136   25.728
 6470.00    1.37685   1.39188   26.044
 6471.00    1.39056   1.39251   25.566
 6472.00    1.40307   1.39022   24.671
 6473.00    1.41522   1.38777   24.703
 6474.00    1.42376   1.38628   25.347
 6475.00    1.42264   1.38237   24.886
 6476.00    1.41215   1.37720   23.756
 6477.00    1.39941   1.37449   23.788
 6478.00    1.39213   1.37301   24.722
 6479.00    1.39420   1.37116   24.770
 6480.00    1.39957   1.37044   24.033
 6481.00    1.39775   1.37059   23.938
 6482.00    1.38689   1.36924   24.436
 6483.00    1.37157   1.36490   24.610
 6484.00    1.35427   1.35682   24.492
 6485.00    1.33591   1.34528   24.664
 6486.00    1.31900   1.33097   25.079
 6487.00    1.30601   1.31335   25.411
 6488.00    1.29665   1.29393   25.807
 6489.00    1.28909   1.27765   26.510
 6490.00    1.28179   1.26571   27.231
 6491.00    1.27460   1.25782   27.451
 6492.00    1.26953   1.25681   27.021
 6493.00    1.26973   1.26229   26.362
 6494.00    1.27826   1.27305   26.283
 6495.00    1.29581   1.28785   26.874
 6496.00    1.31944   1.30385   26.864
 6497.00    1.34489   1.32031   25.662
 6498.00    1.36832   1.33604   24.548
 6499.00    1.38573   1.34923   24.305
 6500.00    1.39316   1.36000   24.534
 6501.00    1.39013   1.36833   24.623
 6502.00    1.38103   1.37370   24.266
 6503.00    1.37269   1.37729   23.771
 6504.00    1.37171   1.37997   23.817
 6505.00    1.37929   1.38078   24.373
 6506.00    1.39049   1.37995   24.628
 6507.00    1.40006   1.37905   24.543
 6508.00    1.40516   1.37736   24.935
 6509.00    1.40686   1.37373   25.482
 6510.00    1.40823   1.37019   24.919
 6511.00    1.40778   1.36791   23.941
 6512.00    1.40152   1.36522   24.290
 6513.00    1.39229   1.36347   25.809
 6514.00    1.38749   1.36480   26.642
 6515.00    1.38921   1.36703   25.951
 6516.00    1.39462   1.36912   24.665
 6517.00    1.40080   1.37202   23.888
 6518.00    1.40444   1.37506   24.131
 6519.00    1.39993   1.37699   24.914
 6520.00    1.38483   1.37710   25.292
 6521.00    1.36766   1.37631   25.039
 6522.00    1.35982   1.37580   24.547
 6523.00    1.36372   1.37468   24.174
 6524.00    1.37382   1.37293   23.965
 6525.00    1.38007   1.37192   23.554
 6526.00    1.37427   1.37154   22.867
 6527.00    1.35602   1.37131   22.595
 6528.00    1.33297   1.37191    0.000
 6529.00    1.31924   1.37368    0.000
 6530.00    1.32550   1.37565    0.000
 6531.00    1.35136   1.37728    0.000
 6532.00    1.38604   1.37907    0.000
 6533.00    1.41163   1.38064    0.000
 6534.00    1.41782   1.38064    0.000
 6535.00    1.40890   1.37871    0.000
 6536.00    1.39392   1.37519    0.000
 6537.00    1.38096   1.37009    0.000
 6538.00    1.37603   1.36412    0.000
 6539.00    1.38205   1.35724    0.000
 6540.00    1.39650   1.34942    0.000
 6541.00    1.41169   1.34329    0.000
 6542.00    1.41898   1.33870    0.000
 6543.00    1.41220   1.33372    0.000
 6544.00    1.39346   1.32910    0.000
 6545.00    1.37235   1.32469    0.000
 6546.00    1.35881   1.31929    0.000
 6547.00    1.35744   1.31251    0.000
 6548.00    1.35908   1.30388    0.000
 6549.00    1.34906   1.29289    0.000
 6550.00    1.32817   1.27986    0.000
 6551.00    1.31175   1.26513    0.000
 6552.00    1.31951   1.24686    0.000
 6553.00    1.36415   1.22385    0.000
 6554.00    1.43666   1.20057    0.000
 6555.00    1.51479   1.17909    0.000
 6556.00    1.57825   1.15488    0.000
 6557.00    1.61283   1.13580    0.000
 6558.00    1.61269   1.13294    0.000
 6559.00    1.58042   1.13746    0.000
 6560.00    1.52618   1.14579    0.000
 6561.00    1.46194   1.16650    0.000
 6562.00    1.39642   1.19264    0.000
 6563.00    1.33896   1.21425    0.000
 6564.00    1.30187   1.23487    0.000
 6565.00    1.29028   1.25424    0.000
 6566.00    1.29616   1.26710    0.000
 6567.00    1.30961   1.27615    0.000
 6568.00    1.32584   1.28462    0.000
 6569.00    1.34072   1.29155    0.000
 6570.00    1.34917   1.29845    0.000
 6571.00    1.35153   1.30602    0.000
 6572.00    1.35572   1.31322    0.000
 6573.00    1.37187   1.32043    0.000
 6574.00    1.40890   1.32690    0.000
 6575.00    1.47024   1.33181    0.000
 6576.00    1.55068   1.33633    0.000
 6577.00    1.63109   1.34002    0.000
 6578.00    1.68301   1.34267    0.000
 6579.00    1.68703   1.34514    0.000
 6580.00    1.64110   1.34674    0.000
 6581.00    1.56681   1.34785    0.000
 6582.00    1.49841   1.34843    0.000
 6583.00    1.45469   1.34648    0.000
 6584.00    1.43532   1.34282    0.000
 6585.00    1.42720   1.33904    0.000
 6586.00    1.41280   1.33338    0.000
 6587.00    1.38266   1.32635    0.000
 6588.00    1.33847   1.32217    0.000
 6589.00    1.29409   1.32053    0.000
 6590.00    1.26689   1.31953    0.000
 6591.00    1.26582   1.32151    0.000
 6592.00    1.28725   1.32634    0.000
 6593.00    1.31332   1.33160    0.000
 6594.00    1.32712   1.33732    0.000
 6595.00    1.32805   1.34268    0.000
 6596.00    1.32364   1.34612    0.000
 6597.00    1.32040   1.34801    0.000
 6598.00    1.32118   1.34814    0.000
 6599.00    1.32413   1.34589    0.000
 6600.00    1.32593   1.34247    0.000
 6601.00    1.32462   1.33938    0.000
 6602.00    1.32203   1.33648    0.000
 6603.00    1.32385   1.33400    0.000
 6604.00    1.33172   1.33396    0.000
 6605.00    1.34072   1.33656    0.000
 6606.00    1.34840   1.34015    0.000
 6607.00    1.35772   1.34439    0.000
 6608.00    1.37028   1.34982    0.000
 6609.00    1.38460   1.35586   24.464
 6610.00    1.40030   1.36070   23.493
 6611.00    1.41770   1.36420   23.193
 6612.00    1.43140   1.36736   23.569
 6613.00    1.43201   1.36942   23.929
 6614.00    1.41687   1.36955   23.937
 6615.00    1.39166   1.36822   23.813
 6616.00    1.36630   1.36605   23.820
 6617.00    1.35014   1.36312   24.077
 6618.00    1.34388   1.35879   24.477
 6619.00    1.34163   1.35415   24.802
 6620.00    1.33816   1.35065   25.036
 6621.00    1.33191   1.34684   25.321
 6622.00    1.32723   1.34273   25.731
 6623.00    1.32954   1.33964   26.225
 6624.00    1.33794   1.33621   26.607
 6625.00    1.34805   1.33215   26.678
 6626.00    1.35690   1.32899   26.463
 6627.00    1.36124   1.32598   26.138
 6628.00    1.35554   1.32335   25.865
 6629.00    1.33813   1.32298   25.565
 6630.00    1.31665   1.32378   24.781
 6631.00    1.29833   1.32503   23.155
 6632.00    1.28200   1.32805   20.878
 6633.00    1.26719   1.33113   18.726
 6634.00    1.26061   1.33243   17.503
 6635.00    1.26893   1.33405   17.111
 6636.00    1.29307   1.33567   16.645
 6637.00    1.32626   1.33487   15.942
 6638.00    1.35568   1.33403   15.878
 6639.00    1.37593   1.33497   16.665
 6640.00    1.39259   1.33539   17.360
 6641.00    1.40550   1.33540   17.575
 6642.00    1.40519   1.33694   18.331
 6643.00    1.39001   1.33904   20.171
 6644.00    1.37039   1.34023   22.304
 6645.00    1.35839   1.34119   23.605
 6646.00    1.36122   1.34247   23.806
 6647.00    1.37380   1.34299   23.440
 6648.00    1.38257   1.34263   23.254
 6649.00    1.38185   1.34240   23.625
 6650.00    1.37463   1.34161   24.479
 6651.00    1.36358   1.33965   25.139
 6652.00    1.35043   1.33760   24.809
 6653.00    1.33913   1.33490   24.033
 6654.00    1.33377   1.33038   23.795
 6655.00    1.33380   1.32596   23.836
 6656.00    1.33595   1.32207   23.492
 6657.00    1.33864   1.31706   23.244
 6658.00    1.34164   1.31310   23.766
 6659.00    1.34442   1.31175   24.469
 6660.00    1.34621   1.31118   24.403
 6661.00    1.34606   1.31198   23.969
 6662.00    1.34099   1.31523   24.036
 6663.00    1.32474   1.31945   24.779
 6664.00    1.29574   1.32374   25.379
 6665.00    1.26452   1.32785   23.968
 6666.00    1.24843   1.33107   20.714
 6667.00    1.26457   1.33294   17.987
 6668.00    1.31305   1.33238   16.513
 6669.00    1.36881   1.32949   15.727
 6670.00    1.40837   1.32630   15.392
 6671.00    1.42642   1.32204   15.858
 6672.00    1.42759   1.31645   17.142
 6673.00    1.42078   1.31333   18.233
 6674.00    1.41783   1.31267   18.159
 6675.00    1.42953   1.31219   17.304
 6676.00    1.45064   1.31404   16.510
 6677.00    1.46119   1.31856   16.329
 6678.00    1.45618   1.32273   16.902
 6679.00    1.44935   1.32642   18.036
 6680.00    1.44635   1.33056   19.212
 6681.00    1.44017   1.33374   19.726
 6682.00    1.42538   1.33543   19.772
 6683.00    1.40261   1.33653   20.244
 6684.00    1.37877   1.33688   21.000
 6685.00    1.36237   1.33619   21.086
 6686.00    1.35335   1.33463   20.883
 6687.00    1.34468   1.33220   21.533
 6688.00    1.33049   1.32944   22.796
 6689.00    1.31186   1.32632   23.293
 6690.00    1.30314   1.32276   22.589
 6691.00    1.31784   1.32014   21.399
 6692.00    1.34637   1.31854   20.393
 6693.00    1.36895   1.31731   19.839
 6694.00    1.37758   1.31724   19.598
 6695.00    1.37477   1.31794   19.519
 6696.00    1.36808   1.31859    0.000
 6697.00    1.36461   1.31936    0.000
 6698.00    1.36585   1.31971    0.000
 6699.00    1.36941   1.31975    0.000
 6700.00    1.37170   1.31989    0.000
 6701.00    1.37446   1.31928    0.000
 6702.00    1.38698   1.31834    0.000
 6703.00    1.40499   1.31750    0.000
 6704.00    1.40224   1.31537    0.000
 6705.00    1.37433   1.31216    0.000
 6706.00    1.35658   1.30868    0.000
 6707.00    1.36830   1.30399    0.000
 6708.00    1.39038   1.29829    0.000
 6709.00    1.41029   1.29310    0.000
 6710.00    1.43565   1.28875    0.000
 6711.00    1.45631   1.28508    0.000
 6712.00    1.44187   1.28312    0.000
 6713.00    1.39304   1.28372    0.000
 6714.00    1.34636   1.28602    0.000
 6715.00    1.32724   1.28927    0.000
 6716.00    1.33686   1.29361    0.000
 6717.00    1.36055   1.29842    0.000
 6718.00    1.37724   1.30280    0.000
 6719.00    1.37616   1.30641    0.000
 6720.00    1.35958   1.30933    0.000
 6721.00    1.33896   1.31199    0.000
 6722.00    1.32772   1.31419    0.000
 6723.00    1.32940   1.31566    0.000
 6724.00    1.34409   1.31704    0.000
 6725.00    1.38174   1.31832    0.000
 6726.00    1.44444   1.31885    0.000
 6727.00    1.49914   1.31878    0.000
 6728.00    1.50869   1.31828    0.000
 6729.00    1.47544   1.31707    0.000
 6730.00    1.42227   1.31522    0.000
 6731.00    1.36496   1.31301    0.000
 6732.00    1.31504   1.31054    0.000
 6733.00    1.28463   1.30786    0.000
 6734.00    1.27815   1.30524    0.000
 6735.00    1.28573   1.30315    0.000
 6736.00    1.29308   1.30124    0.000
 6737.00    1.29027   1.29923    0.000
 6738.00    1.27561   1.29788    0.000
 6739.00    1.25679   1.29689    0.000
 6740.00    1.24360   1.29529    0.000
 6741.00    1.24279   1.29369    0.000
 6742.00    1.25467   1.29279    0.000
 6743.00    1.27237   1.29174    0.000
 6744.00    1.28684   1.29042    0.000
 6745.00    1.28987   1.29055    0.000
 6746.00    1.27700   1.29181    0.000
 6747.00    1.24960   1.29306    0.000
 6748.00    1.21790   1.29603    0.000
 6749.00    1.19833   1.30059    0.000
 6750.00    1.20195   1.30489    0.000
 6751.00    1.23002   1.30987    0.000
 6752.00    1.27226   1.31534    0.000
 6753.00    1.31129   1.31960   18.161
 6754.00    1.33420   1.32303   19.342
 6755.00    1.33800   1.32554   20.982
 6756.00    1.33427   1.32622   22.532
 6757.00    1.33655   1.32555   23.231
 6758.00    1.33657   1.32370   23.133
 6759.00    1.31888   1.32054   22.883
 6760.00    1.29044   1.31703   22.678
 6761.00    1.26938   1.31338   22.430
 6762.00    1.26277   1.30977   22.200
 6763.00    1.26708   1.30754   22.061
 6764.00    1.27339   1.30669   21.911
 6765.00    1.27574   1.30677   21.755
 6766.00    1.27850   1.30871   21.959
 6767.00    1.28537   1.31235   22.675
 6768.00    1.28975   1.31636   23.257
 6769.00    1.28959   1.32070   23.082
 6770.00    1.29792   1.32526   22.491
 6771.00    1.32147   1.32870   22.043
 6772.00    1.34668   1.33045   21.944
 6773.00    1.35794   1.33085   22.295
 6774.00    1.35009   1.32925   23.183
 6775.00    1.32673   1.32558   24.121
 6776.00    1.29786   1.32098   23.826
 6777.00    1.27454   1.31566   22.194
 6778.00    1.26539   1.31010   20.599
 6779.00    1.27325   1.30588   19.707
 6780.00    1.29425   1.30303   19.378
 6781.00    1.32006   1.30129   19.267
 6782.00    1.34090   1.30152   19.093
 6783.00    1.35235   1.30290   19.161
 6784.00    1.35515   1.30409   20.114
 6785.00    1.34779   1.30560   21.578
 6786.00    1.32727   1.30711   22.077
 6787.00    1.29658   1.30740   21.846
 6788.00    1.26540   1.30737   22.518
 6789.00    1.24674   1.30776   23.874
 6790.00    1.24980   1.30779   24.183
 6791.00    1.26788   1.30804   23.679
 6792.00    1.28480   1.30921   23.898
 6793.00    1.29020   1.31055   24.833
 6794.00    1.28249   1.31201   25.541
 6795.00    1.26875   1.31353   25.875
 6796.00    1.25883   1.31492   26.167
 6797.00    1.25740   1.31597   26.110
 6798.00    1.26356   1.31610   25.348
 6799.00    1.27174   1.31609   24.312
 6800.00    1.27495   1.31609   23.490
 6801.00    1.26815   1.31495   22.857
 6802.00    1.25123   1.31404   22.291
 6803.00    1.23088   1.31376   21.854
 6804.00    1.21723   1.31267   21.610
 6805.00    1.21979   1.31189   21.508
 6806.00    1.23906   1.31188   21.497
 6807.00    1.26276   1.31159   21.595
 6808.00    1.27896   1.31167   21.772
 6809.00    1.28428   1.31222   21.906
 6810.00    1.28208   1.31296   21.916
 6811.00    1.27946   1.31418   21.847
 6812.00    1.27903   1.31548   21.816
 6813.00    1.27758   1.31698   21.961
 6814.00    1.27734   1.31880   22.331
 6815.00    1.28618   1.32044   22.889
 6816.00    1.30086   1.32201   23.683
 6817.00    1.30745   1.32343   24.795
 6818.00    1.30297   1.32435   25.802
 6819.00    1.29670   1.32464   25.844
 6820.00    1.29376   1.32441   25.005
 6821.00    1.29237   1.32381   24.166
 6822.00    1.28906   1.32277   23.665
 6823.00    1.28118   1.32167   23.399
 6824.00    1.26918   1.32103   23.365
 6825.00    1.25675   1.32062   23.536
 6826.00    1.24986   1.32033   23.457
 6827.00    1.25389   1.32005   22.777
 6828.00    1.26904   1.31933   22.157
 6829.00    1.29096   1.31783   22.269
 6830.00    1.31286   1.31505   22.618
 6831.00    1.32772   1.31097   22.488
 6832.00    1.33092   1.30609   22.420
 6833.00    1.32316   1.30047   23.068
 6834.00    1.31272   1.29491   23.808
 6835.00    1.30758   1.29045   23.839
 6836.00    1.30748   1.28747   23.743
 6837.00    1.30690   1.28652   24.166
 6838.00    1.29905   1.28774   24.619
 6839.00    1.28278   1.29074   24.588
 6840.00    1.26644   1.29496   24.480
 6841.00    1.25900   1.29952   24.479
 6842.00    1.26377   1.30384   23.927
 6843.00    1.27779   1.30715   22.694
 6844.00    1.29319   1.30893   21.552
 6845.00    1.30410   1.30942   20.817
 6846.00    1.30947   1.30812   20.196
 6847.00    1.30849   1.30547   19.633
 6848.00    1.29939   1.30245   19.424
 6849.00    1.28352   1.29838   19.681
 6850.00    1.26610   1.29422   20.227
 6851.00    1.25286   1.29141   20.809
 6852.00    1.24720   1.28870   21.233
 6853.00    1.24540   1.28661   21.620
 6854.00    1.24038   1.28656   22.318
 6855.00    1.23560   1.28702   23.301
 6856.00    1.24135   1.28761   24.112
 6857.00    1.25731   1.28934   24.413
 6858.00    1.27390   1.29119   24.268
 6859.00    1.28411   1.29216   24.100
 6860.00    1.28652   1.29284   24.239
 6861.00    1.28600   1.29337   24.257
 6862.00    1.28969   1.29297   23.586
 6863.00    1.30045   1.29206   22.661
 6864.00    1.31573   1.29159   22.105
 6865.00    1.32781   1.29135   21.761
 6866.00    1.32860   1.29116   21.297
 6867.00    1.31581   1.29166   20.870
 6868.00    1.29462   1.29302   20.684
 6869.00    1.27754   1.29458   20.595
 6870.00    1.27117   1.29612   20.648
 6871.00    1.26626   1.29793   21.464
 6872.00    1.26270   1.29959   22.679
 6873.00    1.28379   1.30045   21.635
 6874.00    1.31590   1.30073   19.611
 6875.00    1.28295   1.30092   22.220
 6876.00    1.18239   1.30093   -1.000
 6877.00    1.14113   1.30079   -1.000
 6878.00    1.21264   1.30151   10.113
 6879.00    1.29450   1.30352    7.389
 6880.00    1.31950   1.30593    7.282
 6881.00    1.32859   1.30913    7.654
 6882.00    1.35005   1.31348    7.504
 6883.00    1.35948   1.31756    7.309
 6884.00    1.34155   1.32099    7.423
 6885.00    1.30862   1.32432    7.661
 6886.00    1.27874   1.32674    7.831
 6887.00    1.26653   1.32776    7.888
 6888.00    1.28003   1.32833    7.809
 6889.00    1.31722   1.32847    7.595
 6890.00    1.35998   1.32790    7.354
 6891.00    1.38428   1.32743    7.223
 6892.00    1.38628   1.32721    7.213
 6893.00    1.37940   1.32718    7.250
 6894.00    1.37627   1.32746    7.266
 6895.00    1.38091   1.32799    7.241
 6896.00    1.38230   1.32895    7.234
 6897.00    1.36874   1.33000    7.306
 6898.00    1.35011   1.33103    7.407
 6899.00    1.34116   1.33228    7.456
 6900.00    1.33526   1.33317    7.489
 6901.00    1.31924   1.33384    7.580
 6902.00    1.29442   1.33411    7.725
 6903.00    1.27075   1.33332    7.869
 6904.00    1.25747   1.33219    7.952
 6905.00    1.25646   1.33019    7.959
 6906.00    1.25818   1.32706    7.948
 6907.00    1.25292   1.32441    7.981
 6908.00    1.23983   1.32163    8.066
 6909.00    1.22444   1.31878    8.167
 6910.00    1.21538   1.31772    8.228
 6911.00    1.21814   1.31737    8.209
 6912.00    1.23182   1.31736    8.118
 6913.00    1.25248   1.31868    7.984
 6914.00    1.27544   1.31991    7.840
 6915.00    1.29678   1.32046    7.711
 6916.00    1.31334   1.32069    7.614
 6917.00    1.31981   1.32009    7.577
 6918.00    1.30991   1.31873    7.634
 6919.00    1.28538   1.31716    7.780
 6920.00    1.25686   1.31570    7.956
 6921.00    1.23616   1.31465    8.090
 6922.00    1.23201   1.31423    8.117
 6923.00    1.24571   1.31450    8.028
 6924.00    1.27054   1.31519    7.871
 6925.00    1.29376   1.31595    7.729
 6926.00    1.30435   1.31709    7.667
 6927.00    1.30800   1.31826    7.645
 6928.00    1.31695   1.31902    7.593
 6929.00    1.32515   1.32036    7.546
 6930.00    1.31867   1.32182    7.583
 6931.00    1.30053   1.32280    7.689
 6932.00    1.28248   1.32409    7.797
 6933.00    1.26731   1.32498    7.891
 6934.00    1.25415   1.32479    7.974
 6935.00    1.24812   1.32432    8.012
 6936.00    1.25127   1.32302    7.992
 6937.00    1.25258   1.32060    7.984
 6938.00    1.24731   1.31861    8.017
 6939.00    1.25433   1.31666    7.972
 6940.00    1.28622   1.31438    7.775
 6941.00    1.32467   1.31365    7.549
 6942.00    1.34716   1.31339    7.423
 6943.00    1.34866   1.31265    7.415
 6944.00    1.33528   1.31310    7.489
 6945.00    1.31727   1.31351    7.591
 6946.00    1.30002   1.31313    7.692
 6947.00    1.28113   1.31371    7.806
 6948.00    1.26302   1.31466    7.918
 6949.00    1.25717   1.31552    7.954
 6950.00    1.27230   1.31751    7.860
 6951.00    1.30668   1.32012    7.653
 6952.00    1.34049   1.32272    7.460
 6953.00    1.34417   1.32583    7.440
 6954.00    1.31754   1.32882    7.590
 6955.00    1.28995   1.33127    7.752
 6956.00    1.27764   1.33379    7.827
 6957.00    1.27648   1.33566    7.834
 6958.00    1.27958   1.33692    7.815
 6959.00    1.28248   1.33845    7.797
 6960.00    1.28326   1.33934   -2.000
 6961.00    1.28219   1.33977   -2.000
 6962.00    1.28066   1.34045   -2.000
 6963.00    1.28008   1.34016   -2.000
 6964.00    1.28018   1.33905   -2.000
 6965.00    1.27888   1.33756   -2.000
 6966.00    1.27271   1.33429   -2.000
 6967.00    1.26067   1.32953   -2.000
 6968.00    1.24892   1.32414   -2.000
 6969.00    1.24435   1.31757   -2.000
 6970.00    1.24571   1.31007   -2.000
 6971.00    1.24337   1.30363   -2.000
 6972.00    1.22258   1.29908   -2.000
 6973.00    1.18835   1.29589   -2.000
 6974.00    1.18231   1.29572   -2.000
 6975.00    1.22233   1.29919   -2.000
 6976.00    1.25988   1.30422   -2.000
 6977.00    1.25827   1.31074   -2.000
 6978.00    1.24436   1.31830   -2.000
 6979.00    1.24419   1.32501   -2.000
 6980.00    1.24476   1.33053   -2.000
 6981.00    1.23306   1.33468   -2.000
 6982.00    1.21697   1.33741   -2.000
 6983.00    1.20893   1.33895   -2.000
 6984.00    1.21612   1.33965   -2.000
 6985.00    1.23644   1.34002   -2.000
 6986.00    1.25874   1.34002   -2.000
 6987.00    1.27002   1.33983   -2.000
 6988.00    1.26241   1.33932   -2.000
 6989.00    1.24599   1.33810   -2.000
 6990.00    1.24225   1.33658   -2.000
 6991.00    1.25204   1.33429   -2.000
 6992.00    1.25690   1.33113   -2.000
 6993.00    1.24736   1.32806   -2.000
 6994.00    1.22921   1.32478   -2.000
 6995.00    1.21992   1.32131   -2.000
 6996.00    1.23393   1.31853   -2.000
 6997.00    1.25640   1.31640   -2.000
 6998.00    1.26142   1.31476   -2.000
 6999.00    1.25201   1.31376   -2.000
 7000.00    1.24700   1.31351   -2.000
 7001.00    1.25058   1.31393   -2.000
 7002.00    1.25578   1.31455   -2.000
 7003.00    1.25571   1.31513   -2.000
 7004.00    1.24714   1.31563   -2.000
 7005.00    1.23275   1.31538   -2.000
 7006.00    1.21924   1.31446   -2.000
 7007.00    1.21424   1.31303   -2.000
 7008.00    1.21899   1.31046   -2.000
 7009.00    1.22365   1.30838   -2.000
 7010.00    1.22281   1.30739   -2.000
 7011.00    1.22608   1.30609   -2.000
 7012.00    1.24022   1.30626   -2.000
 7013.00    1.25789   1.30820   -2.000
 7014.00    1.27226   1.30975   -2.000
 7015.00    1.28434   1.31136   -2.000
 7016.00    1.29016   1.31309   -2.000
 7017.00    1.27782   1.31411   -2.000
 7018.00    1.24894   1.31468   -2.000
 7019.00    1.22267   1.31500   -2.000
 7020.00    1.20870   1.31567   -2.000
 7021.00    1.20134   1.31697   -2.000
 7022.00    1.20151   1.31862   -2.000
 7023.00    1.21737   1.32082   -2.000
 7024.00    1.23982   1.32313   -2.000
 7025.00    1.24780   1.32550   -2.000
 7026.00    1.24562   1.32747   -2.000
 7027.00    1.25615   1.32843   -2.000
 7028.00    1.27783   1.32982   -2.000
 7029.00    1.28717   1.33097   -2.000
 7030.00    1.26829   1.33089   -2.000
 7031.00    1.22722   1.33263   -2.000
 7032.00    1.20452   1.33584   -2.000
 7033.00    1.23975   1.33844   -2.000
 7034.00    1.31043   1.34289   -2.000
 7035.00    1.36498   1.34904   -2.000
 7036.00    1.38541   1.35431   -2.000
 7037.00    1.38228   1.35957   -2.000
 7038.00    1.37508   1.36504   -2.000
 7039.00    1.37794   1.36881   -2.000
 7040.00    1.38722   1.37109   -2.000
 7041.00    1.39198   1.37214   -2.000
 7042.00    1.38548   1.37102   -2.000
 7043.00    1.36055   1.36815   -2.000
 7044.00    1.30709   1.36306   -2.000
 7045.00    1.23285   1.35579   -2.000
 7046.00    1.17409   1.34769   -2.000
 7047.00    1.15464   1.33823   -2.000
 7048.00    1.16195   1.32834   -2.000
 7049.00    1.17779   1.31948   -2.000
 7050.00    1.19508   1.31121   -2.000
 7051.00    1.20403   1.30392   -2.000
 7052.00    1.18909   1.29799   -2.000
 7053.00    1.15133   1.29354   -2.000
 7054.00    1.11216   1.28992   -2.000
 7055.00    1.08625   1.28651   -2.000
 7056.00    1.07357   1.28445   -2.000
 7057.00    1.07168   1.28272   -2.000
 7058.00    1.07933   1.28040   -2.000
 7059.00    1.09339   1.27918   -2.000
 7060.00    1.10910   1.27802   -2.000
 7061.00    1.12337   1.27680   -2.000
 7062.00    1.13602   1.27744   -2.000
 7063.00    1.15022   1.27855   -2.000
 7064.00    1.16388   1.28035   -2.000
 7065.00    1.15320   1.28430   -2.000
 7066.00    1.10424   1.28871   -2.000
 7067.00    1.07298   1.29305   -2.000
 7068.00    1.12187   1.29786   -2.000
 7069.00    1.20592   1.30211   -2.000
 7070.00    1.25422   1.30532   -2.000
 7071.00    1.30349   1.30727   -2.000
 7072.00    1.40099   1.30783   -2.000
 7073.00    1.47083   1.30690   -2.000
 7074.00    1.43421   1.30380   -2.000
 7075.00    1.34850   1.29892   -2.000
 7076.00    1.30160   1.29216   -2.000
 7077.00    1.30094   1.28376   -2.000
 7078.00    1.31841   1.27506   -2.000
 7079.00    1.33569   1.26519   -2.000
 7080.00    1.33536   1.25546   -2.000
 7081.00    1.29565   1.24784   -2.000
 7082.00    1.21718   1.24027   -2.000
 7083.00    1.13427   1.23397   -2.000
 7084.00    1.07663   1.23026   -2.000
 7085.00    1.04956   1.22672   -2.000
 7086.00    1.04987   1.22489   -2.000
 7087.00    1.07291   1.22481   -2.000
 7088.00    1.10588   1.22486   -2.000
 7089.00    1.13150   1.22649   -2.000
 7090.00    1.15357   1.22883   -2.000
 7091.00    1.19138   1.23183   -2.000
 7092.00    1.22772   1.23527   -2.000
 7093.00    1.21790   1.23858   -2.000
 7094.00    1.16820   1.24242   -2.000
 7095.00    1.13060   1.24537   -2.000
 7096.00    1.12791   1.24793   -2.000
 7097.00    1.14768   1.25019   -2.000
 7098.00    1.17424   1.25115   -2.000
 7099.00    1.19578   1.25165   -2.000
 7100.00    1.20342   1.25178   -2.000
 7101.00    1.19615   1.25097   -2.000
 7102.00    1.18848   1.24947   -2.000
 7103.00    1.18866   1.24800   -2.000
 7104.00    1.16597   1.24690   -2.000
 7105.00    1.09335   1.24587   -2.000
 7106.00    1.00794   1.24515   -2.000
 7107.00    0.96217   1.24533   -2.000
 7108.00    0.95934   1.24643   -2.000
 7109.00    0.99182   1.24766   -2.000
 7110.00    1.08254   1.24886   -2.000
 7111.00    1.22184   1.25022   -2.000
 7112.00    1.31804   1.25103   -2.000
 7113.00    1.30829   1.25120   -2.000
 7114.00    1.24073   1.25051   -2.000
 7115.00    1.18595   1.24931   -2.000
 7116.00    1.16952   1.24790   -2.000
 7117.00    1.17671   1.24497   -2.000
 7118.00    1.16779   1.24199   -2.000
 7119.00    1.13069   1.23932   -2.000
 7120.00    1.09809   1.23537   -2.000
 7121.00    1.09000   1.23150   -2.000
 7122.00    1.09348   1.22798   -2.000
 7123.00    1.09916   1.22486   -2.000
 7124.00    1.11156   1.22312   -2.000
 7125.00    1.12767   1.22172   -2.000
 7126.00    1.13491   1.22185   -2.000
 7127.00    1.13081   1.22424   -2.000
 7128.00    1.12132   1.22686   -2.000
 7129.00    1.09808   1.23065   -2.000
 7130.00    1.05269   1.23490   -2.000
 7131.00    1.02647   1.23805   -2.000
 7132.00    1.07753   1.24165   -2.000
 7133.00    1.18460   1.24461   -2.000
 7134.00    1.28153   1.24555   -2.000
 7135.00    1.36099   1.24639   -2.000
 7136.00    1.43332   1.24723   -2.000
 7137.00    1.42966   1.24617   -2.000
 7138.00    1.29213   1.24479   -2.000
 7139.00    1.12145   1.24364   -2.000
 7140.00    1.04909   1.24118   -2.000
 7141.00    1.05155   1.23978   -2.000
 7142.00    1.04811   1.23923   -2.000
 7143.00    1.03486   1.23797   -2.000
 7144.00    1.03676   1.23927   -2.000
 7145.00    1.04715   1.24231   -2.000
 7146.00    1.05129   1.24490   -2.000
 7147.00    1.05124   1.24865   -2.000
 7148.00    1.05832   1.25305   -2.000
 7149.00    1.08382   1.25666   -2.000
 7150.00    1.12708   1.25888   -2.000
 7151.00    1.17116   1.26040   -2.000
 7152.00    1.20396   1.26150   -2.000
 7153.00    1.22824   1.26044   -2.000
 7154.00    1.24553   1.25816   -2.000
 7155.00    1.24692   1.25554   -2.000
 7156.00    1.21277   1.25211   -2.000
 7157.00    1.12524   1.24913   -2.000
 7158.00    1.01757   1.24695   -2.000
 7159.00    0.96682   1.24505   -2.000
 7160.00    0.99873   1.24472   -2.000
 7161.00    1.07632   1.24694   -2.000
 7162.00    1.17122   1.25040   -2.000
 7163.00    1.26987   1.25452   -2.000
 7164.00    1.32896   1.25908   -2.000
 7165.00    1.29996   1.26327   -2.000
 7166.00    1.21411   1.26688   -2.000
 7167.00    1.14911   1.26944   -2.000
 7168.00    1.11911   1.27028   -2.000
 7169.00    1.09132   1.26988   -2.000
 7170.00    1.05848   1.26845   -2.000
 7171.00    1.03450   1.26540   -2.000
 7172.00    1.02576   1.26223   -2.000
 7173.00    1.02965   1.25958   -2.000
 7174.00    1.03941   1.25611   -2.000
 7175.00    1.04957   1.25287   -2.000
 7176.00    1.06150   1.25014   -2.000
 7177.00    1.07802   1.24769   -2.000
 7178.00    1.09650   1.24632   -2.000
 7179.00    1.10653   1.24396   -2.000
 7180.00    1.09110   1.24129   -2.000
 7181.00    1.05160   1.23964   -2.000
 7182.00    1.02329   1.23701   -2.000
 7183.00    1.03036   1.23530   -2.000
 7184.00    1.05665   1.23493   -2.000
 7185.00    1.08264   1.23471   -2.000
 7186.00    1.10731   1.23624   -2.000
 7187.00    1.12592   1.23824   -2.000
 7188.00    1.11457   1.24013   -2.000
 7189.00    1.02275   1.24295   -2.000
 7190.00    0.80584   1.24625   -2.000
 7191.00    0.57904   1.24883   -2.000
 7192.00    0.58960   1.25059   -2.000
 7193.00    0.85112   1.25286   -2.000
 7194.00    1.11114   1.25449   -2.000
 7195.00    1.22872   1.25515   -2.000
 7196.00    1.24769   1.25542   -2.000
 7197.00    1.22022   1.25439   -2.000
 7198.00    1.16815   1.25322   -2.000
 7199.00    1.12520   1.25158   -2.000
 7200.00    1.12532   1.24943   -2.000
 7201.00    1.15188   1.24762   -2.000
 7202.00    1.15664   1.24545   -2.000
 7203.00    1.12056   1.24530   -2.000
 7204.00    1.06001   1.24655   -2.000
 7205.00    1.01421   1.24780   -2.000
 7206.00    1.01590   1.25090   -2.000
 7207.00    1.05184   1.25405   -2.000
 7208.00    1.08841   1.25678   -2.000
 7209.00    1.11370   1.26016   -2.000
 7210.00    1.12888   1.26301   -2.000
 7211.00    1.13201   1.26524   -2.000
 7212.00    1.12766   1.26763   -2.000
 7213.00    1.13583   1.26972   -2.000
 7214.00    1.16002   1.27116   -2.000
 7215.00    1.16406   1.27257   -2.000
 7216.00    1.13397   1.27414   -2.000
 7217.00    1.11839   1.27605   -2.000
 7218.00    1.14176   1.27788   -2.000
