###################################################################
## OUTPUT of StarlightChains_v04.for    [Cid@UFSC - 01/Apr/2007] ##
###################################################################

## Some input info
2007ax.txt                               [arq_obs]
Base.CB07.vall.4m                        [arq_base]
Masks.EmLines.NEW.gm                     [arq_masks]
StCv04.C11.config                        [arq_config]
   66                                    [N_base]
    0                                    [N_YAV_components = # of components with extra extinction!]
    0                                    [i_FitPowerLaw (1/0 = Yes/No)]
-9.99                                    [alpha_PowerLaw]
CCM                                      [red_law_option]
 1.458241                                [q_norm = A(l_norm)/A(V)]

## (Re)Sampling Parameters
 3741.00                                 [l_ini (A)]
 7218.00                                 [l_fin (A)]
    1.00                                 [dl    (A)]     (OBS: dl_cushion =    50.00 A)

## Normalization info
 4020.00                                 [l_norm (A) - for base]
 4010.00                                 [llow_norm (A) - window for f_obs]
 4060.00                                 [lupp_norm (A) - window for f_obs]
1.608316E-15                             [fobs_norm (in input units)]

## S/N
 3691.00                                 [llow_SN (A) - window for S/N]
 7268.00                                 [lupp_SN (A) - window for S/N]
   4.699                                 [S/N in S/N window]
   3.522                                 [S/N in norm. window]
   9.644                                 [S/N_err in S/N window]
   7.229                                 [S/N_err in norm. window]
  1.0000                                 [fscale_chi2]

## etc...
    -2007328                             [idum_orig]
  2391                                   [NOl_eff]
  2391                                   [Nl_eff]
     0    NSIGMA                         [Ntot_cliped & clip_method]
   775950                                [Nglobal_steps]
   7                                     [N_chains]
  14                                     [NEX0s_base = N_base in EX0s-fits]
 0   0   1       15   2.0   1.240E+01    [Clip-Bug, RC-Crash & Burn-In warning-flags, n_censored_weights, wei_nsig_threshold & wei_limit]
    11      9.990      9.480      0.509  [idt_all, wdt_TotTime, wdt_UsrTime & wdt_SysTime (sec)]

## Synthesis Results - Best model ##

 1.34711E-01                             [chi2/Nl_eff]
     3.47953                             [adev (%)]

   106.02095                             [sum-of-x (%)]
 1.78543E-15                             [Flux_tot (units of input spectrum!)]
 8.30151E-11                             [Mini_tot (???)]
 4.34963E-11                             [Mcor_tot (???)]

-170.18                                  [v0_min  (km/s)]
 272.87                                  [vd_min  (km/s)]
 0.0343                                  [AV_min  (mag)]
 0.0000                                  [YAV_min (mag)]

# j     x_j(%)      Mini_j(%)     Mcor_j(%)     age_j(yr)     Z_j      (L/M)_j    YAV?  Mstars   component_j        a/Fe...       SSP_chi2r SSP_adev(%)   SSP_AV   SSP_x(%)
  1      0.0000     0.0000E+00    0.0000E+00    1.000000E+06  0.00400  1.094E-02    0   1.0000   age020_m42            0.0000     6.5772E-01     8.5970   3.7716    94.9611
  2      0.0000     0.0000E+00    0.0000E+00    3.160000E+06  0.00400  4.007E-02    0   0.9999   age045_m42            0.0000     6.5492E-01     8.0643   3.0510   101.0918
  3      0.0000     0.0000E+00    0.0000E+00    5.010000E+06  0.00400  2.539E-02    0   0.9488   age055_m42            0.0000     6.5691E-01     8.2849   3.3651    98.9240
  4      0.0000     0.0000E+00    0.0000E+00    6.610000E+06  0.00400  2.620E-02    0   0.9220   age061_m42            0.0000     6.6816E-01     8.1622   2.9688   101.6687
  5      0.0000     0.0000E+00    0.0000E+00    1.000000E+07  0.00400  1.322E-02    0   0.8862   age070_m42            0.0000     8.0642E-01     9.4155   2.6209   106.6785
  6      0.0000     0.0000E+00    0.0000E+00    1.445000E+07  0.00400  7.883E-03    0   0.8571   age078_m42            0.0000     7.9184E-01     9.3793   2.9534   103.8024
  7      0.0000     0.0000E+00    0.0000E+00    2.512000E+07  0.00400  5.251E-03    0   0.8174   age090_m42            0.0000     8.4901E-01     9.6826   2.4798   107.7449
  8      0.0000     0.0000E+00    0.0000E+00    4.000000E+07  0.00400  3.649E-03    0   0.7851   age104_m42            0.0000     8.1714E-01     9.4005   2.2587   108.3357
  9      0.0000     0.0000E+00    0.0000E+00    5.500000E+07  0.00400  3.098E-03    0   0.7629   age110_m42            0.0000     7.5651E-01     8.8041   2.4428   106.9729
 10      0.0000     0.0000E+00    0.0000E+00    1.015200E+08  0.00400  2.228E-03    0   0.7207   age116_m42            0.0000     7.1917E-01     8.4724   2.4826   106.3022
 11      0.0000     0.0000E+00    0.0000E+00    2.861200E+08  0.00400  1.093E-03    0   0.6648   age125_m42            0.0000     8.0595E-01     9.0704   1.8796   111.0265
 12      0.0000     0.0000E+00    0.0000E+00    5.088000E+08  0.00400  6.597E-04    0   0.6365   age130_m42            0.0000     6.9093E-01     8.3808   1.9002   110.5624
 13      0.0000     0.0000E+00    0.0000E+00    1.434000E+09  0.00400  2.132E-04    0   0.5798   age139_m42            0.0000     4.7146E-01     6.8302   0.9367   112.5079
 14      0.0000     0.0000E+00    0.0000E+00    4.250000E+09  0.00400  5.895E-05    0   0.5377   age158_m42            0.0000     2.8434E-01     5.0201   0.5304   106.8613
 15      0.0143     8.2494E-03    8.2060E-03    7.500000E+09  0.00400  3.510E-05    0   0.5212   age171_m42            0.0000     2.3518E-01     4.4312   0.3562   105.6465
 16      7.8318     7.9240E+00    7.6131E+00    1.300000E+10  0.00400  2.005E-05    0   0.5034   age193_m42            0.0000     2.0296E-01     4.0162   0.2031   104.6525
 17      8.0754     1.0742E+01    1.0183E+01    1.800000E+10  0.00400  1.525E-05    0   0.4967   age213_m42            0.0000     2.0687E-01     4.0824   0.1754   104.3686
 18      2.2547     3.6945E-03    7.0512E-03    1.000000E+06  0.00800  1.238E-02    0   1.0000   age020_m52            0.0000     6.5544E-01     8.5892   3.7679    95.1495
 19      0.0000     0.0000E+00    0.0000E+00    3.160000E+06  0.00800  3.074E-02    0   0.9966   age045_m52            0.0000     6.4667E-01     8.4815   3.6949    95.8341
 20      0.0000     0.0000E+00    0.0000E+00    5.010000E+06  0.00800  2.668E-02    0   0.9443   age055_m52            0.0000     6.5046E-01     8.3444   3.4450    98.1682
 21      0.0000     0.0000E+00    0.0000E+00    6.610000E+06  0.00800  2.136E-02    0   0.9177   age061_m52            0.0000     6.6574E-01     8.7498   2.1212   107.9979
 22      0.0000     0.0000E+00    0.0000E+00    1.000000E+07  0.00800  1.215E-02    0   0.8827   age070_m52            0.0000     8.6010E-01     9.9238   2.7790   107.4302
 23      0.0000     0.0000E+00    0.0000E+00    1.445000E+07  0.00800  8.717E-03    0   0.8552   age078_m52            0.0000     7.8134E-01     9.3239   2.9165   105.3296
 24      0.0000     0.0000E+00    0.0000E+00    2.512000E+07  0.00800  5.592E-03    0   0.8162   age090_m52            0.0000     8.5392E-01     9.7207   2.5388   109.2460
 25      0.0000     0.0000E+00    0.0000E+00    4.000000E+07  0.00800  3.896E-03    0   0.7841   age104_m52            0.0000     8.2577E-01     9.3940   2.4634   109.5246
 26      0.0000     0.0000E+00    0.0000E+00    1.015200E+08  0.00800  2.148E-03    0   0.7226   age116_m52            0.0000     7.3844E-01     8.6864   2.4323   107.9690
 27      0.0000     0.0000E+00    0.0000E+00    2.861200E+08  0.00800  9.925E-04    0   0.6683   age125_m52            0.0000     6.8261E-01     8.3265   1.9645   111.6365
 28      0.0000     0.0000E+00    0.0000E+00    9.047900E+08  0.00800  3.141E-04    0   0.6138   age135_m52            0.0000     4.6456E-01     6.6974   1.1930   115.1394
 29      0.0000     0.0000E+00    0.0000E+00    1.434000E+09  0.00800  1.719E-04    0   0.5853   age139_m52            0.0000     3.6856E-01     5.7736   0.6080   113.1502
 30      0.0002     4.9513E-05    5.2919E-05    2.500000E+09  0.00800  7.872E-05    0   0.5600   age150_m52            0.0000     2.2152E-01     4.3290   0.3855   108.2034
 31      0.0000     0.0000E+00    0.0000E+00    4.250000E+09  0.00800  4.336E-05    0   0.5426   age158_m52            0.0000     2.1578E-01     4.2050   0.3710   107.1649
 32      0.0000     0.0000E+00    0.0000E+00    6.250000E+09  0.00800  3.159E-05    0   0.5319   age166_m52            0.0000     1.7546E-01     3.7560   0.1895   106.3371
 33      0.0000     0.0000E+00    0.0000E+00    1.300000E+10  0.00800  1.361E-05    0   0.5073   age193_m52            0.0000     1.3999E-01     3.5031  -0.2514   104.5694
 34      0.0000     0.0000E+00    0.0000E+00    1.800000E+10  0.00800  9.886E-06    0   0.4990   age213_m52            0.0000     1.3980E-01     3.7439  -0.3338   103.0242
 35      0.0000     0.0000E+00    0.0000E+00    1.000000E+06  0.02000  1.544E-02    0   1.0000   age020_m62            0.0000     6.5503E-01     8.6055   3.7643    95.3593
 36      0.0000     0.0000E+00    0.0000E+00    3.160000E+06  0.02000  3.762E-02    0   0.9858   age045_m62            0.0000     6.5099E-01     8.5563   3.7058    96.0946
 37      0.0000     0.0000E+00    0.0000E+00    5.010000E+06  0.02000  3.296E-02    0   0.9342   age055_m62            0.0000     6.3948E-01     8.0355   3.3349    99.7188
 38      0.0000     0.0000E+00    0.0000E+00    8.710000E+06  0.02000  1.154E-02    0   0.8861   age067_m62            0.0000     1.4484E+00    13.7469   2.1057   116.2574
 39      0.0000     0.0000E+00    0.0000E+00    1.445000E+07  0.02000  7.663E-03    0   0.8472   age078_m62            0.0000     1.0094E+00    10.9897   2.3829   111.8193
 40      0.0000     0.0000E+00    0.0000E+00    2.512000E+07  0.02000  4.532E-03    0   0.8099   age090_m62            0.0000     1.0804E+00    11.2746   2.3688   111.7782
 41      0.0000     0.0000E+00    0.0000E+00    5.500000E+07  0.02000  2.733E-03    0   0.7595   age110_m62            0.0000     8.0349E-01     9.3121   2.4442   108.8313
 42      0.0000     0.0000E+00    0.0000E+00    1.609000E+08  0.02000  1.369E-03    0   0.6985   age120_m62            0.0000     7.2965E-01     8.6381   2.3186   110.1592
 43      0.0000     0.0000E+00    0.0000E+00    2.861200E+08  0.02000  9.013E-04    0   0.6714   age125_m62            0.0000     6.7480E-01     8.4058   2.0851   112.4933
 44      0.0000     0.0000E+00    0.0000E+00    5.088000E+08  0.02000  5.028E-04    0   0.6449   age130_m62            0.0000     5.2308E-01     7.4232   1.7449   113.8097
 45      0.0000     0.0000E+00    0.0000E+00    9.047900E+08  0.02000  2.428E-04    0   0.6179   age135_m62            0.0000     3.4246E-01     5.7054   1.1684   112.9073
 46      0.0000     0.0000E+00    0.0000E+00    1.434000E+09  0.02000  1.263E-04    0   0.5908   age139_m62            0.0000     2.5148E-01     4.7030   0.7294   111.1353
 47      0.0000     0.0000E+00    0.0000E+00    2.500000E+09  0.02000  5.985E-05    0   0.5673   age150_m62            0.0000     1.7885E-01     3.8473   0.3946   108.3449
 48      0.0000     0.0000E+00    0.0000E+00    4.250000E+09  0.02000  3.271E-05    0   0.5468   age158_m62            0.0000     1.4109E-01     3.5254   0.1237   106.0339
 49      6.0767     9.0641E+00    8.9386E+00    1.000000E+10  0.02000  1.360E-05    0   0.5167   age181_m62            0.0000     1.4891E-01     4.0621  -0.1893   104.1920
 50      1.7061     4.8581E+00    4.6480E+00    1.800000E+10  0.02000  7.124E-06    0   0.5013   age213_m62            0.0000     1.8242E-01     4.8255  -0.3662   102.0404
 51      0.0000     0.0000E+00    0.0000E+00    1.000000E+06  0.05000  2.592E-02    0   0.9998   age020_m72            0.0000     6.5847E-01     8.6993   3.7524    95.5285
 52      0.0000     0.0000E+00    0.0000E+00    3.160000E+06  0.05000  4.845E-02    0   0.9577   age045_m72            0.0000     6.4155E-01     8.2681   3.5980    96.9522
 53      0.0000     0.0000E+00    0.0000E+00    5.010000E+06  0.05000  3.072E-02    0   0.9147   age055_m72            0.0000     8.8867E-01    10.1024   3.0137   105.7709
 54      0.0000     0.0000E+00    0.0000E+00    6.610000E+06  0.05000  1.455E-02    0   0.8877   age061_m72            0.0000     2.3835E+00    16.8787   2.0984   120.1410
 55      0.0000     0.0000E+00    0.0000E+00    1.000000E+07  0.05000  9.074E-03    0   0.8524   age070_m72            0.0000     1.1284E+00    10.7667   3.1951   105.7179
 56      0.0000     0.0000E+00    0.0000E+00    2.512000E+07  0.05000  4.250E-03    0   0.7902   age090_m72            0.0000     1.0263E+00    10.4120   2.8936   107.5208
 57      0.0000     0.0000E+00    0.0000E+00    4.000000E+07  0.05000  3.087E-03    0   0.7618   age104_m72            0.0000     1.0879E+00    10.7015   2.6534   109.7959
 58      0.0000     0.0000E+00    0.0000E+00    1.015200E+08  0.05000  1.700E-03    0   0.7096   age116_m72            0.0000     8.2375E-01     9.1934   2.4419   110.5472
 59      0.0000     0.0000E+00    0.0000E+00    2.861200E+08  0.05000  7.384E-04    0   0.6633   age125_m72            0.0000     5.9251E-01     7.9024   1.9719   113.1756
 60      0.0000     0.0000E+00    0.0000E+00    5.088000E+08  0.05000  3.819E-04    0   0.6372   age130_m72            0.0000     3.9103E-01     6.3283   1.5092   113.8099
 61      0.0000     0.0000E+00    0.0000E+00    9.047900E+08  0.05000  1.676E-04    0   0.6110   age135_m72            0.0000     2.1353E-01     4.3562   0.8556   110.1516
 62      0.0000     0.0000E+00    0.0000E+00    1.434000E+09  0.05000  8.837E-05    0   0.5874   age139_m72            0.0000     1.6635E-01     3.7883   0.3962   109.8755
 63     61.8334     2.9633E+01    3.1660E+01    2.500000E+09  0.05000  4.233E-05    0   0.5598   age150_m72            0.0000     1.3877E-01     3.6101   0.1342   106.5112
 64     11.1747     1.5797E+01    1.5826E+01    6.250000E+09  0.05000  1.435E-05    0   0.5249   age166_m72            0.0000     1.5895E-01     4.2566  -0.2739   103.2704
 65      7.0537     2.1970E+01    2.1116E+01    1.300000E+10  0.05000  6.513E-06    0   0.5036   age193_m72            0.0000     2.1807E-01     5.3220  -0.5126   102.5625
 66      0.0000     0.0000E+00    0.0000E+00    1.800000E+10  0.05000  4.527E-06    0   0.4945   age213_m72            0.0000     2.7099E-01     6.0424  -0.6467   101.2681


## Synthesis Results - Average & Chains ##

# j      x_j: min, <> & last-chain-values for 1 ...  7 chains
  1      0.0000      0.0790      0.0000      0.0012      0.0641      0.0000      0.0000      0.0000      0.0000
  2      0.0000      0.0708      0.2516      0.0057      0.0000      0.0000      0.0000      0.0000      0.0000
  3      0.0000      0.0543      0.0000      0.0000      0.0000      0.0000      0.0000      0.0000      0.0000
  4      0.0000      0.1037      0.0000      0.0000      0.0000      0.0000      0.0000      0.0000      0.2653
  5      0.0000      0.0764      0.0000      1.3926      0.0000      0.0000      0.0000      0.0872      0.0000
  6      0.0000      0.0824      0.0000      0.0000      0.0000      0.0000      0.0000      0.0000      0.0000
  7      0.0000      0.0318      0.0000      0.0000      0.5616      0.0000      0.0000      0.0000      0.0000
  8      0.0000      0.1584      0.0000      0.0000      0.0000      0.0000      0.2051      0.0000      0.0000
  9      0.0000      0.0825      0.0000      0.0000      0.0000      0.0000      0.0000      0.0000      0.2695
 10      0.0000      0.1389      0.0000      0.0000      0.0000      0.0000      0.0000      0.7134      0.0000
 11      0.0000      0.0485      0.0000      0.0000      0.0000      0.0000      0.0000      0.0000      0.0000
 12      0.0000      0.0661      0.0000      0.0000      0.6190      0.0000      0.0000      0.0000      0.0000
 13      0.0000      0.3272      0.0000      0.0000      0.5595      0.0000      0.4748      0.0000      0.0000
 14      0.0000      0.5898      0.0000      0.9723      2.1364      0.0000      0.0000      0.0000      0.0000
 15      0.0143      1.8592      3.4757      1.8879      0.0000      1.3431      0.0000      0.0000      4.2155
 16      7.8318      2.1706      3.5155      0.0000      0.0000      0.0000      1.2938      1.6209      0.0000
 17      8.0754      2.8389      8.6804      0.0000      0.0000      5.5233      1.9232      1.3893      0.8057
 18      2.2547      0.0902      0.7635      0.0000      0.0000      0.0000      0.7240      0.0000      0.0000
 19      0.0000      0.0637      0.0000      0.0000      0.0000      0.0000      0.0000      0.0000      0.0000
 20      0.0000      0.0315      0.0000      0.0000      0.0000      0.0000      0.0000      0.0000      0.0000
 21      0.0000      0.0920      0.0000      0.9962      0.0000      0.0000      0.0000      0.0000      0.0000
 22      0.0000      0.1730      0.0000      0.0000      0.5675      0.0000      0.0000      0.0000      0.0000
 23      0.0000      0.0680      0.4935      0.2502      0.0000      0.0000      0.0000      0.0000      0.0000
 24      0.0000      0.0517      0.4441      0.0000      0.0000      0.0000      0.0000      0.0000      0.0000
 25      0.0000      0.0335      0.0000      0.0000      0.0000      0.0000      0.0000      0.0000      0.0000
 26      0.0000      0.2078      0.0000      0.1575      2.4424      0.0000      0.0000      0.0000      0.0000
 27      0.0000      0.2656      0.0000      0.0000      0.0000      1.3199      0.0000      0.0379      0.0000
 28      0.0000      0.2699      0.0000      0.0000      0.0000      0.1762      0.3755      0.0857      0.0000
 29      0.0000      0.4088      0.0000      0.0000      0.0000      0.0000      0.0000      0.0000      1.1135
 30      0.0002      1.1884      1.8150      0.1885      3.9049      0.0000      2.8549      0.0000      0.0000
 31      0.0000      1.4678      0.0000      0.7744      0.4047      0.2726      0.0000      0.8528      0.0000
 32      0.0000      3.3019      0.0000      0.0000      3.3579      0.7485      0.0000      0.0454      1.7268
 33      0.0000      0.5281      0.0000      0.0000      0.0000      0.0000      0.1756      0.0000      0.0000
 34      0.0000      0.3424      0.0000      0.0000      0.6403      0.7455      0.0000      0.0000      0.0000
 35      0.0000      0.0978      0.0000      0.0098      0.0000      0.0000      0.0000      0.8004      0.0000
 36      0.0000      0.1258      0.0000      0.0000      0.0000      0.0000      0.5530      0.0000      1.3264
 37      0.0000      0.1101      0.0000      0.0000      0.8257      0.0823      0.0000      0.0000      0.0000
 38      0.0000      0.0760      0.0000      0.0000      0.0000      0.0000      0.0000      0.0000      0.0000
 39      0.0000      0.2488      0.0000      0.0000      0.0000      0.0000      0.0000      0.1365      0.0000
 40      0.0000      0.0967      0.0000      0.0000      0.0000      0.0000      0.0000      0.3148      0.2562
 41      0.0000      0.0714      0.0000      0.0000      0.0000      0.0000      0.0000      0.0000      0.2197
 42      0.0000      0.0749      0.0000      0.0000      0.0000      0.0000      0.0000      0.0000      0.0000
 43      0.0000      0.2124      0.0000      0.3512      0.0000      2.3543      0.0000      0.6338      0.0000
 44      0.0000      0.1640      0.0000      0.0000      1.0616      0.0000      0.0000      0.0000      0.0000
 45      0.0000      0.2456      2.4338      0.0000      0.0000      0.0000      0.0000      0.0000      0.0000
 46      0.0000      0.6060      0.0000      0.9014      0.0000      0.0000      0.0000      0.0359      0.0000
 47      0.0000      4.3592      0.0000      3.5814      0.0000      2.8722      1.1718      6.3145      5.8836
 48      0.0000     19.5995      7.8203     17.2685     15.3472     27.1328     14.5746     31.1488     11.2798
 49      6.0767      5.6648     12.1202      4.9442      5.9408      7.0425      5.1659      6.1536      3.0883
 50      1.7061      2.7097      5.0246      3.1470      3.9204      0.0000      0.0000      0.0000      2.4252
 51      0.0000      0.0694      0.4591      0.0000      0.0000      0.0000      0.0000      0.0000      0.0000
 52      0.0000      0.0495      0.0000      0.0779      0.0000      0.0000      0.0000      0.1661      0.0000
 53      0.0000      0.0544      0.0000      0.0000      0.0000      0.0000      0.0000      0.0000      0.0000
 54      0.0000      0.0691      0.0000      0.0000      0.8013      0.0000      0.3674      0.0000      0.0000
 55      0.0000      0.0349      0.0000      0.0000      0.0000      0.1938      0.0000      0.0000      0.0000
 56      0.0000      0.0979      0.0000      0.0000      0.0000      0.0000      1.5377      0.0000      0.0000
 57      0.0000      0.0734      0.0000      0.0000      0.0000      0.0000      0.0000      0.0000      0.0000
 58      0.0000      0.0260      0.0000      0.0000      0.0000      0.0000      0.2546      0.0000      0.0000
 59      0.0000      0.1105      0.0000      0.1016      0.0000      0.0000      0.0000      0.0000      0.0000
 60      0.0000      0.2240      0.0000      0.0000      0.0000      0.0000      0.8394      0.0000      0.0000
 61      0.0000      3.3642      4.0477      6.0068      2.0012      4.0904      3.4983      3.0633      4.9331
 62      0.0000      4.6709      1.3521      5.1154      1.1981      0.0000      7.1922      5.8906      5.3927
 63     61.8334     41.4262     44.0024     51.5398     53.7667     46.8610     59.1742     42.3669     57.9780
 64     11.1747      3.7889      7.6468      5.3938      7.1709      5.7552      2.8638      4.7561      5.4644
 65      7.0537      0.6071      1.7829      0.0000      0.0000      0.0000      1.8600      0.0000      0.0000
 66      0.0000      0.2453      0.0000      1.0687      0.2631      0.0000      0.2323      0.6091      0.0000

# j      m_j: min, <> & last-chain-values for 1 ...  7 chains
  1  0.0000E+00  3.8320E-04  0.0000E+00  6.0655E-06  3.0482E-04  0.0000E+00  0.0000E+00  0.0000E+00  0.0000E+00
  2  0.0000E+00  9.3702E-05  2.6055E-04  7.7584E-06  0.0000E+00  0.0000E+00  0.0000E+00  0.0000E+00  0.0000E+00
  3  0.0000E+00  1.0756E-04  0.0000E+00  0.0000E+00  0.0000E+00  0.0000E+00  0.0000E+00  0.0000E+00  0.0000E+00
  4  0.0000E+00  1.9347E-04  0.0000E+00  0.0000E+00  0.0000E+00  0.0000E+00  0.0000E+00  0.0000E+00  5.5742E-04
  5  0.0000E+00  2.7146E-04  0.0000E+00  5.0840E-03  0.0000E+00  0.0000E+00  0.0000E+00  3.3127E-04  0.0000E+00
  6  0.0000E+00  4.7500E-04  0.0000E+00  0.0000E+00  0.0000E+00  0.0000E+00  0.0000E+00  0.0000E+00  0.0000E+00
  7  0.0000E+00  2.6269E-04  0.0000E+00  0.0000E+00  4.5508E-03  0.0000E+00  0.0000E+00  0.0000E+00  0.0000E+00
  8  0.0000E+00  1.8071E-03  0.0000E+00  0.0000E+00  0.0000E+00  0.0000E+00  2.6052E-03  0.0000E+00  0.0000E+00
  9  0.0000E+00  1.0776E-03  0.0000E+00  0.0000E+00  0.0000E+00  0.0000E+00  0.0000E+00  0.0000E+00  3.9630E-03
 10  0.0000E+00  2.3821E-03  0.0000E+00  0.0000E+00  0.0000E+00  0.0000E+00  0.0000E+00  1.3082E-02  0.0000E+00
 11  0.0000E+00  1.5647E-03  0.0000E+00  0.0000E+00  0.0000E+00  0.0000E+00  0.0000E+00  0.0000E+00  0.0000E+00
 12  0.0000E+00  3.3826E-03  0.0000E+00  0.0000E+00  3.1086E-02  0.0000E+00  0.0000E+00  0.0000E+00  0.0000E+00
 13  0.0000E+00  4.7195E-02  0.0000E+00  0.0000E+00  7.9202E-02  0.0000E+00  7.6228E-02  0.0000E+00  0.0000E+00
 14  0.0000E+00  2.8534E-01  0.0000E+00  4.8300E-01  1.0143E+00  0.0000E+00  0.0000E+00  0.0000E+00  0.0000E+00
 15  8.2060E-03  1.4642E+00  2.1416E+00  1.5268E+00  0.0000E+00  1.0781E+00  0.0000E+00  0.0000E+00  3.7378E+00
 16  7.6131E+00  2.8904E+00  3.6625E+00  0.0000E+00  0.0000E+00  0.0000E+00  1.9175E+00  2.3070E+00  0.0000E+00
 17  1.0183E+01  4.9039E+00  1.1732E+01  0.0000E+00  0.0000E+00  9.7241E+00  3.6976E+00  2.5651E+00  1.5669E+00
 18  7.0512E-03  3.8656E-04  2.5591E-03  0.0000E+00  0.0000E+00  0.0000E+00  3.4523E-03  0.0000E+00  0.0000E+00
 19  0.0000E+00  1.0960E-04  0.0000E+00  0.0000E+00  0.0000E+00  0.0000E+00  0.0000E+00  0.0000E+00  0.0000E+00
 20  0.0000E+00  5.9086E-05  0.0000E+00  0.0000E+00  0.0000E+00  0.0000E+00  0.0000E+00  0.0000E+00  0.0000E+00
 21  0.0000E+00  2.0971E-04  0.0000E+00  2.3309E-03  0.0000E+00  0.0000E+00  0.0000E+00  0.0000E+00  0.0000E+00
 22  0.0000E+00  6.6664E-04  0.0000E+00  0.0000E+00  2.1460E-03  0.0000E+00  0.0000E+00  0.0000E+00  0.0000E+00
 23  0.0000E+00  3.5390E-04  2.0090E-03  1.3366E-03  0.0000E+00  0.0000E+00  0.0000E+00  0.0000E+00  0.0000E+00
 24  0.0000E+00  3.9999E-04  2.6896E-03  0.0000E+00  0.0000E+00  0.0000E+00  0.0000E+00  0.0000E+00  0.0000E+00
 25  0.0000E+00  3.5733E-04  0.0000E+00  0.0000E+00  0.0000E+00  0.0000E+00  0.0000E+00  0.0000E+00  0.0000E+00
 26  0.0000E+00  3.7067E-03  0.0000E+00  2.8849E-03  4.2767E-02  0.0000E+00  0.0000E+00  0.0000E+00  0.0000E+00
 27  0.0000E+00  9.4866E-03  0.0000E+00  0.0000E+00  0.0000E+00  4.8040E-02  0.0000E+00  1.4461E-03  0.0000E+00
 28  0.0000E+00  2.7968E-02  0.0000E+00  0.0000E+00  0.0000E+00  1.8608E-02  4.3322E-02  9.4966E-03  0.0000E+00
 29  0.0000E+00  7.3814E-02  0.0000E+00  0.0000E+00  0.0000E+00  0.0000E+00  0.0000E+00  0.0000E+00  2.2639E-01
 30  5.2919E-05  4.4836E-01  5.3576E-01  7.3026E-02  1.4459E+00  0.0000E+00  1.1989E+00  0.0000E+00  0.0000E+00
 31  0.0000E+00  9.7414E-01  0.0000E+00  5.2774E-01  2.6358E-01  1.8436E-01  0.0000E+00  6.0493E-01  0.0000E+00
 32  0.0000E+00  2.9486E+00  0.0000E+00  0.0000E+00  2.9429E+00  6.8125E-01  0.0000E+00  4.3355E-02  1.7362E+00
 33  0.0000E+00  1.0440E+00  0.0000E+00  0.0000E+00  0.0000E+00  0.0000E+00  3.8648E-01  0.0000E+00  0.0000E+00
 34  0.0000E+00  9.1663E-01  0.0000E+00  0.0000E+00  1.6824E+00  2.0339E+00  0.0000E+00  0.0000E+00  0.0000E+00
 35  0.0000E+00  3.3577E-04  0.0000E+00  3.4713E-05  0.0000E+00  0.0000E+00  0.0000E+00  2.9386E-03  0.0000E+00
 36  0.0000E+00  1.7488E-04  0.0000E+00  0.0000E+00  0.0000E+00  0.0000E+00  8.5545E-04  0.0000E+00  2.0754E-03
 37  0.0000E+00  1.6554E-04  0.0000E+00  0.0000E+00  1.2182E-03  1.2607E-04  0.0000E+00  0.0000E+00  0.0000E+00
 38  0.0000E+00  3.0965E-04  0.0000E+00  0.0000E+00  0.0000E+00  0.0000E+00  0.0000E+00  0.0000E+00  0.0000E+00
 39  0.0000E+00  1.4590E-03  0.0000E+00  0.0000E+00  0.0000E+00  0.0000E+00  0.0000E+00  8.5536E-04  0.0000E+00
 40  0.0000E+00  9.1620E-04  0.0000E+00  0.0000E+00  0.0000E+00  0.0000E+00  0.0000E+00  3.1889E-03  2.7338E-03
 41  0.0000E+00  1.0529E-03  0.0000E+00  0.0000E+00  0.0000E+00  0.0000E+00  0.0000E+00  0.0000E+00  3.6456E-03
 42  0.0000E+00  2.0268E-03  0.0000E+00  0.0000E+00  0.0000E+00  0.0000E+00  0.0000E+00  0.0000E+00  0.0000E+00
 43  0.0000E+00  8.3928E-03  0.0000E+00  1.4249E-02  0.0000E+00  9.4799E-02  0.0000E+00  2.6764E-02  0.0000E+00
 44  0.0000E+00  1.1158E-02  0.0000E+00  0.0000E+00  7.0877E-02  0.0000E+00  0.0000E+00  0.0000E+00  0.0000E+00
 45  0.0000E+00  3.3146E-02  2.5702E-01  0.0000E+00  0.0000E+00  0.0000E+00  0.0000E+00  0.0000E+00  0.0000E+00
 46  0.0000E+00  1.5034E-01  0.0000E+00  2.2965E-01  0.0000E+00  0.0000E+00  0.0000E+00  9.5128E-03  0.0000E+00
 47  0.0000E+00  2.1914E+00  0.0000E+00  1.8488E+00  0.0000E+00  1.4716E+00  6.5566E-01  3.3930E+00  3.3301E+00
 48  0.0000E+00  1.7377E+01  5.4246E+00  1.5721E+01  1.3354E+01  2.4517E+01  1.4382E+01  2.9518E+01  1.1259E+01
 49  8.9386E+00  1.1415E+01  1.9108E+01  1.0230E+01  1.1748E+01  1.4463E+01  1.1586E+01  1.3253E+01  7.0063E+00
 50  4.6480E+00  1.0113E+01  1.4671E+01  1.2060E+01  1.4359E+01  0.0000E+00  0.0000E+00  0.0000E+00  1.0190E+01
 51  0.0000E+00  1.4196E-04  7.3491E-04  0.0000E+00  0.0000E+00  0.0000E+00  0.0000E+00  0.0000E+00  0.0000E+00
 52  0.0000E+00  5.1875E-05  0.0000E+00  8.3861E-05  0.0000E+00  0.0000E+00  0.0000E+00  1.8615E-04  0.0000E+00
 53  0.0000E+00  8.5910E-05  0.0000E+00  0.0000E+00  0.0000E+00  0.0000E+00  0.0000E+00  0.0000E+00  0.0000E+00
 54  0.0000E+00  2.2367E-04  0.0000E+00  0.0000E+00  2.5445E-03  0.0000E+00  1.3232E-03  0.0000E+00  0.0000E+00
 55  0.0000E+00  1.7387E-04  0.0000E+00  0.0000E+00  0.0000E+00  9.8406E-04  0.0000E+00  0.0000E+00  0.0000E+00
 56  0.0000E+00  9.6514E-04  0.0000E+00  0.0000E+00  0.0000E+00  0.0000E+00  1.6877E-02  0.0000E+00  0.0000E+00
 57  0.0000E+00  9.6090E-04  0.0000E+00  0.0000E+00  0.0000E+00  0.0000E+00  0.0000E+00  0.0000E+00  0.0000E+00
 58  0.0000E+00  5.7457E-04  0.0000E+00  0.0000E+00  0.0000E+00  0.0000E+00  6.2742E-03  0.0000E+00  0.0000E+00
 59  0.0000E+00  5.2641E-03  0.0000E+00  4.9714E-03  0.0000E+00  0.0000E+00  0.0000E+00  0.0000E+00  0.0000E+00
 60  0.0000E+00  1.9822E-02  0.0000E+00  0.0000E+00  0.0000E+00  0.0000E+00  8.2680E-02  0.0000E+00  0.0000E+00
 61  0.0000E+00  6.5047E-01  6.1231E-01  1.1926E+00  3.7974E-01  8.0605E-01  7.5285E-01  6.3307E-01  1.0739E+00
 62  0.0000E+00  1.6467E+00  3.7293E-01  1.8518E+00  4.1453E-01  0.0000E+00  2.8221E+00  2.2196E+00  2.1404E+00
 63  3.1660E+01  2.9056E+01  2.4147E+01  3.7121E+01  3.7011E+01  3.3499E+01  4.6195E+01  3.1762E+01  4.5784E+01
 64  1.5826E+01  7.3505E+00  1.1607E+01  1.0745E+01  1.3653E+01  1.1379E+01  6.1836E+00  9.8621E+00  1.1935E+01
 65  2.1116E+01  2.4898E+00  5.7205E+00  0.0000E+00  0.0000E+00  0.0000E+00  8.4899E+00  0.0000E+00  0.0000E+00
 66  0.0000E+00  1.4213E+00  0.0000E+00  6.3578E+00  1.4958E+00  0.0000E+00  1.4982E+00  3.7717E+00  0.0000E+00

# AV, chi2 & Mass for <> & i_chain = 1 ...  7 solutions
AV       0.0343      0.1811      0.1032      0.1765      0.1469      0.1534      0.1824      0.1554      0.1827
chi2 1.3471E-01  1.4424E-01  1.3866E-01  1.4172E-01  1.4167E-01  1.4090E-01  1.4152E-01  1.4080E-01  1.4134E-01
Mass 4.3496E-11  3.8675E-11  4.4524E-11  3.7430E-11  3.7639E-11  3.6563E-11  3.4809E-11  3.4955E-11  3.4424E-11
-170.18                                  [v0_min (km/s) before EX0s...]
 272.87                                  [vd_min (km/s) before EX0s...]


## Synthetic spectrum (Best Model) ##l_obs f_obs f_syn wei
 3478    [Nl_obs]
 3741.00    0.69451   0.48769    0.000
 3742.00    0.57726   0.47504    0.000
 3743.00    0.47492   0.45964    0.000
 3744.00    0.40669   0.44481    0.000
 3745.00    0.39522   0.43881    2.959
 3746.00    0.45160   0.44167    2.941
 3747.00    0.54149   0.44986    2.899
 3748.00    0.60158   0.46658    2.865
 3749.00    0.57908   0.49277    2.863
 3750.00    0.47889   0.51963    2.896
 3751.00    0.42329   0.54063    2.923
 3752.00    0.53581   0.55608    2.898
 3753.00    0.74822   0.56627    2.852
 3754.00    0.89485   0.56909    2.841
 3755.00    0.90356   0.56332    2.865
 3756.00    0.80668   0.55389    2.890
 3757.00    0.70860   0.54681    2.907
 3758.00    0.69525   0.54188    2.925
 3759.00    0.71695   0.53861    2.959
 3760.00    0.68837   0.53857    3.012
 3761.00    0.64563   0.53922    3.059
 3762.00    0.65792   0.54113    3.073
 3763.00    0.68354   0.54797    3.069
 3764.00    0.64674   0.55456    3.075
 3765.00    0.56162   0.55768    3.096
 3766.00    0.50058   0.56634    3.124
 3767.00    0.53008   0.58153    3.155
 3768.00    0.65691   0.59367    3.191
 3769.00    0.77938   0.60445    3.219
 3770.00    0.79463   0.62031    3.231
 3771.00    0.72938   0.63694    3.233
 3772.00    0.67233   0.64898    3.235
 3773.00    0.67630   0.65957    3.239
 3774.00    0.73445   0.67248    3.235
 3775.00    0.77301   0.68527    3.214
 3776.00    0.74307   0.69420    3.178
 3777.00    0.71267   0.70096    3.150
 3778.00    0.75410   0.70811    3.143
 3779.00    0.82193   0.71169    3.136
 3780.00    0.84369   0.70655    3.112
 3781.00    0.82232   0.69524    3.105
 3782.00    0.79554   0.68288    3.143
 3783.00    0.78374   0.66534    3.198
 3784.00    0.77328   0.64080    3.227
 3785.00    0.71257   0.61818    3.231
 3786.00    0.59059   0.60136    3.235
 3787.00    0.49923   0.58423    3.259
 3788.00    0.51216   0.56661    3.306
 3789.00    0.57980   0.55456    3.349
 3790.00    0.63063   0.54551    3.370
 3791.00    0.66246   0.53539    3.389
 3792.00    0.68444   0.52503    3.428
 3793.00    0.66824   0.51781    3.471
 3794.00    0.61255   0.51583    3.500
 3795.00    0.58786   0.51815    3.518
 3796.00    0.63238   0.52387    3.539
 3797.00    0.67796   0.53585    3.567
 3798.00    0.65652   0.55534    3.599
 3799.00    0.58394   0.57616    3.617
 3800.00    0.52777   0.59494    3.611
 3801.00    0.56647   0.61254    3.587
 3802.00    0.70050   0.62785    3.556
 3803.00    0.80968   0.63909    3.529
 3804.00    0.80956   0.64548    3.517
 3805.00    0.75065   0.64760    3.526
 3806.00    0.71006   0.64722    3.564
 3807.00    0.71290   0.64375    3.629
 3808.00    0.74127   0.63473    3.708
 3809.00    0.75147   0.62192    3.763
 3810.00    0.72610   0.60620    3.779
 3811.00    0.69726   0.58703    3.786
 3812.00    0.67906   0.56817    3.814
 3813.00    0.63673   0.55046    3.854
 3814.00    0.56545   0.53162    3.883
 3815.00    0.52354   0.51441    3.872
 3816.00    0.53420   0.50264    3.802
 3817.00    0.54133   0.49251    3.668
 3818.00    0.49980   0.48005    3.516
 3819.00    0.42447   0.46847    3.419
 3820.00    0.36274   0.45994    3.394
 3821.00    0.36588   0.45088    3.391
 3822.00    0.42627   0.43945    3.382
 3823.00    0.46523   0.42910    3.398
 3824.00    0.44377   0.42197    3.478
 3825.00    0.40737   0.41615    3.642
 3826.00    0.41283   0.40914    3.857
 3827.00    0.48314   0.40188    4.014
 3828.00    0.57707   0.39716    4.061
 3829.00    0.60251   0.39329    4.082
 3830.00    0.54444   0.38831    4.129
 3831.00    0.49289   0.38494    4.164
 3832.00    0.49073   0.38393    4.166
 3833.00    0.48811   0.38423    4.178
 3834.00    0.45910   0.38799    4.192
 3835.00    0.43872   0.39535    4.142
 3836.00    0.45231   0.40567    4.047
 3837.00    0.48886   0.42164    4.016
 3838.00    0.52308   0.44090    4.074
 3839.00    0.53223   0.46117    4.133
 3840.00    0.52358   0.48325    4.154
 3841.00    0.53126   0.50470    4.190
 3842.00    0.56211   0.52356    4.258
 3843.00    0.58604   0.53963    4.304
 3844.00    0.58095   0.55018    4.308
 3845.00    0.54902   0.55558    4.307
 3846.00    0.51089   0.56059    4.313
 3847.00    0.49620   0.56216    0.000
 3848.00    0.51937   0.55777    0.000
 3849.00    0.57285   0.55419    0.000
 3850.00    0.63459   0.55086    0.000
 3851.00    0.67550   0.54235    0.000
 3852.00    0.67484   0.53321    0.000
 3853.00    0.63059   0.52561    0.000
 3854.00    0.57480   0.51619    0.000
 3855.00    0.55660   0.50835    0.000
 3856.00    0.57611   0.50622    0.000
 3857.00    0.58878   0.50766    0.000
 3858.00    0.58075   0.51175    0.000
 3859.00    0.57493   0.52019    0.000
 3860.00    0.58088   0.53074    0.000
 3861.00    0.58787   0.54019    0.000
 3862.00    0.58828   0.54707    0.000
 3863.00    0.58354   0.55061    0.000
 3864.00    0.58143   0.55087    0.000
 3865.00    0.58821   0.54720    0.000
 3866.00    0.59097   0.54089    0.000
 3867.00    0.57518   0.53419    0.000
 3868.00    0.57966   0.52932    0.000
 3869.00    0.65480   0.52739    0.000
 3870.00    0.72810   0.52748    0.000
 3871.00    0.66930   0.52961    0.000
 3872.00    0.52293   0.53297    0.000
 3873.00    0.45705   0.53466    0.000
 3874.00    0.51422   0.53584    0.000
 3875.00    0.60656   0.53758    0.000
 3876.00    0.64001   0.53507    0.000
 3877.00    0.57128   0.52957    0.000
 3878.00    0.46490   0.52794    0.000
 3879.00    0.43622   0.52771    0.000
 3880.00    0.50694   0.52207    0.000
 3881.00    0.61006   0.51748    4.073
 3882.00    0.66544   0.51989    4.061
 3883.00    0.63087   0.52132    4.072
 3884.00    0.56770   0.52025    4.077
 3885.00    0.57534   0.52672    4.063
 3886.00    0.64366   0.54025    4.056
 3887.00    0.69321   0.55319    4.100
 3888.00    0.70240   0.56835    4.174
 3889.00    0.69407   0.58841    4.232
 3890.00    0.66902   0.60646    4.279
 3891.00    0.62476   0.62142    4.351
 3892.00    0.60723   0.63623    4.431
 3893.00    0.66226   0.64688    4.475
 3894.00    0.74161   0.65253    4.508
 3895.00    0.76365   0.65760    4.574
 3896.00    0.73690   0.66252    4.652
 3897.00    0.72117   0.66221    4.702
 3898.00    0.73381   0.65985    4.797
 3899.00    0.75060   0.66162    4.999
 3900.00    0.73249   0.66154    5.097
 3901.00    0.66785   0.65850    4.983
 3902.00    0.62427   0.66134    5.308
 3903.00    0.66278   0.66952    7.288
 3904.00    0.70944   0.67693   12.402
 3905.00    0.67173   0.68686   12.402
 3906.00    0.62002   0.70232   12.402
 3907.00    0.66284   0.71709   12.402
 3908.00    0.74895   0.72752   12.402
 3909.00    0.76438   0.73628   12.402
 3910.00    0.69359   0.74255   12.402
 3911.00    0.59063   0.74162   12.402
 3912.00    0.51372   0.73461   12.402
 3913.00    0.50000   0.72525   12.402
 3914.00    0.54538   0.71177   12.402
 3915.00    0.62014   0.69354   12.402
 3916.00    0.69143   0.67501   12.402
 3917.00    0.73311   0.65659    7.252
 3918.00    0.73442   0.63649    4.732
 3919.00    0.70126   0.61706    4.344
 3920.00    0.65556   0.59739    4.651
 3921.00    0.62117   0.57539    4.768
 3922.00    0.60776   0.55105    4.636
 3923.00    0.60193   0.52282    4.611
 3924.00    0.56421   0.49029    4.686
 3925.00    0.48388   0.45508    4.717
 3926.00    0.42740   0.41824    4.712
 3927.00    0.44095   0.38141    4.734
 3928.00    0.45760   0.34857    4.781
 3929.00    0.40672   0.32218    4.834
 3930.00    0.32216   0.30365    4.916
 3931.00    0.26809   0.29581    5.046
 3932.00    0.26176   0.29881    5.202
 3933.00    0.29641   0.31139    5.340
 3934.00    0.36657   0.33343    5.448
 3935.00    0.45085   0.36216    5.550
 3936.00    0.50049   0.39358    5.710
 3937.00    0.49270   0.42762    5.952
 3938.00    0.47018   0.46233    6.192
 3939.00    0.47470   0.49316    6.334
 3940.00    0.49429   0.52252    6.401
 3941.00    0.51179   0.55306    6.431
 3942.00    0.54246   0.58035    6.372
 3943.00    0.59193   0.60483    6.197
 3944.00    0.62704   0.63072    5.975
 3945.00    0.62525   0.65549    5.770
 3946.00    0.60824   0.67654    5.590
 3947.00    0.59651   0.69426    5.423
 3948.00    0.58039   0.70917    5.256
 3949.00    0.56871   0.72181    5.104
 3950.00    0.61281   0.72912    5.004
 3951.00    0.71786   0.72982    4.953
 3952.00    0.79656   0.72826    4.886
 3953.00    0.78561   0.72290    4.789
 3954.00    0.71666   0.70928    4.749
 3955.00    0.64697   0.69022    4.801
 3956.00    0.60937   0.66666    4.861
 3957.00    0.60249   0.63617    4.859
 3958.00    0.59423   0.60049    4.833
 3959.00    0.57147   0.56067    4.819
 3960.00    0.55947   0.51762    0.000
 3961.00    0.55361   0.47528    0.000
 3962.00    0.49681   0.43512    0.000
 3963.00    0.38950   0.39830    0.000
 3964.00    0.32748   0.36916    0.000
 3965.00    0.35158   0.35003    0.000
 3966.00    0.38563   0.34173    0.000
 3967.00    0.36833   0.34593    0.000
 3968.00    0.31798   0.36234    0.000
 3969.00    0.28230   0.38998    0.000
 3970.00    0.30372   0.42768    0.000
 3971.00    0.38841   0.47190    0.000
 3972.00    0.49874   0.51971    0.000
 3973.00    0.59211   0.56944    0.000
 3974.00    0.64308   0.61796    0.000
 3975.00    0.65395   0.66265    0.000
 3976.00    0.65311   0.70264    0.000
 3977.00    0.66563   0.73710    0.000
 3978.00    0.70111   0.76544    0.000
 3979.00    0.76137   0.78826    0.000
 3980.00    0.84143   0.80719    0.000
 3981.00    0.91810   0.82253    4.630
 3982.00    0.95501   0.83506    4.583
 3983.00    0.94373   0.84785    4.539
 3984.00    0.91423   0.85999    4.544
 3985.00    0.90614   0.86919    4.591
 3986.00    0.94486   0.87893    4.614
 3987.00    0.99810   0.88893    4.600
 3988.00    0.99128   0.89475    4.606
 3989.00    0.92815   0.89872    4.647
 3990.00    0.89900   0.90285    4.676
 3991.00    0.94009   0.90501    4.677
 3992.00    1.00339   0.90586    4.684
 3993.00    1.03839   0.90691    4.699
 3994.00    1.02586   0.91002    4.690
 3995.00    0.98765   0.91540    4.654
 3996.00    0.96995   0.91981    4.629
 3997.00    0.97883   0.92433    4.638
 3998.00    0.98009   0.93087    4.677
 3999.00    0.96866   0.93432    4.727
 4000.00    0.97145   0.93253    4.759
 4001.00    0.98487   0.93099    4.773
 4002.00    0.97435   0.93079    4.795
 4003.00    0.93347   0.92850    4.820
 4004.00    0.89080   0.92775    4.817
 4005.00    0.87591   0.93331    4.795
 4006.00    0.90341   0.94145    4.790
 4007.00    0.95829   0.94999    4.787
 4008.00    1.00660   0.96159    4.736
 4009.00    1.03514   0.97359    4.652
 4010.00    1.05006   0.98337    4.596
 4011.00    1.04376   0.99325    4.562
 4012.00    1.00293   1.00101    4.501
 4013.00    0.95140   1.00532    4.423
 4014.00    0.93682   1.01070    4.372
 4015.00    0.97008   1.01474    4.324
 4016.00    1.01961   1.01415    4.220
 4017.00    1.03632   1.01472    4.093
 4018.00    0.99373   1.01652    4.029
 4019.00    0.96282   1.01405    4.044
 4020.00    1.03953   1.01099    4.099
 4021.00    1.14634   1.01069    4.168
 4022.00    1.11902   1.00737    4.247
 4023.00    0.99180   1.00041    4.336
 4024.00    0.93104   0.99426    4.437
 4025.00    0.96184   0.98439    4.536
 4026.00    0.98903   0.96892    4.613
 4027.00    0.96290   0.95496    4.674
 4028.00    0.90174   0.94153    4.738
 4029.00    0.86450   0.92827    4.784
 4030.00    0.90295   0.92307    4.778
 4031.00    0.98316   0.92552    4.758
 4032.00    1.02777   0.93257    4.784
 4033.00    1.02231   0.94586    4.841
 4034.00    1.00338   0.96206    4.865
 4035.00    1.00000   0.97624    4.849
 4036.00    1.01692   0.98571    4.828
 4037.00    1.02630   0.98867    4.827
 4038.00    1.00100   0.98481    4.849
 4039.00    0.97143   0.97416    4.874
 4040.00    0.98412   0.95892    4.885
 4041.00    1.01945   0.94312    4.885
 4042.00    1.02376   0.93088    4.895
 4043.00    0.98238   0.92423    4.921
 4044.00    0.92246   0.92229    4.951
 4045.00    0.89672   0.92811    4.952
 4046.00    0.94079   0.94072    4.902
 4047.00    1.01624   0.95135    4.846
 4048.00    1.06362   0.96048    4.835
 4049.00    1.08948   0.96926    4.851
 4050.00    1.12226   0.97011    4.846
 4051.00    1.13494   0.96559    4.826
 4052.00    1.08930   0.96062    4.820
 4053.00    1.00947   0.95112    4.835
 4054.00    0.95244   0.94064    4.864
 4055.00    0.95432   0.93299    4.895
 4056.00    1.00613   0.92372    4.917
 4057.00    1.03693   0.91544    4.914
 4058.00    0.99205   0.90963    4.878
 4059.00    0.92744   0.90225    4.821
 4060.00    0.92363   0.89796    4.770
 4061.00    0.97014   0.89781    4.750
 4062.00    1.00312   0.89718    4.779
 4063.00    0.96916   0.90079    4.845
 4064.00    0.87375   0.90936    4.921
 4065.00    0.81893   0.91664    4.974
 4066.00    0.88263   0.92282    4.983
 4067.00    0.99033   0.92854    4.966
 4068.00    1.03636   0.93266    4.954
 4069.00    1.02367   0.93322    4.969
 4070.00    1.00473   0.92968    5.011
 4071.00    1.00426   0.92729    5.049
 4072.00    1.01073   0.92551    5.057
 4073.00    0.98099   0.92253    5.047
 4074.00    0.90272   0.92425    5.033
 4075.00    0.84650   0.93010    4.992
 4076.00    0.87282   0.93846    4.915
 4077.00    0.94629   0.95184    4.850
 4078.00    1.01032   0.96666    4.830
 4079.00    1.05921   0.98189    4.821
 4080.00    1.09985   0.99889    4.790
 4081.00    1.11579   1.01370    4.761
 4082.00    1.10243   1.02676    4.757
 4083.00    1.09524   1.04069    4.758
 4084.00    1.12396   1.05227    4.741
 4085.00    1.17459   1.06028    4.719
 4086.00    1.21124   1.06730    4.712
 4087.00    1.19987   1.07027    4.733
 4088.00    1.13771   1.06588    4.777
 4089.00    1.06836   1.05839    4.817
 4090.00    1.02611   1.04630    4.834
 4091.00    0.99906   1.02620    4.835
 4092.00    0.98337   1.00468    0.000
 4093.00    1.01406   0.98151    0.000
 4094.00    1.07849   0.95383    0.000
 4095.00    1.07384   0.92925    0.000
 4096.00    0.96367   0.90794    0.000
 4097.00    0.86345   0.88808    0.000
 4098.00    0.85414   0.87713    0.000
 4099.00    0.87330   0.87401    0.000
 4100.00    0.86495   0.87545    0.000
 4101.00    0.86855   0.88619    0.000
 4102.00    0.92323   0.90254    0.000
 4103.00    1.00825   0.91892    0.000
 4104.00    1.07663   0.93740    0.000
 4105.00    1.08520   0.95504    0.000
 4106.00    1.03647   0.96900    0.000
 4107.00    0.99062   0.98125    0.000
 4108.00    0.99283   0.99133    0.000
 4109.00    1.03371   1.00013    0.000
 4110.00    1.07040   1.00791    0.000
 4111.00    1.05300   1.01324    0.000
 4112.00    0.99593   1.01834    0.000
 4113.00    0.98814   1.02196    5.210
 4114.00    1.04391   1.02119    5.225
 4115.00    1.05857   1.01990    5.204
 4116.00    0.99134   1.01869    5.179
 4117.00    0.93191   1.01462    5.180
 4118.00    0.95399   1.01111    5.198
 4119.00    1.04423   1.00955    5.182
 4120.00    1.12426   1.00735    5.138
 4121.00    1.09415   1.00466    5.136
 4122.00    0.97316   1.00155    5.194
 4123.00    0.91249   0.99748    5.242
 4124.00    0.95992   0.99099    5.244
 4125.00    1.00159   0.98238    5.232
 4126.00    0.97843   0.97429    5.220
 4127.00    0.94936   0.96537    5.178
 4128.00    0.94802   0.95770    5.106
 4129.00    0.94345   0.95509    5.047
 4130.00    0.93558   0.95422    5.017
 4131.00    0.97147   0.95810    4.997
 4132.00    1.05132   0.96725    4.971
 4133.00    1.11258   0.97497    4.940
 4134.00    1.11416   0.98457    4.923
 4135.00    1.06735   0.99262    4.940
 4136.00    1.02486   0.99326    4.972
 4137.00    1.04694   0.99234    4.964
 4138.00    1.10032   0.98741    4.912
 4139.00    1.07538   0.97659    4.874
 4140.00    0.96948   0.96807    4.892
 4141.00    0.89424   0.96148    4.968
 4142.00    0.88354   0.95409    5.061
 4143.00    0.87323   0.95168    5.104
 4144.00    0.85002   0.95318    5.091
 4145.00    0.86725   0.95292    5.079
 4146.00    0.93775   0.95391    5.099
 4147.00    1.01649   0.95550    5.130
 4148.00    1.05470   0.95436    5.129
 4149.00    1.02740   0.95310    5.070
 4150.00    0.96220   0.95210    5.034
 4151.00    0.92242   0.95232    5.119
 4152.00    0.93582   0.95472    5.170
 4153.00    0.98280   0.95887    4.959
 4154.00    1.02236   0.96673    4.927
 4155.00    1.01773   0.97744    5.951
 4156.00    0.98288   0.98873    8.830
 4157.00    0.96864   0.99996   11.492
 4158.00    0.99505   1.01186   10.453
 4159.00    1.03899   1.02101    9.382
 4160.00    1.05019   1.02457    9.481
 4161.00    0.99101   1.02709    9.981
 4162.00    0.91920   1.02598   10.627
 4163.00    0.93718   1.01823   11.442
 4164.00    1.02801   1.01007   10.506
 4165.00    1.08439   0.99984    7.450
 4166.00    1.06329   0.98578    5.441
 4167.00    0.99891   0.97269    4.911
 4168.00    0.94948   0.95908    5.201
 4169.00    0.95534   0.94597    5.567
 4170.00    0.97849   0.93603    5.494
 4171.00    0.94920   0.92759    5.163
 4172.00    0.88696   0.92338    5.256
 4173.00    0.86750   0.92324    6.613
 4174.00    0.90658   0.92451    9.852
 4175.00    0.96628   0.92979   11.759
 4176.00    1.01370   0.93701   10.172
 4177.00    1.03288   0.94285    9.327
 4178.00    1.02471   0.95081    9.669
 4179.00    1.00445   0.95888   10.065
 4180.00    0.99647   0.96322   10.045
 4181.00    1.01510   0.96934    9.904
 4182.00    1.03417   0.97547    9.724
 4183.00    1.01890   0.97765    9.549
 4184.00    0.98784   0.98173    9.940
 4185.00    0.98204   0.98689   11.158
 4186.00    0.99744   0.99009   10.591
 4187.00    1.00452   0.99303    7.401
 4188.00    0.99780   0.99544    5.418
 4189.00    0.98822   0.99647    4.972
 4190.00    0.97888   0.99395    5.266
 4191.00    0.96857   0.98690    5.531
 4192.00    0.96197   0.97846    5.511
 4193.00    0.95822   0.96882    5.447
 4194.00    0.93378   0.95525    5.471
 4195.00    0.87583   0.94368    5.560
 4196.00    0.83008   0.93819    5.621
 4197.00    0.84829   0.93283    5.580
 4198.00    0.90983   0.93224    5.519
 4199.00    0.97013   0.94064    5.532
 4200.00    1.03665   0.94992    5.546
 4201.00    1.12250   0.96255    5.461
 4202.00    1.17751   0.97994    5.362
 4203.00    1.15135   0.99479    5.358
 4204.00    1.07949   1.01002    5.394
 4205.00    1.02028   1.02399    5.375
 4206.00    0.96953   1.03228    5.342
 4207.00    0.91878   1.03968    5.358
 4208.00    0.92887   1.04302    5.367
 4209.00    1.03422   1.04227    5.303
 4210.00    1.13397   1.04402    5.236
 4211.00    1.12917   1.04320    5.249
 4212.00    1.07897   1.04177    5.311
 4213.00    1.07641   1.04583    5.354
 4214.00    1.10268   1.04832    5.363
 4215.00    1.10303   1.04825    5.358
 4216.00    1.07964   1.04822    5.341
 4217.00    1.06315   1.04277    5.321
 4218.00    1.07273   1.02970    5.326
 4219.00    1.09596   1.01022    5.368
 4220.00    1.07935   0.98612    5.406
 4221.00    0.99909   0.96193    5.401
 4222.00    0.92081   0.93764    5.364
 4223.00    0.90893   0.91778    5.335
 4224.00    0.94276   0.91200    5.346
 4225.00    0.96845   0.91291    5.395
 4226.00    0.95462   0.91876    5.438
 4227.00    0.91360   0.93772    5.440
 4228.00    0.90697   0.95635    5.435
 4229.00    0.96392   0.96948    5.457
 4230.00    1.02193   0.98720    5.485
 4231.00    1.01932   0.99927    5.491
 4232.00    0.97114   1.00292    5.485
 4233.00    0.93258   1.01108    5.476
 4234.00    0.95804   1.01902    5.446
 4235.00    1.04261   1.02371    5.396
 4236.00    1.09559   1.03339    5.371
 4237.00    1.07097   1.04735    5.392
 4238.00    1.04662   1.05890    5.422
 4239.00    1.06948   1.06921    5.444
 4240.00    1.06083   1.08065    5.501
 4241.00    0.97797   1.08655    5.610
 4242.00    0.91151   1.08622    5.698
 4243.00    0.93359   1.08158    5.708
 4244.00    1.00398   1.07264    5.678
 4245.00    1.06960   1.06226    5.651
 4246.00    1.12657   1.04771    5.620
 4247.00    1.16834   1.03402    5.581
 4248.00    1.15926   1.02632    5.563
 4249.00    1.09351   1.01837    5.571
 4250.00    1.02142   1.01262    5.565
 4251.00    0.97914   1.01116    5.537
 4252.00    0.95347   1.01199    5.548
 4253.00    0.93311   1.01454    5.626
 4254.00    0.93382   1.01578    5.723
 4255.00    0.96361   1.01991    5.784
 4256.00    1.00701   1.02634    5.800
 4257.00    1.05212   1.03197    5.793
 4258.00    1.09921   1.04308    5.804
 4259.00    1.12481   1.05608    5.842
 4260.00    1.08052   1.06546    5.871
 4261.00    0.98552   1.07512    5.861
 4262.00    0.94386   1.08186    5.811
 4263.00    0.99056   1.07891    5.768
 4264.00    1.04464   1.06838    5.799
 4265.00    1.05974   1.05340    5.898
 4266.00    1.07428   1.03329    5.970
 4267.00    1.09587   1.00752    5.996
 4268.00    1.06976   0.98517    6.088
 4269.00    0.98813   0.97267    6.262
 4270.00    0.91878   0.96198    6.376
 4271.00    0.90797   0.95938    6.373
 4272.00    0.94500   0.97037    6.375
 4273.00    0.99968   0.98268    6.441
 4274.00    1.04361   0.99901    6.499
 4275.00    1.06746   1.01774    6.494
 4276.00    1.08078   1.02924    6.450
 4277.00    1.08392   1.04103    6.400
 4278.00    1.06554   1.04768    6.360
 4279.00    1.03634   1.04552    6.342
 4280.00    1.02983   1.04357    6.349
 4281.00    1.05634   1.03487    6.339
 4282.00    1.09125   1.02147    6.239
 4283.00    1.09626   1.01102    6.054
 4284.00    1.04327   0.99790    5.870
 4285.00    0.96641   0.98298    5.752
 4286.00    0.94360   0.97231    5.718
 4287.00    0.97459   0.96418    5.719
 4288.00    0.98111   0.95840    5.673
 4289.00    0.94317   0.95528    5.613
 4290.00    0.91314   0.94843    5.662
 4291.00    0.91539   0.94221    5.819
 4292.00    0.92662   0.93472    5.949
 4293.00    0.91731   0.91861    5.985
 4294.00    0.87275   0.90175    5.978
 4295.00    0.81453   0.88020    5.995
 4296.00    0.78530   0.85523    6.055
 4297.00    0.78801   0.83665    6.092
 4298.00    0.78851   0.81553    6.007
 4299.00    0.77201   0.79620    5.868
 4300.00    0.74942   0.78622    5.838
 4301.00    0.73054   0.77538    5.900
 4302.00    0.72056   0.76886    5.906
 4303.00    0.73004   0.76929    5.854
 4304.00    0.76454   0.77078    5.869
 4305.00    0.79295   0.78095    5.969
 4306.00    0.77528   0.79988    6.062
 4307.00    0.74801   0.82439    6.110
 4308.00    0.78866   0.85852    6.132
 4309.00    0.88409   0.90173    6.123
 4310.00    0.95322   0.94834    6.063
 4311.00    0.97124   0.99736    5.999
 4312.00    0.97519   1.04978    5.989
 4313.00    1.01020   1.09474    5.947
 4314.00    1.09492   1.12878    5.754
 4315.00    1.17665   1.15625    5.510
 4316.00    1.18113   1.16913    5.395
 4317.00    1.13325   1.16718    5.397
 4318.00    1.11284   1.15889    5.404
 4319.00    1.11570   1.14059    5.394
 4320.00    1.07495   1.11877    5.403
 4321.00    0.95919   1.10096   -2.000
 4322.00    0.79796   1.08675   -2.000
 4323.00    0.68928   1.08446   -2.000
 4324.00    0.72620   1.09165   -2.000
 4325.00    0.86441   1.10450   -2.000
 4326.00    0.99856   1.12369   -2.000
 4327.00    1.13738   1.14460   -2.000
 4328.00    1.32952   1.16412   -2.000
 4329.00    1.48649   1.17633   -2.000
 4330.00    1.47530   1.17927   -2.000
 4331.00    1.32087   1.17538   -2.000
 4332.00    1.15254   1.16191   -2.000
 4333.00    1.06069   1.13729   -2.000
 4334.00    1.05899   1.11052   -2.000
 4335.00    1.06717   1.08621   -2.000
 4336.00    1.00482   1.06033   -2.000
 4337.00    0.93236   1.04306    0.000
 4338.00    0.95444   1.04036    0.000
 4339.00    1.04939   1.04262    0.000
 4340.00    1.12433   1.05289    0.000
 4341.00    1.13040   1.07514    0.000
 4342.00    1.07739   1.09746    0.000
 4343.00    1.02800   1.11711    0.000
 4344.00    1.04254   1.13722    0.000
 4345.00    1.10794   1.15249    0.000
 4346.00    1.16973   1.16090    0.000
 4347.00    1.18748   1.16254    0.000
 4348.00    1.15847   1.16193    0.000
 4349.00    1.13456   1.16409    0.000
 4350.00    1.16270   1.16423    0.000
 4351.00    1.21304   1.16445    5.967
 4352.00    1.23021   1.17211    6.026
 4353.00    1.20373   1.18337    6.063
 4354.00    1.15775   1.19390    6.071
 4355.00    1.12788   1.20587    6.050
 4356.00    1.13545   1.22087    6.013
 4357.00    1.16381   1.23620    5.998
 4358.00    1.18736   1.24832    6.019
 4359.00    1.20443   1.25794    6.023
 4360.00    1.22082   1.26730    5.975
 4361.00    1.22986   1.27333    5.944
 4362.00    1.22440   1.27281    5.969
 4363.00    1.21043   1.26787    5.940
 4364.00    1.19960   1.26057    5.815
 4365.00    1.20011   1.25086    5.794
 4366.00    1.21255   1.23674    5.958
 4367.00    1.22725   1.22162    5.977
 4368.00    1.23063   1.20904    5.750
 4369.00    1.21230   1.19582    5.933
 4370.00    1.17503   1.18284    7.110
 4371.00    1.14044   1.17249    8.846
 4372.00    1.12255   1.16464    9.362
 4373.00    1.10774   1.15755    8.996
 4374.00    1.08806   1.14837    9.041
 4375.00    1.08607   1.13748    9.219
 4376.00    1.11097   1.12413    9.029
 4377.00    1.12704   1.10790    8.875
 4378.00    1.10833   1.08809    9.080
 4379.00    1.07828   1.06458    9.251
 4380.00    1.05894   1.04561    9.223
 4381.00    1.03522   1.03354    9.745
 4382.00    1.00332   1.02606   10.766
 4383.00    1.00018   1.02527    9.681
 4384.00    1.03500   1.03263    7.090
 4385.00    1.05069   1.04739    5.749
 4386.00    1.02076   1.06414    5.610
 4387.00    1.00562   1.08204    5.909
 4388.00    1.04978   1.10227    5.980
 4389.00    1.11866   1.12099    5.758
 4390.00    1.16983   1.13822    5.615
 4391.00    1.19849   1.15306    6.007
 4392.00    1.20501   1.16636    7.213
 4393.00    1.17727   1.17826    8.701
 4394.00    1.12330   1.18294    9.245
 4395.00    1.08409   1.18404    9.157
 4396.00    1.08294   1.18201    9.173
 4397.00    1.10175   1.17426    9.062
 4398.00    1.12669   1.16541    8.737
 4399.00    1.16789   1.15226    8.674
 4400.00    1.21223   1.13698    8.718
 4401.00    1.20980   1.12868    7.895
 4402.00    1.15150   1.12522    6.589
 4403.00    1.09753   1.12309    5.918
 4404.00    1.09528   1.12651    5.939
 4405.00    1.13897   1.13833    6.108
 4406.00    1.19644   1.15413    6.055
 4407.00    1.22959   1.16955    5.962
 4408.00    1.22123   1.18417    5.989
 4409.00    1.18518   1.19867    6.035
 4410.00    1.15006   1.20944    6.017
 4411.00    1.14631   1.21541    5.980
 4412.00    1.18404   1.22237    5.968
 4413.00    1.24484   1.22653    5.971
 4414.00    1.29184   1.22864    5.967
 4415.00    1.28655   1.23509    5.951
 4416.00    1.23962   1.23986    5.936
 4417.00    1.21245   1.24335    5.948
 4418.00    1.22867   1.24655    5.992
 4419.00    1.25331   1.24793    6.049
 4420.00    1.26555   1.24984    6.095
 4421.00    1.27757   1.24794    6.118
 4422.00    1.28534   1.24589    6.139
 4423.00    1.26082   1.24563    6.193
 4424.00    1.19972   1.24288    6.272
 4425.00    1.13468   1.24018    6.318
 4426.00    1.11252   1.23445    6.309
 4427.00    1.16818   1.23040    6.289
 4428.00    1.26533   1.22928    6.289
 4429.00    1.31105   1.22358    6.310
 4430.00    1.28063   1.22097    6.328
 4431.00    1.23041   1.22166    6.308
 4432.00    1.18889   1.22337    6.273
 4433.00    1.14036   1.22898    6.282
 4434.00    1.09642   1.23384    6.312
 4435.00    1.09930   1.24122    6.277
 4436.00    1.15566   1.25085    6.193
 4437.00    1.22859   1.25725    6.168
 4438.00    1.27998   1.26286    6.206
 4439.00    1.29008   1.26886    6.207
 4440.00    1.27378   1.27462    6.143
 4441.00    1.26937   1.28084    6.076
 4442.00    1.29284   1.28791    6.037
 4443.00    1.33141   1.29372    6.019
 4444.00    1.36399   1.29947    6.004
 4445.00    1.37095   1.30275    5.993
 4446.00    1.34408   1.29807    6.025
 4447.00    1.29020   1.29227    6.142
 4448.00    1.23290   1.28304    6.259
 4449.00    1.20159   1.26595    6.221
 4450.00    1.20312   1.24790    6.088
 4451.00    1.22277   1.22806    6.063
 4452.00    1.24471   1.20840    6.166
 4453.00    1.25569   1.19111    6.258
 4454.00    1.24155   1.17600    6.264
 4455.00    1.19851   1.16612    6.209
 4456.00    1.15982   1.16204    6.163
 4457.00    1.17009   1.16221    6.179
 4458.00    1.21561   1.16521    6.211
 4459.00    1.24162   1.17490    6.173
 4460.00    1.22379   1.18592    6.090
 4461.00    1.17808   1.19701    0.000
 4462.00    1.14696   1.21290    0.000
 4463.00    1.16900   1.22688    0.000
 4464.00    1.22548   1.24071    0.000
 4465.00    1.26467   1.25478    0.000
 4466.00    1.27065   1.26847    0.000
 4467.00    1.26296   1.28515    0.000
 4468.00    1.26875   1.30099    0.000
 4469.00    1.30308   1.31667    0.000
 4470.00    1.34414   1.33235    0.000
 4471.00    1.35651   1.34545    0.000
 4472.00    1.34025   1.35629    0.000
 4473.00    1.32409   1.36329    0.000
 4474.00    1.33677   1.36509    0.000
 4475.00    1.37977   1.36334    0.000
 4476.00    1.39360   1.35954    0.000
 4477.00    1.32971   1.35550    0.000
 4478.00    1.27080   1.35083    0.000
 4479.00    1.32247   1.34698    0.000
 4480.00    1.41772   1.34572    0.000
 4481.00    1.42849   1.34614    0.000
 4482.00    1.37855   1.34863    5.781
 4483.00    1.36084   1.34993    5.770
 4484.00    1.36986   1.34857    5.724
 4485.00    1.35384   1.34572    5.682
 4486.00    1.32318   1.34176    5.684
 4487.00    1.31226   1.33674    5.746
 4488.00    1.30686   1.33033    5.829
 4489.00    1.28235   1.32561    5.875
 4490.00    1.26591   1.32258    5.875
 4491.00    1.29276   1.32326    5.864
 4492.00    1.34028   1.32708    5.885
 4493.00    1.36427   1.33189    5.960
 4494.00    1.35514   1.34262    6.059
 4495.00    1.32628   1.35561    6.135
 4496.00    1.29180   1.37140    6.187
 4497.00    1.27627   1.38989    6.225
 4498.00    1.32505   1.40685    6.226
 4499.00    1.44316   1.42537    6.175
 4500.00    1.53178   1.44040    6.115
 4501.00    1.50536   1.45310    6.099
 4502.00    1.42312   1.46569    6.134
 4503.00    1.38369   1.47262    6.186
 4504.00    1.39796   1.47595    6.193
 4505.00    1.43116   1.47531    6.123
 4506.00    1.46141   1.47067    6.025
 4507.00    1.47715   1.46534    5.960
 4508.00    1.46965   1.45698    5.933
 4509.00    1.44427   1.44740    5.932
 4510.00    1.42905   1.43903    5.975
 4511.00    1.43804   1.42902    6.063
 4512.00    1.43991   1.42086    6.153
 4513.00    1.40874   1.41474    6.194
 4514.00    1.36942   1.40853    6.186
 4515.00    1.34793   1.40611    6.162
 4516.00    1.32795   1.40036    6.160
 4517.00    1.30517   1.39189    6.189
 4518.00    1.32799   1.38425    6.208
 4519.00    1.40088   1.37095    6.194
 4520.00    1.41762   1.35661    6.192
 4521.00    1.33126   1.33787    6.233
 4522.00    1.27393   1.31494    6.266
 4523.00    1.33275   1.29592    6.250
 4524.00    1.38865   1.27674    6.230
 4525.00    1.34329   1.25978    6.250
 4526.00    1.28270   1.24904    6.295
 4527.00    1.28953   1.24102    6.333
 4528.00    1.30869   1.24001    6.350
 4529.00    1.28146   1.24404    6.350
 4530.00    1.24008   1.25071    6.353
 4531.00    1.22549   1.26521    6.371
 4532.00    1.23008   1.27964    6.385
 4533.00    1.24008   1.29489    6.378
 4534.00    1.26298   1.31035    6.359
 4535.00    1.29582   1.32360    6.345
 4536.00    1.31027   1.33914    6.347
 4537.00    1.30197   1.34981    6.367
 4538.00    1.31102   1.35481    6.392
 4539.00    1.34282   1.35713    6.405
 4540.00    1.33583   1.35667    6.398
 4541.00    1.27700   1.35574    6.370
 4542.00    1.25021   1.35411    6.327
 4543.00    1.29524   1.34769    6.286
 4544.00    1.34341   1.34148    6.268
 4545.00    1.34280   1.33828    6.284
 4546.00    1.31866   1.33469    6.332
 4547.00    1.29542   1.33426    6.396
 4548.00    1.26264   1.33296    6.449
 4549.00    1.23702   1.33414    6.469
 4550.00    1.27572   1.34164    0.000
 4551.00    1.36651   1.34986    0.000
 4552.00    1.40348   1.36019    0.000
 4553.00    1.35758   1.37197    0.000
 4554.00    1.32835   1.38310    0.000
 4555.00    1.36792   1.39567    0.000
 4556.00    1.41887   1.40777    0.000
 4557.00    1.43990   1.41483    0.000
 4558.00    1.45168   1.41953    0.000
 4559.00    1.46327   1.42111    0.000
 4560.00    1.45124   1.42091    0.000
 4561.00    1.42214   1.42290    0.000
 4562.00    1.42234   1.42207    0.000
 4563.00    1.45879   1.42108    0.000
 4564.00    1.48217   1.42240    0.000
 4565.00    1.46167   1.42250    0.000
 4566.00    1.41056   1.42613    0.000
 4567.00    1.35880   1.43032    0.000
 4568.00    1.33532   1.43113    0.000
 4569.00    1.34526   1.43265    0.000
 4570.00    1.36788   1.43108    0.000
 4571.00    1.38162   1.42861    0.000
 4572.00    1.37603   1.42738    0.000
 4573.00    1.35858   1.42089    0.000
 4574.00    1.34980   1.41194    0.000
 4575.00    1.35807   1.40237    0.000
 4576.00    1.37509   1.39319    0.000
 4577.00    1.39124   1.38498    0.000
 4578.00    1.40001   1.37685    0.000
 4579.00    1.39415   1.37066    0.000
 4580.00    1.36838   1.36707    0.000
 4581.00    1.33209   1.36888    0.000
 4582.00    1.30703   1.37252    0.000
 4583.00    1.30787   1.37694    0.000
 4584.00    1.33394   1.38207    0.000
 4585.00    1.36409   1.38529    0.000
 4586.00    1.37089   1.38863    0.000
 4587.00    1.36469   1.39073    0.000
 4588.00    1.37964   1.39027    0.000
 4589.00    1.39935   1.38662    0.000
 4590.00    1.37643   1.38170    0.000
 4591.00    1.34150   1.37651    0.000
 4592.00    1.37245   1.37217    0.000
 4593.00    1.43611   1.37032    0.000
 4594.00    1.42227   1.36645    0.000
 4595.00    1.33675   1.36566    0.000
 4596.00    1.28334   1.36787    0.000
 4597.00    1.29512   1.37024    0.000
 4598.00    1.32981   1.37708    0.000
 4599.00    1.36179   1.38181    0.000
 4600.00    1.39136   1.38959    0.000
 4601.00    1.41311   1.40131    0.000
 4602.00    1.41665   1.41292    0.000
 4603.00    1.40526   1.42710    0.000
 4604.00    1.39293   1.43884    0.000
 4605.00    1.38876   1.44992    0.000
 4606.00    1.39504   1.46183    0.000
 4607.00    1.41087   1.47088    0.000
 4608.00    1.43070   1.47863    0.000
 4609.00    1.44051   1.48438    0.000
 4610.00    1.43028   1.48600    0.000
 4611.00    1.41912   1.48901    0.000
 4612.00    1.43270   1.49075    0.000
 4613.00    1.45195   1.49096    0.000
 4614.00    1.43913   1.49363    0.000
 4615.00    1.40364   1.49471    0.000
 4616.00    1.38298   1.49576    0.000
 4617.00    1.38678   1.49712    0.000
 4618.00    1.40625   1.49674    0.000
 4619.00    1.44766   1.49661    0.000
 4620.00    1.51444   1.49682    0.000
 4621.00    1.56870   1.49569    0.000
 4622.00    1.56527   1.49413    0.000
 4623.00    1.51669   1.49135    0.000
 4624.00    1.47082   1.48769    0.000
 4625.00    1.45781   1.48546    0.000
 4626.00    1.47705   1.48166    0.000
 4627.00    1.49234   1.47566    0.000
 4628.00    1.46843   1.46902    0.000
 4629.00    1.42471   1.46145    0.000
 4630.00    1.40239   1.45472    0.000
 4631.00    1.40624   1.44546    0.000
 4632.00    1.41422   1.43411    0.000
 4633.00    1.40380   1.42439    0.000
 4634.00    1.37004   1.41396    0.000
 4635.00    1.34273   1.40589    0.000
 4636.00    1.34961   1.39782    0.000
 4637.00    1.36753   1.38834    0.000
 4638.00    1.36437   1.38072    0.000
 4639.00    1.35831   1.37250    0.000
 4640.00    1.38073   1.36473    0.000
 4641.00    1.42221   1.35828    0.000
 4642.00    1.45003   1.35213    0.000
 4643.00    1.43857   1.34793    0.000
 4644.00    1.39124   1.34686    0.000
 4645.00    1.35745   1.34704    0.000
 4646.00    1.37417   1.35056    0.000
 4647.00    1.40241   1.35832    0.000
 4648.00    1.39073   1.36621    0.000
 4649.00    1.35007   1.37621    0.000
 4650.00    1.32218   1.38673    0.000
 4651.00    1.33647   1.39658    0.000
 4652.00    1.39525   1.40870    0.000
 4653.00    1.46569   1.41761    0.000
 4654.00    1.50996   1.42497    0.000
 4655.00    1.51570   1.43013    0.000
 4656.00    1.48811   1.43129    0.000
 4657.00    1.43994   1.43050    0.000
 4658.00    1.39591   1.42505    0.000
 4659.00    1.39297   1.41511    0.000
 4660.00    1.43242   1.39987    0.000
 4661.00    1.44593   1.38136    0.000
 4662.00    1.39151   1.36448    0.000
 4663.00    1.33064   1.35134    0.000
 4664.00    1.32686   1.34204    0.000
 4665.00    1.35878   1.33612    0.000
 4666.00    1.37640   1.33361    0.000
 4667.00    1.35569   1.33702    0.000
 4668.00    1.31357   1.34642    0.000
 4669.00    1.30710   1.35761    0.000
 4670.00    1.35393   1.36994    0.000
 4671.00    1.38394   1.37975    0.000
 4672.00    1.35488   1.38619    0.000
 4673.00    1.32857   1.39138    0.000
 4674.00    1.35480   1.39403    0.000
 4675.00    1.39239   1.39583    0.000
 4676.00    1.39327   1.39548    0.000
 4677.00    1.36384   1.39377    0.000
 4678.00    1.34305   1.39255    0.000
 4679.00    1.37503   1.39157    0.000
 4680.00    1.44542   1.39210    0.000
 4681.00    1.46077   1.39317    0.000
 4682.00    1.39200   1.39526    0.000
 4683.00    1.34261   1.39771    0.000
 4684.00    1.37403   1.39911    0.000
 4685.00    1.41538   1.40041    0.000
 4686.00    1.41302   1.40149    0.000
 4687.00    1.40823   1.40254    0.000
 4688.00    1.42802   1.40388    0.000
 4689.00    1.43230   1.40491    0.000
 4690.00    1.40189   1.40430    0.000
 4691.00    1.37776   1.40293    0.000
 4692.00    1.38420   1.39998    0.000
 4693.00    1.39533   1.39537    0.000
 4694.00    1.39523   1.39067    0.000
 4695.00    1.40239   1.38367    0.000
 4696.00    1.42055   1.37572    0.000
 4697.00    1.42214   1.36639    0.000
 4698.00    1.39948   1.35900    0.000
 4699.00    1.38153   1.35458    0.000
 4700.00    1.38495   1.35052    0.000
 4701.00    1.39612   1.34780    0.000
 4702.00    1.40422   1.34654    0.000
 4703.00    1.41343   1.34892    0.000
 4704.00    1.42345   1.35301    0.000
 4705.00    1.42314   1.35865    0.000
 4706.00    1.40395   1.36381    0.000
 4707.00    1.36813   1.37055    0.000
 4708.00    1.33676   1.37895    0.000
 4709.00    1.34196   1.38847    0.000
 4710.00    1.38164   1.40179    0.000
 4711.00    1.41445   1.41418    0.000
 4712.00    1.41699   1.42686    0.000
 4713.00    1.40238   1.43999    0.000
 4714.00    1.39893   1.45269    0.000
 4715.00    1.43130   1.46673    0.000
 4716.00    1.48415   1.47801    0.000
 4717.00    1.50697   1.48584    0.000
 4718.00    1.48183   1.49138    0.000
 4719.00    1.43796   1.49177    0.000
 4720.00    1.41253   1.48796    0.000
 4721.00    1.42870   1.47925    0.000
 4722.00    1.47184   1.46773    0.000
 4723.00    1.49681   1.45579    0.000
 4724.00    1.47880   1.44264    0.000
 4725.00    1.42828   1.42998    0.000
 4726.00    1.38215   1.41788    0.000
 4727.00    1.38217   1.40943    0.000
 4728.00    1.41944   1.40502    0.000
 4729.00    1.44208   1.40512    0.000
 4730.00    1.43077   1.40823    0.000
 4731.00    1.40865   1.41369    0.000
 4732.00    1.40093   1.42190    0.000
 4733.00    1.41677   1.42959    0.000
 4734.00    1.43408   1.43868    0.000
 4735.00    1.42060   1.44669    0.000
 4736.00    1.40108   1.45386    0.000
 4737.00    1.43329   1.46304    0.000
 4738.00    1.49645   1.47092    0.000
 4739.00    1.51141   1.47669    0.000
 4740.00    1.46873   1.48223    0.000
 4741.00    1.42504   1.48754    0.000
 4742.00    1.40996   1.49219    0.000
 4743.00    1.41785   1.49537    0.000
 4744.00    1.44548   1.49606    0.000
 4745.00    1.49128   1.49659    0.000
 4746.00    1.53191   1.49479    0.000
 4747.00    1.53683   1.49098    0.000
 4748.00    1.51273   1.48597    0.000
 4749.00    1.49059   1.48027    0.000
 4750.00    1.47549   1.47418    0.000
 4751.00    1.45334   1.46682    0.000
 4752.00    1.42841   1.46087    0.000
 4753.00    1.41720   1.45415    0.000
 4754.00    1.41918   1.44790    0.000
 4755.00    1.42214   1.44148    0.000
 4756.00    1.42470   1.43437    0.000
 4757.00    1.43225   1.42745    0.000
 4758.00    1.44048   1.41966    0.000
 4759.00    1.43950   1.41306    0.000
 4760.00    1.42768   1.40645    0.000
 4761.00    1.41347   1.40137    7.224
 4762.00    1.41311   1.40014    7.138
 4763.00    1.43554   1.40118    7.119
 4764.00    1.45781   1.40544    7.178
 4765.00    1.44834   1.41203    7.252
 4766.00    1.41290   1.42281    7.302
 4767.00    1.38216   1.43521    7.322
 4768.00    1.37776   1.44784    7.307
 4769.00    1.40270   1.46148    7.262
 4770.00    1.43610   1.47217    7.211
 4771.00    1.45252   1.48191    7.186
 4772.00    1.45233   1.49050    7.195
 4773.00    1.44961   1.49725    7.234
 4774.00    1.44727   1.50103    7.296
 4775.00    1.44428   1.49999    7.361
 4776.00    1.45055   1.49798    7.376
 4777.00    1.46847   1.49377    7.312
 4778.00    1.46653   1.48603    7.248
 4779.00    1.42334   1.47875    7.259
 4780.00    1.38878   1.47135    7.282
 4781.00    1.41761   1.46401    7.236
 4782.00    1.47461   1.45797    7.194
 4783.00    1.49608   1.45458    7.249
 4784.00    1.48287   1.45551    7.324
 4785.00    1.47012   1.45711    7.301
 4786.00    1.47454   1.46242    7.218
 4787.00    1.49066   1.47154    7.179
 4788.00    1.49602   1.47996    7.217
 4789.00    1.47852   1.48978    7.301
 4790.00    1.46493   1.49934    7.354
 4791.00    1.48220   1.50729    7.328
 4792.00    1.51235   1.51380    7.279
 4793.00    1.52716   1.51849    7.266
 4794.00    1.53005   1.52128    7.246
 4795.00    1.53366   1.52065    7.184
 4796.00    1.53234   1.51870    7.168
 4797.00    1.51775   1.51507    7.262
 4798.00    1.49706   1.51166    7.359
 4799.00    1.48251   1.50799    7.339
 4800.00    1.47935   1.50488    7.261
 4801.00    1.48949   1.50274    7.227
 4802.00    1.51476   1.49954    7.234
 4803.00    1.54397   1.49682    7.250
 4804.00    1.54411   1.49385    7.288
 4805.00    1.49949   1.49339    7.356
 4806.00    1.44442   1.49433    7.409
 4807.00    1.42157   1.49633    7.409
 4808.00    1.44280   1.50104    7.379
 4809.00    1.49562   1.50702    7.343
 4810.00    1.55336   1.51299    7.275
 4811.00    1.59159   1.51983    7.162
 4812.00    1.60130   1.52575    7.061
 4813.00    1.58893   1.53109    7.016
 4814.00    1.57321   1.53488    7.021
 4815.00    1.56557   1.53562    7.065
 4816.00    1.55748   1.53517    7.171
 4817.00    1.54237   1.53246    7.335
 4818.00    1.53090   1.52834    7.489
 4819.00    1.53246   1.52239    7.570
 4820.00    1.54182   1.51487    7.593
 4821.00    1.54764   1.50803    7.611
 4822.00    1.54039   1.50071    7.680
 4823.00    1.51971   1.49450    7.802
 4824.00    1.49704   1.49085    7.905
 4825.00    1.48028   1.48818    7.938
 4826.00    1.46523   1.48571    7.934
 4827.00    1.44929   1.48372    7.937
 4828.00    1.43898   1.48162    7.946
 4829.00    1.43838   1.48150    7.938
 4830.00    1.44291   1.48049    7.892
 4831.00    1.44934   1.47854    7.804
 4832.00    1.46019   1.47793    7.702
 4833.00    1.47144   1.47706    7.632
 4834.00    1.46828   1.47580    7.643
 4835.00    1.44456   1.47266    7.724
 4836.00    1.41229   1.47098    7.783
 4837.00    1.39062   1.46943    7.758
 4838.00    1.39591   1.46737    7.676
 4839.00    1.42417   1.46641    7.591
 4840.00    1.44740   1.46624    7.546
 4841.00    1.44380   1.46677    7.546
 4842.00    1.41479   1.46644    7.561
 4843.00    1.38806   1.46590    7.556
 4844.00    1.40527   1.46506    7.512
 4845.00    1.45692   1.46150    7.458
 4846.00    1.47385   1.45513    7.456
 4847.00    1.44093   1.44532    7.501
 4848.00    1.42548   1.43327    0.000
 4849.00    1.45173   1.42052    0.000
 4850.00    1.46554   1.40341    0.000
 4851.00    1.44422   1.38277    0.000
 4852.00    1.42636   1.36037    0.000
 4853.00    1.42034   1.33590    0.000
 4854.00    1.38363   1.31148    0.000
 4855.00    1.30744   1.29052    0.000
 4856.00    1.23718   1.27355    0.000
 4857.00    1.20576   1.26013    0.000
 4858.00    1.21252   1.25062    0.000
 4859.00    1.25176   1.24704    0.000
 4860.00    1.31835   1.24819    0.000
 4861.00    1.38501   1.25623    0.000
 4862.00    1.40799   1.26984    0.000
 4863.00    1.38041   1.28187    0.000
 4864.00    1.33872   1.29524    0.000
 4865.00    1.31423   1.30793    0.000
 4866.00    1.31423   1.31935    0.000
 4867.00    1.31983   1.32895    0.000
 4868.00    1.30325   1.33851    0.000
 4869.00    1.28536   1.34873    0.000
 4870.00    1.32363   1.35696    0.000
 4871.00    1.41105   1.36816    0.000
 4872.00    1.47439   1.38188    0.000
 4873.00    1.47375   1.39431    0.000
 4874.00    1.42619   1.40547    0.000
 4875.00    1.37783   1.41481    7.457
 4876.00    1.37523   1.42262    7.436
 4877.00    1.40974   1.42555    7.391
 4878.00    1.43086   1.42677    7.363
 4879.00    1.43041   1.42484    7.369
 4880.00    1.43914   1.41829    7.392
 4881.00    1.45037   1.41055    7.418
 4882.00    1.42949   1.40447    7.445
 4883.00    1.39555   1.39767    7.475
 4884.00    1.40295   1.39334    7.513
 4885.00    1.43780   1.39282    7.558
 4886.00    1.43746   1.39704    7.604
 4887.00    1.40668   1.40649    7.637
 4888.00    1.40494   1.41849    7.633
 4889.00    1.44443   1.43489    7.575
 4890.00    1.48943   1.45116    7.464
 4891.00    1.51490   1.47156    7.342
 4892.00    1.51679   1.49160    7.266
 4893.00    1.50247   1.50770    7.241
 4894.00    1.48484   1.52071    7.246
 4895.00    1.47455   1.52869    7.301
 4896.00    1.47784   1.53314    7.403
 4897.00    1.49556   1.53433    7.357
 4898.00    1.51985   1.53288    6.990
 4899.00    1.52841   1.52860    6.611
 4900.00    1.50211   1.52460    6.586
 4901.00    1.46131   1.51987    6.821
 4902.00    1.44826   1.51321    6.935
 4903.00    1.47851   1.50744    6.773
 4904.00    1.53387   1.50211    6.504
 4905.00    1.56856   1.49727    6.368
 4906.00    1.54174   1.49092    6.510
 4907.00    1.47278   1.48419    6.806
 4908.00    1.41800   1.47737    6.983
 4909.00    1.41144   1.46950    7.037
 4910.00    1.44977   1.46175    7.148
 4911.00    1.48693   1.45336    7.255
 4912.00    1.47703   1.44368    7.175
 4913.00    1.44420   1.43178    6.979
 4914.00    1.43750   1.41998    6.868
 4915.00    1.44192   1.40798    6.919
 4916.00    1.41601   1.39771    7.098
 4917.00    1.37146   1.38997    7.299
 4918.00    1.35021   1.38714    7.381
 4919.00    1.37076   1.39104    7.288
 4920.00    1.42232   1.40046    7.066
 4921.00    1.46979   1.41597    6.816
 4922.00    1.48323   1.43286    6.661
 4923.00    1.47673   1.44944    6.739
 4924.00    1.47920   1.46577    7.108
 4925.00    1.48787   1.48153    7.531
 4926.00    1.48940   1.49316    7.635
 4927.00    1.49510   1.49901    7.506
 4928.00    1.52064   1.50141    7.435
 4929.00    1.55453   1.49857    7.419
 4930.00    1.56775   1.49280    7.354
 4931.00    1.53326   1.48577    7.308
 4932.00    1.45738   1.47692    7.381
 4933.00    1.40932   1.46966    7.503
 4934.00    1.43811   1.46737    7.550
 4935.00    1.47836   1.46701    7.517
 4936.00    1.45711   1.46920    7.456
 4937.00    1.42144   1.47523    7.377
 4938.00    1.44430   1.48505    7.291
 4939.00    1.50836   1.49845    7.262
 4940.00    1.55791   1.51334    0.000
 4941.00    1.56854   1.52667    0.000
 4942.00    1.54911   1.53862    0.000
 4943.00    1.53348   1.54894    0.000
 4944.00    1.54492   1.55583    0.000
 4945.00    1.56415   1.55900    0.000
 4946.00    1.56656   1.56032    0.000
 4947.00    1.55945   1.55666    0.000
 4948.00    1.55555   1.55023    0.000
 4949.00    1.54621   1.54083    0.000
 4950.00    1.51999   1.52970    0.000
 4951.00    1.48170   1.51712    0.000
 4952.00    1.44852   1.50355    0.000
 4953.00    1.44236   1.49297    0.000
 4954.00    1.46465   1.48346    0.000
 4955.00    1.47999   1.47748    0.000
 4956.00    1.46349   1.47230    0.000
 4957.00    1.43743   1.47116    0.000
 4958.00    1.43054   1.47518    0.000
 4959.00    1.44352   1.47811    0.000
 4960.00    1.46066   1.48030    0.000
 4961.00    1.46278   1.48127    0.000
 4962.00    1.44094   1.48286    0.000
 4963.00    1.40558   1.48376    0.000
 4964.00    1.37955   1.48444    0.000
 4965.00    1.38825   1.48547    0.000
 4966.00    1.42782   1.48873    0.000
 4967.00    1.45126   1.49162    0.000
 4968.00    1.43209   1.49472    0.000
 4969.00    1.40243   1.49687    0.000
 4970.00    1.39890   1.49665    0.000
 4971.00    1.42431   1.49486    0.000
 4972.00    1.45203   1.48858    0.000
 4973.00    1.43951   1.47931    0.000
 4974.00    1.38756   1.46704    0.000
 4975.00    1.36186   1.45184    0.000
 4976.00    1.38989   1.43632    0.000
 4977.00    1.41307   1.42043    0.000
 4978.00    1.39313   1.40673    0.000
 4979.00    1.36571   1.39645    0.000
 4980.00    1.36466   1.39002    0.000
 4981.00    1.38193   1.38705    0.000
 4982.00    1.40305   1.38900    0.000
 4983.00    1.42587   1.39569    0.000
 4984.00    1.44502   1.40497    0.000
 4985.00    1.44598   1.41525    0.000
 4986.00    1.42126   1.42608    0.000
 4987.00    1.37983   1.43556    0.000
 4988.00    1.34984   1.44220    0.000
 4989.00    1.36854   1.44745    0.000
 4990.00    1.42797   1.44935    0.000
 4991.00    1.46601   1.44958    0.000
 4992.00    1.45374   1.44733    0.000
 4993.00    1.42571   1.44101    0.000
 4994.00    1.41928   1.43380    0.000
 4995.00    1.44473   1.42435    0.000
 4996.00    1.48456   1.41290    0.000
 4997.00    1.50290   1.40136    0.000
 4998.00    1.48509   1.38921    0.000
 4999.00    1.44875   1.37800    0.000
 5000.00    1.41643   1.36866    0.000
 5001.00    1.40181   1.36088    0.000
 5002.00    1.40346   1.35465    0.000
 5003.00    1.40644   1.34999    0.000
 5004.00    1.39808   1.34592    0.000
 5005.00    1.37438   1.34231    0.000
 5006.00    1.33944   1.33981    0.000
 5007.00    1.30462   1.33763    0.000
 5008.00    1.28634   1.33474    0.000
 5009.00    1.29806   1.33007    0.000
 5010.00    1.32540   1.32663    0.000
 5011.00    1.33385   1.32278    0.000
 5012.00    1.32558   1.32130    0.000
 5013.00    1.33604   1.32150    0.000
 5014.00    1.35560   1.32420    0.000
 5015.00    1.33537   1.32887    0.000
 5016.00    1.29280   1.33469    0.000
 5017.00    1.30207   1.34134    0.000
 5018.00    1.35424   1.35011    0.000
 5019.00    1.36408   1.35937    0.000
 5020.00    1.32772   1.36902    0.000
 5021.00    1.32308   1.37888    0.000
 5022.00    1.36523   1.38889    0.000
 5023.00    1.39786   1.40017    0.000
 5024.00    1.39504   1.40947    0.000
 5025.00    1.37707   1.41900    0.000
 5026.00    1.36984   1.42656    0.000
 5027.00    1.38637   1.43211    0.000
 5028.00    1.41021   1.43656    0.000
 5029.00    1.41135   1.43675    7.736
 5030.00    1.39795   1.43369    7.772
 5031.00    1.40372   1.42732    7.736
 5032.00    1.42272   1.41831    7.698
 5033.00    1.41746   1.40690    7.741
 5034.00    1.37936   1.39510    7.835
 5035.00    1.33123   1.38403    7.882
 5036.00    1.29679   1.37680    7.887
 5037.00    1.28995   1.37334    7.939
 5038.00    1.30808   1.37224    8.018
 5039.00    1.33642   1.37621    8.033
 5040.00    1.36120   1.38267    7.979
 5041.00    1.37315   1.39245    7.941
 5042.00    1.36846   1.40391    7.985
 5043.00    1.34992   1.41332    8.119
 5044.00    1.32886   1.42172    8.255
 5045.00    1.32306   1.42833    8.264
 5046.00    1.35130   1.43381    8.166
 5047.00    1.41595   1.43826    8.075
 5048.00    1.47325   1.44375    8.040
 5049.00    1.47401   1.45070    8.037
 5050.00    1.44864   1.45922    8.016
 5051.00    1.45780   1.46811    7.947
 5052.00    1.47508   1.47820    7.875
 5053.00    1.44210   1.48754    7.865
 5054.00    1.40178   1.49569    7.893
 5055.00    1.43611   1.50121    7.898
 5056.00    1.52074   1.50411    7.897
 5057.00    1.56994   1.50393    7.939
 5058.00    1.55340   1.50086    8.005
 5059.00    1.49440   1.49454    8.045
 5060.00    1.43388   1.48662    8.082
 5061.00    1.40737   1.47686    8.155
 5062.00    1.41864   1.46631    8.196
 5063.00    1.44524   1.45644    8.125
 5064.00    1.45456   1.44694    8.038
 5065.00    1.43102   1.44048    8.057
 5066.00    1.40968   1.43467    8.107
 5067.00    1.42829   1.42956    8.062
 5068.00    1.45503   1.42520    7.997
 5069.00    1.44080   1.42085    8.038
 5070.00    1.40314   1.41612    8.126
 5071.00    1.38364   1.40969    8.143
 5072.00    1.37722   1.40311    8.115
 5073.00    1.36109   1.39640    8.125
 5074.00    1.34310   1.38865    8.151
 5075.00    1.33846   1.38193    8.133
 5076.00    1.33441   1.37608    8.084
 5077.00    1.31935   1.37311    8.048
 5078.00    1.32060   1.37159    8.026
 5079.00    1.35989   1.37424    7.996
 5080.00    1.39906   1.38060    7.946
 5081.00    1.39378   1.38994    7.890
 5082.00    1.36044   1.40069    7.883
 5083.00    1.34532   1.41256    7.944
 5084.00    1.37958   1.42504    7.981
 5085.00    1.45036   1.43626    7.922
 5086.00    1.48244   1.44591    7.876
 5087.00    1.43136   1.45300    7.952
 5088.00    1.37350   1.45767    8.084
 5089.00    1.38829   1.45908    8.142
 5090.00    1.43650   1.45749    8.086
 5091.00    1.44939   1.45329    7.971
 5092.00    1.42563   1.44704    7.900
 5093.00    1.39851   1.43931    7.919
 5094.00    1.39373   1.43068    7.948
 5095.00    1.40820   1.42289    7.919
 5096.00    1.40006   1.41551    7.913
 5097.00    1.35232   1.41046    7.989
 5098.00    1.32178   1.40618    8.044
 5099.00    1.34914   1.40431    7.998
 5100.00    1.38631   1.40300    7.948
 5101.00    1.38720   1.40222    7.986
 5102.00    1.38172   1.40138    8.049
 5103.00    1.39926   1.40144    8.064
 5104.00    1.40842   1.40234    8.073
 5105.00    1.38253   1.40458    8.100
 5106.00    1.34959   1.40849    8.060
 5107.00    1.33991   1.41349    7.936
 5108.00    1.34702   1.42103    7.879
 5109.00    1.36340   1.42884    7.953
 5110.00    1.40374   1.43721    7.999
 5111.00    1.46226   1.44537    7.911
 5112.00    1.48972   1.45120    7.836
 5113.00    1.46308   1.45476    7.877
 5114.00    1.42572   1.45523    7.933
 5115.00    1.41379   1.45204    7.915
 5116.00    1.41062   1.44555    7.885
 5117.00    1.39536   1.43608    7.908
 5118.00    1.37393   1.42390    7.950
 5119.00    1.35558   1.41109    7.965
 5120.00    1.33853   1.39775    7.943
 5121.00    1.32234   1.38621    7.925
 5122.00    1.31457   1.37658    7.980
 5123.00    1.32044   1.36987    8.107
 5124.00    1.33678   1.36659    8.183
 5125.00    1.35535   1.36610    8.152
 5126.00    1.36594   1.36802    8.118
 5127.00    1.36206   1.37149    8.177
 5128.00    1.34514   1.37640    8.326
 5129.00    1.32953   1.38094    8.505
 5130.00    1.33825   1.38534    8.625
 5131.00    1.36641   1.38785    8.674
 5132.00    1.37342   1.38899    8.747
 5133.00    1.34405   1.38803    8.867
 5134.00    1.30976   1.38531    8.923
 5135.00    1.29328   1.38171    8.873
 5136.00    1.28726   1.37603    8.821
 5137.00    1.28957   1.37134    8.811
 5138.00    1.31352   1.36639    8.768
 5139.00    1.35254   1.36170    8.649
 5140.00    1.37437   1.35839    8.504
 5141.00    1.37203   1.35507    8.406
 5142.00    1.37366   1.35269    8.417
 5143.00    1.38260   1.35165    8.510
 5144.00    1.36535   1.35135    8.581
 5145.00    1.31547   1.35159    8.603
 5146.00    1.26939   1.35373    8.667
 5147.00    1.25587   1.35672    8.773
 5148.00    1.27656   1.36135    8.798
 5149.00    1.31561   1.36691    8.710
 5150.00    1.34900   1.37332    8.623
 5151.00    1.36370   1.38009    8.594
 5152.00    1.36334   1.38688    8.587
 5153.00    1.36065   1.39189    8.559
 5154.00    1.36934   1.39460    8.497
 5155.00    1.38605   1.39321    8.420
 5156.00    1.39223   1.38682    8.366
 5157.00    1.38372   1.37476    8.344
 5158.00    1.37213   1.35690    8.332
 5159.00    1.35439   1.33334    8.302
 5160.00    1.31342   1.30582    8.240
 5161.00    1.25515   1.27529    8.187
 5162.00    1.20794   1.24351    8.212
 5163.00    1.18179   1.21368    8.287
 5164.00    1.16260   1.18619    8.302
 5165.00    1.13593   1.16499    8.257
 5166.00    1.09711   1.15015    8.252
 5167.00    1.05790   1.14371    8.294
 5168.00    1.03977   1.14403    8.300
 5169.00    1.04932   1.15049    8.287
 5170.00    1.07488   1.16178    8.350
 5171.00    1.09769   1.17663    8.470
 5172.00    1.10459   1.19311    8.516
 5173.00    1.11220   1.20918    8.441
 5174.00    1.14779   1.22236    8.315
 5175.00    1.18383   1.23156    8.247
 5176.00    1.16403   1.23654    8.308
 5177.00    1.11163   1.23866    8.411
 5178.00    1.10329   1.23859    8.382
 5179.00    1.13805   1.23816    8.248
 5180.00    1.15301   1.23883    8.179
 5181.00    1.13807   1.24208    8.197
 5182.00    1.13129   1.24979    8.200
 5183.00    1.14389   1.26002    8.154
 5184.00    1.16198   1.27377    8.110
 5185.00    1.18960   1.28752    8.132
 5186.00    1.23854   1.30118    8.240
 5187.00    1.28613   1.31413    8.305
 5188.00    1.29603   1.32510    8.159
 5189.00    1.28007   1.33511    7.897
 5190.00    1.28012   1.34397    0.000
 5191.00    1.30532   1.35227    0.000
 5192.00    1.33882   1.35971    0.000
 5193.00    1.37633   1.36672    0.000
 5194.00    1.42112   1.37219    0.000
 5195.00    1.46005   1.37542    0.000
 5196.00    1.47107   1.37685    0.000
 5197.00    1.44576   1.37468    0.000
 5198.00    1.39488   1.37011    0.000
 5199.00    1.34972   1.36232    0.000
 5200.00    1.33772   1.35354    0.000
 5201.00    1.34161   1.34358    0.000
 5202.00    1.32801   1.33498    0.000
 5203.00    1.30597   1.32841    0.000
 5204.00    1.30372   1.32598    0.000
 5205.00    1.31555   1.32686    0.000
 5206.00    1.31961   1.33260    0.000
 5207.00    1.31891   1.34210    0.000
 5208.00    1.32949   1.35400    0.000
 5209.00    1.35280   1.36866    0.000
 5210.00    1.38188   1.38277    0.000
 5211.00    1.41626   1.39705    8.270
 5212.00    1.45297   1.40869    8.443
 5213.00    1.47205   1.41869    8.301
 5214.00    1.46053   1.42578    8.285
 5215.00    1.44652   1.43004    8.373
 5216.00    1.45995   1.43136    8.338
 5217.00    1.47600   1.42907    8.231
 5218.00    1.45745   1.42419    8.209
 5219.00    1.41831   1.41675    8.261
 5220.00    1.39565   1.40794    8.287
 5221.00    1.40341   1.39909    8.246
 5222.00    1.43169   1.39097    8.172
 5223.00    1.45429   1.38553    8.166
 5224.00    1.44907   1.38266    8.292
 5225.00    1.42036   1.38461    8.459
 5226.00    1.38792   1.38960    8.534
 5227.00    1.37061   1.39759    8.512
 5228.00    1.38042   1.40796    8.499
 5229.00    1.41738   1.41961    8.643
 5230.00    1.46538   1.43164    8.859
 5231.00    1.49132   1.44503    8.562
 5232.00    1.48362   1.45761    7.594
 5233.00    1.48688   1.47045    6.729
 5234.00    1.53092   1.48178    6.375
 5235.00    1.56206   1.49145    6.403
 5236.00    1.53154   1.49889    6.586
 5237.00    1.48293   1.50360    6.742
 5238.00    1.47066   1.50589    6.778
 5239.00    1.47853   1.50508    6.764
 5240.00    1.47359   1.50170    6.794
 5241.00    1.46116   1.49626    6.843
 5242.00    1.45955   1.48914    6.847
 5243.00    1.47267   1.48075    6.791
 5244.00    1.48944   1.47200    6.719
 5245.00    1.48784   1.46463    6.720
 5246.00    1.45912   1.45886    6.842
 5247.00    1.42509   1.45466    7.020
 5248.00    1.41036   1.45287    7.124
 5249.00    1.41881   1.45344    7.039
 5250.00    1.44102   1.45473    6.850
 5251.00    1.46277   1.45688    6.866
 5252.00    1.47376   1.45726    7.214
 5253.00    1.47342   1.45667    7.549
 5254.00    1.46651   1.45271    7.538
 5255.00    1.45916   1.44457    7.432
 5256.00    1.45711   1.43206    7.489
 5257.00    1.46368   1.41459    7.586
 5258.00    1.47309   1.39406    7.561
 5259.00    1.46782   1.37036    7.470
 5260.00    1.43337   1.34697    7.433
 5261.00    1.36938   1.32405    7.506
 5262.00    1.29477   1.30505    7.677
 5263.00    1.24583   1.28968    7.868
 5264.00    1.24404   1.28114    8.000
 5265.00    1.27746   1.27825    8.060
 5266.00    1.31651   1.28065    8.056
 5267.00    1.32986   1.28917    7.997
 5268.00    1.31598   1.30394    7.910
 5269.00    1.31213   1.32272    7.855
 5270.00    1.33561   1.34334    7.863
 5271.00    1.35871   1.36549    7.916
 5272.00    1.36872   1.38733    7.983
 5273.00    1.39267   1.40801    8.033
 5274.00    1.43788   1.42805    8.059
 5275.00    1.46926   1.44499    8.081
 5276.00    1.47042   1.46012    8.107
 5277.00    1.46783   1.47254    8.118
 5278.00    1.48065   1.48437    8.106
 5279.00    1.49942   1.49506    8.093
 5280.00    1.51619   1.50628    8.107
 5281.00    1.53617   1.51691    8.157
 5282.00    1.55785   1.52878    8.181
 5283.00    1.56700   1.53976    8.079
 5284.00    1.55675   1.54939    7.995
 5285.00    1.53629   1.55657    8.254
 5286.00    1.52616   1.56117    8.558
 5287.00    1.54795   1.56266    7.886
 5288.00    1.59047   1.56043    6.683
 5289.00    1.61067   1.55476    6.093
 5290.00    1.60099   1.54623    6.150
 5291.00    1.59863   1.53610    6.297
 5292.00    1.60219   1.52565    6.276
 5293.00    1.56309   1.51559    6.382
 5294.00    1.49179   1.50788    6.690
 5295.00    1.46845   1.50323    6.816
 5296.00    1.51522   1.50328    6.604
 5297.00    1.57175   1.50716    6.360
 5298.00    1.59531   1.51422    6.268
 5299.00    1.59128   1.52445    6.284
 5300.00    1.58093   1.53672    6.324
 5301.00    1.58318   1.55011    6.319
 5302.00    1.59531   1.56289    6.273
 5303.00    1.59721   1.57464    6.254
 5304.00    1.58839   1.58422    6.282
 5305.00    1.58953   1.59182    6.312
 5306.00    1.60487   1.59677    6.267
 5307.00    1.61820   1.59923    6.122
 5308.00    1.62086   1.59882    6.069
 5309.00    1.61625   1.59643    6.403
 5310.00    1.60495   1.59173    7.034
 5311.00    1.58524   1.58564    7.322
 5312.00    1.56846   1.57782    7.097
 5313.00    1.57158   1.56892    6.929
 5314.00    1.58285   1.55846    6.974
 5315.00    1.57102   1.54715    6.978
 5316.00    1.53871   1.53432    6.885
 5317.00    1.51853   1.52012    6.872
 5318.00    1.52067   1.50516    6.971
 5319.00    1.52770   1.48884    7.056
 5320.00    1.52005   1.47344    7.075
 5321.00    1.49001   1.45779    7.081
 5322.00    1.45851   1.44530    7.125
 5323.00    1.45852   1.43443    7.216
 5324.00    1.48465   1.42855    7.316
 5325.00    1.50271   1.42604    7.369
 5326.00    1.50280   1.42913    7.419
 5327.00    1.49938   1.43601    7.559
 5328.00    1.50121   1.44582    7.722
 5329.00    1.50987   1.45765    7.742
 5330.00    1.53245   1.46956    7.654
 5331.00    1.57466   1.48138    7.642
 5332.00    1.62012   1.49092    7.752
 5333.00    1.63910   1.49874    7.897
 5334.00    1.61678   1.50354    7.972
 5335.00    1.56708   1.50658    7.919
 5336.00    1.54615   1.50767    7.795
 5337.00    1.60023   1.50834    7.715
 5338.00    1.66146   1.50841    7.738
 5339.00    1.62734   1.50923    7.851
 5340.00    1.54777   1.51055    7.956
 5341.00    1.54483   1.51287    7.944
 5342.00    1.60005   1.51690    7.855
 5343.00    1.61106   1.52205    7.814
 5344.00    1.56428   1.52918    7.864
 5345.00    1.51922   1.53783    7.965
 5346.00    1.52483   1.54840    8.035
 5347.00    1.58809   1.56013    8.007
 5348.00    1.64923   1.57278    7.931
 5349.00    1.64408   1.58564    7.900
 5350.00    1.60918   1.59818    7.929
 5351.00    1.61928   1.60917    7.980
 5352.00    1.66315   1.61823    8.021
 5353.00    1.68231   1.62428    8.045
 5354.00    1.66051   1.62716    8.073
 5355.00    1.61883   1.62639    8.122
 5356.00    1.58676   1.62195    8.154
 5357.00    1.58256   1.61426    8.135
 5358.00    1.59257   1.60358    8.116
 5359.00    1.59414   1.59108    8.152
 5360.00    1.59083   1.57647    8.176
 5361.00    1.59627   1.56204    8.112
 5362.00    1.60596   1.54728    8.041
 5363.00    1.60464   1.53413    8.071
 5364.00    1.58171   1.52272    8.161
 5365.00    1.54280   1.51382    8.210
 5366.00    1.51956   1.50866    8.200
 5367.00    1.53388   1.50675    8.175
 5368.00    1.55533   1.50949    8.173
 5369.00    1.54818   1.51420    8.202
 5370.00    1.53111   1.52241    8.213
 5371.00    1.53627   1.53116    8.166
 5372.00    1.55506   1.54131    8.105
 5373.00    1.56200   1.55052    8.069
 5374.00    1.54884   1.55903    8.013
 5375.00    1.52805   1.56553    7.896
 5376.00    1.52980   1.57004    7.782
 5377.00    1.56741   1.57265    7.735
 5378.00    1.60533   1.57307    7.729
 5379.00    1.61224   1.57191    7.708
 5380.00    1.61390   1.56900    7.663
 5381.00    1.63337   1.56467    7.634
 5382.00    1.63247   1.55891    7.692
 5383.00    1.58440   1.55190    7.858
 5384.00    1.54203   1.54384    8.025
 5385.00    1.55587   1.53474    8.082
 5386.00    1.59622   1.52509    8.071
 5387.00    1.60853   1.51492    8.084
 5388.00    1.57114   1.50486    8.147
 5389.00    1.50156   1.49503    8.236
 5390.00    1.45228   1.48572    8.303
 5391.00    1.45964   1.47768    8.325
 5392.00    1.50368   1.47051    8.340
 5393.00    1.54331   1.46460    8.375
 5394.00    1.54998   1.45923    8.389
 5395.00    1.52074   1.45486    8.361
 5396.00    1.48317   1.45042    8.348
 5397.00    1.46485   1.44611    8.385
 5398.00    1.46997   1.44181    8.413
 5399.00    1.48891   1.43763    8.385
 5400.00    1.50801   1.43426    8.351
 5401.00    1.51858   1.43149    8.348
 5402.00    1.52165   1.43072    8.348
 5403.00    1.51600   1.43148    8.333
 5404.00    1.49254   1.43555    8.349
 5405.00    1.45672   1.44170    8.397
 5406.00    1.43875   1.45107    8.386
 5407.00    1.45445   1.46218    8.304
 5408.00    1.48275   1.47535    8.288
 5409.00    1.49661   1.48905    8.377
 5410.00    1.48654   1.50298    8.386
 5411.00    1.47455   1.51597    8.231
 5412.00    1.50908   1.52753    8.097
 5413.00    1.58407   1.53717    8.100
 5414.00    1.61261   1.54446    8.146
 5415.00    1.56862   1.54938    8.125
 5416.00    1.54350   1.55214   -2.000
 5417.00    1.57568   1.55278   -2.000
 5418.00    1.58148   1.55175   -2.000
 5419.00    1.53284   1.54899   -2.000
 5420.00    1.52726   1.54522   -2.000
 5421.00    1.61172   1.54015   -2.000
 5422.00    1.70826   1.53464   -2.000
 5423.00    1.74014   1.52810   -2.000
 5424.00    1.69672   1.52176   -2.000
 5425.00    1.61131   1.51507   -2.000
 5426.00    1.53767   1.50949   -2.000
 5427.00    1.49852   1.50464   -2.000
 5428.00    1.47218   1.50191   -2.000
 5429.00    1.44932   1.50114   -2.000
 5430.00    1.45071   1.50308   -2.000
 5431.00    1.48130   1.50760    6.733
 5432.00    1.51598   1.51424    6.605
 5433.00    1.53349   1.52288    6.535
 5434.00    1.53198   1.53196    6.516
 5435.00    1.52765   1.54138    6.520
 5436.00    1.54355   1.54910    6.506
 5437.00    1.56798   1.55539    6.441
 5438.00    1.55791   1.55851    6.343
 5439.00    1.52231   1.55952    6.383
 5440.00    1.52719   1.55729    6.846
 5441.00    1.58190   1.55371    7.748
 5442.00    1.62121   1.54799    8.461
 5443.00    1.60991   1.54244    8.501
 5444.00    1.56981   1.53601    8.323
 5445.00    1.52808   1.53096    8.259
 5446.00    1.49957   1.52577    8.222
 5447.00    1.49508   1.52225    8.223
 5448.00    1.51810   1.51886    8.393
 5449.00    1.54342   1.51677    8.468
 5450.00    1.52962   1.51498    7.917
 5451.00    1.48382   1.51404    7.095
 5452.00    1.45920   1.51367    6.684
 5453.00    1.47702   1.51377    6.675
 5454.00    1.51382   1.51453    6.666
 5455.00    1.54247   1.51543    6.519
 5456.00    1.54843   1.51679    6.428
 5457.00    1.53724   1.51802    6.478
 5458.00    1.52790   1.51934    6.583
 5459.00    1.52746   1.52033    6.596
 5460.00    1.52836   1.52104    6.453
 5461.00    1.52276   1.52131    6.436
 5462.00    1.50774   1.52089    6.985
 5463.00    1.48787   1.51980    8.066
 5464.00    1.47591   1.51763    8.742
 5465.00    1.49270   1.51453    8.556
 5466.00    1.54803   1.51009    8.298
 5467.00    1.59417   1.50480    8.323
 5468.00    1.56308   1.49842    8.452
 5469.00    1.48611   1.49181    8.501
 5470.00    1.46128   1.48491    8.423
 5471.00    1.50299   1.47890    8.312
 5472.00    1.54564   1.47359    8.301
 5473.00    1.53921   1.47023    8.368
 5474.00    1.47867   1.46829    8.388
 5475.00    1.41591   1.46882    8.336
 5476.00    1.41678   1.47071    8.285
 5477.00    1.46408   1.47487    8.282
 5478.00    1.48925   1.47981    8.322
 5479.00    1.48397   1.48605    8.360
 5480.00    1.48700   1.49234    8.348
 5481.00    1.50810   1.49878    8.306
 5482.00    1.53072   1.50478    8.295
 5483.00    1.54921   1.51007    8.312
 5484.00    1.56738   1.51476    8.319
 5485.00    1.58105   1.51840    8.317
 5486.00    1.58116   1.52153    8.337
 5487.00    1.56582   1.52373    8.391
 5488.00    1.54293   1.52550    8.464
 5489.00    1.53006   1.52666    8.514
 5490.00    1.54153   1.52732    8.503
 5491.00    1.56674   1.52758    8.445
 5492.00    1.58263   1.52722    8.398
 5493.00    1.58138   1.52649    8.421
 5494.00    1.57010   1.52505    8.519
 5495.00    1.56170   1.52317    8.557
 5496.00    1.56096   1.52069    8.422
 5497.00    1.54623   1.51771    8.286
 5498.00    1.50105   1.51444    8.358
 5499.00    1.46469   1.51076    8.521
 5500.00    1.48205   1.50721    8.530
 5501.00    1.52011   1.50341    8.446
 5502.00    1.52292   1.50016    8.457
 5503.00    1.50674   1.49691    8.518
 5504.00    1.51127   1.49448    8.496
 5505.00    1.51452   1.49237    8.441
 5506.00    1.48227   1.49135    8.464
 5507.00    1.44842   1.49110    8.540
 5508.00    1.46192   1.49223    8.578
 5509.00    1.50453   1.49453    8.551
 5510.00    1.53118   1.49825    8.494
 5511.00    1.53494   1.50328    8.458
 5512.00    1.53542   1.50923    8.473
 5513.00    1.55299   1.51601    8.496
 5514.00    1.59142   1.52264    8.481
 5515.00    1.62296   1.52910    8.447
 5516.00    1.62111   1.53421    8.440
 5517.00    1.59919   1.53815    8.467
 5518.00    1.58458   1.54006    8.503
 5519.00    1.58483   1.54041    8.508
 5520.00    1.59209   1.53895    8.451
 5521.00    1.59310   1.53636    8.349
 5522.00    1.58158   1.53296    8.249
 5523.00    1.56867   1.52941    8.208
 5524.00    1.56413   1.52621    8.250
 5525.00    1.55739   1.52379    8.317
 5526.00    1.53874   1.52239    8.344
 5527.00    1.52063   1.52228   -2.000
 5528.00    1.51652   1.52315   -2.000
 5529.00    1.52020   1.52534   -2.000
 5530.00    1.52676   1.52807   -2.000
 5531.00    1.54748   1.53179   -2.000
 5532.00    1.54137   1.53559   -2.000
 5533.00    1.37673   1.53997   -2.000
 5534.00    1.08077   1.54415   -2.000
 5535.00    1.01508   1.54853   -2.000
 5536.00    1.39922   1.55262   -2.000
 5537.00    1.93238   1.55665   -2.000
 5538.00    2.23020   1.56042   -2.000
 5539.00    2.20637   1.56404   -2.000
 5540.00    1.96568   1.56743   -2.000
 5541.00    1.67941   1.57071   -2.000
 5542.00    1.47075   1.57367   -2.000
 5543.00    1.34257   1.57647   -2.000
 5544.00    1.27456   1.57871   -2.000
 5545.00    1.29282   1.58060   -2.000
 5546.00    1.39915   1.58155   -2.000
 5547.00    1.52457   1.58190   -2.000
 5548.00    1.60346   1.58111   -2.000
 5549.00    1.62596   1.57960   -2.000
 5550.00    1.61152   1.57704   -2.000
 5551.00    1.58651   1.57386    8.516
 5552.00    1.57424   1.56994    8.571
 5553.00    1.58699   1.56559    8.537
 5554.00    1.61322   1.56086    8.464
 5555.00    1.61775   1.55590    8.441
 5556.00    1.59522   1.55078    8.498
 5557.00    1.59103   1.54565    8.564
 5558.00    1.61719   1.54054    8.575
 5559.00    1.61614   1.53569    8.544
 5560.00    1.56289   1.53109    8.513
 5561.00    1.51227   1.52709    8.520
 5562.00    1.50784   1.52363    8.547
 5563.00    1.53364   1.52101    8.518
 5564.00    1.55313   1.51928    8.427
 5565.00    1.53811   1.51843    8.365
 5566.00    1.49754   1.51864    8.349
 5567.00    1.47927   1.51956    8.267
 5568.00    1.49965   1.52145    8.100
 5569.00    1.52036   1.52365    7.975
 5570.00    1.52228   1.52637    7.945
 5571.00    1.53235   1.52885    7.933
 5572.00    1.56389   1.53108    7.921
 5573.00    1.59332   1.53240    8.008
 5574.00    1.59518   1.53266    8.211
 5575.00    1.56243   1.53132    8.400
 5576.00    1.51799   1.52831    8.475
 5577.00    1.50574   1.52342    8.471
 5578.00    1.52855   1.51676    8.452
 5579.00    1.53924   1.50857    8.444
 5580.00    1.52280   1.49928    8.435
 5581.00    1.51556   1.48952    8.392
 5582.00    1.53221   1.47986    8.351
 5583.00    1.54509   1.47116    8.404
 5584.00    1.52940   1.46385    8.494
 5585.00    1.48454   1.45856    8.435
 5586.00    1.44144   1.45540    8.328
 5587.00    1.44702   1.45442    8.495
 5588.00    1.49648   1.45549    8.650
 5589.00    1.53066   1.45794    7.988
 5590.00    1.52232   1.46168    6.965
 5591.00    1.49524   1.46577    6.525
 5592.00    1.47517   1.47027    6.671
 5593.00    1.47216   1.47458    6.851
 5594.00    1.48353   1.47897    6.775
 5595.00    1.49867   1.48348    6.657
 5596.00    1.51054   1.48827    6.617
 5597.00    1.51749   1.49397    6.582
 5598.00    1.51619   1.50022    6.574
 5599.00    1.50430   1.50793    6.690
 5600.00    1.49579   1.51596    6.758
 5601.00    1.51416   1.52497    6.481
 5602.00    1.55783   1.53343    6.231
 5603.00    1.59948   1.54151    6.693
 5604.00    1.61608   1.54782    7.944
 5605.00    1.60197   1.55230    8.846
 5606.00    1.57915   1.55421    8.638
 5607.00    1.58037   1.55366    8.354
 5608.00    1.59606   1.55060    8.444
 5609.00    1.58701   1.54560    8.579
 5610.00    1.55684   1.53911    8.535
 5611.00    1.54410   1.53192    8.383
 5612.00    1.55103   1.52462    8.281
 5613.00    1.54747   1.51787    8.338
 5614.00    1.52724   1.51213    8.483
 5615.00    1.50969   1.50760    8.525
 5616.00    1.50803   1.50463    8.447
 5617.00    1.51975   1.50286    8.390
 5618.00    1.52400   1.50265    8.410
 5619.00    1.50078   1.50338    8.461
 5620.00    1.47433   1.50544    8.479
 5621.00    1.48901   1.50825    8.420
 5622.00    1.53554   1.51214    8.329
 5623.00    1.56668   1.51632    8.288
 5624.00    1.56557   1.52083    8.303
 5625.00    1.54937   1.52515    8.324
 5626.00    1.54492   1.52907    8.317
 5627.00    1.56849   1.53208    8.283
 5628.00    1.59729   1.53396    8.240
 5629.00    1.59319   1.53446    8.213
 5630.00    1.55887   1.53373    8.208
 5631.00    1.52980   1.53192    8.213
 5632.00    1.53730   1.52923    8.201
 5633.00    1.58651   1.52605    8.152
 5634.00    1.63135   1.52278    8.098
 5635.00    1.61783   1.51995    8.091
 5636.00    1.56618   1.51767    8.145
 5637.00    1.53601   1.51638    8.226
 5638.00    1.54227   1.51601    8.261
 5639.00    1.56153   1.51660    8.193
 5640.00    1.56740   1.51805    8.080
 5641.00    1.55182   1.51992    8.003
 5642.00    1.54719   1.52231    7.906
 5643.00    1.58379   1.52432    7.723
 5644.00    1.62112   1.52628    7.561
 5645.00    1.60404   1.52712    7.542
 5646.00    1.56055   1.52736    7.601
 5647.00    1.54968   1.52608    7.589
 5648.00    1.56571   1.52391    7.474
 5649.00    1.57268   1.52030    7.334
 5650.00    1.57148   1.51588    7.274
 5651.00    1.57584   1.51067    7.348
 5652.00    1.56823   1.50522    7.473
 5653.00    1.53291   1.49997    7.532
 5654.00    1.50468   1.49535    7.558
 5655.00    1.52036   1.49190    7.639
 5656.00    1.55102   1.48975    7.757
 5657.00    1.55155   1.48932    7.842
 5658.00    1.53125   1.49033    7.886
 5659.00    1.51932   1.49322    7.945
 5660.00    1.51381   1.49719    8.120
 5661.00    1.50137   1.50263    8.347
 5662.00    1.48707   1.50858    8.154
 5663.00    1.48617   1.51568    7.371
 5664.00    1.50983   1.52262    6.638
 5665.00    1.55286   1.53018    6.335
 5666.00    1.58451   1.53716    6.309
 5667.00    1.58196   1.54431    6.336
 5668.00    1.56496   1.55048    6.390
 5669.00    1.56371   1.55622    6.451
 5670.00    1.58238   1.56051    6.320
 5671.00    1.60788   1.56380    6.042
 5672.00    1.62342   1.56547    6.166
 5673.00    1.61990   1.56570    7.125
 5674.00    1.60479   1.56442    8.491
 5675.00    1.59052   1.56170    8.913
 5676.00    1.58264   1.55812    8.547
 5677.00    1.58065   1.55348    8.373
 5678.00    1.58006   1.54891    8.427
 5679.00    1.57564   1.54413    8.447
 5680.00    1.56445   1.54041    8.418
 5681.00    1.54809   1.53723    8.413
 5682.00    1.53381   1.53549    8.424
 5683.00    1.52847   1.53494    8.428
 5684.00    1.53341   1.53561    8.447
 5685.00    1.54468   1.53746    8.487
 5686.00    1.55442   1.53967    8.501
 5687.00    1.55751   1.54274    8.469
 5688.00    1.55620   1.54506    8.458
 5689.00    1.55480   1.54723    8.510
 5690.00    1.55478   1.54781    8.563
 5691.00    1.55069   1.54749    8.557
 5692.00    1.53028   1.54544    8.521
 5693.00    1.49666   1.54198    8.485
 5694.00    1.47955   1.53705    8.437
 5695.00    1.50009   1.53076    8.375
 5696.00    1.54699   1.52370    8.342
 5697.00    1.58819   1.51575    8.357
 5698.00    1.58631   1.50770    8.374
 5699.00    1.54189   1.49967    8.361
 5700.00    1.50881   1.49206    8.348
 5701.00    1.51135   1.48521    8.357
 5702.00    1.50419   1.47937    8.361
 5703.00    1.46284   1.47531    8.355
 5704.00    1.42941   1.47272    8.377
 5705.00    1.43821   1.47251    8.425
 5706.00    1.47493   1.47447    8.417
 5707.00    1.51152   1.47901    8.346
 5708.00    1.52848   1.48560    8.326
 5709.00    1.51648   1.49432    8.400
 5710.00    1.47979   1.50471    8.471
 5711.00    1.45232   1.51635    8.474
 5712.00    1.48939   1.52862    8.463
 5713.00    1.57912   1.54091    8.477
 5714.00    1.62446   1.55292    8.485
 5715.00    1.59305   1.56352    8.466
 5716.00    1.56609   1.57322    8.438
 5717.00    1.59005   1.58107    8.424
 5718.00    1.62249   1.58723    8.424
 5719.00    1.63739   1.59162    8.421
 5720.00    1.66002   1.59451    8.389
 5721.00    1.68434   1.59594    8.334
 5722.00    1.65731   1.59625    8.287
 5723.00    1.58736   1.59594    8.234
 5724.00    1.56095   1.59480    8.108
 5725.00    1.59809   1.59385    7.920
 5726.00    1.62214   1.59258    7.762
 5727.00    1.60539   1.59182    7.677
 5728.00    1.60158   1.59117    7.635
 5729.00    1.62011   1.59109    7.612
 5730.00    1.60281   1.59119    7.612
 5731.00    1.54162   1.59161    7.647
 5732.00    1.50050   1.59233    7.727
 5733.00    1.51509   1.59276    7.836
 5734.00    1.56330   1.59311    7.938
 5735.00    1.60481   1.59318    8.032
 5736.00    1.60760   1.59319    8.145
 5737.00    1.58555   1.59278    8.233
 5738.00    1.58883   1.59187    8.198
 5739.00    1.62477   1.59067    8.105
 5740.00    1.64994   1.58895    0.000
 5741.00    1.63852   1.58700    0.000
 5742.00    1.59995   1.58459    0.000
 5743.00    1.55820   1.58188    0.000
 5744.00    1.53815   1.57896    0.000
 5745.00    1.54622   1.57578    0.000
 5746.00    1.56817   1.57281    0.000
 5747.00    1.58190   1.56976    0.000
 5748.00    1.57195   1.56739    0.000
 5749.00    1.55902   1.56498    0.000
 5750.00    1.58053   1.56348    0.000
 5751.00    1.61181   1.56217    0.000
 5752.00    1.58837   1.56187    0.000
 5753.00    1.52931   1.56193    0.000
 5754.00    1.51757   1.56251    0.000
 5755.00    1.55453   1.56349    0.000
 5756.00    1.57081   1.56493    0.000
 5757.00    1.55737   1.56719    0.000
 5758.00    1.56241   1.56966    0.000
 5759.00    1.59548   1.57304    0.000
 5760.00    1.62438   1.57606    0.000
 5761.00    1.62819   1.57980    0.000
 5762.00    1.60893   1.58291    0.000
 5763.00    1.58636   1.58631    0.000
 5764.00    1.58298   1.58867    0.000
 5765.00    1.59365   1.59068    0.000
 5766.00    1.59804   1.59131    0.000
 5767.00    1.60300   1.59080    0.000
 5768.00    1.62782   1.58887    0.000
 5769.00    1.65309   1.58517    0.000
 5770.00    1.64182   1.58031    0.000
 5771.00    1.60541   1.57389    0.000
 5772.00    1.58699   1.56659    0.000
 5773.00    1.60005   1.55812    0.000
 5774.00    1.62608   1.54927    0.000
 5775.00    1.63562   1.54009    0.000
 5776.00    1.60996   1.53111    0.000
 5777.00    1.57254   1.52313    0.000
 5778.00    1.55972   1.51600    0.000
 5779.00    1.55822   1.51098    0.000
 5780.00    1.53620   1.50754    0.000
 5781.00    1.51703   1.50664    0.000
 5782.00    1.54301   1.50762    0.000
 5783.00    1.59203   1.51107    0.000
 5784.00    1.61069   1.51624    0.000
 5785.00    1.59297   1.52300    0.000
 5786.00    1.56969   1.53081    0.000
 5787.00    1.56915   1.53908    0.000
 5788.00    1.59651   1.54755    0.000
 5789.00    1.61410   1.55578    0.000
 5790.00    1.58587   1.56371    0.000
 5791.00    1.54671   1.57093    0.000
 5792.00    1.55229   1.57725    0.000
 5793.00    1.59178   1.58302    0.000
 5794.00    1.62073   1.58788    0.000
 5795.00    1.62580   1.59202    0.000
 5796.00    1.61919   1.59546    0.000
 5797.00    1.61734   1.59788    0.000
 5798.00    1.62661   1.59963    0.000
 5799.00    1.62973   1.60058    0.000
 5800.00    1.61312   1.60113    0.000
 5801.00    1.60222   1.60122    0.000
 5802.00    1.62376   1.60111    0.000
 5803.00    1.65510   1.60075    0.000
 5804.00    1.66210   1.60028    0.000
 5805.00    1.65128   1.59970    0.000
 5806.00    1.64330   1.59947    0.000
 5807.00    1.63555   1.59934    0.000
 5808.00    1.62109   1.59971    0.000
 5809.00    1.61375   1.60033    0.000
 5810.00    1.62606   1.60139    0.000
 5811.00    1.64349   1.60275    0.000
 5812.00    1.64851   1.60460    0.000
 5813.00    1.64766   1.60678    0.000
 5814.00    1.64650   1.60935    0.000
 5815.00    1.62436   1.61225    0.000
 5816.00    1.58228   1.61519    0.000
 5817.00    1.58553   1.61835    0.000
 5818.00    1.66488   1.62129    0.000
 5819.00    1.72773   1.62423    0.000
 5820.00    1.69877   1.62665    0.000
 5821.00    1.64975   1.62863    0.000
 5822.00    1.66269   1.63008    0.000
 5823.00    1.70121   1.63079    0.000
 5824.00    1.70739   1.63120    0.000
 5825.00    1.69388   1.63101    0.000
 5826.00    1.68991   1.63071    0.000
 5827.00    1.69044   1.62998    0.000
 5828.00    1.68613   1.62917    0.000
 5829.00    1.68890   1.62827    0.000
 5830.00    1.70108   1.62738    0.000
 5831.00    1.69405   1.62667    0.000
 5832.00    1.65605   1.62600    0.000
 5833.00    1.62483   1.62553    0.000
 5834.00    1.63039   1.62515    0.000
 5835.00    1.65360   1.62468    0.000
 5836.00    1.66621   1.62411    0.000
 5837.00    1.66245   1.62317    0.000
 5838.00    1.65227   1.62173    0.000
 5839.00    1.65239   1.61936    0.000
 5840.00    1.66802   1.61636    0.000
 5841.00    1.68147   1.61235    0.000
 5842.00    1.66100   1.60747    0.000
 5843.00    1.57692   1.60153   -2.000
 5844.00    1.46431   1.59490   -2.000
 5845.00    1.43996   1.58762   -2.000
 5846.00    1.54300   1.57991   -2.000
 5847.00    1.65816   1.57219   -2.000
 5848.00    1.69159   1.56432   -2.000
 5849.00    1.66809   1.55718   -2.000
 5850.00    1.62919   1.55040   -2.000
 5851.00    1.57756   1.54492   -2.000
 5852.00    1.53590   1.54001   -2.000
 5853.00    1.56399   1.53671   -2.000
 5854.00    1.64898   1.53445   -2.000
 5855.00    1.67407   1.53384   -2.000
 5856.00    1.59580   1.53473   -2.000
 5857.00    1.51282   1.53651   -2.000
 5858.00    1.49959   1.53969   -2.000
 5859.00    1.53048   1.54304   -2.000
 5860.00    1.56390   1.54794   -2.000
 5861.00    1.58494   1.55234   -2.000
 5862.00    1.58881   1.55757   -2.000
 5863.00    1.57528   1.56193    0.000
 5864.00    1.56643   1.56613    0.000
 5865.00    1.59999   1.56975    0.000
 5866.00    1.65839   1.57244    0.000
 5867.00    1.66324   1.57446    0.000
 5868.00    1.60159   1.57504    0.000
 5869.00    1.55290   1.57503    0.000
 5870.00    1.55047   1.57330    0.000
 5871.00    1.54640   1.57056    0.000
 5872.00    1.52880   1.56608    0.000
 5873.00    1.54712   1.56011    0.000
 5874.00    1.60503   1.55243    0.000
 5875.00    1.63925   1.54270    0.000
 5876.00    1.61657   1.53113    0.000
 5877.00    1.56334   1.51692    0.000
 5878.00    1.52449   1.50057    0.000
 5879.00    1.53341   1.48201    0.000
 5880.00    1.56440   1.46138    0.000
 5881.00    1.54593   1.43873    0.000
 5882.00    1.47068   1.41483    0.000
 5883.00    1.40517   1.39048    0.000
 5884.00    1.38137   1.36632    0.000
 5885.00    1.37444   1.34403    0.000
 5886.00    1.36073   1.32461    0.000
 5887.00    1.33571   1.30875    0.000
 5888.00    1.30463   1.29765    0.000
 5889.00    1.27734   1.29150    0.000
 5890.00    1.26270   1.29081    0.000
 5891.00    1.26714   1.29553    0.000
 5892.00    1.29563   1.30664    0.000
 5893.00    1.34868   1.32220    0.000
 5894.00    1.41264   1.34106    0.000
 5895.00    1.46219   1.36211    0.000
 5896.00    1.47602   1.38422    0.000
 5897.00    1.45075   1.40607    0.000
 5898.00    1.42530   1.42876    0.000
 5899.00    1.45509   1.45006    0.000
 5900.00    1.52620   1.46899    0.000
 5901.00    1.57204   1.48557    7.714
 5902.00    1.57782   1.49897    7.688
 5903.00    1.57807   1.50992    7.754
 5904.00    1.57977   1.51801    7.870
 5905.00    1.56532   1.52437    7.920
 5906.00    1.54828   1.52836    7.887
 5907.00    1.55812   1.53116    7.845
 5908.00    1.57182   1.53287    7.824
 5909.00    1.54062   1.53381    7.807
 5910.00    1.48759   1.53443    7.780
 5911.00    1.47981   1.53466    7.751
 5912.00    1.51683   1.53558    7.742
 5913.00    1.54679   1.53618    7.769
 5914.00    1.55563   1.53769    7.797
 5915.00    1.56051   1.53880    7.785
 5916.00    1.55549   1.54083    7.796
 5917.00    1.52702   1.54265    7.911
 5918.00    1.50742   1.54455    8.009
 5919.00    1.54227   1.54654    7.906
 5920.00    1.60648   1.54782    7.741
 5921.00    1.63310   1.54903    7.773
 5922.00    1.59950   1.54927    7.932
 5923.00    1.53437   1.54934    7.959
 5924.00    1.49764   1.54924    7.834
 5925.00    1.53120   1.54900    7.726
 5926.00    1.58184   1.54879    7.704
 5927.00    1.57190   1.54856    7.745
 5928.00    1.54122   1.54862    7.799
 5929.00    1.57264   1.54831    7.820
 5930.00    1.62927   1.54878    7.818
 5931.00    1.62437   1.54900    7.815
 5932.00    1.57636   1.54994    7.773
 5933.00    1.55627   1.55102    7.667
 5934.00    1.56697   1.55181    7.600
 5935.00    1.57595   1.55258    7.667
 5936.00    1.59283   1.55291    7.758
 5937.00    1.63557   1.55352    7.723
 5938.00    1.66583   1.55375    7.678
 5939.00    1.63744   1.55370    7.801
 5940.00    1.57709   1.55333    7.982
 5941.00    1.54333   1.55253    8.004
 5942.00    1.55361   1.55136    7.919
 5943.00    1.58702   1.55017    7.901
 5944.00    1.60374   1.54898    7.967
 5945.00    1.57990   1.54770    8.045
 5946.00    1.54690   1.54646    8.094
 5947.00    1.54669   1.54538    8.114
 5948.00    1.57055   1.54453    8.123
 5949.00    1.58596   1.54415    8.129
 5950.00    1.57939   1.54427    8.098
 5951.00    1.55834   1.54543    8.020
 5952.00    1.54603   1.54727    7.978
 5953.00    1.55856   1.54939    8.035
 5954.00    1.58088   1.55194    8.101
 5955.00    1.58900   1.55537    8.071
 5956.00    1.57737   1.55892    7.991
 5957.00    1.55101   1.56270    7.961
 5958.00    1.51481   1.56621    7.994
 5959.00    1.48750   1.57008    8.050
 5960.00    1.51235   1.57342    8.058
 5961.00    1.59596   1.57675    7.996
 5962.00    1.65462   1.57927    7.943
 5963.00    1.62921   1.58125    7.972
 5964.00    1.59249   1.58245    8.061
 5965.00    1.61502   1.58274    8.139
 5966.00    1.63818   1.58248    8.158
 5967.00    1.60300   1.58104    8.127
 5968.00    1.56918   1.57963    8.134
 5969.00    1.58850   1.57707    8.215
 5970.00    1.59456   1.57423    8.260
 5971.00    1.53949   1.57055    8.203
 5972.00    1.50664   1.56663    8.179
 5973.00    1.55927   1.56231    8.295
 5974.00    1.61944   1.55793    8.450
 5975.00    1.61380   1.55398    8.502
 5976.00    1.58929   1.55037    8.446
 5977.00    1.59670   1.54727    8.364
 5978.00    1.60021   1.54485    8.346
 5979.00    1.56370   1.54340    8.416
 5980.00    1.51707   1.54262    8.492
 5981.00    1.50518   1.54259    8.497
 5982.00    1.54338   1.54309    8.454
 5983.00    1.60138   1.54425    8.412
 5984.00    1.60700   1.54574    8.394
 5985.00    1.54502   1.54743    8.377
 5986.00    1.50647   1.54940    8.308
 5987.00    1.53677   1.55168    8.209
 5988.00    1.55212   1.55324    8.215
 5989.00    1.50428   1.55461    8.350
 5990.00    1.47262   1.55536    8.421
 5991.00    1.51569   1.55548    8.311
 5992.00    1.58504   1.55472    8.170
 5993.00    1.61772   1.55321    8.141
 5994.00    1.59789   1.55198    8.222
 5995.00    1.55420   1.55000    8.331
 5996.00    1.54331   1.54747    8.366
 5997.00    1.57315   1.54464    8.319
 5998.00    1.57736   1.54138    8.320
 5999.00    1.52863   1.53879    8.410
 6000.00    1.48700   1.53660    8.458
 6001.00    1.49827   1.53454    8.405
 6002.00    1.54367   1.53232    8.369
 6003.00    1.58409   1.53002    8.419
 6004.00    1.58901   1.52815    8.484
 6005.00    1.55466   1.52687    8.507
 6006.00    1.50712   1.52574    8.511
 6007.00    1.47311   1.52419    8.521
 6008.00    1.46502   1.52343    8.526
 6009.00    1.48167   1.52232    8.537
 6010.00    1.51117   1.52160    8.597
 6011.00    1.54087   1.52174    8.673
 6012.00    1.56083   1.52135    8.652
 6013.00    1.55846   1.52148    8.551
 6014.00    1.52392   1.52132    8.543
 6015.00    1.48447   1.52265    8.658
 6016.00    1.49722   1.52455    8.725
 6017.00    1.55430   1.52672    8.666
 6018.00    1.57499   1.52995    8.598
 6019.00    1.54297   1.53397    8.594
 6020.00    1.53006   1.53883    8.619
 6021.00    1.55775   1.54348    8.628
 6022.00    1.57134   1.54951    8.610
 6023.00    1.56073   1.55542    8.581
 6024.00    1.57872   1.56171    8.569
 6025.00    1.62825   1.56758    8.571
 6026.00    1.64905   1.57329    8.552
 6027.00    1.62716   1.57885    8.496
 6028.00    1.60979   1.58325    8.426
 6029.00    1.61315   1.58754    8.404
 6030.00    1.60881   1.59098    8.495
 6031.00    1.59131   1.59388    8.653
 6032.00    1.58694   1.59588    8.729
 6033.00    1.60408   1.59796    8.689
 6034.00    1.62505   1.59946    8.652
 6035.00    1.63470   1.60078    8.685
 6036.00    1.63024   1.60177    8.769
 6037.00    1.62171   1.60279    8.844
 6038.00    1.62388   1.60377    8.853
 6039.00    1.63279   1.60443    8.831
 6040.00    1.62905   1.60545    8.869
 6041.00    1.60815   1.60570    8.940
 6042.00    1.58378   1.60638    8.923
 6043.00    1.57168   1.60604    8.843
 6044.00    1.58062   1.60576    8.840
 6045.00    1.60157   1.60489    8.907
 6046.00    1.61316   1.60313    8.913
 6047.00    1.60394   1.60124    8.847
 6048.00    1.57754   1.59864    8.809
 6049.00    1.55019   1.59623    8.822
 6050.00    1.54144   1.59321    8.831
 6051.00    1.55340   1.59069    8.812
 6052.00    1.57054   1.58797    8.786
 6053.00    1.57210   1.58527    8.783
 6054.00    1.54701   1.58294    8.821
 6055.00    1.51999   1.58053    8.881
 6056.00    1.52998   1.57941    8.913
 6057.00    1.56923   1.57847    8.879
 6058.00    1.59762   1.57862    8.785
 6059.00    1.60336   1.57973    8.711
 6060.00    1.60059   1.58126    8.737
 6061.00    1.59578   1.58359    8.806
 6062.00    1.58589   1.58603    8.792
 6063.00    1.56940   1.58916    8.711
 6064.00    1.55052   1.59214    8.670
 6065.00    1.54226   1.59545    8.675
 6066.00    1.55639   1.59801    8.656
 6067.00    1.58354   1.60031    8.579
 6068.00    1.60227   1.60212    8.469
 6069.00    1.60298   1.60239    8.402
 6070.00    1.59070   1.60127    8.437
 6071.00    1.58141   1.59878    8.501
 6072.00    1.58956   1.59542    8.487
 6073.00    1.60830   1.59120    8.456
 6074.00    1.61866   1.58636    8.533
 6075.00    1.61118   1.58104    8.669
 6076.00    1.59097   1.57608    8.726
 6077.00    1.57904   1.57082    8.710
 6078.00    1.59208   1.56637    8.715
 6079.00    1.61152   1.56221    8.768
 6080.00    1.60659   1.55873    8.841
 6081.00    1.57672   1.55642    8.911
 6082.00    1.54391   1.55423    8.969
 6083.00    1.53093   1.55259    8.998
 6084.00    1.54636   1.55183    8.993
 6085.00    1.56937   1.55194    8.981
 6086.00    1.57402   1.55175    8.988
 6087.00    1.56527   1.55226    9.002
 6088.00    1.56090   1.55272    9.003
 6089.00    1.56067   1.55319    9.017
 6090.00    1.55464   1.55349    9.068
 6091.00    1.53966   1.55330    9.100
 6092.00    1.51985   1.55285    9.065
 6093.00    1.50421   1.55202    9.035
 6094.00    1.50124   1.55066    9.062
 6095.00    1.51258   1.54878    9.018
 6096.00    1.53091   1.54856    8.868
 6097.00    1.53982   1.54733    8.959
 6098.00    1.53147   1.54636    9.348
 6099.00    1.52523   1.54592    8.973
 6100.00    1.54002   1.54624    7.515
 6101.00    1.56231   1.54748    6.421
 6102.00    1.56794   1.54897    6.198
 6103.00    1.55046   1.55051    6.446
 6104.00    1.52802   1.55238    6.613
 6105.00    1.54299   1.55653    6.482
 6106.00    1.60863   1.55989    6.194
 6107.00    1.66155   1.56215    6.019
 6108.00    1.64603   1.56336    6.083
 6109.00    1.59664   1.56362    6.263
 6110.00    1.56579   1.56371    6.384
 6111.00    1.54972   1.56247    6.453
 6112.00    1.53090   1.55944    6.533
 6113.00    1.52135   1.55625    6.573
 6114.00    1.53185   1.55253    6.528
 6115.00    1.54348   1.54917    6.479
 6116.00    1.53748   1.54624    6.504
 6117.00    1.52156   1.54245    6.572
 6118.00    1.50849   1.53946    6.629
 6119.00    1.49718   1.53726    6.679
 6120.00    1.48597   1.53541    6.731
 6121.00    1.48364   1.53368    6.740
 6122.00    1.49795   1.53310    6.672
 6123.00    1.52585   1.53235    6.555
 6124.00    1.55568   1.53178    6.439
 6125.00    1.57135   1.53195    6.360
 6126.00    1.56717   1.52988    6.351
 6127.00    1.55643   1.52669    6.436
 6128.00    1.55105   1.52305    6.533
 6129.00    1.54768   1.51838    6.427
 6130.00    1.53991   1.51552    6.259
 6131.00    1.52726   1.51349    6.676
 6132.00    1.51093   1.51191    8.164
 6133.00    1.49145   1.51010    9.954
 6134.00    1.47469   1.50926   10.153
 6135.00    1.47390   1.51075    9.584
 6136.00    1.49537   1.51266    9.516
 6137.00    1.52998   1.51579    9.684
 6138.00    1.55998   1.51914    9.672
 6139.00    1.56696   1.52444    9.635
 6140.00    1.55237   1.53018    9.722
 6141.00    1.54370   1.53451    9.753
 6142.00    1.55752   1.53705    9.620
 6143.00    1.58096   1.53880    9.492
 6144.00    1.59512   1.54016    9.488
 6145.00    1.59030   1.54064    9.543
 6146.00    1.57149   1.53848    9.562
 6147.00    1.55610   1.53486    9.512
 6148.00    1.54736   1.53071    9.441
 6149.00    1.52755   1.52475    9.443
 6150.00    1.49790   1.51799    9.527
 6151.00    1.48890   1.50982    9.588
 6152.00    1.50413   1.50111    9.602
 6153.00    1.50513   1.49030    9.686
 6154.00    1.47944   1.47957    9.793
 6155.00    1.46047   1.46938    9.658
 6156.00    1.45936   1.45975    9.313
 6157.00    1.44693   1.45211    9.138
 6158.00    1.42337   1.44465    9.234
 6159.00    1.43133   1.43915    9.335
 6160.00    1.46815   1.43496    9.331
 6161.00    1.47074   1.43136    9.424
 6162.00    1.42173   1.42923    9.685
 6163.00    1.37600   1.43043    9.908
 6164.00    1.37488   1.43475    9.952
 6165.00    1.41356   1.43948    9.902
 6166.00    1.46058   1.44556    9.869
 6167.00    1.47789   1.45157    9.894
 6168.00    1.46436   1.45797    9.947
 6169.00    1.45635   1.46442    9.954
 6170.00    1.46570   1.47057    9.916
 6171.00    1.47048   1.47692    9.916
 6172.00    1.46920   1.48358    9.965
 6173.00    1.48541   1.49032    9.985
 6174.00    1.51210   1.49487    9.967
 6175.00    1.51276   1.49858    9.981
 6176.00    1.49341   1.50123   10.036
 6177.00    1.50133   1.50278   10.062
 6178.00    1.53783   1.50244   10.019
 6179.00    1.55401   1.50153    9.932
 6180.00    1.53267   1.49984    9.872
 6181.00    1.50015   1.49668    9.907
 6182.00    1.47814   1.49360    9.995
 6183.00    1.47004   1.48891   10.007
 6184.00    1.46762   1.48502    9.943
 6185.00    1.45904   1.48244    9.914
 6186.00    1.44553   1.48032    9.924
 6187.00    1.44090   1.47891    9.881
 6188.00    1.45626   1.47831    9.811
 6189.00    1.49239   1.47953    9.824
 6190.00    1.53196   1.48115    9.851
 6191.00    1.54767   1.48327    9.712
 6192.00    1.52918   1.48536    9.469
 6193.00    1.48910   1.48877    9.350
 6194.00    1.45881   1.49430    9.396
 6195.00    1.46974   1.49869    9.490
 6196.00    1.51099   1.50211    9.574
 6197.00    1.54198   1.50516    9.671
 6198.00    1.54788   1.50767    9.789
 6199.00    1.54077   1.50924    9.907
 6200.00    1.52995   1.50950    9.987
 6201.00    1.51691   1.50898   10.008
 6202.00    1.50025   1.50804   10.032
 6203.00    1.48029   1.50598   10.148
 6204.00    1.46595   1.50240   10.309
 6205.00    1.46808   1.49658   10.382
 6206.00    1.48239   1.49010   10.363
 6207.00    1.49240   1.48320   10.351
 6208.00    1.48337   1.47601   10.374
 6209.00    1.45373   1.46924   10.393
 6210.00    1.43064   1.46271   10.377
 6211.00    1.44380   1.45627   10.304
 6212.00    1.47063   1.45046   10.150
 6213.00    1.46539   1.44596    9.931
 6214.00    1.43213   1.44216    9.784
 6215.00    1.40631   1.43948    9.833
 6216.00    1.39729   1.43785    9.991
 6217.00    1.39592   1.43758   10.066
 6218.00    1.40597   1.43755   10.050
 6219.00    1.43328   1.43797   10.060
 6220.00    1.45901   1.43763   10.118
 6221.00    1.46025   1.43701   10.173
 6222.00    1.44994   1.43650   10.195
 6223.00    1.45301   1.43577   10.195
 6224.00    1.45901   1.43581   10.241
 6225.00    1.44798   1.43463   10.376
 6226.00    1.44006   1.43530   10.503
 6227.00    1.45994   1.43575   10.504
 6228.00    1.47487   1.43586   10.454
 6229.00    1.44288   1.43612   10.496
 6230.00    1.39346   1.43544   10.614
 6231.00    1.37810   1.43475   10.697
 6232.00    1.38649   1.43322   10.700
 6233.00    1.38362   1.43408   10.649
 6234.00    1.37470   1.43336   10.621
 6235.00    1.37894   1.43203   10.673
 6236.00    1.38453   1.43131   10.767
 6237.00    1.37192   1.42859   10.828
 6238.00    1.34993   1.42638   10.839
 6239.00    1.33806   1.42425   10.814
 6240.00    1.33944   1.42295   10.733
 6241.00    1.34928   1.42136   10.594
 6242.00    1.36841   1.42047   10.462
 6243.00    1.39454   1.41969   10.399
 6244.00    1.41153   1.41670   10.391
 6245.00    1.40789   1.41497   10.401
 6246.00    1.39755   1.41293   10.439
 6247.00    1.39735   1.41083   10.523
 6248.00    1.40088   1.40876   10.634
 6249.00    1.39384   1.40725   10.735
 6250.00    1.37381   1.40512   10.787
 6251.00    1.35507   1.40324   10.676
 6252.00    1.36815   1.40359   -2.000
 6253.00    1.42100   1.40336   -2.000
 6254.00    1.46646   1.40615   -2.000
 6255.00    1.47266   1.40988   -2.000
 6256.00    1.48568   1.41471   -2.000
 6257.00    1.52954   1.41979   -2.000
 6258.00    1.52062   1.42516   -2.000
 6259.00    1.41587   1.43139   -2.000
 6260.00    1.33692   1.43749   -2.000
 6261.00    1.38040   1.44503   -2.000
 6262.00    1.45731   1.45087   -2.000
 6263.00    1.46643   1.45612    9.714
 6264.00    1.44330   1.46129    9.965
 6265.00    1.44300   1.46526   10.114
 6266.00    1.44112   1.46807   10.264
 6267.00    1.41667   1.47100   10.519
 6268.00    1.41530   1.47410   10.775
 6269.00    1.46183   1.47607   10.908
 6270.00    1.49939   1.47730   10.962
 6271.00    1.48681   1.47855   11.026
 6272.00    1.46582   1.47924   11.110
 6273.00    1.47486   1.48027   11.175
 6274.00    1.48932   1.48110   11.170
 6275.00    1.48138   1.48196   11.075
 6276.00    1.46235   1.48359   10.928
 6277.00    1.45412   1.48488   10.800
 6278.00    1.46630   1.48701   10.768
 6279.00    1.49007   1.48861   10.830
 6280.00    1.50034   1.49076    0.000
 6281.00    1.49137   1.49261    0.000
 6282.00    1.49265   1.49401    0.000
 6283.00    1.51923   1.49597    0.000
 6284.00    1.54598   1.49644    0.000
 6285.00    1.55011   1.49645    0.000
 6286.00    1.53573   1.49545    0.000
 6287.00    1.51686   1.49358    0.000
 6288.00    1.50441   1.49153    0.000
 6289.00    1.49509   1.48854    0.000
 6290.00    1.47152   1.48488    0.000
 6291.00    1.43725   1.48098    0.000
 6292.00    1.42654   1.47716    0.000
 6293.00    1.44966   1.47412    0.000
 6294.00    1.47315   1.47147    0.000
 6295.00    1.47570   1.46936    0.000
 6296.00    1.47106   1.46823    0.000
 6297.00    1.47006   1.46746    0.000
 6298.00    1.46489   1.46772    0.000
 6299.00    1.45127   1.46902    0.000
 6300.00    1.43776   1.47069    0.000
 6301.00    1.43456   1.47297    0.000
 6302.00    1.44688   1.47409    0.000
 6303.00    1.46985   1.47487    0.000
 6304.00    1.48937   1.47569    0.000
 6305.00    1.49573   1.47599    0.000
 6306.00    1.49006   1.47543    0.000
 6307.00    1.48475   1.47387    0.000
 6308.00    1.49665   1.47279    0.000
 6309.00    1.51867   1.47029    0.000
 6310.00    1.51918   1.46773    0.000
 6311.00    1.48807   1.46594    0.000
 6312.00    1.44735   1.46361    0.000
 6313.00    1.41731   1.46329    0.000
 6314.00    1.40543   1.46413    0.000
 6315.00    1.41737   1.46560    0.000
 6316.00    1.45524   1.46741    0.000
 6317.00    1.49589   1.47016    0.000
 6318.00    1.50154   1.47512    0.000
 6319.00    1.48505   1.47823    0.000
 6320.00    1.50287   1.48271    0.000
 6321.00    1.55043   1.48752   10.181
 6322.00    1.56128   1.49084   10.322
 6323.00    1.52705   1.49418   10.631
 6324.00    1.50548   1.49557   10.899
 6325.00    1.51364   1.49772   11.043
 6326.00    1.51726   1.49810   11.188
 6327.00    1.50859   1.49752   11.369
 6328.00    1.51219   1.49614   11.482
 6329.00    1.52575   1.49304   11.505
 6330.00    1.52143   1.49095   11.516
 6331.00    1.50291   1.48813   11.498
 6332.00    1.50072   1.48652   11.363
 6333.00    1.51032   1.48470   11.186
 6334.00    1.49705   1.48327   11.138
 6335.00    1.45874   1.48225   11.208
 6336.00    1.42660   1.48014   11.238
 6337.00    1.42031   1.47955   11.197
 6338.00    1.43797   1.47972   11.176
 6339.00    1.46297   1.48152   11.177
 6340.00    1.47629   1.48289   11.119
 6341.00    1.48153   1.48396   11.014
 6342.00    1.49495   1.48548   10.952
 6343.00    1.50683   1.48592   10.966
 6344.00    1.49459   1.48597   11.039
 6345.00    1.47487   1.48536   11.172
 6346.00    1.48463   1.48465   11.364
 6347.00    1.51133   1.48315   11.520
 6348.00    1.51007   1.47988   11.520
 6349.00    1.47648   1.47575   11.434
 6350.00    1.44364   1.47171   11.439
 6351.00    1.44018   1.46685   11.561
 6352.00    1.47288   1.46123   11.695
 6353.00    1.51120   1.45582   11.762
 6354.00    1.51190   1.45136   11.752
 6355.00    1.47378   1.44745   11.740
 6356.00    1.42988   1.44417   11.800
 6357.00    1.41043   1.44347   11.846
 6358.00    1.42527   1.44445   11.749
 6359.00    1.44655   1.44639   11.615
 6360.00    1.43758   1.44986   11.639
 6361.00    1.41000   1.45510   11.774
 6362.00    1.40303   1.46169   11.833
 6363.00    1.42855   1.46811   11.774
 6364.00    1.46954   1.47541   11.682
 6365.00    1.49547   1.48313   11.623
 6366.00    1.48772   1.49069   11.612
 6367.00    1.47503   1.49787   11.595
 6368.00    1.49553   1.50356   11.521
 6369.00    1.52848   1.50889   11.436
 6370.00    1.52958   1.51278   11.422
 6371.00    1.50195   1.51565   11.479
 6372.00    1.47844   1.51753   11.554
 6373.00    1.47809   1.51893   11.605
 6374.00    1.49795   1.52038   11.624
 6375.00    1.51251   1.52026   11.643
 6376.00    1.50176   1.52048   11.683
 6377.00    1.48874   1.52042   11.686
 6378.00    1.50306   1.51969   11.615
 6379.00    1.52571   1.51871   11.590
 6380.00    1.52451   1.51752   11.707
 6381.00    1.50962   1.51722   11.792
 6382.00    1.50700   1.51614   11.662
 6383.00    1.51577   1.51524   11.515
 6384.00    1.52301   1.51424   11.588
 6385.00    1.52846   1.51204   11.749
 6386.00    1.53358   1.50946   11.755
 6387.00    1.52623   1.50569   11.659
 6388.00    1.50102   1.50394   11.640
 6389.00    1.48291   1.50318   11.748
 6390.00    1.49145   1.50209   11.858
 6391.00    1.50022   1.50118   11.674
 6392.00    1.48096   1.49938   11.309
 6393.00    1.45462   1.49781   11.647
 6394.00    1.45309   1.49471   12.402
 6395.00    1.47363   1.49549   11.715
 6396.00    1.49565   1.49877    8.480
 6397.00    1.50393   1.49995    6.650
 6398.00    1.49760   1.50077    6.368
 6399.00    1.49467   1.50049    6.694
 6400.00    1.50762   1.50053    6.760
 6401.00    1.52141   1.49936    6.569
 6402.00    1.51954   1.49948    6.503
 6403.00    1.50920   1.50220    6.632
 6404.00    1.50229   1.50264    6.788
 6405.00    1.49703   1.50120    6.663
 6406.00    1.48919   1.50005    6.393
 6407.00    1.48274   1.49937    6.811
 6408.00    1.48151   1.49843    8.789
 6409.00    1.48215   1.49783   11.995
 6410.00    1.48281   1.49918   12.402
 6411.00    1.48934   1.49977   11.728
 6412.00    1.50064   1.49904   11.349
 6413.00    1.49927   1.49891   11.610
 6414.00    1.47711   1.49946   11.776
 6415.00    1.45347   1.50037   11.698
 6416.00    1.45168   1.50214   11.517
 6417.00    1.47864   1.50508   11.305
 6418.00    1.51480   1.50637   11.122
 6419.00    1.51574   1.50734   11.055
 6420.00    1.47224   1.50871   11.094
 6421.00    1.44168   1.51026   11.080
 6422.00    1.45839   1.51183   10.965
 6423.00    1.48104   1.51296   10.953
 6424.00    1.47844   1.51348   11.134
 6425.00    1.47979   1.51210   11.291
 6426.00    1.50159   1.51213   11.292
 6427.00    1.50797   1.51286   11.342
 6428.00    1.48219   1.51361   11.575
 6429.00    1.46301   1.51430   11.824
 6430.00    1.47376   1.51435   11.902
 6431.00    1.48627   1.51469   11.826
 6432.00    1.47920   1.51406   11.711
 6433.00    1.46848   1.51472   11.668
 6434.00    1.47114   1.51795   11.741
 6435.00    1.48551   1.52078   11.888
 6436.00    1.50558   1.52180   12.013
 6437.00    1.52816   1.52196   12.000
 6438.00    1.54482   1.52193   11.867
 6439.00    1.54188   1.52153   11.780
 6440.00    1.52518   1.52113   11.811
 6441.00    1.52352   1.52091   11.857
 6442.00    1.53876   1.51964   11.857
 6443.00    1.53310   1.51514   11.877
 6444.00    1.49525   1.51038   11.941
 6445.00    1.46136   1.50917   11.972
 6446.00    1.45403   1.50813   11.962
 6447.00    1.45942   1.50767   12.007
 6448.00    1.46264   1.50674   12.096
 6449.00    1.46343   1.50436   12.064
 6450.00    1.46882   1.50267   11.863
 6451.00    1.48681   1.50268   11.630
 6452.00    1.51576   1.50587   11.445
 6453.00    1.54204   1.50910   11.279
 6454.00    1.55051   1.51096   11.167
 6455.00    1.53250   1.51237   11.208
 6456.00    1.49940   1.51108   11.368
 6457.00    1.47922   1.51109   11.456
 6458.00    1.48156   1.51397   11.422
 6459.00    1.49145   1.51640   11.420
 6460.00    1.49984   1.51853   11.510
 6461.00    1.51119   1.51926   11.601
 6462.00    1.52640   1.52014   11.643
 6463.00    1.53902   1.51958   11.683
 6464.00    1.54542   1.51990   11.743
 6465.00    1.54698   1.52163   11.793
 6466.00    1.54474   1.52274   11.805
 6467.00    1.53783   1.52419   11.779
 6468.00    1.52482   1.52378   11.749
 6469.00    1.50753   1.52283   11.761
 6470.00    1.50146   1.52147   11.812
 6471.00    1.52583   1.52085   11.852
 6472.00    1.56271   1.51965   11.864
 6473.00    1.56786   1.51802   11.878
 6474.00    1.54239   1.51691   11.912
 6475.00    1.52879   1.51392   11.954
 6476.00    1.53326   1.50972   11.935
 6477.00    1.52496   1.50629   11.795
 6478.00    1.50073   1.50384   11.649
 6479.00    1.48687   1.50032   11.700
 6480.00    1.49119   1.49572   11.911
 6481.00    1.49875   1.49019   12.040
 6482.00    1.49751   1.48385   12.004
 6483.00    1.48543   1.47590   11.916
 6484.00    1.47013   1.46797   11.830
 6485.00    1.46168   1.46066   11.716
 6486.00    1.45542   1.45223   11.577
 6487.00    1.43826   1.44368   11.458
 6488.00    1.41414   1.43312   11.401
 6489.00    1.39856   1.42498   11.427
 6490.00    1.39133   1.41908   11.517
 6491.00    1.38320   1.41428   11.621
 6492.00    1.38556   1.41320   11.701
 6493.00    1.41668   1.41217   11.739
 6494.00    1.45684   1.41450   11.730
 6495.00    1.46715   1.41797   11.686
 6496.00    1.45042   1.42342   11.625
 6497.00    1.43908   1.43228   11.576
 6498.00    1.44275   1.44073   11.586
 6499.00    1.44900   1.45066   11.686
 6500.00    1.44783   1.45956   11.809
 6501.00    1.43925   1.46799   11.839
 6502.00    1.43772   1.47607   11.768
 6503.00    1.45981   1.48260   11.664
 6504.00    1.49983   1.48870   11.565
 6505.00    1.53635   1.49335   11.476
 6506.00    1.55272   1.49671   11.416
 6507.00    1.54289   1.49930   11.403
 6508.00    1.51443   1.50064   11.416
 6509.00    1.48242   1.50115   11.431
 6510.00    1.45828   1.50115   11.485
 6511.00    1.44790   1.50151   11.629
 6512.00    1.45207   1.50133   11.832
 6513.00    1.46658   1.50078   12.012
 6514.00    1.48269   1.50137   12.135
 6515.00    1.49308   1.50146   12.205
 6516.00    1.50053   1.50171   12.216
 6517.00    1.50909   1.50193   12.166
 6518.00    1.50959   1.50278   12.083
 6519.00    1.49550   1.50380   12.009
 6520.00    1.48798   1.50379   11.961
 6521.00    1.50712   1.50431   11.939
 6522.00    1.52806   1.50505   11.935
 6523.00    1.51951   1.50574   11.933
 6524.00    1.50302   1.50649   11.916
 6525.00    1.51173   1.50693   11.878
 6526.00    1.52700   1.50698   11.840
 6527.00    1.52067   1.50684   11.813
 6528.00    1.51762   1.50690    0.000
 6529.00    1.54522   1.50805    0.000
 6530.00    1.56392   1.50891    0.000
 6531.00    1.53212   1.50876    0.000
 6532.00    1.49070   1.50819    0.000
 6533.00    1.49133   1.50724    0.000
 6534.00    1.50446   1.50648    0.000
 6535.00    1.48653   1.50469    0.000
 6536.00    1.46488   1.50282    0.000
 6537.00    1.47714   1.50005    0.000
 6538.00    1.49740   1.49615    0.000
 6539.00    1.49140   1.49205    0.000
 6540.00    1.48085   1.48652    0.000
 6541.00    1.49551   1.48188    0.000
 6542.00    1.51894   1.47634    0.000
 6543.00    1.52405   1.47001    0.000
 6544.00    1.51368   1.46327    0.000
 6545.00    1.50608   1.45515    0.000
 6546.00    1.51525   1.44751    0.000
 6547.00    1.53545   1.43822    0.000
 6548.00    1.53228   1.42865    0.000
 6549.00    1.48719   1.41846    0.000
 6550.00    1.43470   1.40676    0.000
 6551.00    1.41297   1.39370    0.000
 6552.00    1.41861   1.37978    0.000
 6553.00    1.43100   1.36904    0.000
 6554.00    1.43694   1.35861    0.000
 6555.00    1.43058   1.34800    0.000
 6556.00    1.41170   1.33609    0.000
 6557.00    1.38542   1.32596    0.000
 6558.00    1.36118   1.32285    0.000
 6559.00    1.34673   1.32203    0.000
 6560.00    1.34348   1.32479    0.000
 6561.00    1.34850   1.32906    0.000
 6562.00    1.35678   1.33355    0.000
 6563.00    1.36504   1.33940    0.000
 6564.00    1.37410   1.34688    0.000
 6565.00    1.38564   1.36066    0.000
 6566.00    1.39977   1.37447    0.000
 6567.00    1.41500   1.38524    0.000
 6568.00    1.42815   1.39509    0.000
 6569.00    1.43276   1.40375    0.000
 6570.00    1.42082   1.41342    0.000
 6571.00    1.40178   1.42309    0.000
 6572.00    1.40801   1.43225    0.000
 6573.00    1.44780   1.43970    0.000
 6574.00    1.48381   1.44511    0.000
 6575.00    1.49196   1.44966    0.000
 6576.00    1.49170   1.45443    0.000
 6577.00    1.49922   1.45956    0.000
 6578.00    1.50330   1.46361    0.000
 6579.00    1.49722   1.46650    0.000
 6580.00    1.49352   1.46741    0.000
 6581.00    1.49616   1.46765    0.000
 6582.00    1.48983   1.46713    0.000
 6583.00    1.47159   1.46714    0.000
 6584.00    1.46185   1.46793    0.000
 6585.00    1.46712   1.46654    0.000
 6586.00    1.46754   1.46433    0.000
 6587.00    1.45731   1.46100    0.000
 6588.00    1.45826   1.45924    0.000
 6589.00    1.48015   1.45954    0.000
 6590.00    1.50518   1.45930    0.000
 6591.00    1.51275   1.45961    0.000
 6592.00    1.49430   1.45906    0.000
 6593.00    1.46329   1.45860    0.000
 6594.00    1.45061   1.45916    0.000
 6595.00    1.46444   1.46093    0.000
 6596.00    1.48130   1.46370    0.000
 6597.00    1.48837   1.46488    0.000
 6598.00    1.49493   1.46465    0.000
 6599.00    1.49989   1.46500    0.000
 6600.00    1.48635   1.46614    0.000
 6601.00    1.45775   1.46754    0.000
 6602.00    1.44128   1.46824    0.000
 6603.00    1.44132   1.46791    0.000
 6604.00    1.43373   1.46909    0.000
 6605.00    1.41692   1.47059    0.000
 6606.00    1.41748   1.47220    0.000
 6607.00    1.43597   1.47442    0.000
 6608.00    1.44288   1.47608    0.000
 6609.00    1.43842   1.47859   11.687
 6610.00    1.45513   1.48056   11.631
 6611.00    1.48998   1.48297   11.585
 6612.00    1.50169   1.48550   11.530
 6613.00    1.48351   1.48614   11.488
 6614.00    1.46976   1.48636   11.502
 6615.00    1.47417   1.48657   11.543
 6616.00    1.48034   1.48657   11.530
 6617.00    1.47804   1.48565   11.494
 6618.00    1.47136   1.48299   11.555
 6619.00    1.46687   1.47999   11.677
 6620.00    1.46783   1.47761   11.693
 6621.00    1.46911   1.47466   11.599
 6622.00    1.46160   1.47152   11.554
 6623.00    1.44903   1.46784   11.599
 6624.00    1.44510   1.46437   11.643
 6625.00    1.45205   1.46167   11.672
 6626.00    1.45946   1.45892   11.742
 6627.00    1.45805   1.45684   11.829
 6628.00    1.44634   1.45468   11.839
 6629.00    1.43770   1.45295   11.776
 6630.00    1.44926   1.45247   11.727
 6631.00    1.47050   1.45249   11.704
 6632.00    1.47291   1.45221   11.658
 6633.00    1.45333   1.45215   11.605
 6634.00    1.43305   1.45245   11.597
 6635.00    1.42967   1.45326   11.592
 6636.00    1.44734   1.45464   11.505
 6637.00    1.47104   1.45555   11.407
 6638.00    1.47879   1.45662   11.440
 6639.00    1.47120   1.45725   11.544
 6640.00    1.46379   1.45774   11.544
 6641.00    1.45657   1.45893   11.475
 6642.00    1.44126   1.45998   11.508
 6643.00    1.42990   1.46090   11.622
 6644.00    1.44112   1.46094   11.673
 6645.00    1.46134   1.46095   11.663
 6646.00    1.46180   1.46172   11.696
 6647.00    1.44703   1.46175   11.756
 6648.00    1.44110   1.46116   11.745
 6649.00    1.44391   1.46034   11.644
 6650.00    1.44088   1.45926   11.502
 6651.00    1.43579   1.45817   11.360
 6652.00    1.44156   1.45582   11.244
 6653.00    1.45306   1.45359   11.185
 6654.00    1.45468   1.45175   11.195
 6655.00    1.44173   1.44944   11.229
 6656.00    1.42213   1.44739   11.223
 6657.00    1.41235   1.44446   11.178
 6658.00    1.42263   1.44271   11.127
 6659.00    1.43567   1.44160   11.050
 6660.00    1.43045   1.44066   10.928
 6661.00    1.42357   1.44051   10.832
 6662.00    1.43892   1.43966   10.844
 6663.00    1.45368   1.44013   10.940
 6664.00    1.43643   1.44071   11.047
 6665.00    1.41349   1.44160   11.163
 6666.00    1.42701   1.44274   11.307
 6667.00    1.46284   1.44231   11.433
 6668.00    1.48128   1.44271   11.476
 6669.00    1.47366   1.44297   11.449
 6670.00    1.45445   1.44323   11.416
 6671.00    1.43971   1.44341   11.428
 6672.00    1.43784   1.44203   11.491
 6673.00    1.44212   1.44164   11.537
 6674.00    1.44011   1.44120   11.496
 6675.00    1.42731   1.44178   11.391
 6676.00    1.41174   1.44317   11.294
 6677.00    1.41562   1.44307   11.244
 6678.00    1.44752   1.44386   11.242
 6679.00    1.47259   1.44431   11.256
 6680.00    1.46106   1.44611   11.249
 6681.00    1.44426   1.44857   11.213
 6682.00    1.45810   1.44904   11.162
 6683.00    1.47701   1.44993   11.115
 6684.00    1.46769   1.45010   11.091
 6685.00    1.45184   1.45036   11.101
 6686.00    1.46091   1.45064   11.141
 6687.00    1.48382   1.44950   11.184
 6688.00    1.49485   1.44864   11.219
 6689.00    1.48717   1.44752   11.286
 6690.00    1.46696   1.44608   11.387
 6691.00    1.44376   1.44495   11.406
 6692.00    1.42507   1.44293   11.304
 6693.00    1.41253   1.44150   11.285
 6694.00    1.40840   1.44069   11.417
 6695.00    1.42018   1.43966   11.342
 6696.00    1.44251   1.43908    0.000
 6697.00    1.44490   1.43769    0.000
 6698.00    1.41501   1.43662    0.000
 6699.00    1.39123   1.43584    0.000
 6700.00    1.40172   1.43490    0.000
 6701.00    1.41685   1.43397    0.000
 6702.00    1.40992   1.43244    0.000
 6703.00    1.40448   1.43080    0.000
 6704.00    1.42065   1.42832    0.000
 6705.00    1.43485   1.42607    0.000
 6706.00    1.42830   1.42338    0.000
 6707.00    1.42147   1.42086    0.000
 6708.00    1.42880   1.41889    0.000
 6709.00    1.42853   1.41594    0.000
 6710.00    1.40946   1.41399    0.000
 6711.00    1.39974   1.41179    0.000
 6712.00    1.41383   1.41041    0.000
 6713.00    1.42164   1.41040    0.000
 6714.00    1.40830   1.41021    0.000
 6715.00    1.40716   1.41142    0.000
 6716.00    1.43317   1.41245    0.000
 6717.00    1.44789   1.41364    0.000
 6718.00    1.43315   1.41579    0.000
 6719.00    1.42842   1.41826    0.000
 6720.00    1.45264   1.42145    0.000
 6721.00    1.46581   1.42384    0.000
 6722.00    1.44513   1.42527    0.000
 6723.00    1.42253   1.42707    0.000
 6724.00    1.42131   1.42910    0.000
 6725.00    1.42445   1.43100    0.000
 6726.00    1.41678   1.43183    0.000
 6727.00    1.40623   1.43158    0.000
 6728.00    1.40142   1.43140    0.000
 6729.00    1.40062   1.43105    0.000
 6730.00    1.40352   1.43067    0.000
 6731.00    1.41517   1.42958    0.000
 6732.00    1.43276   1.42796    0.000
 6733.00    1.44254   1.42612    0.000
 6734.00    1.43966   1.42377    0.000
 6735.00    1.43469   1.42228    0.000
 6736.00    1.43508   1.42064    0.000
 6737.00    1.43726   1.41890    0.000
 6738.00    1.43344   1.41701    0.000
 6739.00    1.41733   1.41446    0.000
 6740.00    1.39393   1.41360    0.000
 6741.00    1.37898   1.41287    0.000
 6742.00    1.37692   1.41217    0.000
 6743.00    1.37531   1.41193    0.000
 6744.00    1.36330   1.41091    0.000
 6745.00    1.34063   1.41209    0.000
 6746.00    1.32036   1.41332    0.000
 6747.00    1.32403   1.41463    0.000
 6748.00    1.35882   1.41695    0.000
 6749.00    1.40982   1.41824    0.000
 6750.00    1.44701   1.42131    0.000
 6751.00    1.44014   1.42404    0.000
 6752.00    1.40206   1.42646    0.000
 6753.00    1.38442   1.42939   10.838
 6754.00    1.40284   1.43114   10.793
 6755.00    1.42600   1.43335   10.752
 6756.00    1.43517   1.43474   10.729
 6757.00    1.43865   1.43545   10.641
 6758.00    1.44620   1.43601   10.532
 6759.00    1.45882   1.43607   10.556
 6760.00    1.46564   1.43625   10.699
 6761.00    1.45218   1.43572   10.770
 6762.00    1.42876   1.43484   10.705
 6763.00    1.42457   1.43434   10.611
 6764.00    1.44127   1.43441   10.546
 6765.00    1.45288   1.43522   10.486
 6766.00    1.44922   1.43548   10.425
 6767.00    1.44187   1.43554   10.386
 6768.00    1.44238   1.43630   10.371
 6769.00    1.45296   1.43749   10.362
 6770.00    1.45973   1.43930   10.342
 6771.00    1.44336   1.43994   10.313
 6772.00    1.41249   1.43985   10.317
 6773.00    1.39572   1.43974   10.396
 6774.00    1.39715   1.43935   10.472
 6775.00    1.40097   1.43911   10.397
 6776.00    1.41347   1.43779   10.184
 6777.00    1.45300   1.43590    9.961
 6778.00    1.49922   1.43378    9.742
 6779.00    1.50925   1.43170    9.471
 6780.00    1.48547   1.42992    9.183
 6781.00    1.46471   1.42830    8.960
 6782.00    1.45513   1.42692    8.800
 6783.00    1.43886   1.42559    8.662
 6784.00    1.41135   1.42464    8.605
 6785.00    1.38556   1.42388    8.708
 6786.00    1.38059   1.42394    8.865
 6787.00    1.40503   1.42419    8.891
 6788.00    1.42878   1.42464    8.913
 6789.00    1.41250   1.42507    9.196
 6790.00    1.37787   1.42518    9.624
 6791.00    1.37615   1.42636    9.793
 6792.00    1.39919   1.42716    9.704
 6793.00    1.40287   1.42815    9.684
 6794.00    1.38528   1.42905    9.788
 6795.00    1.37423   1.42916    9.869
 6796.00    1.37624   1.43041    9.902
 6797.00    1.37986   1.43120    9.962
 6798.00    1.37905   1.43157   10.062
 6799.00    1.37473   1.43226   10.160
 6800.00    1.37000   1.43196   10.209
 6801.00    1.36990   1.43225   10.191
 6802.00    1.38190   1.43295   10.128
 6803.00    1.40699   1.43265   10.070
 6804.00    1.42589   1.43284   10.057
 6805.00    1.41892   1.43262   10.102
 6806.00    1.39991   1.43215   10.161
 6807.00    1.39650   1.43324   10.174
 6808.00    1.41185   1.43367   10.125
 6809.00    1.42872   1.43389   10.041
 6810.00    1.42539   1.43441    9.948
 6811.00    1.39641   1.43432    9.831
 6812.00    1.37686   1.43599    9.587
 6813.00    1.40607   1.43762    9.163
 6814.00    1.47300   1.43811    8.704
 6815.00    1.53282   1.43892    8.372
 6816.00    1.54089   1.43928    8.199
 6817.00    1.47192   1.44066    8.154
 6818.00    1.33928   1.44208    8.200
 6819.00    1.19800   1.44200    8.287
 6820.00    1.14019   1.44213    8.338
 6821.00    1.21942   1.44218    8.285
 6822.00    1.36410   1.44231    8.122
 6823.00    1.46898   1.44213    7.923
 6824.00    1.51475   1.44079    7.833
 6825.00    1.52909   1.43975    7.937
 6826.00    1.52572   1.43901    8.136
 6827.00    1.51171   1.43755    8.271
 6828.00    1.50239   1.43544    8.323
 6829.00    1.50683   1.43291    8.358
 6830.00    1.51212   1.43053    8.421
 6831.00    1.50601   1.42875    8.519
 6832.00    1.50077   1.42608    8.624
 6833.00    1.50883   1.42302    8.715
 6834.00    1.51653   1.42080    8.828
 6835.00    1.49934   1.41863    8.973
 6836.00    1.44178   1.41739    9.055
 6837.00    1.36029   1.41593    8.998
 6838.00    1.31707   1.41460    8.875
 6839.00    1.35268   1.41488    8.779
 6840.00    1.42698   1.41499    8.708
 6841.00    1.47913   1.41535    8.649
 6842.00    1.48652   1.41585    8.647
 6843.00    1.45833   1.41615    8.726
 6844.00    1.42283   1.41723    8.827
 6845.00    1.40281   1.41766    8.879
 6846.00    1.39738   1.41696    8.876
 6847.00    1.40020   1.41662    8.861
 6848.00    1.41420   1.41609    8.886
 6849.00    1.43619   1.41534    8.938
 6850.00    1.44728   1.41450    8.899
 6851.00    1.44368   1.41222    8.726
 6852.00    1.45476   1.41054    8.566
 6853.00    1.48865   1.40975    8.526
 6854.00    1.49896   1.40869    8.551
 6855.00    1.45591   1.40848    8.579
 6856.00    1.39366   1.40721    8.649
 6857.00    1.35691   1.40589    8.788
 6858.00    1.36122   1.40579    8.937
 6859.00    1.39986   1.40584    9.016
 6860.00    1.45173   1.40694    8.986
 6861.00    1.49058   1.40713    8.866
 6862.00    1.49489   1.40635    8.725
 6863.00    1.47253   1.40625    8.613
 6864.00    1.46571   1.40679    8.538
 6865.00    1.48192   1.40835    8.526
 6866.00    1.46609   1.40922    8.646
 6867.00    1.40254   1.40884    8.906
 6868.00    1.36006   1.40891    9.189
 6869.00    1.37832   1.40999    9.352
 6870.00    1.41354   1.41175    9.323
 6871.00    1.42792   1.41303    9.127
 6872.00    1.43519   1.41326    8.862
 6873.00    1.45511   1.41395    8.589
 6874.00    1.48791   1.41565    8.320
 6875.00    1.52197   1.41768    8.099
 6876.00    1.53924   1.41943    8.021
 6877.00    1.51815   1.42035    8.133
 6878.00    1.44368   1.42188    8.403
 6879.00    1.34989   1.42436    8.742
 6880.00    1.31907   1.42700    9.017
 6881.00    1.37350   1.42949    9.152
 6882.00    1.44410   1.43130    9.197
 6883.00    1.47825   1.43354    9.222
 6884.00    1.48224   1.43640    9.254
 6885.00    1.47232   1.43904    9.289
 6886.00    1.45419   1.44103    9.302
 6887.00    1.43695   1.44275    9.291
 6888.00    1.43593   1.44460    9.270
 6889.00    1.45629   1.44634    9.176
 6890.00    1.48865   1.44780    8.914
 6891.00    1.52101   1.44828    8.646
 6892.00    1.54226   1.44907    8.674
 6893.00    1.53551   1.45053    8.798
 6894.00    1.48526   1.45111    8.354
 6895.00    1.41494   1.45158    7.531
 6896.00    1.38309   1.45159    7.060
 6897.00    1.41348   1.45191    6.967
 6898.00    1.47770   1.45329    6.812
 6899.00    1.53120   1.45321    6.547
 6900.00    1.53634   1.45287    6.517
 6901.00    1.49319   1.45298    6.738
 6902.00    1.43863   1.45255    6.874
 6903.00    1.40572   1.45270    6.950
 6904.00    1.40683   1.45185    7.448
 6905.00    1.42664   1.45027    8.475
 6906.00    1.43599   1.44996    9.295
 6907.00    1.44210   1.44891    9.377
 6908.00    1.47880   1.44744    9.275
 6909.00    1.52656   1.44656    9.336
 6910.00    1.52401   1.44468    9.404
 6911.00    1.47778   1.44405    9.369
 6912.00    1.45520   1.44362    9.293
 6913.00    1.46525   1.44205    9.243
 6914.00    1.45965   1.44176    9.238
 6915.00    1.43594   1.44049    9.266
 6916.00    1.43571   1.43964    9.285
 6917.00    1.45843   1.43968    9.232
 6918.00    1.46486   1.43889    9.073
 6919.00    1.44960   1.43850    8.899
 6920.00    1.43990   1.43758    8.845
 6921.00    1.44206   1.43696    8.887
 6922.00    1.43872   1.43703    8.901
 6923.00    1.41751   1.43704    8.926
 6924.00    1.38126   1.43651    9.098
 6925.00    1.35386   1.43639    9.307
 6926.00    1.36416   1.43711    9.268
 6927.00    1.40610   1.43751    9.023
 6928.00    1.44985   1.43798    8.849
 6929.00    1.48744   1.43771    8.796
 6930.00    1.52356   1.43819    8.761
 6931.00    1.53348   1.43938    8.757
 6932.00    1.48524   1.43969    8.868
 6933.00    1.40498   1.43967    9.056
 6934.00    1.35436   1.43907    9.187
 6935.00    1.35592   1.43894    9.232
 6936.00    1.39217   1.43858    9.263
 6937.00    1.43553   1.43818    9.328
 6938.00    1.46259   1.43784    9.423
 6939.00    1.46939   1.43657    9.485
 6940.00    1.46550   1.43596    9.451
 6941.00    1.45757   1.43487    9.377
 6942.00    1.44844   1.43401    9.367
 6943.00    1.44092   1.43439    9.430
 6944.00    1.43585   1.43382    9.509
 6945.00    1.42777   1.43368    9.559
 6946.00    1.41297   1.43391    9.571
 6947.00    1.40386   1.43417    9.569
 6948.00    1.41526   1.43565    9.586
 6949.00    1.43856   1.43676    9.615
 6950.00    1.45283   1.43785    9.627
 6951.00    1.44928   1.43948    9.611
 6952.00    1.43422   1.44138    9.566
 6953.00    1.42643   1.44360    9.481
 6954.00    1.44032   1.44561    9.370
 6955.00    1.46243   1.44773    9.317
 6956.00    1.46846   1.44930    9.375
 6957.00    1.45303   1.45074    9.441
 6958.00    1.42736   1.45270    9.379
 6959.00    1.40949   1.45420    9.240
 6960.00    1.41333   1.45526    9.135
 6961.00    1.43593   1.45511    9.042
 6962.00    1.46099   1.45384    8.909
 6963.00    1.46675   1.45386    8.797
 6964.00    1.44059   1.45362    8.823
 6965.00    1.39563   1.45155    9.082
 6966.00    1.35930   1.44896    9.503
 6967.00    1.35542   1.44557    9.614
 6968.00    1.38864   1.44345    9.157
 6969.00    1.43041   1.44119    8.826
 6970.00    1.44695   1.43739    9.044
 6971.00    1.43327   1.43530    9.026
 6972.00    1.40548   1.43345    8.114
 6973.00    1.38598   1.43240    7.238
 6974.00    1.38594   1.43150    7.018
 6975.00    1.38983   1.43028    7.190
 6976.00    1.38329   1.43224    7.310
 6977.00    1.38231   1.43446    7.235
 6978.00    1.40535   1.43647    7.065
 6979.00    1.44268   1.43910    6.932
 6980.00    1.47253   1.44081    6.867
 6981.00    1.48088   1.44410    6.750
 6982.00    1.46625   1.44751    6.628
 6983.00    1.44141   1.44997    6.955
 6984.00    1.42045   1.45243    8.124
 6985.00    1.40699   1.45299    9.616
 6986.00    1.39995   1.45373   10.003
 6987.00    1.39961   1.45513    9.582
 6988.00    1.40567   1.45555    9.425
 6989.00    1.41500   1.45539    9.563
 6990.00    1.42304   1.45332    9.672
 6991.00    1.42551   1.45120    9.620
 6992.00    1.42358   1.45060    9.474
 6993.00    1.42576   1.44957    9.412
 6994.00    1.42903   1.44771    9.494
 6995.00    1.40929   1.44451    9.532
 6996.00    1.37064   1.44153    9.387
 6997.00    1.37307   1.44054    9.199
 6998.00    1.43603   1.43977    9.103
 6999.00    1.47945   1.43792    9.065
 7000.00    1.45285   1.43582    9.034
 7001.00    1.41833   1.43412   -2.000
 7002.00    1.42779   1.43295   -2.000
 7003.00    1.44284   1.43250   -2.000
 7004.00    1.42670   1.43167   -2.000
 7005.00    1.40377   1.43122   -2.000
 7006.00    1.39993   1.43054   -2.000
 7007.00    1.40471   1.42821   -2.000
 7008.00    1.40686   1.42770   -2.000
 7009.00    1.41482   1.42856   -2.000
 7010.00    1.42749   1.42871   -2.000
 7011.00    1.42180   1.42825   -2.000
 7012.00    1.39597   1.42615   -2.000
 7013.00    1.38721   1.42620   -2.000
 7014.00    1.41389   1.42855   -2.000
 7015.00    1.44800   1.42897   -2.000
 7016.00    1.46217   1.42926   -2.000
 7017.00    1.45485   1.43016   -2.000
 7018.00    1.43167   1.43120   -2.000
 7019.00    1.39675   1.43279   -2.000
 7020.00    1.36580   1.43343   -2.000
 7021.00    1.36596   1.43477   -2.000
 7022.00    1.39609   1.43772   -2.000
 7023.00    1.41793   1.43926   -2.000
 7024.00    1.41852   1.44049   -2.000
 7025.00    1.42940   1.44225   -2.000
 7026.00    1.46041   1.44410   -2.000
 7027.00    1.47870   1.44744   -2.000
 7028.00    1.46862   1.44964   -2.000
 7029.00    1.45092   1.45071   -2.000
 7030.00    1.43489   1.45336   -2.000
 7031.00    1.40632   1.45645   -2.000
 7032.00    1.37591   1.46048   -2.000
 7033.00    1.38419   1.46373   -2.000
 7034.00    1.42744   1.46462   -2.000
 7035.00    1.44791   1.46718   -2.000
 7036.00    1.42965   1.47137   -2.000
 7037.00    1.41831   1.47481   -2.000
 7038.00    1.43468   1.47686   -2.000
 7039.00    1.45329   1.47773   -2.000
 7040.00    1.46087   1.47795   -2.000
 7041.00    1.46969   1.47764   -2.000
 7042.00    1.47743   1.47725   -2.000
 7043.00    1.46413   1.47505   -2.000
 7044.00    1.43867   1.47191   -2.000
 7045.00    1.43694   1.46797   -2.000
 7046.00    1.45388   1.46226   -2.000
 7047.00    1.44446   1.45736   -2.000
 7048.00    1.41134   1.45099   -2.000
 7049.00    1.40424   1.44363   -2.000
 7050.00    1.41533   1.43736   -2.000
 7051.00    1.38304   1.43001   -2.000
 7052.00    1.31845   1.42430   -2.000
 7053.00    1.30144   1.41919   -2.000
 7054.00    1.33875   1.41290   -2.000
 7055.00    1.35978   1.40801   -2.000
 7056.00    1.34189   1.40299   -2.000
 7057.00    1.32363   1.39959   -2.000
 7058.00    1.32835   1.39797   -2.000
 7059.00    1.34752   1.39481   -2.000
 7060.00    1.36055   1.39345   -2.000
 7061.00    1.34963   1.39346   -2.000
 7062.00    1.32306   1.39284   -2.000
 7063.00    1.30708   1.39334   -2.000
 7064.00    1.30721   1.39341   -2.000
 7065.00    1.30850   1.39443   -2.000
 7066.00    1.30346   1.39760   -2.000
 7067.00    1.29843   1.39919   -2.000
 7068.00    1.31015   1.39995   -2.000
 7069.00    1.35064   1.40151   -2.000
 7070.00    1.39424   1.40222   -2.000
 7071.00    1.39769   1.40297   -2.000
 7072.00    1.36503   1.40278   -2.000
 7073.00    1.33792   1.40089   -2.000
 7074.00    1.33860   1.39966   -2.000
 7075.00    1.36092   1.39628   -2.000
 7076.00    1.38088   1.39187   -2.000
 7077.00    1.37294   1.38872   -2.000
 7078.00    1.33872   1.38319   -2.000
 7079.00    1.30111   1.37750   -2.000
 7080.00    1.27895   1.37128   -2.000
 7081.00    1.27908   1.36420   -2.000
 7082.00    1.29160   1.36086   -2.000
 7083.00    1.30000   1.35595   -2.000
 7084.00    1.30208   1.34985   -2.000
 7085.00    1.30625   1.34652   -2.000
 7086.00    1.31690   1.34225   -2.000
 7087.00    1.33284   1.34066   -2.000
 7088.00    1.34965   1.33997   -2.000
 7089.00    1.35932   1.33734   -2.000
 7090.00    1.34960   1.33796   -2.000
 7091.00    1.31712   1.33812   -2.000
 7092.00    1.28874   1.33858   -2.000
 7093.00    1.29362   1.34022   -2.000
 7094.00    1.31287   1.34024   -2.000
 7095.00    1.30829   1.34234   -2.000
 7096.00    1.28120   1.34419   -2.000
 7097.00    1.26027   1.34488   -2.000
 7098.00    1.26709   1.34558   -2.000
 7099.00    1.30067   1.34562   -2.000
 7100.00    1.32464   1.34703   -2.000
 7101.00    1.30783   1.34828   -2.000
 7102.00    1.28333   1.34780   -2.000
 7103.00    1.29657   1.34702   -2.000
 7104.00    1.32268   1.34709   -2.000
 7105.00    1.31723   1.34785   -2.000
 7106.00    1.29911   1.34775   -2.000
 7107.00    1.30769   1.34689   -2.000
 7108.00    1.33268   1.34624   -2.000
 7109.00    1.34341   1.34677   -2.000
 7110.00    1.33739   1.34688   -2.000
 7111.00    1.32539   1.34603   -2.000
 7112.00    1.30582   1.34585   -2.000
 7113.00    1.27749   1.34465   -2.000
 7114.00    1.25762   1.34383   -2.000
 7115.00    1.26456   1.34319   -2.000
 7116.00    1.29558   1.34131   -2.000
 7117.00    1.33555   1.34034   -2.000
 7118.00    1.36986   1.33759   -2.000
 7119.00    1.38615   1.33535   -2.000
 7120.00    1.37568   1.33516   -2.000
 7121.00    1.34664   1.33234   -2.000
 7122.00    1.33429   1.33001   -2.000
 7123.00    1.35510   1.32861   -2.000
 7124.00    1.36454   1.32748   -2.000
 7125.00    1.33643   1.32837   -2.000
 7126.00    1.33706   1.32692   -2.000
 7127.00    1.40836   1.32551   -2.000
 7128.00    1.45992   1.32757   -2.000
 7129.00    1.41673   1.32903   -2.000
 7130.00    1.35533   1.33040   -2.000
 7131.00    1.35726   1.33138   -2.000
 7132.00    1.37437   1.33219   -2.000
 7133.00    1.34799   1.33505   -2.000
 7134.00    1.31730   1.33708   -2.000
 7135.00    1.33198   1.33739   -2.000
 7136.00    1.37350   1.33802   -2.000
 7137.00    1.40203   1.34027   -2.000
 7138.00    1.40135   1.34159   -2.000
 7139.00    1.37799   1.34140   -2.000
 7140.00    1.35454   1.34225   -2.000
 7141.00    1.34361   1.34276   -2.000
 7142.00    1.33146   1.34439   -2.000
 7143.00    1.31183   1.34542   -2.000
 7144.00    1.30774   1.34445   -2.000
 7145.00    1.33042   1.34686   -2.000
 7146.00    1.35312   1.34887   -2.000
 7147.00    1.35508   1.34930   -2.000
 7148.00    1.34992   1.35105   -2.000
 7149.00    1.35004   1.35202   -2.000
 7150.00    1.34517   1.35407   -2.000
 7151.00    1.33681   1.35463   -2.000
 7152.00    1.35440   1.35382   -2.000
 7153.00    1.39893   1.35545   -2.000
 7154.00    1.41785   1.35591   -2.000
 7155.00    1.38956   1.35549   -2.000
 7156.00    1.36400   1.35444   -2.000
 7157.00    1.36870   1.35345   -2.000
 7158.00    1.36256   1.35455   -2.000
 7159.00    1.32042   1.35419   -2.000
 7160.00    1.27619   1.35299   -2.000
 7161.00    1.26508   1.35245   -2.000
 7162.00    1.28884   1.35320   -2.000
 7163.00    1.31998   1.35498   -2.000
 7164.00    1.31608   1.35521   -2.000
 7165.00    1.27922   1.35533   -2.000
 7166.00    1.26987   1.35630   -2.000
 7167.00    1.30892   1.35691   -2.000
 7168.00    1.34287   1.35765   -2.000
 7169.00    1.33736   1.35747   -2.000
 7170.00    1.31547   1.35694   -2.000
 7171.00    1.30158   1.35721   -2.000
 7172.00    1.29792   1.35528   -2.000
 7173.00    1.31216   1.35353   -2.000
 7174.00    1.35949   1.35332   -2.000
 7175.00    1.40826   1.35073   -2.000
 7176.00    1.38312   1.34824   -2.000
 7177.00    1.29223   1.34556   -2.000
 7178.00    1.24600   1.34285   -2.000
 7179.00    1.28519   1.34316   -2.000
 7180.00    1.33564   1.34073   -2.000
 7181.00    1.34187   1.33752   -2.000
 7182.00    1.31410   1.33702   -2.000
 7183.00    1.27995   1.33530   -2.000
 7184.00    1.25916   1.33482   -2.000
 7185.00    1.24764   1.33423   -2.000
 7186.00    1.22733   1.33358   -2.000
 7187.00    1.22593   1.33556   -2.000
 7188.00    1.30698   1.33583   -2.000
 7189.00    1.44950   1.33540   -2.000
 7190.00    1.54571   1.33616   -2.000
 7191.00    1.55503   1.33808   -2.000
 7192.00    1.52919   1.34025   -2.000
 7193.00    1.50174   1.34053   -2.000
 7194.00    1.46622   1.34127   -2.000
 7195.00    1.43659   1.34183   -2.000
 7196.00    1.44463   1.34301   -2.000
 7197.00    1.46456   1.34404   -2.000
 7198.00    1.42387   1.34298   -2.000
 7199.00    1.31546   1.34427   -2.000
 7200.00    1.20815   1.34503   -2.000
 7201.00    1.16782   1.34487   -2.000
 7202.00    1.21998   1.34562   -2.000
 7203.00    1.31596   1.34416   -2.000
 7204.00    1.36441   1.34528   -2.000
 7205.00    1.34718   1.34763   -2.000
 7206.00    1.31894   1.34822   -2.000
 7207.00    1.31243   1.35045   -2.000
 7208.00    1.32150   1.35141   -2.000
 7209.00    1.32933   1.35262   -2.000
 7210.00    1.32180   1.35566   -2.000
 7211.00    1.30077   1.35721   -2.000
 7212.00    1.28078   1.35952   -2.000
 7213.00    1.27191   1.36291   -2.000
 7214.00    1.27692   1.36521   -2.000
 7215.00    1.29516   1.36795   -2.000
 7216.00    1.32375   1.37004   -2.000
 7217.00    1.35803   1.37175   -2.000
 7218.00    1.38913   1.37547   -2.000
