###################################################################
## OUTPUT of StarlightChains_v04.for    [Cid@UFSC - 01/Apr/2007] ##
###################################################################

## Some input info
2007ay.txt                               [arq_obs]
Base.CB07.vall.4m                        [arq_base]
Masks.EmLines.NEW.gm                     [arq_masks]
StCv04.C11.config                        [arq_config]
   66                                    [N_base]
    0                                    [N_YAV_components = # of components with extra extinction!]
    0                                    [i_FitPowerLaw (1/0 = Yes/No)]
-9.99                                    [alpha_PowerLaw]
CCM                                      [red_law_option]
 1.458241                                [q_norm = A(l_norm)/A(V)]

## (Re)Sampling Parameters
 3741.00                                 [l_ini (A)]
 7218.00                                 [l_fin (A)]
    1.00                                 [dl    (A)]     (OBS: dl_cushion =    50.00 A)

## Normalization info
 4020.00                                 [l_norm (A) - for base]
 4010.00                                 [llow_norm (A) - window for f_obs]
 4060.00                                 [lupp_norm (A) - window for f_obs]
2.649741E-17                             [fobs_norm (in input units)]

## S/N
 3691.00                                 [llow_SN (A) - window for S/N]
 7268.00                                 [lupp_SN (A) - window for S/N]
   3.152                                 [S/N in S/N window]
   3.624                                 [S/N in norm. window]
  10.000                                 [S/N_err in S/N window]
  11.497                                 [S/N_err in norm. window]
  1.0000                                 [fscale_chi2]

## etc...
    -2007329                             [idum_orig]
  2380                                   [NOl_eff]
  1938                                   [Nl_eff]
   442    NSIGMA                         [Ntot_cliped & clip_method]
   404390                                [Nglobal_steps]
   7                                     [N_chains]
   7                                     [NEX0s_base = N_base in EX0s-fits]
 0   0   1       21   2.0   3.305E+01    [Clip-Bug, RC-Crash & Burn-In warning-flags, n_censored_weights, wei_nsig_threshold & wei_limit]
    11     11.823     11.317      0.506  [idt_all, wdt_TotTime, wdt_UsrTime & wdt_SysTime (sec)]

## Synthesis Results - Best model ##

 2.03881E+00                             [chi2/Nl_eff]
    11.78270                             [adev (%)]

   106.76477                             [sum-of-x (%)]
 7.38474E-18                             [Flux_tot (units of input spectrum!)]
 1.24015E-13                             [Mini_tot (???)]
 7.02964E-14                             [Mcor_tot (???)]

  21.49                                  [v0_min  (km/s)]
 223.87                                  [vd_min  (km/s)]
-1.0000                                  [AV_min  (mag)]
 0.0000                                  [YAV_min (mag)]

# j     x_j(%)      Mini_j(%)     Mcor_j(%)     age_j(yr)     Z_j      (L/M)_j    YAV?  Mstars   component_j        a/Fe...       SSP_chi2r SSP_adev(%)   SSP_AV   SSP_x(%)
  1      0.0000     0.0000E+00    0.0000E+00    1.000000E+06  0.00400  1.094E-02    0   1.0000   age020_m42            0.0000     3.0253E+00    13.3285   2.5159    88.3405
  2      0.0000     0.0000E+00    0.0000E+00    3.160000E+06  0.00400  4.007E-02    0   0.9999   age045_m42            0.0000     2.8878E+00    13.3174   1.7819    94.6833
  3      0.0000     0.0000E+00    0.0000E+00    5.010000E+06  0.00400  2.539E-02    0   0.9488   age055_m42            0.0000     2.9631E+00    13.3432   2.1057    92.2102
  4      0.0000     0.0000E+00    0.0000E+00    6.610000E+06  0.00400  2.620E-02    0   0.9220   age061_m42            0.0000     2.9259E+00    13.3883   1.7051    94.9640
  5      0.0000     0.0000E+00    0.0000E+00    1.000000E+07  0.00400  1.322E-02    0   0.8862   age070_m42            0.0000     3.2856E+00    14.1956   1.4101    97.0566
  6      0.0000     0.0000E+00    0.0000E+00    1.445000E+07  0.00400  7.883E-03    0   0.8571   age078_m42            0.0000     3.2823E+00    14.1147   1.7407    94.5172
  7      0.0000     0.0000E+00    0.0000E+00    2.512000E+07  0.00400  5.251E-03    0   0.8174   age090_m42            0.0000     3.3541E+00    14.3711   1.2771    97.6403
  8      0.0000     0.0000E+00    0.0000E+00    4.000000E+07  0.00400  3.649E-03    0   0.7851   age104_m42            0.0000     3.2673E+00    14.2422   1.0479    98.6080
  9      0.0000     0.0000E+00    0.0000E+00    5.500000E+07  0.00400  3.098E-03    0   0.7629   age110_m42            0.0000     3.1075E+00    13.8755   1.2077    98.5421
 10      0.0000     0.0000E+00    0.0000E+00    1.015200E+08  0.00400  2.228E-03    0   0.7207   age116_m42            0.0000     3.0162E+00    13.6566   1.2305    98.7377
 11      0.0000     0.0000E+00    0.0000E+00    2.861200E+08  0.00400  1.093E-03    0   0.6648   age125_m42            0.0000     3.1690E+00    14.1275   0.6473   102.0739
 12      0.0000     0.0000E+00    0.0000E+00    5.088000E+08  0.00400  6.597E-04    0   0.6365   age130_m42            0.0000     2.9542E+00    13.6662   0.6417   103.0085
 13      0.0000     0.0000E+00    0.0000E+00    1.434000E+09  0.00400  2.132E-04    0   0.5798   age139_m42            0.0000     2.6339E+00    13.1508  -0.3353   105.6615
 14      0.0000     0.0000E+00    0.0000E+00    4.250000E+09  0.00400  5.895E-05    0   0.5377   age158_m42            0.0000     2.2934E+00    12.4361  -0.7756   102.1044
 15      0.0000     0.0000E+00    0.0000E+00    7.500000E+09  0.00400  3.510E-05    0   0.5212   age171_m42            0.0000     2.2191E+00    12.2507  -0.9625   101.5505
 16      0.0000     0.0000E+00    0.0000E+00    1.300000E+10  0.00400  2.005E-05    0   0.5034   age193_m42            0.0000     2.2410E+00    12.3417  -1.0000    96.0316
 17      0.0000     0.0000E+00    0.0000E+00    1.800000E+10  0.00400  1.525E-05    0   0.4967   age213_m42            0.0000     2.2844E+00    12.4598  -1.0000    94.6700
 18      0.0000     0.0000E+00    0.0000E+00    1.000000E+06  0.00800  1.238E-02    0   1.0000   age020_m52            0.0000     3.0216E+00    13.3199   2.5122    88.5190
 19      0.0000     0.0000E+00    0.0000E+00    3.160000E+06  0.00800  3.074E-02    0   0.9966   age045_m52            0.0000     2.9930E+00    13.2808   2.4360    89.3128
 20      0.0000     0.0000E+00    0.0000E+00    5.010000E+06  0.00800  2.668E-02    0   0.9443   age055_m52            0.0000     2.9744E+00    13.3387   2.1870    91.4454
 21      0.0000     0.0000E+00    0.0000E+00    6.610000E+06  0.00800  2.136E-02    0   0.9177   age061_m52            0.0000     3.0725E+00    13.8547   0.9048    98.6080
 22      0.0000     0.0000E+00    0.0000E+00    1.000000E+07  0.00800  1.215E-02    0   0.8827   age070_m52            0.0000     3.4267E+00    14.4772   1.5840    96.9328
 23      0.0000     0.0000E+00    0.0000E+00    1.445000E+07  0.00800  8.717E-03    0   0.8552   age078_m52            0.0000     3.2690E+00    14.1153   1.7042    95.8990
 24      0.0000     0.0000E+00    0.0000E+00    2.512000E+07  0.00800  5.592E-03    0   0.8162   age090_m52            0.0000     3.3745E+00    14.4346   1.3378    98.9080
 25      0.0000     0.0000E+00    0.0000E+00    4.000000E+07  0.00800  3.896E-03    0   0.7841   age104_m52            0.0000     3.2746E+00    14.2678   1.2497    99.7852
 26      0.0000     0.0000E+00    0.0000E+00    1.015200E+08  0.00800  2.148E-03    0   0.7226   age116_m52            0.0000     3.0595E+00    13.8276   1.1913    99.7325
 27      0.0000     0.0000E+00    0.0000E+00    2.861200E+08  0.00800  9.925E-04    0   0.6683   age125_m52            0.0000     2.9380E+00    13.6155   0.7048   104.0664
 28      0.0000     0.0000E+00    0.0000E+00    9.047900E+08  0.00800  3.141E-04    0   0.6138   age135_m52            0.0000     2.5524E+00    13.0162  -0.1020   109.2772
 29      0.0000     0.0000E+00    0.0000E+00    1.434000E+09  0.00800  1.719E-04    0   0.5853   age139_m52            0.0000     2.4582E+00    12.8445  -0.6843   107.3032
 30      0.0000     0.0000E+00    0.0000E+00    2.500000E+09  0.00800  7.872E-05    0   0.5600   age150_m52            0.0000     2.1989E+00    12.2097  -0.9438   104.5142
 31      0.0000     0.0000E+00    0.0000E+00    4.250000E+09  0.00800  4.336E-05    0   0.5426   age158_m52            0.0000     2.1853E+00    12.1819  -0.9605   103.6311
 32      0.0000     0.0000E+00    0.0000E+00    6.250000E+09  0.00800  3.159E-05    0   0.5319   age166_m52            0.0000     2.2248E+00    12.3147  -1.0000    97.1726
 33      0.0000     0.0000E+00    0.0000E+00    1.300000E+10  0.00800  1.361E-05    0   0.5073   age193_m52            0.0000     3.4606E+00    14.9542  -1.0000    78.7352
 34      0.0000     0.0000E+00    0.0000E+00    1.800000E+10  0.00800  9.886E-06    0   0.4990   age213_m52            0.0000     3.8773E+00    15.7364  -1.0000    74.6675
 35      0.0000     0.0000E+00    0.0000E+00    1.000000E+06  0.02000  1.544E-02    0   1.0000   age020_m62            0.0000     3.0256E+00    13.3264   2.5100    88.6665
 36      0.0000     0.0000E+00    0.0000E+00    3.160000E+06  0.02000  3.762E-02    0   0.9858   age045_m62            0.0000     3.0120E+00    13.3013   2.4487    89.4766
 37      0.0000     0.0000E+00    0.0000E+00    5.010000E+06  0.02000  3.296E-02    0   0.9342   age055_m62            0.0000     2.8921E+00    13.2186   2.0642    93.4746
 38      0.0000     0.0000E+00    0.0000E+00    8.710000E+06  0.02000  1.154E-02    0   0.8861   age067_m62            0.0000     4.5274E+00    16.7492   1.0126    99.6073
 39      0.0000     0.0000E+00    0.0000E+00    1.445000E+07  0.02000  7.663E-03    0   0.8472   age078_m62            0.0000     3.7107E+00    15.1628   1.2195    99.3079
 40      0.0000     0.0000E+00    0.0000E+00    2.512000E+07  0.02000  4.532E-03    0   0.8099   age090_m62            0.0000     3.8094E+00    15.3627   1.2099    99.0172
 41      0.0000     0.0000E+00    0.0000E+00    5.500000E+07  0.02000  2.733E-03    0   0.7595   age110_m62            0.0000     3.2733E+00    14.2278   1.2337    99.0243
 42      0.0000     0.0000E+00    0.0000E+00    1.609000E+08  0.02000  1.369E-03    0   0.6985   age120_m62            0.0000     3.0611E+00    13.7749   1.0747   101.8970
 43      0.0000     0.0000E+00    0.0000E+00    2.861200E+08  0.02000  9.013E-04    0   0.6714   age125_m62            0.0000     2.9429E+00    13.5701   0.8221   105.0807
 44      0.0000     0.0000E+00    0.0000E+00    5.088000E+08  0.02000  5.028E-04    0   0.6449   age130_m62            0.0000     2.6300E+00    13.0234   0.4429   108.3927
 45      0.0000     0.0000E+00    0.0000E+00    9.047900E+08  0.02000  2.428E-04    0   0.6179   age135_m62            0.0000     2.3440E+00    12.5041  -0.1512   108.4978
 46      0.0000     0.0000E+00    0.0000E+00    1.434000E+09  0.02000  1.263E-04    0   0.5908   age139_m62            0.0000     2.2278E+00    12.2616  -0.5967   107.1883
 47      0.0000     0.0000E+00    0.0000E+00    2.500000E+09  0.02000  5.985E-05    0   0.5673   age150_m62            0.0000     2.0997E+00    11.9473  -0.9589   105.9061
 48      0.0000     0.0000E+00    0.0000E+00    4.250000E+09  0.02000  3.271E-05    0   0.5468   age158_m62            0.0000     2.2860E+00    12.4116  -1.0000    94.4491
 49      0.0000     0.0000E+00    0.0000E+00    1.000000E+10  0.02000  1.360E-05    0   0.5167   age181_m62            0.0000     3.3136E+00    14.5244  -1.0000    80.8265
 50      0.0000     0.0000E+00    0.0000E+00    1.800000E+10  0.02000  7.124E-06    0   0.5013   age213_m62            0.0000     4.2177E+00    16.2307  -1.0000    72.8811
 51      0.0000     0.0000E+00    0.0000E+00    1.000000E+06  0.05000  2.592E-02    0   0.9998   age020_m72            0.0000     3.0549E+00    13.3720   2.5004    88.7176
 52      0.0000     0.0000E+00    0.0000E+00    3.160000E+06  0.05000  4.845E-02    0   0.9577   age045_m72            0.0000     2.9408E+00    13.2117   2.3296    90.7787
 53      0.0000     0.0000E+00    0.0000E+00    5.010000E+06  0.05000  3.072E-02    0   0.9147   age055_m72            0.0000     3.5004E+00    14.5687   1.8175    95.3941
 54      0.0000     0.0000E+00    0.0000E+00    6.610000E+06  0.05000  1.455E-02    0   0.8877   age061_m72            0.0000     5.5727E+00    18.7115   1.0417   100.6377
 55      0.0000     0.0000E+00    0.0000E+00    1.000000E+07  0.05000  9.074E-03    0   0.8524   age070_m72            0.0000     3.7356E+00    14.9692   1.9993    95.1392
 56      0.0000     0.0000E+00    0.0000E+00    2.512000E+07  0.05000  4.250E-03    0   0.7902   age090_m72            0.0000     3.5975E+00    14.8436   1.6941    97.0598
 57      0.0000     0.0000E+00    0.0000E+00    4.000000E+07  0.05000  3.087E-03    0   0.7618   age104_m72            0.0000     3.6728E+00    15.0617   1.4620    98.7398
 58      0.0000     0.0000E+00    0.0000E+00    1.015200E+08  0.05000  1.700E-03    0   0.7096   age116_m72            0.0000     3.2316E+00    14.1468   1.2127   101.4718
 59      0.0000     0.0000E+00    0.0000E+00    2.861200E+08  0.05000  7.384E-04    0   0.6633   age125_m72            0.0000     2.7821E+00    13.2808   0.6886   106.8231
 60      0.0000     0.0000E+00    0.0000E+00    5.088000E+08  0.05000  3.819E-04    0   0.6372   age130_m72            0.0000     2.4099E+00    12.5641   0.1933   109.2253
 61     41.3002     1.3744E+01    1.4815E+01    9.047900E+08  0.05000  1.676E-04    0   0.6110   age135_m72            0.0000     2.0905E+00    11.8755  -0.4999   107.8316
 62      0.0000     0.0000E+00    0.0000E+00    1.434000E+09  0.05000  8.837E-05    0   0.5874   age139_m72            0.0000     2.0906E+00    11.9133  -0.9613   107.6268
 63     65.4646     8.6256E+01    8.5185E+01    2.500000E+09  0.05000  4.233E-05    0   0.5598   age150_m72            0.0000     2.2796E+00    12.3755  -1.0000    95.3481
 64      0.0000     0.0000E+00    0.0000E+00    6.250000E+09  0.05000  1.435E-05    0   0.5249   age166_m72            0.0000     3.6962E+00    15.2808  -1.0000    77.0586
 65      0.0000     0.0000E+00    0.0000E+00    1.300000E+10  0.05000  6.513E-06    0   0.5036   age193_m72            0.0000     5.0567E+00    17.7155  -1.0000    68.2746
 66      0.0000     0.0000E+00    0.0000E+00    1.800000E+10  0.05000  4.527E-06    0   0.4945   age213_m72            0.0000     5.9479E+00    19.1505  -1.0000    63.0834


## Synthesis Results - Average & Chains ##

# j      x_j: min, <> & last-chain-values for 1 ...  7 chains
  1      0.0000      0.0056      0.0000      0.0000      0.0000      0.0000      0.0000      0.0000      0.0000
  2      0.0000      0.0184      0.0000      0.0342      0.0000      0.0000      0.0000      0.0000      0.0000
  3      0.0000      0.0130      0.0000      0.0000      0.0000      0.0000      0.0000      0.0000      0.0000
  4      0.0000      0.0224      0.0000      0.0000      0.0000      0.0000      0.0000      0.0000      0.0000
  5      0.0000      0.0090      0.0000      0.0992      0.0000      0.0000      0.0000      0.0000      0.0000
  6      0.0000      0.0206      0.0000      0.0000      0.0000      0.0000      0.0023      0.0000      0.0000
  7      0.0000      0.0128      0.0000      0.0000      0.0000      0.0000      0.0000      0.0000      0.0000
  8      0.0000      0.0160      0.0000      0.0000      0.0000      0.0000      0.0000      0.0000      0.0000
  9      0.0000      0.0251      0.0000      0.0000      0.0000      0.1649      0.0000      0.0000      0.0000
 10      0.0000      0.0089      0.0000      0.0000      0.0000      0.0000      0.0000      0.0000      0.0000
 11      0.0000      0.0189      0.0000      0.0000      0.0000      0.0000      0.0000      0.0000      0.0000
 12      0.0000      0.0457      0.0000      0.3611      0.0000      0.0000      0.0000      0.0000      0.0000
 13      0.0000      0.0660      0.0000      0.0000      0.0000      0.0000      0.0000      0.0000      0.0000
 14      0.0000      0.1632      0.0000      0.0000      0.0000      0.0000      0.0000      0.0000      0.0000
 15      0.0000      0.2313      0.0000      0.0000      0.0000      0.0000      0.0000      1.0766      0.0000
 16      0.0000      0.2030      0.0000      0.0000      0.0000      0.0000      0.0000      0.0000      0.3771
 17      0.0000      0.1264      0.4852      0.0000      0.0000      0.0000      0.0000      0.0000      0.0000
 18      0.0000      0.0072      0.0000      0.0000      0.0000      0.0000      0.0000      0.0000      0.0000
 19      0.0000      0.0036      0.0000      0.0000      0.0000      0.0000      0.0000      0.0000      0.0000
 20      0.0000      0.0169      0.0000      0.0000      0.0000      0.0000      0.0000      0.0000      0.0000
 21      0.0000      0.0182      0.0000      0.0000      0.0000      0.0000      0.0000      0.0000      0.0000
 22      0.0000      0.0224      0.0000      0.0000      0.0000      0.0000      0.0000      0.0000      0.0000
 23      0.0000      0.0136      0.0000      0.0000      0.0000      0.0000      0.0000      0.0000      0.0000
 24      0.0000      0.0143      0.0000      0.0000      0.0000      0.0000      0.0000      0.0000      0.0000
 25      0.0000      0.0098      0.0000      0.1778      0.0000      0.0000      0.0000      0.0000      0.0000
 26      0.0000      0.0509      0.0000      0.0000      0.0000      0.0000      0.0000      0.0000      0.0000
 27      0.0000      0.0231      0.0000      0.0000      0.0000      0.0000      0.0000      0.0000      0.0000
 28      0.0000      0.0428      0.0000      0.0000      0.0000      0.0000      0.0000      0.0000      0.0000
 29      0.0000      0.0270      0.0000      0.0000      0.0000      0.0051      0.0000      0.0000      0.0596
 30      0.0000      0.1832      0.0000      0.0000      0.0000      0.0000      0.0000      0.0000      0.7345
 31      0.0000      0.1522      0.0000      0.0000      0.0000      0.1408      0.0000      0.0000      0.0000
 32      0.0000      0.2587      0.0000      0.0000      0.0000      1.9785      0.0600      0.0000      0.0000
 33      0.0000      0.0553      0.0000      0.0000      0.0000      0.0000      0.0000      0.0000      0.0000
 34      0.0000      0.0760      0.0000      0.0000      0.0000      0.0000      0.0000      0.0000      0.0000
 35      0.0000      0.0144      0.0000      0.0000      0.0000      0.0000      0.0000      0.0000      0.0000
 36      0.0000      0.0090      0.0000      0.0000      0.0000      0.0000      0.0000      0.0000      0.0000
 37      0.0000      0.0092      0.0000      0.0000      0.0000      0.0000      0.0000      0.0000      0.0000
 38      0.0000      0.0117      0.0000      0.0000      0.0000      0.0000      0.0000      0.0000      0.0000
 39      0.0000      0.0114      0.0000      0.0000      0.0000      0.0000      0.0000      0.0000      0.0000
 40      0.0000      0.0077      0.0000      0.0000      0.0000      0.0000      0.0000      0.0000      0.0000
 41      0.0000      0.0178      0.0000      0.0000      0.0000      0.0000      0.0000      0.0000      0.0000
 42      0.0000      0.0168      0.0000      0.0000      0.0000      0.0000      0.0000      0.0000      0.0000
 43      0.0000      0.0540      0.0000      0.0000      0.0000      0.0000      0.0000      0.0000      0.0000
 44      0.0000      0.0358      0.0000      0.0000      0.0000      0.0000      0.0000      0.1210      0.0000
 45      0.0000      0.0979      0.0000      0.0000      0.0000      0.0000      0.0000      0.0000      0.0000
 46      0.0000      0.2966      0.0000      0.0000      0.0000      0.0000      0.0000      0.1484      0.0000
 47      0.0000      1.0158      1.6681      0.0000      0.5643      0.0000      0.0000      0.2597      0.7342
 48      0.0000     17.4680     35.6033     24.9485     21.4548     17.3976     15.8841     15.9903     15.7614
 49      0.0000      0.7110      0.0000      1.5977      4.6653      1.1828      0.0000      0.8064      1.6584
 50      0.0000      0.1964      0.3032      0.0000      0.0000      0.0000      0.4595      0.4946      0.3080
 51      0.0000      0.0033      0.0000      0.0000      0.0000      0.0000      0.0000      0.0000      0.0000
 52      0.0000      0.0086      0.0000      0.0000      0.0000      0.0000      0.0000      0.0000      0.0000
 53      0.0000      0.0175      0.0000      0.0000      0.0000      0.0000      0.0000      0.0000      0.0000
 54      0.0000      0.0127      0.0000      0.0000      0.0000      0.0000      0.0000      0.0000      0.0000
 55      0.0000      0.0083      0.0000      0.0000      0.0000      0.0000      0.0000      0.0000      0.0000
 56      0.0000      0.0062      0.0000      0.0000      0.0000      0.0000      0.0000      0.0000      0.0000
 57      0.0000      0.0153      0.0000      0.0000      0.0000      0.0000      0.0000      0.0000      0.0000
 58      0.0000      0.0115      0.0000      0.0000      0.0000      0.0000      0.0000      0.0000      0.0000
 59      0.0000      0.0220      0.0000      0.0000      0.0000      0.0000      0.0000      0.0000      0.0000
 60      0.0000      0.0680      0.0000      0.0000      0.0000      0.0000      0.5194      0.0000      0.0000
 61     41.3002     61.3230     44.0706     54.4391     61.9855     62.9355     63.6093     63.9584     64.0919
 62      0.0000      1.0634      0.0000      0.0000      0.4664      0.9170      0.0000      0.0000      0.0000
 63     65.4646     21.1265     23.5411     23.1177     17.5195     22.0316     23.5108     23.5998     22.7312
 64      0.0000      0.6178      0.0000      0.3829      0.0000      0.0000      0.0000      0.0000      0.0000
 65      0.0000      0.2582      0.7765      0.7580      0.2550      0.0000      1.7405      0.0000      0.1027
 66      0.0000      0.0587      0.0000      0.0000      0.0000      0.0000      0.7975      0.0000      0.0000

# j      m_j: min, <> & last-chain-values for 1 ...  7 chains
  1  0.0000E+00  5.4633E-05  0.0000E+00  0.0000E+00  0.0000E+00  0.0000E+00  0.0000E+00  0.0000E+00  0.0000E+00
  2  0.0000E+00  4.9299E-05  0.0000E+00  8.0934E-05  0.0000E+00  0.0000E+00  0.0000E+00  0.0000E+00  0.0000E+00
  3  0.0000E+00  5.2143E-05  0.0000E+00  0.0000E+00  0.0000E+00  0.0000E+00  0.0000E+00  0.0000E+00  0.0000E+00
  4  0.0000E+00  8.4648E-05  0.0000E+00  0.0000E+00  0.0000E+00  0.0000E+00  0.0000E+00  0.0000E+00  0.0000E+00
  5  0.0000E+00  6.4659E-05  0.0000E+00  6.3013E-04  0.0000E+00  0.0000E+00  0.0000E+00  0.0000E+00  0.0000E+00
  6  0.0000E+00  2.4009E-04  0.0000E+00  0.0000E+00  0.0000E+00  0.0000E+00  2.3811E-05  0.0000E+00  0.0000E+00
  7  0.0000E+00  2.1427E-04  0.0000E+00  0.0000E+00  0.0000E+00  0.0000E+00  0.0000E+00  0.0000E+00  0.0000E+00
  8  0.0000E+00  3.7016E-04  0.0000E+00  0.0000E+00  0.0000E+00  0.0000E+00  0.0000E+00  0.0000E+00  0.0000E+00
  9  0.0000E+00  6.6331E-04  0.0000E+00  0.0000E+00  0.0000E+00  4.5222E-03  0.0000E+00  0.0000E+00  0.0000E+00
 10  0.0000E+00  3.0830E-04  0.0000E+00  0.0000E+00  0.0000E+00  0.0000E+00  0.0000E+00  0.0000E+00  0.0000E+00
 11  0.0000E+00  1.2344E-03  0.0000E+00  0.0000E+00  0.0000E+00  0.0000E+00  0.0000E+00  0.0000E+00  0.0000E+00
 12  0.0000E+00  4.7297E-03  0.0000E+00  3.3030E-02  0.0000E+00  0.0000E+00  0.0000E+00  0.0000E+00  0.0000E+00
 13  0.0000E+00  1.9278E-02  0.0000E+00  0.0000E+00  0.0000E+00  0.0000E+00  0.0000E+00  0.0000E+00  0.0000E+00
 14  0.0000E+00  1.5983E-01  0.0000E+00  0.0000E+00  0.0000E+00  0.0000E+00  0.0000E+00  0.0000E+00  0.0000E+00
 15  0.0000E+00  3.6882E-01  0.0000E+00  0.0000E+00  0.0000E+00  0.0000E+00  0.0000E+00  1.7817E+00  0.0000E+00
 16  0.0000E+00  5.4728E-01  0.0000E+00  0.0000E+00  0.0000E+00  0.0000E+00  0.0000E+00  0.0000E+00  1.0380E+00
 17  0.0000E+00  4.4206E-01  1.3391E+00  0.0000E+00  0.0000E+00  0.0000E+00  0.0000E+00  0.0000E+00  0.0000E+00
 18  0.0000E+00  6.2239E-05  0.0000E+00  0.0000E+00  0.0000E+00  0.0000E+00  0.0000E+00  0.0000E+00  0.0000E+00
 19  0.0000E+00  1.2463E-05  0.0000E+00  0.0000E+00  0.0000E+00  0.0000E+00  0.0000E+00  0.0000E+00  0.0000E+00
 20  0.0000E+00  6.4095E-05  0.0000E+00  0.0000E+00  0.0000E+00  0.0000E+00  0.0000E+00  0.0000E+00  0.0000E+00
 21  0.0000E+00  8.3912E-05  0.0000E+00  0.0000E+00  0.0000E+00  0.0000E+00  0.0000E+00  0.0000E+00  0.0000E+00
 22  0.0000E+00  1.7477E-04  0.0000E+00  0.0000E+00  0.0000E+00  0.0000E+00  0.0000E+00  0.0000E+00  0.0000E+00
 23  0.0000E+00  1.4306E-04  0.0000E+00  0.0000E+00  0.0000E+00  0.0000E+00  0.0000E+00  0.0000E+00  0.0000E+00
 24  0.0000E+00  2.2481E-04  0.0000E+00  0.0000E+00  0.0000E+00  0.0000E+00  0.0000E+00  0.0000E+00  0.0000E+00
 25  0.0000E+00  2.1206E-04  0.0000E+00  3.3920E-03  0.0000E+00  0.0000E+00  0.0000E+00  0.0000E+00  0.0000E+00
 26  0.0000E+00  1.8374E-03  0.0000E+00  0.0000E+00  0.0000E+00  0.0000E+00  0.0000E+00  0.0000E+00  0.0000E+00
 27  0.0000E+00  1.6678E-03  0.0000E+00  0.0000E+00  0.0000E+00  0.0000E+00  0.0000E+00  0.0000E+00  0.0000E+00
 28  0.0000E+00  8.9845E-03  0.0000E+00  0.0000E+00  0.0000E+00  0.0000E+00  0.0000E+00  0.0000E+00  0.0000E+00
 29  0.0000E+00  9.8777E-03  0.0000E+00  0.0000E+00  0.0000E+00  1.9355E-03  0.0000E+00  0.0000E+00  2.2246E-02
 30  0.0000E+00  1.3990E-01  0.0000E+00  0.0000E+00  0.0000E+00  0.0000E+00  0.0000E+00  0.0000E+00  5.7281E-01
 31  0.0000E+00  2.0442E-01  0.0000E+00  0.0000E+00  0.0000E+00  1.9622E-01  0.0000E+00  0.0000E+00  0.0000E+00
 32  0.0000E+00  4.6771E-01  0.0000E+00  0.0000E+00  0.0000E+00  3.7106E+00  9.4977E-02  0.0000E+00  0.0000E+00
 33  0.0000E+00  2.2142E-01  0.0000E+00  0.0000E+00  0.0000E+00  0.0000E+00  0.0000E+00  0.0000E+00  0.0000E+00
 34  0.0000E+00  4.1166E-01  0.0000E+00  0.0000E+00  0.0000E+00  0.0000E+00  0.0000E+00  0.0000E+00  0.0000E+00
 35  0.0000E+00  9.9883E-05  0.0000E+00  0.0000E+00  0.0000E+00  0.0000E+00  0.0000E+00  0.0000E+00  0.0000E+00
 36  0.0000E+00  2.5274E-05  0.0000E+00  0.0000E+00  0.0000E+00  0.0000E+00  0.0000E+00  0.0000E+00  0.0000E+00
 37  0.0000E+00  2.8129E-05  0.0000E+00  0.0000E+00  0.0000E+00  0.0000E+00  0.0000E+00  0.0000E+00  0.0000E+00
 38  0.0000E+00  9.6687E-05  0.0000E+00  0.0000E+00  0.0000E+00  0.0000E+00  0.0000E+00  0.0000E+00  0.0000E+00
 39  0.0000E+00  1.3534E-04  0.0000E+00  0.0000E+00  0.0000E+00  0.0000E+00  0.0000E+00  0.0000E+00  0.0000E+00
 40  0.0000E+00  1.4769E-04  0.0000E+00  0.0000E+00  0.0000E+00  0.0000E+00  0.0000E+00  0.0000E+00  0.0000E+00
 41  0.0000E+00  5.2983E-04  0.0000E+00  0.0000E+00  0.0000E+00  0.0000E+00  0.0000E+00  0.0000E+00  0.0000E+00
 42  0.0000E+00  9.2262E-04  0.0000E+00  0.0000E+00  0.0000E+00  0.0000E+00  0.0000E+00  0.0000E+00  0.0000E+00
 43  0.0000E+00  4.3154E-03  0.0000E+00  0.0000E+00  0.0000E+00  0.0000E+00  0.0000E+00  0.0000E+00  0.0000E+00
 44  0.0000E+00  4.9241E-03  0.0000E+00  0.0000E+00  0.0000E+00  0.0000E+00  0.0000E+00  1.7294E-02  0.0000E+00
 45  0.0000E+00  2.6758E-02  0.0000E+00  0.0000E+00  0.0000E+00  0.0000E+00  0.0000E+00  0.0000E+00  0.0000E+00
 46  0.0000E+00  1.4894E-01  0.0000E+00  0.0000E+00  0.0000E+00  0.0000E+00  0.0000E+00  7.7339E-02  0.0000E+00
 47  0.0000E+00  1.0337E+00  1.3398E+00  0.0000E+00  5.2347E-01  0.0000E+00  0.0000E+00  2.7432E-01  7.6285E-01
 48  0.0000E+00  3.1351E+01  5.0432E+01  3.9533E+01  3.5102E+01  3.2394E+01  2.4950E+01  2.9789E+01  2.8883E+01
 49  0.0000E+00  2.9000E+00  0.0000E+00  5.7538E+00  1.7348E+01  5.0055E+00  0.0000E+00  3.4144E+00  6.9070E+00
 50  0.0000E+00  1.4835E+00  1.8078E+00  0.0000E+00  0.0000E+00  0.0000E+00  3.0382E+00  3.8789E+00  2.3759E+00
 51  0.0000E+00  1.3764E-05  0.0000E+00  0.0000E+00  0.0000E+00  0.0000E+00  0.0000E+00  0.0000E+00  0.0000E+00
 52  0.0000E+00  1.8212E-05  0.0000E+00  0.0000E+00  0.0000E+00  0.0000E+00  0.0000E+00  0.0000E+00  0.0000E+00
 53  0.0000E+00  5.5975E-05  0.0000E+00  0.0000E+00  0.0000E+00  0.0000E+00  0.0000E+00  0.0000E+00  0.0000E+00
 54  0.0000E+00  8.3105E-05  0.0000E+00  0.0000E+00  0.0000E+00  0.0000E+00  0.0000E+00  0.0000E+00  0.0000E+00
 55  0.0000E+00  8.3715E-05  0.0000E+00  0.0000E+00  0.0000E+00  0.0000E+00  0.0000E+00  0.0000E+00  0.0000E+00
 56  0.0000E+00  1.2426E-04  0.0000E+00  0.0000E+00  0.0000E+00  0.0000E+00  0.0000E+00  0.0000E+00  0.0000E+00
 57  0.0000E+00  4.0495E-04  0.0000E+00  0.0000E+00  0.0000E+00  0.0000E+00  0.0000E+00  0.0000E+00  0.0000E+00
 58  0.0000E+00  5.1619E-04  0.0000E+00  0.0000E+00  0.0000E+00  0.0000E+00  0.0000E+00  0.0000E+00  0.0000E+00
 59  0.0000E+00  2.1251E-03  0.0000E+00  0.0000E+00  0.0000E+00  0.0000E+00  0.0000E+00  0.0000E+00  0.0000E+00
 60  0.0000E+00  1.2173E-02  0.0000E+00  0.0000E+00  0.0000E+00  0.0000E+00  8.1428E-02  0.0000E+00  0.0000E+00
 61  1.4815E+01  2.4002E+01  1.3614E+01  1.8813E+01  2.2117E+01  2.5556E+01  2.1789E+01  2.5985E+01  2.5614E+01
 62  0.0000E+00  7.5888E-01  0.0000E+00  0.0000E+00  3.0345E-01  6.7889E-01  0.0000E+00  0.0000E+00  0.0000E+00
 63  8.5185E+01  2.9996E+01  2.6380E+01  2.8980E+01  2.2676E+01  3.2453E+01  2.9215E+01  3.4782E+01  3.2954E+01
 64  0.0000E+00  2.4263E+00  0.0000E+00  1.3276E+00  0.0000E+00  0.0000E+00  0.0000E+00  0.0000E+00  0.0000E+00
 65  0.0000E+00  2.1435E+00  5.0873E+00  5.5559E+00  1.9300E+00  0.0000E+00  1.2645E+01  0.0000E+00  8.7070E-01
 66  0.0000E+00  6.8879E-01  0.0000E+00  0.0000E+00  0.0000E+00  0.0000E+00  8.1851E+00  0.0000E+00  0.0000E+00

# AV, chi2 & Mass for <> & i_chain = 1 ...  7 solutions
AV      -1.0000     -0.8417     -0.9877     -0.9027     -0.8820     -0.8469     -0.8638     -0.8356     -0.8420
chi2 2.0388E+00  2.0652E+00  2.0481E+00  2.0577E+00  2.0582E+00  2.0614E+00  2.0603E+00  2.0613E+00  2.0611E+00
Mass 7.0296E-14  7.9690E-14  8.2986E-14  8.3156E-14  8.2811E-14  7.6271E-14  8.8393E-14  7.7402E-14  7.8011E-14
  21.49                                  [v0_min (km/s) before EX0s...]
 223.87                                  [vd_min (km/s) before EX0s...]


## Synthetic spectrum (Best Model) ##l_obs f_obs f_syn wei
 3478    [Nl_obs]
 3741.00    1.36493   0.55865    0.000
 3742.00    1.01307   0.56020    0.000
 3743.00    0.63714   0.54969    0.000
 3744.00    0.36834   0.52978    0.000
 3745.00    0.18907   0.50472   -1.000
 3746.00    0.03223   0.47845   -1.000
 3747.00   -0.13618   0.45621   -2.000
 3748.00   -0.17362   0.44414   -2.000
 3749.00    0.17863   0.44620   -1.000
 3750.00    0.88605   0.46275   -1.000
 3751.00    1.58084   0.49153   -1.000
 3752.00    1.93545   0.52809   -1.000
 3753.00    1.84126   0.56543   -1.000
 3754.00    1.54571   0.59523   -1.000
 3755.00    1.49121   0.61116   -1.000
 3756.00    1.72948   0.61272   -1.000
 3757.00    1.92130   0.60452   -1.000
 3758.00    1.82311   0.59211   -1.000
 3759.00    1.44642   0.58023   -1.000
 3760.00    1.09770   0.57247   -1.000
 3761.00    1.15269   0.56986   -1.000
 3762.00    1.50686   0.57183   -1.000
 3763.00    1.70853   0.57619   -1.000
 3764.00    1.55865   0.57921   -1.000
 3765.00    1.16746   0.57951   -1.000
 3766.00    0.77471   0.57836   -1.000
 3767.00    0.58586   0.57651   17.069
 3768.00    0.53737   0.57502   18.609
 3769.00    0.43471   0.57703   23.004
 3770.00    0.28724   0.58469   -1.000
 3771.00    0.23622   0.59721   -1.000
 3772.00    0.32393   0.61270   -1.000
 3773.00    0.50714   0.62977   19.718
 3774.00    0.74442   0.64772   13.433
 3775.00    0.99788   0.66591   -1.000
 3776.00    1.21314   0.68393   -1.000
 3777.00    1.30333   0.70239   -1.000
 3778.00    1.14218   0.72135   -1.000
 3779.00    0.75118   0.73905   13.312
 3780.00    0.51943   0.75379   -1.000
 3781.00    0.75646   0.76447   13.220
 3782.00    1.13504   0.76925   -1.000
 3783.00    1.19187   0.76477   -1.000
 3784.00    0.97147   0.74951   10.294
 3785.00    0.75401   0.72663   13.263
 3786.00    0.67784   0.69958   14.753
 3787.00    0.74798   0.67139   13.369
 3788.00    0.88721   0.64595   -1.000
 3789.00    0.95849   0.62589   -1.000
 3790.00    0.80687   0.61029   -1.000
 3791.00    0.50066   0.59660   19.974
 3792.00    0.48121   0.58302   20.781
 3793.00    0.96117   0.56875   -1.000
 3794.00    1.48257   0.55344   -1.000
 3795.00    1.61967   0.53719   -1.000
 3796.00    1.51484   0.52292   -1.000
 3797.00    1.44631   0.51570   -1.000
 3798.00    1.48000   0.51903   -1.000
 3799.00    1.51103   0.53322   -1.000
 3800.00    1.35234   0.55689   -1.000
 3801.00    1.02358   0.58733   -1.000
 3802.00    0.86338   0.61951   11.582
 3803.00    1.05522   0.64819   -1.000
 3804.00    1.39169   0.66995   -1.000
 3805.00    1.64244   0.68473   -1.000
 3806.00    1.75528   0.69523   -1.000
 3807.00    1.74017   0.70368   -1.000
 3808.00    1.61682   0.71031   -1.000
 3809.00    1.49415   0.71399   -1.000
 3810.00    1.55128   0.71222   -1.000
 3811.00    1.75827   0.70286   -1.000
 3812.00    1.83669   0.68657   -1.000
 3813.00    1.66985   0.66573   -1.000
 3814.00    1.42669   0.64398   -1.000
 3815.00    1.30570   0.62543   -1.000
 3816.00    1.40291   0.61092   -1.000
 3817.00    1.63558   0.59882   -1.000
 3818.00    1.78490   0.58801   -1.000
 3819.00    1.74626   0.57936   -1.000
 3820.00    1.58902   0.57303   -1.000
 3821.00    1.44488   0.56583   -1.000
 3822.00    1.40907   0.55492   -1.000
 3823.00    1.36295   0.54091   -1.000
 3824.00    1.07200   0.52575   -1.000
 3825.00    0.62600   0.51102   15.975
 3826.00    0.38586   0.49772   25.916
 3827.00    0.48202   0.48631   20.746
 3828.00    0.75197   0.47653   -1.000
 3829.00    0.94934   0.46662   -1.000
 3830.00    0.89752   0.45486   -1.000
 3831.00    0.71213   0.44175   -1.000
 3832.00    0.66159   0.42847   -1.000
 3833.00    0.74297   0.41658   -1.000
 3834.00    0.75531   0.40795   -1.000
 3835.00    0.65380   0.40367   -1.000
 3836.00    0.53271   0.40404   18.772
 3837.00    0.44269   0.40983   22.589
 3838.00    0.35901   0.42160   27.855
 3839.00    0.19688   0.43999   -1.000
 3840.00   -0.06243   0.46487   -2.000
 3841.00   -0.17324   0.49369   -2.000
 3842.00    0.14161   0.52360   -1.000
 3843.00    0.77140   0.55213   12.963
 3844.00    1.35704   0.57741   -1.000
 3845.00    1.61043   0.59875   -1.000
 3846.00    1.46255   0.61510   -1.000
 3847.00    1.18521   0.62515    0.000
 3848.00    1.09216   0.63016    0.000
 3849.00    1.13795   0.63352    0.000
 3850.00    1.16124   0.63663    0.000
 3851.00    1.23467   0.63827    0.000
 3852.00    1.44384   0.63785    0.000
 3853.00    1.60151   0.63505    0.000
 3854.00    1.50963   0.62963    0.000
 3855.00    1.26494   0.62249    0.000
 3856.00    1.07978   0.61373    0.000
 3857.00    1.06203   0.60391    0.000
 3858.00    1.17726   0.59650    0.000
 3859.00    1.24904   0.59554    0.000
 3860.00    1.12174   0.60226    0.000
 3861.00    0.80728   0.61457    0.000
 3862.00    0.47414   0.62927    0.000
 3863.00    0.39804   0.64337    0.000
 3864.00    0.71660   0.65452    0.000
 3865.00    1.26161   0.66143    0.000
 3866.00    1.75817   0.66330    0.000
 3867.00    1.99632   0.65974    0.000
 3868.00    1.92650   0.65111    0.000
 3869.00    1.69347   0.63921    0.000
 3870.00    1.46710   0.62680    0.000
 3871.00    1.33162   0.61745    0.000
 3872.00    1.30285   0.61400    0.000
 3873.00    1.34417   0.61598    0.000
 3874.00    1.37694   0.62029    0.000
 3875.00    1.30594   0.62332    0.000
 3876.00    1.12302   0.62294    0.000
 3877.00    0.93978   0.62027    0.000
 3878.00    0.87161   0.61669    0.000
 3879.00    0.96672   0.61067    0.000
 3880.00    1.15832   0.60171    0.000
 3881.00    1.29609   0.59229   -1.000
 3882.00    1.37260   0.58386   -1.000
 3883.00    1.53740   0.57420   -1.000
 3884.00    1.74854   0.56192   -1.000
 3885.00    1.74414   0.54879   -1.000
 3886.00    1.48611   0.53699   -1.000
 3887.00    1.23209   0.52891   -1.000
 3888.00    1.16921   0.52822   -1.000
 3889.00    1.28129   0.53688   -1.000
 3890.00    1.36646   0.55356   -1.000
 3891.00    1.19158   0.57530   -1.000
 3892.00    0.93347   0.59885   -1.000
 3893.00    1.03780   0.62120   -1.000
 3894.00    1.41688   0.64108   -1.000
 3895.00    1.53880   0.65832   -1.000
 3896.00    1.31012   0.67171   -1.000
 3897.00    1.08039   0.68095   -1.000
 3898.00    1.02566   0.68799   -1.000
 3899.00    1.07286   0.69492   -1.000
 3900.00    1.11028   0.70073   -1.000
 3901.00    1.06395   0.70338   -1.000
 3902.00    0.94753   0.70339   -1.000
 3903.00    0.82968   0.70167   12.053
 3904.00    0.74440   0.69998   13.434
 3905.00    0.70567   0.70211   14.171
 3906.00    0.77009   0.71032   12.986
 3907.00    0.96773   0.72358   10.333
 3908.00    1.16113   0.73995   -1.000
 3909.00    1.18540   0.75783   -1.000
 3910.00    1.12178   0.77461   -1.000
 3911.00    1.13199   0.78707   -1.000
 3912.00    1.12978   0.79350   -1.000
 3913.00    0.97484   0.79370   10.258
 3914.00    0.82758   0.78773   12.083
 3915.00    0.91585   0.77675   10.919
 3916.00    1.14590   0.76258   -1.000
 3917.00    1.29325   0.74602   -1.000
 3918.00    1.31776   0.72782   -1.000
 3919.00    1.26023   0.70981   -1.000
 3920.00    1.07493   0.69369   -1.000
 3921.00    0.76931   0.67957   12.999
 3922.00    0.56444   0.66643   17.717
 3923.00    0.59155   0.65153   16.905
 3924.00    0.58215   0.63182   17.178
 3925.00    0.32140   0.60563   -1.000
 3926.00    0.09930   0.57189   -1.000
 3927.00    0.23694   0.53062   -1.000
 3928.00    0.61519   0.48347   -1.000
 3929.00    0.91267   0.43329   -1.000
 3930.00    0.88011   0.38375   -1.000
 3931.00    0.54557   0.33938   -1.000
 3932.00    0.30333   0.30475   32.967
 3933.00    0.36404   0.28356   -1.000
 3934.00    0.39742   0.27832   -1.000
 3935.00    0.18422   0.28931   -1.000
 3936.00    0.04062   0.31476   -1.000
 3937.00    0.24842   0.35154   -1.000
 3938.00    0.67354   0.39521   -1.000
 3939.00    1.00980   0.44046   -1.000
 3940.00    0.99607   0.48312   -1.000
 3941.00    0.67016   0.52078   14.922
 3942.00    0.42766   0.55292   23.383
 3943.00    0.50908   0.58183   19.643
 3944.00    0.76609   0.60993   13.053
 3945.00    1.00966   0.63619   -1.000
 3946.00    1.18349   0.65900   -1.000
 3947.00    1.25543   0.67981   -1.000
 3948.00    1.18346   0.70014   -1.000
 3949.00    1.02873   0.71882   -1.000
 3950.00    0.95771   0.73348   10.442
 3951.00    1.01952   0.74366   -1.000
 3952.00    1.10332   0.75133   -1.000
 3953.00    1.16710   0.75672   -1.000
 3954.00    1.27284   0.75736   -1.000
 3955.00    1.35815   0.75274   -1.000
 3956.00    1.22912   0.74468   -1.000
 3957.00    0.84812   0.73340   11.791
 3958.00    0.38820   0.71638   -1.000
 3959.00    0.06260   0.69030   -1.000
 3960.00    0.01493   0.65482    0.000
 3961.00    0.17095   0.61355    0.000
 3962.00    0.29070   0.56903    0.000
 3963.00    0.24947   0.52109    0.000
 3964.00    0.09583   0.47027    0.000
 3965.00   -0.02254   0.41953   -2.000
 3966.00    0.04381   0.37370    0.000
 3967.00    0.26055   0.33778    0.000
 3968.00    0.45857   0.31530    0.000
 3969.00    0.55984   0.30829    0.000
 3970.00    0.56256   0.31752    0.000
 3971.00    0.39166   0.34211    0.000
 3972.00    0.03137   0.37987    0.000
 3973.00   -0.14733   0.42787   -2.000
 3974.00    0.26903   0.48201    0.000
 3975.00    0.96061   0.53793    0.000
 3976.00    1.24780   0.59275    0.000
 3977.00    1.03317   0.64458    0.000
 3978.00    0.68410   0.69130    0.000
 3979.00    0.53132   0.73041    0.000
 3980.00    0.69338   0.76051    0.000
 3981.00    0.95106   0.78294   10.515
 3982.00    1.00204   0.80042    9.980
 3983.00    0.86115   0.81482   11.612
 3984.00    0.74404   0.82707   13.440
 3985.00    0.81344   0.83806   12.293
 3986.00    1.04212   0.84958    9.596
 3987.00    1.10661   0.86188    9.037
 3988.00    0.77137   0.87314   12.964
 3989.00    0.34605   0.88313   -1.000
 3990.00    0.26757   0.89241   -1.000
 3991.00    0.56709   0.90014   -1.000
 3992.00    1.01295   0.90512    9.872
 3993.00    1.34329   0.90646   -1.000
 3994.00    1.41922   0.90458   -1.000
 3995.00    1.33938   0.90146   -1.000
 3996.00    1.25610   0.89968   -1.000
 3997.00    1.19956   0.90203   -1.000
 3998.00    1.17534   0.90901    8.508
 3999.00    1.25140   0.91781   -1.000
 4000.00    1.43245   0.92609   -1.000
 4001.00    1.57071   0.93309   -1.000
 4002.00    1.54991   0.93642   -1.000
 4003.00    1.41803   0.93310   -1.000
 4004.00    1.25042   0.92491   -1.000
 4005.00    1.05788   0.91828    9.453
 4006.00    0.90197   0.91728   11.087
 4007.00    0.94023   0.92139   10.636
 4008.00    1.17237   0.92894    8.530
 4009.00    1.33000   0.93943   -1.000
 4010.00    1.22642   0.95257    8.154
 4011.00    0.95323   0.96670   10.491
 4012.00    0.75195   0.97922   13.299
 4013.00    0.86481   0.98899   11.563
 4014.00    1.17504   0.99674    8.510
 4015.00    1.17705   1.00233    8.496
 4016.00    0.76042   1.00599   13.151
 4017.00    0.43194   1.01004   -1.000
 4018.00    0.51033   1.01442   -1.000
 4019.00    0.81977   1.01642   12.199
 4020.00    1.04097   1.01540    9.606
 4021.00    0.93978   1.01271   10.641
 4022.00    0.62520   1.00938   -1.000
 4023.00    0.50346   1.00600   -1.000
 4024.00    0.72189   1.00360   13.852
 4025.00    1.04862   1.00226    9.536
 4026.00    1.21340   0.99974    8.241
 4027.00    1.07482   0.99290    9.304
 4028.00    0.74630   0.97878   13.400
 4029.00    0.53099   0.95797   -1.000
 4030.00    0.59965   0.93567   -1.000
 4031.00    0.89527   0.91605   11.170
 4032.00    1.16217   0.90200    8.605
 4033.00    1.11283   0.89720    8.986
 4034.00    0.83681   0.90376   11.950
 4035.00    0.70377   0.92144   14.209
 4036.00    0.84283   0.94606   11.865
 4037.00    1.12065   0.97017    8.923
 4038.00    1.40907   0.98792   -1.000
 4039.00    1.62048   0.99691   -1.000
 4040.00    1.64325   0.99777   -1.000
 4041.00    1.41436   0.99092   -1.000
 4042.00    1.09171   0.97456    9.160
 4043.00    0.92889   0.94991   10.765
 4044.00    0.96901   0.92513   10.320
 4045.00    1.07644   0.91070    9.290
 4046.00    1.10676   0.90998    9.035
 4047.00    1.00000   0.91713   10.000
 4048.00    0.87697   0.92770   11.403
 4049.00    0.89774   0.94127   11.139
 4050.00    1.01896   0.95501    9.814
 4051.00    1.09745   0.96405    9.112
 4052.00    1.09996   0.96473    9.091
 4053.00    1.09439   0.95765    9.137
 4054.00    1.18641   0.94731    8.429
 4055.00    1.39244   0.93638   -1.000
 4056.00    1.50243   0.92511   -1.000
 4057.00    1.32114   0.91621   -1.000
 4058.00    0.96860   0.91233   10.324
 4059.00    0.67089   0.91125   14.906
 4060.00    0.48644   0.90800   -1.000
 4061.00    0.38983   0.89964   -1.000
 4062.00    0.38963   0.88971   -1.000
 4063.00    0.47740   0.88514   -1.000
 4064.00    0.57156   0.88620   -1.000
 4065.00    0.59552   0.88794   -1.000
 4066.00    0.55443   0.89097   -1.000
 4067.00    0.51040   0.89945   -1.000
 4068.00    0.54619   0.91156   -1.000
 4069.00    0.69179   0.91946   14.455
 4070.00    0.87343   0.91934   11.449
 4071.00    0.98232   0.91663   10.180
 4072.00    0.94109   0.91534   10.626
 4073.00    0.77471   0.91097   12.908
 4074.00    0.63846   0.90004   15.663
 4075.00    0.66959   0.88583   14.935
 4076.00    0.87890   0.87589   11.378
 4077.00    1.12550   0.87502    8.885
 4078.00    1.16564   0.88179    8.579
 4079.00    1.01831   0.89362    9.820
 4080.00    1.06961   0.90861    9.349
 4081.00    1.41508   0.92409   -1.000
 4082.00    1.61710   0.93873   -1.000
 4083.00    1.42298   0.95200   -1.000
 4084.00    1.06418   0.96320    9.397
 4085.00    0.79841   0.97326   12.525
 4086.00    0.69333   0.98349   -1.000
 4087.00    0.72536   0.99372   13.786
 4088.00    0.83211   1.00236   12.018
 4089.00    0.92051   1.00776   10.864
 4090.00    0.90524   1.00894   11.047
 4091.00    0.84586   1.00521   11.822
 4092.00    0.91670   0.99622    0.000
 4093.00    1.09155   0.98016    0.000
 4094.00    1.13138   0.95613    0.000
 4095.00    0.96270   0.92741    0.000
 4096.00    0.75176   0.89743    0.000
 4097.00    0.69539   0.86715    0.000
 4098.00    0.91439   0.83613    0.000
 4099.00    1.35316   0.80467    0.000
 4100.00    1.80043   0.77794    0.000
 4101.00    2.03768   0.76317    0.000
 4102.00    1.93200   0.76203    0.000
 4103.00    1.56012   0.77162    0.000
 4104.00    1.15054   0.78916    0.000
 4105.00    0.85610   0.81224    0.000
 4106.00    0.71437   0.83789    0.000
 4107.00    0.69488   0.86217    0.000
 4108.00    0.74061   0.88154    0.000
 4109.00    0.83005   0.89614    0.000
 4110.00    0.94755   0.90822    0.000
 4111.00    0.99806   0.91932    0.000
 4112.00    0.89014   0.93047    0.000
 4113.00    0.72261   0.94146   13.839
 4114.00    0.67756   0.95173   -1.000
 4115.00    0.76718   0.96029   13.035
 4116.00    0.88871   0.96413   11.252
 4117.00    0.99386   0.96188   10.062
 4118.00    1.09021   0.95679    9.173
 4119.00    1.19673   0.95232    8.356
 4120.00    1.31574   0.94767   -1.000
 4121.00    1.40425   0.94182   -1.000
 4122.00    1.40928   0.93724   -1.000
 4123.00    1.32170   0.93666   -1.000
 4124.00    1.16769   0.93790    8.564
 4125.00    0.98804   0.93575   10.121
 4126.00    0.83195   0.92937   12.020
 4127.00    0.75193   0.92136   13.299
 4128.00    0.79043   0.91359   12.651
 4129.00    0.96132   0.90516   10.402
 4130.00    1.20048   0.89529   -1.000
 4131.00    1.33076   0.88674   -1.000
 4132.00    1.24254   0.88442   -1.000
 4133.00    1.05832   0.89018    9.449
 4134.00    0.92041   0.90272   10.865
 4135.00    0.79395   0.91843   12.595
 4136.00    0.64042   0.93353   -1.000
 4137.00    0.56578   0.94827   -1.000
 4138.00    0.63870   0.96058   -1.000
 4139.00    0.74980   0.96648   13.337
 4140.00    0.77965   0.96321   12.826
 4141.00    0.73168   0.95023   13.667
 4142.00    0.68263   0.93377   14.649
 4143.00    0.72852   0.92151   13.726
 4144.00    0.90639   0.91531   11.033
 4145.00    1.14901   0.91225    8.703
 4146.00    1.32799   0.91070   -1.000
 4147.00    1.31114   0.91134   -1.000
 4148.00    1.12612   0.91368    8.880
 4149.00    0.99895   0.91571   10.010
 4150.00    1.02169   0.91498    9.788
 4151.00    1.03012   0.91081    9.708
 4152.00    0.95802   0.90478   10.438
 4153.00    0.95894   0.89846   10.428
 4154.00    1.06354   0.89469    9.403
 4155.00    1.08532   0.89440    9.214
 4156.00    0.98176   0.89771   10.186
 4157.00    0.93798   0.90581   10.661
 4158.00    0.99913   0.91700   10.009
 4159.00    0.99755   0.92936   10.025
 4160.00    0.90868   0.94181   11.005
 4161.00    0.90283   0.95470   11.076
 4162.00    0.99288   0.96583   10.072
 4163.00    1.00761   0.97183    9.924
 4164.00    0.96660   0.97316   10.346
 4165.00    1.08237   0.97019    9.239
 4166.00    1.33311   0.96325   -1.000
 4167.00    1.45761   0.95412   -1.000
 4168.00    1.37372   0.94359   -1.000
 4169.00    1.22651   0.92990   -1.000
 4170.00    1.14992   0.91123    8.696
 4171.00    1.18625   0.88999   -1.000
 4172.00    1.26499   0.87225   -1.000
 4173.00    1.25502   0.86068   -1.000
 4174.00    1.10511   0.85311    9.049
 4175.00    0.87361   0.84785   11.447
 4176.00    0.71023   0.84574   14.080
 4177.00    0.75818   0.84927   13.190
 4178.00    0.95771   0.85862   10.442
 4179.00    1.11875   0.86982    8.939
 4180.00    1.15553   0.87820    8.654
 4181.00    1.09331   0.88387    9.147
 4182.00    0.98681   0.89076   10.134
 4183.00    0.89351   0.89976   11.192
 4184.00    0.85453   0.90799   11.702
 4185.00    0.88163   0.91128   11.343
 4186.00    0.94297   0.91127   10.605
 4187.00    0.98980   0.91522   10.103
 4188.00    1.00170   0.92367    9.983
 4189.00    0.98767   0.93066   10.125
 4190.00    0.97593   0.93395   10.247
 4191.00    0.99463   0.93826   10.054
 4192.00    1.04818   0.94456    9.540
 4193.00    1.12925   0.94523    8.855
 4194.00    1.23631   0.93640    8.089
 4195.00    1.34536   0.92270   -1.000
 4196.00    1.37852   0.90846   -1.000
 4197.00    1.27514   0.89304   -1.000
 4198.00    1.07389   0.87847    9.312
 4199.00    0.87538   0.86853   11.424
 4200.00    0.78528   0.86302   12.734
 4201.00    0.83058   0.86227   12.040
 4202.00    0.89615   0.86839   11.159
 4203.00    0.87532   0.87972   11.424
 4204.00    0.80609   0.89301   12.406
 4205.00    0.76806   0.90764   13.020
 4206.00    0.78261   0.92386   12.778
 4207.00    0.82751   0.93969   12.084
 4208.00    0.86437   0.95131   11.569
 4209.00    0.90962   0.95861   10.994
 4210.00    1.06450   0.96442    9.394
 4211.00    1.33761   0.96848   -1.000
 4212.00    1.54438   0.96845   -1.000
 4213.00    1.52057   0.96401   -1.000
 4214.00    1.27838   0.95843   -1.000
 4215.00    1.03744   0.95791    9.639
 4216.00    1.14966   0.96412    8.698
 4217.00    1.56646   0.97116   -1.000
 4218.00    1.68531   0.97518   -1.000
 4219.00    1.26937   0.97706    7.878
 4220.00    0.81902   0.97574   12.210
 4221.00    0.77504   0.96532   12.903
 4222.00    1.11508   0.94386    8.968
 4223.00    1.50484   0.91529   -1.000
 4224.00    1.50261   0.88368   -1.000
 4225.00    1.09228   0.85381   -1.000
 4226.00    0.75516   0.83419   13.242
 4227.00    0.74632   0.83225   13.399
 4228.00    0.88679   0.84384   11.277
 4229.00    1.00249   0.86153    9.975
 4230.00    1.06449   0.88247    9.394
 4231.00    1.02996   0.90281    9.709
 4232.00    0.84849   0.91812   11.786
 4233.00    0.69326   0.92723   14.425
 4234.00    0.86459   0.92940   11.566
 4235.00    1.22648   0.92631   -1.000
 4236.00    1.30797   0.92401   -1.000
 4237.00    1.15932   0.92535    8.626
 4238.00    1.26289   0.93026   -1.000
 4239.00    1.53958   0.93952   -1.000
 4240.00    1.45396   0.95319   -1.000
 4241.00    1.04498   0.96718    9.570
 4242.00    0.82856   0.97903   12.069
 4243.00    0.87318   0.98996   11.452
 4244.00    0.83865   0.99611   11.924
 4245.00    0.61131   0.99298   -1.000
 4246.00    0.36517   0.98329   -1.000
 4247.00    0.35667   0.97239   -1.000
 4248.00    0.72307   0.95986   13.830
 4249.00    1.18310   0.94405    8.452
 4250.00    1.30587   0.93195   -1.000
 4251.00    1.12573   0.92842    8.883
 4252.00    1.00595   0.92730    9.941
 4253.00    1.18115   0.92436    8.466
 4254.00    1.60248   0.92427   -1.000
 4255.00    1.83941   0.93015   -1.000
 4256.00    1.49332   0.93570   -1.000
 4257.00    0.84071   0.93500   11.895
 4258.00    0.42817   0.93197   -1.000
 4259.00    0.34704   0.93237   -1.000
 4260.00    0.39975   0.93856   -1.000
 4261.00    0.47200   0.95032   -1.000
 4262.00    0.56782   0.96439   -1.000
 4263.00    0.77811   0.97819   12.852
 4264.00    1.11228   0.99145    8.991
 4265.00    1.32450   1.00118    7.550
 4266.00    1.21668   1.00076    8.219
 4267.00    0.97724   0.98868   10.233
 4268.00    0.86102   0.96851   11.614
 4269.00    0.82828   0.94175   12.073
 4270.00    0.74104   0.91066   13.495
 4271.00    0.59026   0.88474   -1.000
 4272.00    0.45681   0.87075   -1.000
 4273.00    0.45057   0.86481   -1.000
 4274.00    0.66165   0.86616   15.114
 4275.00    1.10686   0.87946    9.035
 4276.00    1.59811   0.90185   -1.000
 4277.00    1.70261   0.92388   -1.000
 4278.00    1.27072   0.94006   -1.000
 4279.00    0.76092   0.95084   13.142
 4280.00    0.60027   0.95829   -1.000
 4281.00    0.74857   0.96051   13.359
 4282.00    1.01335   0.95643    9.868
 4283.00    1.28109   0.94752   -1.000
 4284.00    1.50758   0.93469   -1.000
 4285.00    1.70331   0.92069   -1.000
 4286.00    1.93243   0.90741   -1.000
 4287.00    2.25723   0.89298   -1.000
 4288.00    2.43767   0.87569   -2.000
 4289.00    1.95036   0.86105   -2.000
 4290.00    0.94215   0.85604   -2.000
 4291.00    0.41516   0.85800   -2.000
 4292.00    0.70466   0.85923   -2.000
 4293.00    1.03227   0.85684   -2.000
 4294.00    0.89884   0.85463   -2.000
 4295.00    0.57119   0.85125   -2.000
 4296.00    0.36624   0.84010   -2.000
 4297.00    0.36666   0.81907   -2.000
 4298.00    0.56445   0.79233   -2.000
 4299.00    0.89174   0.76795   -2.000
 4300.00    1.10909   0.74893   -2.000
 4301.00    0.92031   0.73191   -2.000
 4302.00    0.49885   0.71759   -2.000
 4303.00    0.40957   0.71023   -2.000
 4304.00    0.77280   0.70804   12.940
 4305.00    1.18709   0.70727   -1.000
 4306.00    1.33059   0.70710   -1.000
 4307.00    1.15237   0.70902   -1.000
 4308.00    0.86735   0.71621   11.529
 4309.00    0.77941   0.73053   12.830
 4310.00    0.83834   0.75194   11.928
 4311.00    0.76177   0.77940   13.127
 4312.00    0.61710   0.81258   16.205
 4313.00    0.70465   0.85041   14.191
 4314.00    0.95998   0.89251   10.417
 4315.00    1.08728   0.93659    9.197
 4316.00    1.13845   0.97445    8.784
 4317.00    1.33579   1.00186    7.486
 4318.00    1.47296   1.01969   -1.000
 4319.00    1.22295   1.02674    8.177
 4320.00    0.92467   1.02036   10.815
 4321.00    1.13090   1.00394    8.843
 4322.00    1.57236   0.98062   -1.000
 4323.00    1.59662   0.95305   -1.000
 4324.00    1.18616   0.92693    8.431
 4325.00    0.75105   0.91149   13.315
 4326.00    0.54198   0.91164   -1.000
 4327.00    0.58310   0.92247   -1.000
 4328.00    0.71472   0.93719   13.992
 4329.00    0.72128   0.95427   13.864
 4330.00    0.50216   0.97524    0.000
 4331.00    0.15296   0.99444    0.000
 4332.00    0.01473   1.00207    0.000
 4333.00    0.32785   0.99736    0.000
 4334.00    0.83951   0.98459    0.000
 4335.00    1.18723   0.96158    0.000
 4336.00    1.36238   0.92645    0.000
 4337.00    1.48329   0.88791    0.000
 4338.00    1.51756   0.85269    0.000
 4339.00    1.43116   0.82092    0.000
 4340.00    1.34942   0.80007    0.000
 4341.00    1.41371   0.79780    0.000
 4342.00    1.63127   0.80878    0.000
 4343.00    1.84900   0.82792    0.000
 4344.00    1.78046   0.85784    0.000
 4345.00    1.33791   0.89239    0.000
 4346.00    0.84759   0.92044    0.000
 4347.00    0.59973   0.94249    0.000
 4348.00    0.53275   0.96147    0.000
 4349.00    0.55277   0.97032    0.000
 4350.00    0.73993   0.96586    0.000
 4351.00    1.07649   0.96062    9.289
 4352.00    1.30888   0.96334   -1.000
 4353.00    1.29948   0.96692   -1.000
 4354.00    1.20827   0.96819    8.276
 4355.00    1.21218   0.97650    8.250
 4356.00    1.33322   0.99321   -1.000
 4357.00    1.45052   1.00780   -1.000
 4358.00    1.37260   1.01790   -1.000
 4359.00    1.14482   1.03167    8.735
 4360.00    1.09656   1.04893    9.119
 4361.00    1.30720   1.06146    7.650
 4362.00    1.46050   1.06868   -1.000
 4363.00    1.37587   1.07735    7.268
 4364.00    1.18589   1.08586    8.432
 4365.00    1.03831   1.08574    9.631
 4366.00    0.97541   1.07636   10.252
 4367.00    0.98026   1.06551   10.201
 4368.00    0.99681   1.05540   10.032
 4369.00    0.93031   1.04143   10.749
 4370.00    0.70778   1.02541   -1.000
 4371.00    0.47674   1.01312   -1.000
 4372.00    0.51834   1.00338   -1.000
 4373.00    0.75978   0.99217   13.162
 4374.00    0.83625   0.98343   11.958
 4375.00    0.74778   0.98235   13.373
 4376.00    0.81510   0.98545   12.268
 4377.00    0.99834   0.98491   10.017
 4378.00    0.95633   0.97854   10.457
 4379.00    0.70713   0.96935   14.142
 4380.00    0.59359   0.95790   -1.000
 4381.00    0.76370   0.93805   13.094
 4382.00    1.10706   0.90800    9.033
 4383.00    1.41660   0.88001   -1.000
 4384.00    1.51145   0.86608   -1.000
 4385.00    1.41014   0.86280   -1.000
 4386.00    1.24852   0.86267   -1.000
 4387.00    1.04493   0.86944    9.570
 4388.00    0.79989   0.88642   12.502
 4389.00    0.75859   0.90565   13.182
 4390.00    1.11578   0.92121    8.962
 4391.00    1.43877   0.93629   -1.000
 4392.00    1.19222   0.95085    8.388
 4393.00    0.73441   0.96033   13.616
 4394.00    0.74569   0.96723   13.410
 4395.00    1.12040   0.97764    8.925
 4396.00    1.34823   0.98862   -1.000
 4397.00    1.30460   0.99326    7.665
 4398.00    1.12961   0.99148    8.853
 4399.00    0.91390   0.98572   10.942
 4400.00    0.75081   0.97971   13.319
 4401.00    0.83777   0.97484   11.936
 4402.00    1.22279   0.96412    8.178
 4403.00    1.52604   0.94547   -1.000
 4404.00    1.43111   0.93332   -1.000
 4405.00    1.22403   0.93535    8.170
 4406.00    1.25351   0.93842   -1.000
 4407.00    1.34732   0.93794   -1.000
 4408.00    1.27986   0.94701   -1.000
 4409.00    1.24397   0.96623    8.039
 4410.00    1.38733   0.98179   -1.000
 4411.00    1.40820   0.99188   -1.000
 4412.00    1.14939   1.00096    8.700
 4413.00    1.05084   1.00390    9.516
 4414.00    1.34804   1.00010   -1.000
 4415.00    1.50979   0.99888   -1.000
 4416.00    1.19698   1.00022    8.354
 4417.00    0.89629   0.99978   11.157
 4418.00    0.95729   1.00259   10.446
 4419.00    0.99779   1.01142   10.022
 4420.00    0.78006   1.01832   12.820
 4421.00    0.69508   1.01984   -1.000
 4422.00    0.92535   1.02189   10.807
 4423.00    1.03995   1.02601    9.616
 4424.00    0.82913   1.02623   12.061
 4425.00    0.67760   1.02206   -1.000
 4426.00    0.82034   1.01978   12.190
 4427.00    1.01340   1.02156    9.868
 4428.00    1.02733   1.02053    9.734
 4429.00    0.88926   1.01290   11.245
 4430.00    0.76664   1.00592   13.044
 4431.00    0.84599   1.00360   11.820
 4432.00    1.07469   0.99976    9.305
 4433.00    1.16085   0.99231    8.614
 4434.00    1.04993   0.98892    9.524
 4435.00    0.99789   0.99401   10.021
 4436.00    1.06070   1.00251    9.428
 4437.00    1.03070   1.00962    9.702
 4438.00    0.95086   1.01611   10.517
 4439.00    1.11126   1.02233    8.999
 4440.00    1.38887   1.02580   -1.000
 4441.00    1.29386   1.02487    7.729
 4442.00    0.84406   1.02193   11.848
 4443.00    0.56655   1.02226   -1.000
 4444.00    0.65405   1.02772   -1.000
 4445.00    0.87714   1.03352   11.401
 4446.00    1.06406   1.03827    9.398
 4447.00    1.19604   1.04695    8.361
 4448.00    1.29038   1.05568    7.750
 4449.00    1.38619   1.05461    7.214
 4450.00    1.58508   1.04636   -1.000
 4451.00    1.96027   1.03819   -1.000
 4452.00    2.33462   1.02587   -1.000
 4453.00    2.41522   1.00485   -1.000
 4454.00    2.18283   0.98248   -1.000
 4455.00    1.83864   0.96655   -1.000
 4456.00    1.52829   0.95271   -1.000
 4457.00    1.30221   0.93744   -1.000
 4458.00    1.15013   0.92730    8.695
 4459.00    1.05918   0.92629    9.441
 4460.00    1.09635   0.92721    9.121
 4461.00    1.26459   0.92912    0.000
 4462.00    1.26432   0.93861    0.000
 4463.00    0.86290   0.95113    0.000
 4464.00    0.48781   0.95919    0.000
 4465.00    0.68066   0.96737    0.000
 4466.00    1.20985   0.97929    0.000
 4467.00    1.48711   0.98869    0.000
 4468.00    1.29839   0.99407    0.000
 4469.00    0.81514   1.00277    0.000
 4470.00    0.46161   1.01576    0.000
 4471.00    0.55220   1.02970    0.000
 4472.00    0.90616   1.04487    0.000
 4473.00    1.16139   1.06193    0.000
 4474.00    1.17148   1.07600    0.000
 4475.00    1.00384   1.08532    0.000
 4476.00    0.87345   1.09155    0.000
 4477.00    0.92594   1.09217    0.000
 4478.00    1.05282   1.08449    0.000
 4479.00    1.10915   1.07262    0.000
 4480.00    1.11253   1.06212    0.000
 4481.00    1.08919   1.05479    0.000
 4482.00    0.95103   1.05157   10.515
 4483.00    0.70475   1.05175   -1.000
 4484.00    0.58705   1.05447   -1.000
 4485.00    0.73518   1.05967   -1.000
 4486.00    0.96623   1.06479   10.349
 4487.00    1.05822   1.06481    9.450
 4488.00    0.96208   1.05943   10.394
 4489.00    0.80006   1.05252   12.499
 4490.00    0.80451   1.04625   12.430
 4491.00    0.99901   1.04049   10.010
 4492.00    1.08319   1.03467    9.232
 4493.00    0.92603   1.03001   10.799
 4494.00    0.77203   1.03049   12.953
 4495.00    0.75488   1.03578   13.247
 4496.00    0.70145   1.04176   -1.000
 4497.00    0.53349   1.04933   -1.000
 4498.00    0.42177   1.06197   -1.000
 4499.00    0.50343   1.07668   -1.000
 4500.00    0.75299   1.08917   -1.000
 4501.00    1.03868   1.10371    9.628
 4502.00    1.19478   1.12168    8.370
 4503.00    1.19876   1.13599    8.342
 4504.00    1.17867   1.14447    8.484
 4505.00    1.15407   1.15241    8.665
 4506.00    1.01873   1.15930    9.816
 4507.00    0.84916   1.16027   11.776
 4508.00    0.89749   1.15711   11.142
 4509.00    1.18309   1.15311    8.452
 4510.00    1.45845   1.14672    6.857
 4511.00    1.55385   1.13741   -1.000
 4512.00    1.47381   1.12765    6.785
 4513.00    1.34072   1.11794    7.459
 4514.00    1.30722   1.10838    7.650
 4515.00    1.37063   1.10096    7.296
 4516.00    1.39789   1.09513    7.154
 4517.00    1.32580   1.08957    7.543
 4518.00    1.19463   1.08668    8.371
 4519.00    1.09720   1.08632    9.114
 4520.00    1.10484   1.08388    9.051
 4521.00    1.13556   1.07578    8.806
 4522.00    1.04893   1.06484    9.533
 4523.00    0.90458   1.05331   11.055
 4524.00    0.86461   1.03740   11.566
 4525.00    0.89567   1.01660   11.165
 4526.00    0.85586   0.99642   11.684
 4527.00    0.76404   0.98016   13.088
 4528.00    0.74111   0.96639   13.493
 4529.00    0.82057   0.95616   12.187
 4530.00    0.95390   0.95116   10.483
 4531.00    1.07559   0.95254    9.297
 4532.00    1.14947   0.95809    8.700
 4533.00    1.21789   0.96537    8.211
 4534.00    1.31980   0.97540   -1.000
 4535.00    1.37161   0.99050   -1.000
 4536.00    1.29665   1.00786    7.712
 4537.00    1.20927   1.02204    8.269
 4538.00    1.23797   1.03342    8.078
 4539.00    1.28662   1.04350    7.772
 4540.00    1.22651   1.05058    8.153
 4541.00    1.14381   1.05383    8.743
 4542.00    1.17347   1.05424    8.522
 4543.00    1.29200   1.05024    7.740
 4544.00    1.40486   1.04313   -1.000
 4545.00    1.46143   1.03814   -1.000
 4546.00    1.47005   1.03440   -1.000
 4547.00    1.49260   1.02700   -1.000
 4548.00    1.55215   1.01709   -1.000
 4549.00    1.56484   1.01168   -1.000
 4550.00    1.48625   1.01073    0.000
 4551.00    1.41993   1.00810    0.000
 4552.00    1.42855   1.00577    0.000
 4553.00    1.39978   1.00873    0.000
 4554.00    1.24193   1.01547    0.000
 4555.00    1.02781   1.02381    0.000
 4556.00    0.90811   1.03552    0.000
 4557.00    1.01577   1.04833    0.000
 4558.00    1.28680   1.05944    0.000
 4559.00    1.41599   1.06902    0.000
 4560.00    1.30647   1.07675    0.000
 4561.00    1.25673   1.08055    0.000
 4562.00    1.39860   1.07922    0.000
 4563.00    1.46409   1.07507    0.000
 4564.00    1.34169   1.07191    0.000
 4565.00    1.28684   1.07136    0.000
 4566.00    1.40256   1.07197    0.000
 4567.00    1.45834   1.07246    0.000
 4568.00    1.32594   1.07525    0.000
 4569.00    1.13833   1.08035    0.000
 4570.00    1.04272   1.08208    0.000
 4571.00    1.08383   1.08180    0.000
 4572.00    1.20090   1.08523    0.000
 4573.00    1.26768   1.08714    0.000
 4574.00    1.24159   1.08295    0.000
 4575.00    1.18858   1.07879    0.000
 4576.00    1.16126   1.07644    0.000
 4577.00    1.15173   1.06960    0.000
 4578.00    1.09061   1.05755    0.000
 4579.00    0.91476   1.04515    0.000
 4580.00    0.77211   1.03506    0.000
 4581.00    0.92149   1.02671    0.000
 4582.00    1.25589   1.01907    0.000
 4583.00    1.38967   1.01504    0.000
 4584.00    1.28710   1.01675    0.000
 4585.00    1.23721   1.02122    0.000
 4586.00    1.33323   1.02677    0.000
 4587.00    1.44813   1.03357    0.000
 4588.00    1.50887   1.04016    0.000
 4589.00    1.52996   1.04396    0.000
 4590.00    1.53282   1.04435    0.000
 4591.00    1.51018   1.04214    0.000
 4592.00    1.39509   1.03907    0.000
 4593.00    1.15131   1.03484    0.000
 4594.00    0.95522   1.02915    0.000
 4595.00    1.02877   1.02477    0.000
 4596.00    1.27356   1.02272    0.000
 4597.00    1.41304   1.02205    0.000
 4598.00    1.35398   1.02277    0.000
 4599.00    1.19246   1.02330    0.000
 4600.00    1.11159   1.02457    0.000
 4601.00    1.21894   1.02863    0.000
 4602.00    1.34008   1.03375    0.000
 4603.00    1.24808   1.03870    0.000
 4604.00    1.02283   1.04559    0.000
 4605.00    0.88712   1.05559    0.000
 4606.00    0.92180   1.06669    0.000
 4607.00    1.08382   1.07810    0.000
 4608.00    1.27871   1.08878    0.000
 4609.00    1.40252   1.09684    0.000
 4610.00    1.38580   1.10255    0.000
 4611.00    1.25857   1.10623    0.000
 4612.00    1.19835   1.10664    0.000
 4613.00    1.32580   1.10574    0.000
 4614.00    1.50654   1.10495    0.000
 4615.00    1.54497   1.10255    0.000
 4616.00    1.39266   1.10152    0.000
 4617.00    1.16538   1.10260    0.000
 4618.00    1.10701   1.10163    0.000
 4619.00    1.27766   1.10130    0.000
 4620.00    1.35090   1.10451    0.000
 4621.00    1.12895   1.10543    0.000
 4622.00    0.90668   1.10424    0.000
 4623.00    0.97935   1.10590    0.000
 4624.00    1.27517   1.10604    0.000
 4625.00    1.52864   1.10244    0.000
 4626.00    1.46484   1.10095    0.000
 4627.00    1.09334   1.10030    0.000
 4628.00    0.81022   1.09526    0.000
 4629.00    0.85797   1.09046    0.000
 4630.00    1.05652   1.08960    0.000
 4631.00    1.22079   1.08611    0.000
 4632.00    1.37154   1.07792    0.000
 4633.00    1.50952   1.07127    0.000
 4634.00    1.52125   1.06648    0.000
 4635.00    1.35456   1.05885    0.000
 4636.00    1.09558   1.04953    0.000
 4637.00    0.89596   1.04313    0.000
 4638.00    0.90260   1.03848    0.000
 4639.00    1.11434   1.03263    0.000
 4640.00    1.36985   1.02820    0.000
 4641.00    1.55671   1.02505    0.000
 4642.00    1.65704   1.01901    0.000
 4643.00    1.58388   1.01155    0.000
 4644.00    1.21586   1.00523    0.000
 4645.00    0.74623   0.99760    0.000
 4646.00    0.62330   0.99003    0.000
 4647.00    0.93150   0.98681    0.000
 4648.00    1.32880   0.98776    0.000
 4649.00    1.51869   0.99140    0.000
 4650.00    1.42025   0.99719    0.000
 4651.00    1.20330   1.00521    0.000
 4652.00    1.14708   1.01433    0.000
 4653.00    1.23921   1.02132    0.000
 4654.00    1.23495   1.02699    0.000
 4655.00    1.09141   1.03358    0.000
 4656.00    0.97248   1.03998    0.000
 4657.00    0.98427   1.04604    0.000
 4658.00    1.10376   1.05194    0.000
 4659.00    1.17379   1.05528    0.000
 4660.00    1.05754   1.05473    0.000
 4661.00    0.94937   1.04994    0.000
 4662.00    1.11908   1.03881    0.000
 4663.00    1.30136   1.02316    0.000
 4664.00    1.06835   1.00650    0.000
 4665.00    0.70967   0.98778    0.000
 4666.00    0.78487   0.96927    0.000
 4667.00    1.09979   0.95832    0.000
 4668.00    1.12210   0.95516    0.000
 4669.00    0.91808   0.95578    0.000
 4670.00    0.84150   0.96203    0.000
 4671.00    0.85089   0.97424    0.000
 4672.00    0.74712   0.98761    0.000
 4673.00    0.63850   0.99951    0.000
 4674.00    0.69677   1.01000    0.000
 4675.00    0.76866   1.01835    0.000
 4676.00    0.68583   1.02239    0.000
 4677.00    0.68296   1.02181    0.000
 4678.00    0.99298   1.01974    0.000
 4679.00    1.35001   1.01781    0.000
 4680.00    1.42124   1.01443    0.000
 4681.00    1.31262   1.01133    0.000
 4682.00    1.24222   1.01185    0.000
 4683.00    1.17150   1.01354    0.000
 4684.00    1.02210   1.01449    0.000
 4685.00    0.90083   1.01697    0.000
 4686.00    0.91475   1.01947    0.000
 4687.00    1.00062   1.01959    0.000
 4688.00    1.06000   1.01960    0.000
 4689.00    1.08003   1.01985    0.000
 4690.00    1.08299   1.01835    0.000
 4691.00    1.07882   1.01748    0.000
 4692.00    1.06706   1.01850    0.000
 4693.00    1.04025   1.01826    0.000
 4694.00    0.98170   1.01668    0.000
 4695.00    0.87060   1.01567    0.000
 4696.00    0.72789   1.01283    0.000
 4697.00    0.63530   1.00580    0.000
 4698.00    0.66695   0.99764    0.000
 4699.00    0.83422   0.99052    0.000
 4700.00    1.01868   0.98281    0.000
 4701.00    0.99572   0.97457    0.000
 4702.00    0.75922   0.96826    0.000
 4703.00    0.61070   0.96556    0.000
 4704.00    0.72393   0.96467    0.000
 4705.00    0.97646   0.96373    0.000
 4706.00    1.21357   0.96420    0.000
 4707.00    1.36123   0.96730    0.000
 4708.00    1.35068   0.97072    0.000
 4709.00    1.12780   0.97415    0.000
 4710.00    0.83163   0.97942    0.000
 4711.00    0.76146   0.98566    0.000
 4712.00    0.97567   0.99221    0.000
 4713.00    1.23426   0.99889    0.000
 4714.00    1.35644   1.00692    0.000
 4715.00    1.33700   1.01765    0.000
 4716.00    1.28592   1.02862    0.000
 4717.00    1.33487   1.03856    0.000
 4718.00    1.42304   1.04961    0.000
 4719.00    1.35116   1.06057    0.000
 4720.00    1.13165   1.06788    0.000
 4721.00    0.97643   1.07169    0.000
 4722.00    0.98069   1.07306    0.000
 4723.00    1.07881   1.07037    0.000
 4724.00    1.16282   1.06331    0.000
 4725.00    1.15358   1.05307    0.000
 4726.00    1.09014   1.03937    0.000
 4727.00    1.06756   1.02445    0.000
 4728.00    1.05572   1.01175    0.000
 4729.00    0.97282   1.00060    0.000
 4730.00    0.91828   0.99179    0.000
 4731.00    1.04973   0.98904    0.000
 4732.00    1.25563   0.98998    0.000
 4733.00    1.29573   0.99240    0.000
 4734.00    1.17009   0.99917    0.000
 4735.00    1.05042   1.00651    0.000
 4736.00    1.04285   1.01160    0.000
 4737.00    1.13117   1.01916    0.000
 4738.00    1.16169   1.02730    0.000
 4739.00    1.01495   1.03157    0.000
 4740.00    0.85198   1.03554    0.000
 4741.00    0.87425   1.04155    0.000
 4742.00    0.95119   1.04658    0.000
 4743.00    0.88131   1.04951    0.000
 4744.00    0.78625   1.05213    0.000
 4745.00    0.84978   1.05601    0.000
 4746.00    0.95013   1.05913    0.000
 4747.00    0.90027   1.05890    0.000
 4748.00    0.76574   1.05775    0.000
 4749.00    0.70686   1.05714    0.000
 4750.00    0.76975   1.05354    0.000
 4751.00    0.90285   1.04710    0.000
 4752.00    1.00402   1.04141    0.000
 4753.00    1.01231   1.03586    0.000
 4754.00    0.98358   1.02954    0.000
 4755.00    1.00900   1.02443    0.000
 4756.00    1.13095   1.02119    0.000
 4757.00    1.30396   1.01778    0.000
 4758.00    1.38586   1.01375    0.000
 4759.00    1.29508   1.01023    0.000
 4760.00    1.11736   1.00485    0.000
 4761.00    0.96117   0.99644   10.404
 4762.00    0.85194   0.98863   11.738
 4763.00    0.78727   0.98227   12.702
 4764.00    0.78021   0.97557   12.817
 4765.00    0.85766   0.97169   11.660
 4766.00    1.04399   0.97358    9.579
 4767.00    1.27823   0.97784    7.823
 4768.00    1.39822   0.98409   -1.000
 4769.00    1.33953   0.99442    7.465
 4770.00    1.21361   1.00561    8.240
 4771.00    1.10766   1.01522    9.028
 4772.00    1.00301   1.02531    9.970
 4773.00    0.91922   1.03622   10.879
 4774.00    0.94742   1.04439   10.555
 4775.00    1.05843   1.04942    9.448
 4776.00    1.07853   1.05476    9.272
 4777.00    0.97986   1.05884   10.206
 4778.00    0.93612   1.05756   10.682
 4779.00    1.02394   1.05345    9.766
 4780.00    1.14531   1.05057    8.731
 4781.00    1.21243   1.04499    8.248
 4782.00    1.21476   1.03454    8.232
 4783.00    1.19361   1.02701    8.378
 4784.00    1.20994   1.02257    8.265
 4785.00    1.27360   1.01451    7.852
 4786.00    1.33491   1.00902    7.491
 4787.00    1.33403   1.01017    7.496
 4788.00    1.22942   1.01074    8.134
 4789.00    1.03259   1.01270    9.684
 4790.00    0.81547   1.02074   12.263
 4791.00    0.70131   1.02942   -1.000
 4792.00    0.79572   1.03703   12.567
 4793.00    1.02461   1.04652    9.760
 4794.00    1.18874   1.05432    8.412
 4795.00    1.18997   1.05779    8.404
 4796.00    1.07063   1.05949    9.340
 4797.00    0.97379   1.05921   10.269
 4798.00    1.03423   1.05607    9.669
 4799.00    1.17923   1.05218    8.480
 4800.00    1.23323   1.04868    8.109
 4801.00    1.19654   1.04530    8.357
 4802.00    1.17573   1.04261    8.505
 4803.00    1.16039   1.03953    8.618
 4804.00    1.08502   1.03560    9.216
 4805.00    0.99918   1.03305   10.008
 4806.00    0.97944   1.03034   10.210
 4807.00    0.95061   1.02651   10.520
 4808.00    0.82352   1.02513   12.143
 4809.00    0.73224   1.02610   -1.000
 4810.00    0.84850   1.02721   11.786
 4811.00    1.08271   1.02996    9.236
 4812.00    1.22700   1.03515    8.150
 4813.00    1.19581   1.04072    8.363
 4814.00    1.01694   1.04620    9.833
 4815.00    0.78029   1.05235   12.816
 4816.00    0.61213   1.05741   -1.000
 4817.00    0.64150   1.06069   -1.000
 4818.00    0.86721   1.06259   11.531
 4819.00    1.04292   1.06074    9.588
 4820.00    0.97150   1.05624   10.293
 4821.00    0.79173   1.05142   12.631
 4822.00    0.71540   1.04357   -1.000
 4823.00    0.76030   1.03467   13.153
 4824.00    0.85089   1.02875   11.752
 4825.00    0.92986   1.02361   10.754
 4826.00    0.96425   1.01907   10.371
 4827.00    0.94515   1.01651   10.580
 4828.00    0.90301   1.01473   11.074
 4829.00    0.90713   1.01403   11.024
 4830.00    0.96984   1.01351   10.311
 4831.00    0.99867   1.01176   10.013
 4832.00    0.96318   1.01100   10.382
 4833.00    0.97811   1.01174   10.224
 4834.00    1.07115   1.01081    9.336
 4835.00    1.07792   1.00850    9.277
 4836.00    0.94585   1.00748   10.573
 4837.00    0.86431   1.00620   11.570
 4838.00    0.92251   1.00231   10.840
 4839.00    0.97334   0.99801   10.274
 4840.00    0.97486   0.99611   10.258
 4841.00    1.09651   0.99442    9.120
 4842.00    1.31740   0.99159    7.591
 4843.00    1.33503   0.99095   -1.000
 4844.00    1.08847   0.99140    9.187
 4845.00    0.88480   0.99034   11.302
 4846.00    0.87117   0.98951   11.479
 4847.00    0.89378   0.98742   11.188
 4848.00    0.88482   0.98297    0.000
 4849.00    0.94975   0.97876    0.000
 4850.00    1.08284   0.97179    0.000
 4851.00    1.12675   0.96024    0.000
 4852.00    1.02158   0.94895    0.000
 4853.00    0.85663   0.93578    0.000
 4854.00    0.73843   0.91629    0.000
 4855.00    0.75484   0.89594    0.000
 4856.00    1.00493   0.87600    0.000
 4857.00    1.53883   0.85194    0.000
 4858.00    2.16325   0.82939    0.000
 4859.00    2.54815   0.81195    0.000
 4860.00    2.65878   0.79549    0.000
 4861.00    2.68990   0.78546    0.000
 4862.00    2.60627   0.78574    0.000
 4863.00    2.22474   0.78997    0.000
 4864.00    1.67998   0.79903    0.000
 4865.00    1.31371   0.81572    0.000
 4866.00    1.18792   0.83229    0.000
 4867.00    1.13425   0.84460    0.000
 4868.00    1.08114   0.85747    0.000
 4869.00    1.05143   0.86886    0.000
 4870.00    1.02543   0.87368    0.000
 4871.00    0.96758   0.87774    0.000
 4872.00    0.92023   0.88551    0.000
 4873.00    0.93090   0.89226    0.000
 4874.00    0.90839   0.89869    0.000
 4875.00    0.76120   0.91056   13.137
 4876.00    0.64351   0.92371   -1.000
 4877.00    0.74703   0.93283   13.386
 4878.00    0.94782   0.94275   10.551
 4879.00    1.02353   0.95248    9.770
 4880.00    1.01645   0.95509    9.838
 4881.00    1.06325   0.95419    9.405
 4882.00    1.11710   0.95309    8.952
 4883.00    1.09170   0.94732    9.160
 4884.00    1.06902   0.93829    9.354
 4885.00    1.14062   0.93116    8.767
 4886.00    1.21119   0.92452    8.256
 4887.00    1.17221   0.91739    8.531
 4888.00    1.09941   0.91511    9.096
 4889.00    1.10293   0.91735    9.067
 4890.00    1.16003   0.92105    8.620
 4891.00    1.16445   0.93107    8.588
 4892.00    1.00565   0.94618    9.944
 4893.00    0.73527   0.96101   13.601
 4894.00    0.66146   0.97826   -1.000
 4895.00    0.92151   0.99527   10.852
 4896.00    1.18129   1.00692    8.465
 4897.00    1.15888   1.01630    8.629
 4898.00    1.00514   1.02180    9.949
 4899.00    0.92588   1.02091   10.801
 4900.00    0.91047   1.01923   10.983
 4901.00    0.92693   1.01729   10.788
 4902.00    1.03742   1.01238    9.639
 4903.00    1.19304   1.00808    8.382
 4904.00    1.16021   1.00593    8.619
 4905.00    0.90967   1.00269   10.993
 4906.00    0.76528   0.99758   13.067
 4907.00    0.88951   0.99301   11.242
 4908.00    1.06188   0.98885    9.417
 4909.00    1.08801   0.98289    9.191
 4910.00    0.99672   0.97741   10.033
 4911.00    0.89775   0.97467   11.139
 4912.00    0.88436   0.97189   11.308
 4913.00    0.93969   0.96810   10.642
 4914.00    0.94358   0.96449   10.598
 4915.00    0.88143   0.95885   11.345
 4916.00    0.88186   0.94913   11.340
 4917.00    0.99935   0.93686   10.007
 4918.00    1.15108   0.92440    8.687
 4919.00    1.22140   0.91204   -1.000
 4920.00    1.13392   0.90137    8.819
 4921.00    0.95417   0.89700   10.480
 4922.00    0.85714   0.89908   11.667
 4923.00    0.90569   0.90452   11.041
 4924.00    1.01689   0.91587    9.834
 4925.00    1.08929   0.93300    9.180
 4926.00    1.06365   0.94862    9.402
 4927.00    0.97621   0.96317   10.244
 4928.00    0.92793   0.97880   10.777
 4929.00    0.96291   0.98809   10.385
 4930.00    1.04436   0.99122    9.575
 4931.00    1.08105   0.99327    9.250
 4932.00    0.99500   0.98907   10.050
 4933.00    0.85833   0.97969   11.651
 4934.00    0.82946   0.97187   12.056
 4935.00    0.94394   0.96263   10.594
 4936.00    1.10213   0.95309    9.073
 4937.00    1.14502   0.94849    8.734
 4938.00    0.97814   0.94654   10.223
 4939.00    0.76801   0.94816   13.021
 4940.00    0.76475   0.95538    0.000
 4941.00    0.92393   0.96390    0.000
 4942.00    1.02909   0.97404    0.000
 4943.00    1.01146   0.98700    0.000
 4944.00    0.94598   0.99755    0.000
 4945.00    0.95285   1.00543    0.000
 4946.00    1.08602   1.01366    0.000
 4947.00    1.20293   1.01945    0.000
 4948.00    1.13781   1.02150    0.000
 4949.00    0.95907   1.02234    0.000
 4950.00    0.83884   1.02132    0.000
 4951.00    0.83979   1.01699    0.000
 4952.00    0.94348   1.01019    0.000
 4953.00    1.11771   1.00058    0.000
 4954.00    1.31321   0.98987    0.000
 4955.00    1.45520   0.98035    0.000
 4956.00    1.49870   0.96980    0.000
 4957.00    1.48342   0.96175    0.000
 4958.00    1.47348   0.96029    0.000
 4959.00    1.49092   0.96034    0.000
 4960.00    1.51311   0.96168    0.000
 4961.00    1.48259   0.96654    0.000
 4962.00    1.36948   0.97112    0.000
 4963.00    1.21841   0.97331    0.000
 4964.00    1.08166   0.97331    0.000
 4965.00    0.96549   0.97239    0.000
 4966.00    0.87280   0.97101    0.000
 4967.00    0.83464   0.96854    0.000
 4968.00    0.87045   0.96773    0.000
 4969.00    0.95878   0.96921    0.000
 4970.00    1.04691   0.97162    0.000
 4971.00    1.06900   0.97546    0.000
 4972.00    1.01229   0.97924    0.000
 4973.00    0.94331   0.98198    0.000
 4974.00    0.91198   0.98261    0.000
 4975.00    0.90253   0.97925    0.000
 4976.00    0.89160   0.97301    0.000
 4977.00    0.88134   0.96314    0.000
 4978.00    0.89211   0.94897    0.000
 4979.00    0.94479   0.93401    0.000
 4980.00    0.99882   0.91928    0.000
 4981.00    0.96227   0.90418    0.000
 4982.00    0.87450   0.89258    0.000
 4983.00    0.91792   0.88696    0.000
 4984.00    1.10721   0.88461    0.000
 4985.00    1.23827   0.88644    0.000
 4986.00    1.22795   0.89417    0.000
 4987.00    1.19135   0.90304    0.000
 4988.00    1.20598   0.91213    0.000
 4989.00    1.24103   0.92216    0.000
 4990.00    1.23346   0.92928    0.000
 4991.00    1.13960   0.93509    0.000
 4992.00    1.00743   0.93960    0.000
 4993.00    0.94474   0.94019    0.000
 4994.00    0.95370   0.94082    0.000
 4995.00    0.94168   0.93977    0.000
 4996.00    0.89827   0.93473    0.000
 4997.00    0.89035   0.92983    0.000
 4998.00    0.91190   0.92277    0.000
 4999.00    0.89793   0.91278    0.000
 5000.00    0.86097   0.90369    0.000
 5001.00    0.89746   0.89392    0.000
 5002.00    1.11850   0.88384    0.000
 5003.00    1.56757   0.87665    0.000
 5004.00    2.08445   0.87110    0.000
 5005.00    2.42367   0.86643    0.000
 5006.00    2.55188   0.86468    0.000
 5007.00    2.58377   0.86492    0.000
 5008.00    2.54357   0.86412    0.000
 5009.00    2.37622   0.86316    0.000
 5010.00    2.05223   0.86228    0.000
 5011.00    1.60633   0.85864    0.000
 5012.00    1.16589   0.85391    0.000
 5013.00    0.87966   0.84929    0.000
 5014.00    0.79949   0.84405    0.000
 5015.00    0.88726   0.84084    0.000
 5016.00    1.05379   0.83936    0.000
 5017.00    1.19501   0.83891    0.000
 5018.00    1.23638   0.84161    0.000
 5019.00    1.17251   0.84625    0.000
 5020.00    1.10223   0.85122    0.000
 5021.00    1.11130   0.85724    0.000
 5022.00    1.13552   0.86480    0.000
 5023.00    1.09700   0.87195    0.000
 5024.00    1.06553   0.87792    0.000
 5025.00    1.11156   0.88553    0.000
 5026.00    1.14660   0.89252    0.000
 5027.00    1.09983   0.89791    0.000
 5028.00    1.08938   0.90553    0.000
 5029.00    1.19830   0.91210    8.345
 5030.00    1.27495   0.91672   -1.000
 5031.00    1.18421   0.92174    8.444
 5032.00    1.02472   0.92355    9.759
 5033.00    0.95610   0.92213   10.459
 5034.00    1.03795   0.91779    9.634
 5035.00    1.20369   0.90905    8.308
 5036.00    1.27870   0.89932   -1.000
 5037.00    1.19866   0.88770   -1.000
 5038.00    1.12675   0.87535    8.875
 5039.00    1.16465   0.86798   -1.000
 5040.00    1.18494   0.86277   -1.000
 5041.00    1.06487   0.86126    9.391
 5042.00    0.83560   0.86720   11.968
 5043.00    0.63390   0.87446   -1.000
 5044.00    0.63061   0.88299   -1.000
 5045.00    0.82185   0.89386   12.168
 5046.00    0.97696   0.90132   10.236
 5047.00    0.97192   0.90529   10.289
 5048.00    0.91642   0.90798   10.912
 5049.00    0.90288   0.90875   11.076
 5050.00    0.90639   0.90821   11.033
 5051.00    0.91169   0.90871   10.969
 5052.00    0.95256   0.91192   10.498
 5053.00    1.02008   0.91702    9.803
 5054.00    1.04824   0.92377    9.540
 5055.00    1.01670   0.93229    9.836
 5056.00    0.97345   0.94107   10.273
 5057.00    0.96178   0.94913   10.397
 5058.00    0.98859   0.95517   10.115
 5059.00    1.01511   0.95885    9.851
 5060.00    0.97762   0.96002   10.229
 5061.00    0.86282   0.95727   11.590
 5062.00    0.72215   0.95220   13.848
 5063.00    0.63766   0.94512   -1.000
 5064.00    0.68129   0.93542   14.678
 5065.00    0.83363   0.92668   11.996
 5066.00    0.99672   0.91874   10.033
 5067.00    1.08956   0.91061    9.178
 5068.00    1.07881   0.90527    9.270
 5069.00    0.98814   0.90233   10.120
 5070.00    0.88435   0.89946   11.308
 5071.00    0.83951   0.89684   11.912
 5072.00    0.88912   0.89558   11.247
 5073.00    0.96527   0.89381   10.360
 5074.00    0.97262   0.88941   10.282
 5075.00    0.96657   0.88445   10.346
 5076.00    1.05355   0.87934    9.492
 5077.00    1.13952   0.87232    8.776
 5078.00    1.05872   0.86442    9.445
 5079.00    0.88106   0.85827   11.350
 5080.00    0.79394   0.85439   12.595
 5081.00    0.81748   0.85192   12.233
 5082.00    0.86915   0.85247   11.506
 5083.00    0.93615   0.85719   10.682
 5084.00    1.03542   0.86418    9.658
 5085.00    1.11862   0.87226    8.940
 5086.00    1.12397   0.88180    8.897
 5087.00    1.06347   0.89180    9.403
 5088.00    0.98293   0.90083   10.174
 5089.00    0.89817   0.90845   11.134
 5090.00    0.82914   0.91442   12.061
 5091.00    0.84398   0.91853   11.849
 5092.00    0.97017   0.91988   10.308
 5093.00    1.09999   0.91800    9.091
 5094.00    1.13027   0.91392    8.847
 5095.00    1.10972   0.90752    9.011
 5096.00    1.10619   0.89929    9.040
 5097.00    1.07250   0.89121    9.324
 5098.00    0.97959   0.88360   10.208
 5099.00    0.93396   0.87793   10.707
 5100.00    1.00249   0.87487    9.975
 5101.00    1.07206   0.87294    9.328
 5102.00    1.04704   0.87304    9.551
 5103.00    1.00092   0.87399    9.991
 5104.00    1.00899   0.87387    9.911
 5105.00    1.02835   0.87406    9.724
 5106.00    1.03307   0.87319    9.680
 5107.00    1.09463   0.87192    9.135
 5108.00    1.21735   0.87265   -1.000
 5109.00    1.25716   0.87289   -1.000
 5110.00    1.14314   0.87528    8.748
 5111.00    0.99146   0.88125   10.086
 5112.00    0.92031   0.88629   10.866
 5113.00    0.94247   0.89316   10.610
 5114.00    1.00882   0.90140    9.913
 5115.00    1.04832   0.90649    9.539
 5116.00    1.03063   0.91078    9.703
 5117.00    0.98844   0.91283   10.117
 5118.00    0.96845   0.91050   10.326
 5119.00    0.99817   0.90577   10.018
 5120.00    1.04924   0.89785    9.531
 5121.00    1.04797   0.88758    9.542
 5122.00    0.98672   0.87632   10.135
 5123.00    0.94107   0.86452   10.626
 5124.00    0.94728   0.85455   10.557
 5125.00    0.97606   0.84618   10.245
 5126.00    1.02059   0.83991    9.798
 5127.00    1.09848   0.83740    9.104
 5128.00    1.14379   0.83713   -1.000
 5129.00    1.03564   0.83878    9.656
 5130.00    0.80965   0.84260   12.351
 5131.00    0.64405   0.84733   15.527
 5132.00    0.60948   0.85189   -1.000
 5133.00    0.64690   0.85544   15.458
 5134.00    0.72479   0.85878   13.797
 5135.00    0.84963   0.85969   11.770
 5136.00    0.97308   0.85766   10.277
 5137.00    1.01247   0.85678    9.877
 5138.00    0.96175   0.85292   10.398
 5139.00    0.88260   0.84722   11.330
 5140.00    0.81958   0.84538   12.201
 5141.00    0.78616   0.84077   12.720
 5142.00    0.77894   0.83622   12.838
 5143.00    0.78906   0.83646   12.673
 5144.00    0.81813   0.83339   12.223
 5145.00    0.86908   0.83078   11.506
 5146.00    0.92322   0.83223   10.832
 5147.00    0.94642   0.83057   10.566
 5148.00    0.90883   0.82926   11.003
 5149.00    0.81097   0.83078   12.331
 5150.00    0.71773   0.83074   13.933
 5151.00    0.70109   0.83215   14.264
 5152.00    0.74586   0.83543   13.407
 5153.00    0.79995   0.83832   12.501
 5154.00    0.86647   0.84384   11.541
 5155.00    0.96567   0.84993   10.356
 5156.00    1.06788   0.85475    9.364
 5157.00    1.13475   0.86023    8.812
 5158.00    1.17976   0.86278   -1.000
 5159.00    1.21702   0.86164   -1.000
 5160.00    1.19704   0.85762   -1.000
 5161.00    1.08704   0.84722    9.199
 5162.00    0.96202   0.83266   10.395
 5163.00    0.91005   0.81494   10.988
 5164.00    0.92528   0.79215   10.808
 5165.00    0.94537   0.76900   10.578
 5166.00    0.90461   0.74704   11.054
 5167.00    0.78707   0.72611   12.705
 5168.00    0.66311   0.70997   15.080
 5169.00    0.60767   0.69958   16.456
 5170.00    0.62919   0.69477   15.893
 5171.00    0.69792   0.69598   14.328
 5172.00    0.77585   0.70359   12.889
 5173.00    0.83342   0.71623   11.999
 5174.00    0.86033   0.73072   11.623
 5175.00    0.86173   0.74693   11.605
 5176.00    0.85332   0.76326   11.719
 5177.00    0.85072   0.77479   11.755
 5178.00    0.86368   0.78114   11.578
 5179.00    0.90516   0.78373   11.048
 5180.00    0.98991   0.78145   10.102
 5181.00    1.09186   0.77550   -1.000
 5182.00    1.13672   0.76790   -1.000
 5183.00    1.10112   0.76229   -1.000
 5184.00    1.05030   0.76150   -1.000
 5185.00    1.04523   0.76203   -1.000
 5186.00    1.09158   0.76685   -1.000
 5187.00    1.13534   0.77701   -1.000
 5188.00    1.08924   0.78520   -1.000
 5189.00    0.95299   0.79344   10.493
 5190.00    0.83626   0.80125    0.000
 5191.00    0.82473   0.80511    0.000
 5192.00    0.92043   0.80950    0.000
 5193.00    1.04025   0.81249    0.000
 5194.00    1.06181   0.81300    0.000
 5195.00    0.98576   0.81755    0.000
 5196.00    0.93628   0.82313    0.000
 5197.00    0.95666   0.82596    0.000
 5198.00    0.98418   0.83051    0.000
 5199.00    1.00180   0.83458    0.000
 5200.00    1.05181   0.83465    0.000
 5201.00    1.12567   0.83243    0.000
 5202.00    1.16204   0.82763    0.000
 5203.00    1.13610   0.82044    0.000
 5204.00    1.07054   0.81137    0.000
 5205.00    0.99557   0.80285    0.000
 5206.00    0.93751   0.79692    0.000
 5207.00    0.91778   0.79173    0.000
 5208.00    0.94391   0.79110    0.000
 5209.00    0.99024   0.79617    0.000
 5210.00    1.01576   0.80150    0.000
 5211.00    1.01098   0.80982    9.891
 5212.00    0.99662   0.82117   10.034
 5213.00    0.99927   0.83051   10.007
 5214.00    1.02527   0.83913    9.754
 5215.00    1.02423   0.84761    9.763
 5216.00    0.94995   0.85417   10.527
 5217.00    0.87465   0.85864   11.433
 5218.00    0.90362   0.86203   11.067
 5219.00    1.00557   0.86377    9.945
 5220.00    1.07483   0.86261    9.304
 5221.00    1.07017   0.85896    9.344
 5222.00    1.00926   0.85293    9.908
 5223.00    0.92824   0.84434   10.773
 5224.00    0.86330   0.83492   11.583
 5225.00    0.83391   0.82627   11.992
 5226.00    0.84748   0.81821   11.800
 5227.00    0.90691   0.81416   11.026
 5228.00    0.99266   0.81375   10.074
 5229.00    1.04448   0.81414    9.574
 5230.00    1.01299   0.81993    9.872
 5231.00    0.91685   0.82739   10.907
 5232.00    0.80568   0.83266   12.412
 5233.00    0.71603   0.84136   13.966
 5234.00    0.68747   0.84969   14.546
 5235.00    0.77467   0.85623   12.909
 5236.00    0.96762   0.86482   10.335
 5237.00    1.13286   0.87253    8.827
 5238.00    1.16742   0.87954    8.566
 5239.00    1.12295   0.88629    8.905
 5240.00    1.08283   0.89098    9.235
 5241.00    1.05911   0.89380    9.442
 5242.00    1.03500   0.89464    9.662
 5243.00    1.00392   0.89357    9.961
 5244.00    0.97649   0.89002   10.241
 5245.00    0.97728   0.88444   10.232
 5246.00    1.00127   0.87815    9.987
 5247.00    0.99703   0.87206   10.030
 5248.00    0.94693   0.86545   10.560
 5249.00    0.90325   0.85859   11.071
 5250.00    0.89805   0.85571   11.135
 5251.00    0.90009   0.85500   11.110
 5252.00    0.87969   0.85377   11.368
 5253.00    0.84424   0.85610   11.845
 5254.00    0.82737   0.86020   12.086
 5255.00    0.86896   0.86349   11.508
 5256.00    0.95207   0.86619   10.503
 5257.00    0.99736   0.86606   10.027
 5258.00    0.97243   0.86368   10.283
 5259.00    0.92493   0.85751   10.812
 5260.00    0.90857   0.84576   11.006
 5261.00    0.94537   0.83116   10.578
 5262.00    1.00684   0.81396    9.932
 5263.00    1.02984   0.79439    9.710
 5264.00    0.99837   0.77599   10.016
 5265.00    0.94766   0.75995   10.552
 5266.00    0.87448   0.74703   11.435
 5267.00    0.74616   0.73883   13.402
 5268.00    0.62740   0.73442   15.939
 5269.00    0.64630   0.73547   15.473
 5270.00    0.77374   0.74245   12.924
 5271.00    0.84468   0.75044   11.839
 5272.00    0.80421   0.76065   12.435
 5273.00    0.73046   0.77665   13.690
 5274.00    0.70806   0.79197   14.123
 5275.00    0.77847   0.80480   12.846
 5276.00    0.90565   0.81970   11.042
 5277.00    1.00395   0.83161    9.961
 5278.00    1.02057   0.84010    9.798
 5279.00    0.96282   0.84934   10.386
 5280.00    0.91171   0.85546   10.968
 5281.00    0.96419   0.85947   10.371
 5282.00    1.11479   0.86449    8.970
 5283.00    1.27235   0.86946   -1.000
 5284.00    1.33892   0.87618   -1.000
 5285.00    1.26661   0.88415   -1.000
 5286.00    1.12630   0.89170    8.879
 5287.00    1.03036   0.90083    9.705
 5288.00    0.98933   0.90945   10.108
 5289.00    0.95918   0.91481   10.426
 5290.00    0.94761   0.91739   10.553
 5291.00    0.97698   0.91710   10.236
 5292.00    1.01028   0.91359    9.898
 5293.00    0.99541   0.90748   10.046
 5294.00    0.93760   0.89872   10.666
 5295.00    0.87613   0.88835   11.414
 5296.00    0.84156   0.87903   11.883
 5297.00    0.84012   0.87124   11.903
 5298.00    0.84428   0.86563   11.844
 5299.00    0.82792   0.86293   12.079
 5300.00    0.80477   0.86330   12.426
 5301.00    0.80428   0.86841   12.433
 5302.00    0.84119   0.87618   11.888
 5303.00    0.90724   0.88410   11.022
 5304.00    0.96907   0.89311   10.319
 5305.00    1.00105   0.90260    9.990
 5306.00    1.01280   0.91091    9.874
 5307.00    1.02159   0.91731    9.789
 5308.00    1.02767   0.92201    9.731
 5309.00    1.02471   0.92468    9.759
 5310.00    1.00920   0.92525    9.909
 5311.00    0.97533   0.92487   10.253
 5312.00    0.91409   0.92269   10.940
 5313.00    0.83853   0.91860   11.926
 5314.00    0.79340   0.91442   12.604
 5315.00    0.79756   0.90919   12.538
 5316.00    0.81729   0.90372   12.236
 5317.00    0.84527   0.89892   11.831
 5318.00    0.93139   0.89236   10.737
 5319.00    1.06622   0.88592    9.379
 5320.00    1.13900   0.88008    8.780
 5321.00    1.08895   0.87133    9.183
 5322.00    0.97242   0.86117   10.284
 5323.00    0.86973   0.85102   11.498
 5324.00    0.83269   0.84031   12.009
 5325.00    0.87569   0.82944   11.420
 5326.00    0.97419   0.81923   10.265
 5327.00    1.07377   0.81224    9.313
 5328.00    1.11071   0.81044   -1.000
 5329.00    1.07779   0.81129    9.278
 5330.00    1.02669   0.81350    9.740
 5331.00    0.97069   0.82135   10.302
 5332.00    0.87578   0.83263   11.418
 5333.00    0.76877   0.84245   13.008
 5334.00    0.73864   0.85047   13.538
 5335.00    0.80507   0.85716   12.421
 5336.00    0.90439   0.86255   11.057
 5337.00    0.99031   0.86503   10.098
 5338.00    1.05140   0.86496    9.511
 5339.00    1.06393   0.86357    9.399
 5340.00    0.99926   0.86242   10.007
 5341.00    0.88322   0.86225   11.322
 5342.00    0.78398   0.86040   12.755
 5343.00    0.73773   0.85990   13.555
 5344.00    0.73951   0.86256   13.522
 5345.00    0.77018   0.86408   12.984
 5346.00    0.81000   0.86621   12.346
 5347.00    0.85311   0.86924   11.722
 5348.00    0.90143   0.87261   11.093
 5349.00    0.94476   0.87888   10.585
 5350.00    0.96397   0.88545   10.374
 5351.00    0.94620   0.89230   10.569
 5352.00    0.89665   0.90130   11.153
 5353.00    0.85343   0.91090   11.717
 5354.00    0.86034   0.91964   11.623
 5355.00    0.91600   0.92625   10.917
 5356.00    0.98869   0.93147   10.114
 5357.00    1.05539   0.93517    9.475
 5358.00    1.10598   0.93508    9.042
 5359.00    1.13929   0.93202    8.777
 5360.00    1.15045   0.92720    8.692
 5361.00    1.11568   0.91974    8.963
 5362.00    1.02058   0.91086    9.798
 5363.00    0.89921   0.90101   11.121
 5364.00    0.81262   0.88948   12.306
 5365.00    0.81188   0.87928   12.317
 5366.00    0.89050   0.86990   11.230
 5367.00    0.94367   0.86044   10.597
 5368.00    0.89470   0.85360   11.177
 5369.00    0.82840   0.84888   12.071
 5370.00    0.85423   0.84687   11.706
 5371.00    0.95573   0.84801   10.463
 5372.00    1.06196   0.85139    9.417
 5373.00    1.13099   0.85668    8.842
 5374.00    1.14188   0.86427    8.758
 5375.00    1.08230   0.87330   -2.000
 5376.00    0.96478   0.88043   -2.000
 5377.00    0.83831   0.88601   -2.000
 5378.00    0.75905   0.89034   -2.000
 5379.00    0.76392   0.89228   -2.000
 5380.00    0.85560   0.89300   -2.000
 5381.00    0.99696   0.89316   -2.000
 5382.00    1.14368   0.89160   -2.000
 5383.00    1.26590   0.88963   -2.000
 5384.00    1.33644   0.88810   -2.000
 5385.00    1.32733   0.88503   -2.000
 5386.00    1.24315   0.88169   -2.000
 5387.00    1.13304   0.87842   -2.000
 5388.00    1.03886   0.87317   -2.000
 5389.00    0.96728   0.86735   -2.000
 5390.00    0.90709   0.86114   11.024
 5391.00    0.84589   0.85382   11.822
 5392.00    0.80117   0.84736   12.482
 5393.00    0.82071   0.84119   12.185
 5394.00    0.91057   0.83507   10.982
 5395.00    1.01433   0.83062    9.859
 5396.00    1.07585   0.82695    9.295
 5397.00    1.06775   0.82448    9.365
 5398.00    0.98787   0.82215   10.123
 5399.00    0.86013   0.81878   11.626
 5400.00    0.74475   0.81715   13.427
 5401.00    0.71885   0.81579   13.911
 5402.00    0.79449   0.81168   12.587
 5403.00    0.90977   0.80707   10.992
 5404.00    1.00137   0.80399    9.986
 5405.00    1.03148   0.80124    9.695
 5406.00    0.99096   0.79878   10.091
 5407.00    0.89857   0.79814   11.129
 5408.00    0.79571   0.80058   12.567
 5409.00    0.73123   0.80623   13.676
 5410.00    0.72537   0.81393   13.786
 5411.00    0.76631   0.82167   13.050
 5412.00    0.82825   0.82962   12.074
 5413.00    0.88068   0.83955   11.355
 5414.00    0.89873   0.84912   11.127
 5415.00    0.87536   0.85661   11.424
 5416.00    0.84153   0.86242   11.883
 5417.00    0.84701   0.86605   11.806
 5418.00    0.90992   0.86876   10.990
 5419.00    1.00646   0.87063    9.936
 5420.00    1.07411   0.86995    9.310
 5421.00    1.05872   0.86812    9.445
 5422.00    0.99703   0.86611   10.030
 5423.00    0.96801   0.86317   10.330
 5424.00    0.98336   0.86157   10.169
 5425.00    1.00527   0.85928    9.948
 5426.00    1.00684   0.85393    9.932
 5427.00    0.98185   0.85031   10.185
 5428.00    0.94373   0.84741   10.596
 5429.00    0.90762   0.84318   11.018
 5430.00    0.86662   0.83950   11.539
 5431.00    0.81481   0.83427   12.273
 5432.00    0.78002   0.83152   12.820
 5433.00    0.79156   0.83336   12.633
 5434.00    0.83601   0.83509   11.962
 5435.00    0.88059   0.83862   11.356
 5436.00    0.90683   0.84455   11.027
 5437.00    0.90840   0.85200   11.008
 5438.00    0.88511   0.86028   11.298
 5439.00    0.84774   0.86748   11.796
 5440.00    0.82163   0.87329   12.171
 5441.00    0.82211   0.87648   12.164
 5442.00    0.83275   0.87717   12.008
 5443.00    0.82931   0.87476   12.058
 5444.00    0.80431   0.87036   12.433
 5445.00    0.77615   0.86609   12.884
 5446.00    0.78841   0.86109   12.684
 5447.00    0.85225   0.85675   11.734
 5448.00    0.91003   0.85297   10.989
 5449.00    0.91181   0.84989   10.967
 5450.00    0.87040   0.84975   11.489
 5451.00    0.82620   0.84961   12.104
 5452.00    0.81522   0.84800   12.267
 5453.00    0.84022   0.84688   11.902
 5454.00    0.86334   0.84599   11.583
 5455.00    0.87195   0.84559   11.468
 5456.00    0.90543   0.84579   11.044
 5457.00    0.97040   0.84476   10.305
 5458.00    1.00894   0.84515    9.911
 5459.00    0.99955   0.84708   10.004
 5460.00    0.99291   0.84761   10.071
 5461.00    1.00901   0.84825    9.911
 5462.00    1.00595   0.84819    9.941
 5463.00    0.98562   0.84795   10.146
 5464.00    1.01602   0.84822    9.842
 5465.00    1.10387   0.84742    9.059
 5466.00    1.16692   0.84758   -1.000
 5467.00    1.15738   0.84771   -1.000
 5468.00    1.09886   0.84605    9.100
 5469.00    1.02459   0.84399    9.760
 5470.00    0.95744   0.84062   10.444
 5471.00    0.92806   0.83643   10.775
 5472.00    0.96194   0.83142   10.396
 5473.00    1.01512   0.82502    9.851
 5474.00    0.99736   0.81942   10.027
 5475.00    0.91140   0.81392   10.972
 5476.00    0.84677   0.81000   11.810
 5477.00    0.83106   0.80849   12.033
 5478.00    0.82382   0.80649   12.139
 5479.00    0.82216   0.80680   12.163
 5480.00    0.85332   0.81032   11.719
 5481.00    0.88066   0.81485   11.355
 5482.00    0.85325   0.81954   11.720
 5483.00    0.87725   0.82321   11.399
 5484.00    1.07196   0.82716    9.329
 5485.00    1.17037   0.83162   -1.000
 5486.00    0.87347   0.83521   -2.000
 5487.00    0.74626   0.83762   -2.000
 5488.00    1.43869   0.83925   -2.000
 5489.00    1.84395   0.83966   -2.000
 5490.00    0.21172   0.84000   -2.000
 5491.00   -3.15020   0.84106   -2.000
 5492.00   -5.88948   0.84138   -2.000
 5493.00   -4.64784   0.84173   -2.000
 5494.00    1.96507   0.84168   -2.000
 5495.00    9.15015   0.84105   -2.000
 5496.00   10.85029   0.84106   -2.000
 5497.00    8.01005   0.84098   -2.000
 5498.00    5.19600   0.83990   -2.000
 5499.00    4.08814   0.83770   -2.000
 5500.00    3.99167   0.83554   -2.000
 5501.00    3.78430   0.83413   -2.000
 5502.00    2.81073   0.83198   -2.000
 5503.00    1.61227   0.82819   -2.000
 5504.00    0.99986   0.82517   -2.000
 5505.00    0.90809   0.82324   -2.000
 5506.00    0.90472   0.82133   -2.000
 5507.00    0.87521   0.81995   -2.000
 5508.00    0.86716   0.81758   -2.000
 5509.00    0.86221   0.81587   11.598
 5510.00    0.83264   0.81618   12.010
 5511.00    0.81129   0.81592   12.326
 5512.00    0.83430   0.81658   11.986
 5513.00    0.88704   0.81834   11.273
 5514.00    0.93556   0.82035   10.689
 5515.00    0.95789   0.82466   10.440
 5516.00    0.94886   0.82948   10.539
 5517.00    0.91998   0.83429   10.870
 5518.00    0.88299   0.83926   11.325
 5519.00    0.84007   0.84286   11.904
 5520.00    0.80201   0.84596   12.469
 5521.00    0.79536   0.84748   12.573
 5522.00    0.82112   0.84663   12.179
 5523.00    0.83892   0.84461   11.920
 5524.00    0.83877   0.84121   11.922
 5525.00    0.86914   0.83696   11.506
 5526.00    0.93876   0.83319   10.652
 5527.00    0.97903   0.82961   10.214
 5528.00    0.95351   0.82693   10.488
 5529.00    0.90164   0.82530   11.091
 5530.00    0.85269   0.82432   11.728
 5531.00    0.79304   0.82513   12.610
 5532.00    0.72428   0.82682   13.807
 5533.00    0.68191   0.82901   14.665
 5534.00    0.69287   0.83105   14.433
 5535.00    0.75787   0.83302   13.195
 5536.00    0.85957   0.83573   11.634
 5537.00    0.96880   0.83805   10.322
 5538.00    1.05359   0.84090    9.491
 5539.00    1.08888   0.84341    9.184
 5540.00    1.07779   0.84486    9.278
 5541.00    1.05001   0.84686    9.524
 5542.00    1.03077   0.84856    9.702
 5543.00    1.02646   0.84992    9.742
 5544.00    1.01434   0.85146    9.859
 5545.00    0.96115   0.85262   10.404
 5546.00    0.88482   0.85422   11.302
 5547.00    0.84153   0.85636   11.883
 5548.00    0.84093   0.85778   11.892
 5549.00    0.84801   0.85905   11.792
 5550.00    0.84805   0.86006   11.792
 5551.00    0.85188   0.85995   11.739
 5552.00    0.86717   0.85931   11.532
 5553.00    0.89267   0.85800   11.202
 5554.00    0.92117   0.85582   10.856
 5555.00    0.94085   0.85334   10.629
 5556.00    0.93703   0.85067   10.672
 5557.00    0.90712   0.84776   11.024
 5558.00    0.88717   0.84522   11.272
 5559.00    0.91259   0.84214   10.958
 5560.00    0.93977   0.83872   10.641
 5561.00    0.90093   0.83599   11.100
 5562.00    0.82001   0.83278   12.195
 5563.00    0.77299   0.82972   12.937
 5564.00    0.79245   0.82678   12.619
 5565.00    0.86142   0.82393   11.609
 5566.00    0.92976   0.82209   10.756
 5567.00    0.94883   0.82046   10.539
 5568.00    0.91621   0.81972   10.915
 5569.00    0.86495   0.81916   11.561
 5570.00    0.83903   0.81917   11.919
 5571.00    0.86117   0.82047   11.612
 5572.00    0.90032   0.82171   11.107
 5573.00    0.91626   0.82384   10.914
 5574.00    0.91376   0.82583   10.944
 5575.00    0.91326   0.82721   10.950
 5576.00    0.91360   0.82957   10.946
 5577.00    0.90695   0.83136   11.026
 5578.00    0.89714   0.83151   11.147
 5579.00    0.89056   0.83098   11.229
 5580.00    0.88629   0.82917   11.283
 5581.00    0.88177   0.82565   11.341
 5582.00    0.87763   0.82138   11.394
 5583.00    0.86879   0.81496   11.510
 5584.00    0.84062   0.80725   11.896
 5585.00    0.80237   0.80017   12.463
 5586.00    0.80536   0.79273   12.417
 5587.00    0.87526   0.78675   11.425
 5588.00    0.96814   0.78222   10.329
 5589.00    1.02638   0.77870    9.743
 5590.00    1.02154   0.77800    9.789
 5591.00    0.96429   0.77858   10.370
 5592.00    0.90187   0.78117   11.088
 5593.00    0.87134   0.78525   11.477
 5594.00    0.87371   0.78841   11.445
 5595.00    0.89113   0.79130   11.222
 5596.00    0.90382   0.79366   11.064
 5597.00    0.92187   0.79569   10.848
 5598.00    0.98561   0.79759   10.146
 5599.00    1.08434   0.79858   -1.000
 5600.00    1.13824   0.79920   -1.000
 5601.00    1.10676   0.80162   -1.000
 5602.00    1.02990   0.80533    9.710
 5603.00    0.98033   0.81003   10.201
 5604.00    1.02240   0.81584    9.781
 5605.00    1.13819   0.82190   -1.000
 5606.00    1.23161   0.82869   -1.000
 5607.00    1.25681   0.83457   -1.000
 5608.00    1.24598   0.83901   -1.000
 5609.00    1.22835   0.84169   -1.000
 5610.00    1.20689   0.84193   -1.000
 5611.00    1.18163   0.83977   -1.000
 5612.00    1.15486   0.83493   -1.000
 5613.00    1.12194   0.82966   -1.000
 5614.00    1.07524   0.82447    9.300
 5615.00    1.02358   0.81873    9.770
 5616.00    0.98641   0.81313   10.138
 5617.00    0.96269   0.80775   10.388
 5618.00    0.93375   0.80474   10.709
 5619.00    0.89234   0.80380   11.206
 5620.00    0.85084   0.80285   11.753
 5621.00    0.84155   0.80187   11.883
 5622.00    0.89042   0.80138   11.231
 5623.00    0.96088   0.80225   10.407
 5624.00    0.98605   0.80382   10.141
 5625.00    0.96027   0.80549   10.414
 5626.00    0.92550   0.80746   10.805
 5627.00    0.90705   0.81020   11.025
 5628.00    0.91118   0.81391   10.975
 5629.00    0.94360   0.81745   10.598
 5630.00    0.99719   0.82024   10.028
 5631.00    1.02711   0.82224    9.736
 5632.00    0.99268   0.82301   10.074
 5633.00    0.92798   0.82242   10.776
 5634.00    0.89499   0.82054   11.173
 5635.00    0.89840   0.81779   11.131
 5636.00    0.90833   0.81475   11.009
 5637.00    0.90992   0.81155   10.990
 5638.00    0.90654   0.80824   11.031
 5639.00    0.91308   0.80580   10.952
 5640.00    0.93112   0.80442   10.740
 5641.00    0.92339   0.80391   10.830
 5642.00    0.86627   0.80434   11.544
 5643.00    0.80869   0.80504   12.366
 5644.00    0.80473   0.80674   12.427
 5645.00    0.83750   0.80884   11.940
 5646.00    0.86657   0.81056   11.540
 5647.00    0.88312   0.81228   11.323
 5648.00    0.89619   0.81373   11.158
 5649.00    0.91411   0.81458   10.940
 5650.00    0.93828   0.81433   10.658
 5651.00    0.96002   0.81265   10.416
 5652.00    0.96931   0.81001   10.317
 5653.00    0.96280   0.80729   10.386
 5654.00    0.94721   0.80330   10.557
 5655.00    0.93907   0.79783   10.649
 5656.00    0.94542   0.79276   10.577
 5657.00    0.95289   0.78871   10.494
 5658.00    0.95252   0.78547   10.498
 5659.00    0.95501   0.78272   10.471
 5660.00    0.97363   0.78073   10.271
 5661.00    1.01079   0.78108    9.893
 5662.00    1.04795   0.78328    9.542
 5663.00    1.04740   0.78587    9.547
 5664.00    0.99503   0.78869   10.050
 5665.00    0.91876   0.79211   10.884
 5666.00    0.85550   0.79624   11.689
 5667.00    0.83065   0.80056   12.039
 5668.00    0.84826   0.80484   11.789
 5669.00    0.89186   0.80901   11.212
 5670.00    0.94869   0.81343   10.541
 5671.00    1.01670   0.81767    9.836
 5672.00    1.08546   0.82140    9.213
 5673.00    1.13289   0.82499   -1.000
 5674.00    1.14712   0.82791   -1.000
 5675.00    1.13358   0.82964   -1.000
 5676.00    1.10712   0.83000    9.032
 5677.00    1.08377   0.82909    9.227
 5678.00    1.06333   0.82721    9.404
 5679.00    1.02831   0.82386    9.725
 5680.00    0.96112   0.81983   10.405
 5681.00    0.85703   0.81575   11.668
 5682.00    0.74480   0.81175   13.426
 5683.00    0.67651   0.80791   14.782
 5684.00    0.68008   0.80419   14.704
 5685.00    0.74539   0.80182   13.416
 5686.00    0.82638   0.80096   12.101
 5687.00    0.86905   0.80156   11.507
 5688.00    0.87799   0.80286   11.390
 5689.00    0.90083   0.80504   11.101
 5690.00    0.95147   0.80775   10.510
 5691.00    1.00824   0.81052    9.918
 5692.00    1.05117   0.81343    9.513
 5693.00    1.06593   0.81544    9.381
 5694.00    1.03502   0.81676    9.662
 5695.00    0.94988   0.81622   10.528
 5696.00    0.83722   0.81469   11.944
 5697.00    0.74408   0.81219   13.439
 5698.00    0.70182   0.80820   14.249
 5699.00    0.71873   0.80398   13.914
 5700.00    0.77973   0.79915   12.825
 5701.00    0.85914   0.79442   11.639
 5702.00    0.94056   0.78945   10.632
 5703.00    1.01249   0.78388    9.877
 5704.00    1.05800   0.77903   -1.000
 5705.00    1.06970   0.77459   -1.000
 5706.00    1.07100   0.77041   -1.000
 5707.00    1.08958   0.76764   -1.000
 5708.00    1.12019   0.76537   -1.000
 5709.00    1.14228   0.76438   -1.000
 5710.00    1.14733   0.76580   -1.000
 5711.00    1.13869   0.76848   -1.000
 5712.00    1.12671   0.77317   -1.000
 5713.00    1.11734   0.77924   -1.000
 5714.00    1.10184   0.78600   -1.000
 5715.00    1.07389   0.79376    9.312
 5716.00    1.04639   0.80154    9.557
 5717.00    1.03540   0.80890    9.658
 5718.00    1.04370   0.81579    9.581
 5719.00    1.06451   0.82170    9.394
 5720.00    1.08623   0.82654    9.206
 5721.00    1.09363   0.83041    9.144
 5722.00    1.07029   0.83308    9.343
 5723.00    1.01276   0.83464    9.874
 5724.00    0.94088   0.83495   10.628
 5725.00    0.89242   0.83475   11.206
 5726.00    0.91059   0.83411   10.982
 5727.00    0.98889   0.83278   10.112
 5728.00    1.04861   0.83082    9.536
 5729.00    1.03979   0.82893    9.617
 5730.00    0.99522   0.82809   10.048
 5731.00    0.95282   0.82751   10.495
 5732.00    0.91117   0.82727   10.975
 5733.00    0.85741   0.82702   11.663
 5734.00    0.78742   0.82702   12.700
 5735.00    0.72007   0.82753   13.888
 5736.00    0.69560   0.82788   14.376
 5737.00    0.73237   0.82834   13.654
 5738.00    0.80963   0.82837   12.351
 5739.00    0.88949   0.82799   11.242
 5740.00    0.93636   0.82734    0.000
 5741.00    0.95270   0.82676    0.000
 5742.00    0.97889   0.82626    0.000
 5743.00    1.03118   0.82537    0.000
 5744.00    1.08519   0.82386    0.000
 5745.00    1.11164   0.82187    0.000
 5746.00    1.09454   0.82027    0.000
 5747.00    1.04464   0.81866    0.000
 5748.00    0.99534   0.81660    0.000
 5749.00    0.97423   0.81389    0.000
 5750.00    0.98788   0.81085    0.000
 5751.00    1.00638   0.80836    0.000
 5752.00    0.98289   0.80677    0.000
 5753.00    0.92171   0.80589    0.000
 5754.00    0.87358   0.80514    0.000
 5755.00    0.86984   0.80468    0.000
 5756.00    0.90570   0.80436    0.000
 5757.00    0.94557   0.80450    0.000
 5758.00    0.94510   0.80501    0.000
 5759.00    0.89813   0.80559    0.000
 5760.00    0.83726   0.80631    0.000
 5761.00    0.80942   0.80750    0.000
 5762.00    0.84784   0.80883    0.000
 5763.00    0.92774   0.81044    0.000
 5764.00    0.99142   0.81260    0.000
 5765.00    1.01364   0.81508    0.000
 5766.00    1.00302   0.81792    0.000
 5767.00    0.98084   0.82040    0.000
 5768.00    0.96473   0.82235    0.000
 5769.00    0.94886   0.82331    0.000
 5770.00    0.92007   0.82343    0.000
 5771.00    0.88791   0.82259    0.000
 5772.00    0.87379   0.82094    0.000
 5773.00    0.88749   0.81886    0.000
 5774.00    0.92089   0.81588    0.000
 5775.00    0.94549   0.81228    0.000
 5776.00    0.93242   0.80784    0.000
 5777.00    0.87904   0.80255    0.000
 5778.00    0.80963   0.79670    0.000
 5779.00    0.76963   0.79078    0.000
 5780.00    0.79183   0.78504    0.000
 5781.00    0.86037   0.77952    0.000
 5782.00    0.93329   0.77437    0.000
 5783.00    0.97241   0.77070    0.000
 5784.00    0.96093   0.76919    0.000
 5785.00    0.91609   0.76900    0.000
 5786.00    0.86793   0.77074    0.000
 5787.00    0.83781   0.77337    0.000
 5788.00    0.83585   0.77690    0.000
 5789.00    0.86043   0.78161    0.000
 5790.00    0.89861   0.78630    0.000
 5791.00    0.93005   0.79136    0.000
 5792.00    0.95471   0.79587    0.000
 5793.00    1.00625   0.79962    0.000
 5794.00    1.09065   0.80300    0.000
 5795.00    1.15219   0.80580    0.000
 5796.00    1.15753   0.80898    0.000
 5797.00    1.14325   0.81185    0.000
 5798.00    1.13698   0.81393    0.000
 5799.00    1.11280   0.81557   -2.000
 5800.00    1.04120   0.81659   -2.000
 5801.00    0.92550   0.81717   -2.000
 5802.00    0.82494   0.81753   -2.000
 5803.00    0.84880   0.81758   -2.000
 5804.00    1.06183   0.81740   -2.000
 5805.00    1.43086   0.81674   -2.000
 5806.00    1.81194   0.81575   -2.000
 5807.00    1.99227   0.81512   -2.000
 5808.00    1.90259   0.81467   -2.000
 5809.00    1.67529   0.81447   -2.000
 5810.00    1.46982   0.81451   -2.000
 5811.00    1.38248   0.81451   -2.000
 5812.00    1.40168   0.81455   -2.000
 5813.00    1.42344   0.81458   -2.000
 5814.00    1.37164   0.81491   -2.000
 5815.00    1.24143   0.81584   -2.000
 5816.00    1.08683   0.81675   -2.000
 5817.00    0.98894   0.81796   -2.000
 5818.00    0.97094   0.81939   -2.000
 5819.00    0.99001   0.82111    0.000
 5820.00    1.00010   0.82311    0.000
 5821.00    0.97724   0.82502    0.000
 5822.00    0.93339   0.82699    0.000
 5823.00    0.90567   0.82838    0.000
 5824.00    0.91756   0.82933    0.000
 5825.00    0.96653   0.82994    0.000
 5826.00    1.02132   0.83031    0.000
 5827.00    1.04273   0.83049    0.000
 5828.00    1.03225   0.83023    0.000
 5829.00    1.01775   0.82980    0.000
 5830.00    0.99766   0.82911    0.000
 5831.00    0.95340   0.82817    0.000
 5832.00    0.89934   0.82713    0.000
 5833.00    0.86976   0.82621    0.000
 5834.00    0.87459   0.82543    0.000
 5835.00    0.90659   0.82459    0.000
 5836.00    0.96891   0.82411    0.000
 5837.00    1.05891   0.82405    0.000
 5838.00    1.13460   0.82423    0.000
 5839.00    1.14704   0.82448    0.000
 5840.00    1.09885   0.82467    0.000
 5841.00    1.02504   0.82467    0.000
 5842.00    0.95098   0.82409    0.000
 5843.00    0.88665   0.82304    0.000
 5844.00    0.82836   0.82140    0.000
 5845.00    0.77568   0.81917    0.000
 5846.00    0.75100   0.81626    0.000
 5847.00    0.77390   0.81279    0.000
 5848.00    0.82876   0.80879    0.000
 5849.00    0.88701   0.80442    0.000
 5850.00    0.93656   0.79983    0.000
 5851.00    0.97938   0.79534    0.000
 5852.00    1.02419   0.79095    0.000
 5853.00    1.07335   0.78662    0.000
 5854.00    1.11167   0.78241    0.000
 5855.00    1.12034   0.77871    0.000
 5856.00    1.09083   0.77617    0.000
 5857.00    1.02346   0.77431    0.000
 5858.00    0.92581   0.77372    0.000
 5859.00    0.81982   0.77378    0.000
 5860.00    0.74362   0.77473    0.000
 5861.00    0.71999   0.77653    0.000
 5862.00    0.73450   0.77884    0.000
 5863.00    0.75870   0.78190    0.000
 5864.00    0.76987   0.78478    0.000
 5865.00    0.76112   0.78796    0.000
 5866.00    0.74596   0.79086    0.000
 5867.00    0.74812   0.79353    0.000
 5868.00    0.79001   0.79600    0.000
 5869.00    0.86474   0.79803    0.000
 5870.00    0.92970   0.79962    0.000
 5871.00    0.96322   0.80066    0.000
 5872.00    0.98749   0.80139    0.000
 5873.00    1.01946   0.80119    0.000
 5874.00    1.04933   0.80027    0.000
 5875.00    1.06636   0.79846    0.000
 5876.00    1.07031   0.79610    0.000
 5877.00    1.06264   0.79297    0.000
 5878.00    1.04349   0.78925    0.000
 5879.00    1.01738   0.78497    0.000
 5880.00    0.99380   0.77949    0.000
 5881.00    0.97971   0.77309    0.000
 5882.00    0.97747   0.76537    0.000
 5883.00    0.98877   0.75625    0.000
 5884.00    1.01344   0.74504    0.000
 5885.00    1.04033   0.73197    0.000
 5886.00    1.04807   0.71754    0.000
 5887.00    1.01817   0.70220    0.000
 5888.00    0.94397   0.68772    0.000
 5889.00    0.84378   0.67434    0.000
 5890.00    0.75758   0.66218    0.000
 5891.00    0.72643   0.65230    0.000
 5892.00    0.77455   0.64525    0.000
 5893.00    0.87940   0.64190    0.000
 5894.00    0.98052   0.64319    0.000
 5895.00    1.02141   0.64885    0.000
 5896.00    0.97543   0.65754    0.000
 5897.00    0.87889   0.66774    0.000
 5898.00    0.80082   0.67954    0.000
 5899.00    0.76193   0.69260    0.000
 5900.00    0.74177   0.70572    0.000
 5901.00    0.72981   0.71960   13.702
 5902.00    0.73328   0.73257   13.637
 5903.00    0.77077   0.74345   12.974
 5904.00    0.85326   0.75250   11.720
 5905.00    0.95404   0.75986   10.482
 5906.00    1.03084   0.76545    9.701
 5907.00    1.07101   0.76936   -1.000
 5908.00    1.08275   0.77217   -1.000
 5909.00    1.06952   0.77363   -1.000
 5910.00    1.03050   0.77419    9.704
 5911.00    0.96730   0.77391   10.338
 5912.00    0.88984   0.77351   11.238
 5913.00    0.82184   0.77270   12.168
 5914.00    0.78341   0.77199   12.765
 5915.00    0.76891   0.77162   13.005
 5916.00    0.76157   0.77140   13.131
 5917.00    0.75438   0.77175   13.256
 5918.00    0.74676   0.77228   13.391
 5919.00    0.73841   0.77355   13.543
 5920.00    0.73440   0.77500   13.617
 5921.00    0.74967   0.77656   13.339
 5922.00    0.79338   0.77791   12.604
 5923.00    0.85363   0.77879   11.715
 5924.00    0.90749   0.77924   11.019
 5925.00    0.93302   0.77909   10.718
 5926.00    0.92229   0.77868   10.843
 5927.00    0.88970   0.77794   11.240
 5928.00    0.85239   0.77732   11.732
 5929.00    0.81492   0.77644   12.271
 5930.00    0.78053   0.77560   12.812
 5931.00    0.75861   0.77495   13.182
 5932.00    0.74822   0.77435   13.365
 5933.00    0.73044   0.77446   13.690
 5934.00    0.70030   0.77469   14.280
 5935.00    0.68366   0.77527   14.627
 5936.00    0.70217   0.77602   14.242
 5937.00    0.75192   0.77643   13.299
 5938.00    0.81439   0.77676   12.279
 5939.00    0.86542   0.77706   11.555
 5940.00    0.88446   0.77756   11.306
 5941.00    0.86231   0.77788   11.597
 5942.00    0.81488   0.77778   12.272
 5943.00    0.78235   0.77757   12.782
 5944.00    0.79082   0.77700   12.645
 5945.00    0.83461   0.77619   11.982
 5946.00    0.88263   0.77538   11.330
 5947.00    0.89118   0.77458   11.221
 5948.00    0.84329   0.77356   11.858
 5949.00    0.75969   0.77244   13.163
 5950.00    0.67483   0.77127   14.818
 5951.00    0.62266   0.77020   16.060
 5952.00    0.62203   0.76934   16.076
 5953.00    0.67032   0.76871   14.918
 5954.00    0.74111   0.76881   13.493
 5955.00    0.79595   0.76940   12.564
 5956.00    0.82377   0.77022   12.139
 5957.00    0.84241   0.77135   11.871
 5958.00    0.86412   0.77308   11.572
 5959.00    0.88764   0.77517   11.266
 5960.00    0.90677   0.77695   11.028
 5961.00    0.91507   0.77881   10.928
 5962.00    0.91119   0.78081   10.975
 5963.00    0.89799   0.78264   11.136
 5964.00    0.87675   0.78440   11.406
 5965.00    0.84874   0.78579   11.782
 5966.00    0.82197   0.78704   12.166
 5967.00    0.80772   0.78783   12.381
 5968.00    0.80964   0.78846   12.351
 5969.00    0.82549   0.78868   12.114
 5970.00    0.85497   0.78832   11.696
 5971.00    0.89484   0.78769   11.175
 5972.00    0.92720   0.78640   10.785
 5973.00    0.92992   0.78455   10.754
 5974.00    0.89891   0.78226   11.125
 5975.00    0.84799   0.77984   11.793
 5976.00    0.80125   0.77707   12.481
 5977.00    0.77756   0.77436   12.861
 5978.00    0.76986   0.77160   12.989
 5979.00    0.76489   0.76882   13.074
 5980.00    0.77521   0.76640   12.900
 5981.00    0.81575   0.76431   12.259
 5982.00    0.86691   0.76275   11.535
 5983.00    0.89545   0.76155   11.168
 5984.00    0.88774   0.76084   11.265
 5985.00    0.85110   0.76050   11.749
 5986.00    0.80903   0.76040   12.361
 5987.00    0.78127   0.76082   12.800
 5988.00    0.76393   0.76162   13.090
 5989.00    0.75117   0.76293   13.313
 5990.00    0.75853   0.76469   13.183
 5991.00    0.80015   0.76591   12.498
 5992.00    0.86473   0.76684   11.564
 5993.00    0.92518   0.76742   10.809
 5994.00    0.95189   0.76756   10.505
 5995.00    0.93445   0.76718   10.701
 5996.00    0.89619   0.76648   11.158
 5997.00    0.86406   0.76567   11.573
 5998.00    0.84358   0.76447   11.854
 5999.00    0.82306   0.76311   12.150
 6000.00    0.78292   0.76153   12.773
 6001.00    0.72845   0.75992   13.728
 6002.00    0.70519   0.75829   14.181
 6003.00    0.74379   0.75671   13.445
 6004.00    0.82569   0.75536   12.111
 6005.00    0.90865   0.75403   11.005
 6006.00    0.94927   0.75274   10.534
 6007.00    0.93128   0.75144   10.738
 6008.00    0.87718   0.75043   11.400
 6009.00    0.82213   0.74972   12.164
 6010.00    0.79440   0.74886   12.588
 6011.00    0.79246   0.74818   12.619
 6012.00    0.78445   0.74742   12.748
 6013.00    0.76060   0.74696   13.148
 6014.00    0.74943   0.74663   13.344
 6015.00    0.77352   0.74583   12.928
 6016.00    0.82925   0.74504   12.059
 6017.00    0.88978   0.74418   11.239
 6018.00    0.91593   0.74388   10.918
 6019.00    0.89148   0.74385   11.217
 6020.00    0.83236   0.74428   12.014
 6021.00    0.76766   0.74502   13.027
 6022.00    0.72656   0.74645   13.764
 6023.00    0.71954   0.74846   13.898
 6024.00    0.73789   0.75065   13.552
 6025.00    0.77273   0.75358   12.941
 6026.00    0.81934   0.75662   12.205
 6027.00    0.87109   0.76006   11.480
 6028.00    0.91743   0.76331   10.900
 6029.00    0.94409   0.76657   10.592
 6030.00    0.94061   0.76967   10.631
 6031.00    0.91937   0.77222   10.877
 6032.00    0.90611   0.77465   11.036
 6033.00    0.90500   0.77663   11.050
 6034.00    0.89906   0.77809   11.123
 6035.00    0.87205   0.77907   11.467
 6036.00    0.82252   0.77978   12.158
 6037.00    0.78154   0.78005   12.795
 6038.00    0.79014   0.78025   12.656
 6039.00    0.84726   0.78019   11.803
 6040.00    0.91649   0.78021   10.911
 6041.00    0.95959   0.78022   10.421
 6042.00    0.95428   0.78040   10.479
 6043.00    0.91299   0.78065   10.953
 6044.00    0.86415   0.78086   11.572
 6045.00    0.81646   0.78132   12.248
 6046.00    0.77165   0.78148   12.959
 6047.00    0.75200   0.78158   13.298
 6048.00    0.77820   0.78124   12.850
 6049.00    0.83230   0.78052   12.015
 6050.00    0.87736   0.77939   11.398
 6051.00    0.89220   0.77780   11.208
 6052.00    0.88230   0.77606   11.334
 6053.00    0.88514   0.77407   11.298
 6054.00    0.93108   0.77229   10.740
 6055.00    0.99841   0.77051   10.016
 6056.00    1.04617   0.76890   -1.000
 6057.00    1.05687   0.76748   -1.000
 6058.00    1.03729   0.76626    9.641
 6059.00    1.01210   0.76542    9.880
 6060.00    0.99589   0.76441   10.041
 6061.00    0.96948   0.76395   10.315
 6062.00    0.91442   0.76387   10.936
 6063.00    0.84504   0.76406   11.834
 6064.00    0.78995   0.76463   12.659
 6065.00    0.77169   0.76556   12.959
 6066.00    0.79029   0.76706   12.654
 6067.00    0.81578   0.76894   12.258
 6068.00    0.82466   0.77121   12.126
 6069.00    0.82511   0.77346   12.120
 6070.00    0.83320   0.77562   12.002
 6071.00    0.85406   0.77748   11.709
 6072.00    0.87943   0.77848   11.371
 6073.00    0.89030   0.77842   11.232
 6074.00    0.87915   0.77745   11.375
 6075.00    0.85970   0.77564   11.632
 6076.00    0.84141   0.77306   11.885
 6077.00    0.81757   0.76982   12.231
 6078.00    0.78537   0.76635   12.733
 6079.00    0.75429   0.76286   13.257
 6080.00    0.72979   0.75939   13.703
 6081.00    0.70763   0.75634   14.132
 6082.00    0.68829   0.75365   14.529
 6083.00    0.68167   0.75157   14.670
 6084.00    0.69534   0.75000   14.381
 6085.00    0.73020   0.74873   13.695
 6086.00    0.78486   0.74784   12.741
 6087.00    0.85597   0.74735   11.683
 6088.00    0.93156   0.74711   10.735
 6089.00    0.98979   0.74704   10.103
 6090.00    1.00424   0.74731    9.958
 6091.00    0.95551   0.74764   10.466
 6092.00    0.86268   0.74805   11.592
 6093.00    0.77966   0.74854   12.826
 6094.00    0.74844   0.74890   13.361
 6095.00    0.77935   0.74912   12.831
 6096.00    0.83974   0.74895   11.908
 6097.00    0.87172   0.74815   11.472
 6098.00    0.84934   0.74692   11.774
 6099.00    0.78737   0.74575   12.700
 6100.00    0.72010   0.74412   13.887
 6101.00    0.68343   0.74251   14.632
 6102.00    0.68653   0.74106   14.566
 6103.00    0.71558   0.74015   13.975
 6104.00    0.75822   0.73998   13.189
 6105.00    0.80548   0.74046   12.415
 6106.00    0.84366   0.74143   11.853
 6107.00    0.86111   0.74290   11.613
 6108.00    0.86479   0.74513   11.563
 6109.00    0.87292   0.74733   11.456
 6110.00    0.89503   0.74940   11.173
 6111.00    0.92803   0.75093   10.776
 6112.00    0.95665   0.75183   10.453
 6113.00    0.96460   0.75227   10.367
 6114.00    0.95232   0.75190   10.501
 6115.00    0.93146   0.75074   10.736
 6116.00    0.91170   0.74899   10.968
 6117.00    0.89571   0.74664   11.164
 6118.00    0.87541   0.74409   11.423
 6119.00    0.84171   0.74157   11.881
 6120.00    0.79799   0.73890   12.531
 6121.00    0.75644   0.73660   13.220
 6122.00    0.73048   0.73477   13.690
 6123.00    0.72668   0.73354   13.761
 6124.00    0.73689   0.73289   13.570
 6125.00    0.74725   0.73283   13.382
 6126.00    0.74917   0.73303   13.348
 6127.00    0.74078   0.73343   13.499
 6128.00    0.72673   0.73384   13.760
 6129.00    0.71402   0.73357   14.005
 6130.00    0.70781   0.73270   14.128
 6131.00    0.71044   0.73091   14.076
 6132.00    0.72126   0.72825   13.865
 6133.00    0.73998   0.72535   13.514
 6134.00    0.76786   0.72221   13.023
 6135.00    0.79360   0.71914   12.601
 6136.00    0.78689   0.71643   12.708
 6137.00    0.73892   0.71449   13.533
 6138.00    0.68705   0.71385   14.555
 6139.00    0.66573   0.71425   15.021
 6140.00    0.67167   0.71589   14.888
 6141.00    0.67514   0.71826   14.812
 6142.00    0.63838   0.72147   15.665
 6143.00    0.57418   0.72489   17.416
 6144.00    0.56305   0.72820   17.760
 6145.00    0.64107   0.73098   15.599
 6146.00    0.74923   0.73297   13.347
 6147.00    0.82456   0.73413   12.128
 6148.00    0.85078   0.73458   11.754
 6149.00    0.84965   0.73440   11.769
 6150.00    0.86404   0.73359   11.573
 6151.00    0.90476   0.73225   11.053
 6152.00    0.93838   0.73030   10.657
 6153.00    0.94723   0.72793   10.557
 6154.00    0.94706   0.72481   10.559
 6155.00    0.94554   0.72118   10.576
 6156.00    0.92987   0.71672   10.754
 6157.00    0.88929   0.71181   11.245
 6158.00    0.82449   0.70649   12.129
 6159.00    0.74803   0.70099   13.369
 6160.00    0.68165   0.69576   14.670
 6161.00    0.64735   0.69086   15.448
 6162.00    0.65439   0.68691   15.281
 6163.00    0.66977   0.68395   14.931
 6164.00    0.63549   0.68210   15.736
 6165.00    0.54680   0.68140   18.288
 6166.00    0.45508   0.68184   -1.000
 6167.00    0.40980   0.68322   -1.000
 6168.00    0.43560   0.68525   -1.000
 6169.00    0.51775   0.68804   19.314
 6170.00    0.61447   0.69109   16.274
 6171.00    0.69532   0.69438   14.382
 6172.00    0.74879   0.69765   13.355
 6173.00    0.77711   0.70097   12.868
 6174.00    0.79197   0.70437   12.627
 6175.00    0.80781   0.70758   12.379
 6176.00    0.83154   0.71076   12.026
 6177.00    0.84600   0.71377   11.820
 6178.00    0.82577   0.71647   12.110
 6179.00    0.77218   0.71839   12.950
 6180.00    0.70959   0.71980   14.093
 6181.00    0.66646   0.72053   15.005
 6182.00    0.65862   0.72054   15.183
 6183.00    0.66893   0.71978   14.949
 6184.00    0.67112   0.71819   14.900
 6185.00    0.67025   0.71610   14.920
 6186.00    0.68620   0.71335   14.573
 6187.00    0.72143   0.71053   13.861
 6188.00    0.76606   0.70780   13.054
 6189.00    0.81058   0.70540   12.337
 6190.00    0.84306   0.70357   11.861
 6191.00    0.84463   0.70255   11.839
 6192.00    0.80376   0.70235   12.442
 6193.00    0.73302   0.70292   13.642
 6194.00    0.65875   0.70432   15.180
 6195.00    0.60691   0.70618   16.477
 6196.00    0.59625   0.70835   16.772
 6197.00    0.63200   0.71054   15.823
 6198.00    0.69941   0.71265   14.298
 6199.00    0.76080   0.71494   13.144
 6200.00    0.78410   0.71678   12.753
 6201.00    0.76754   0.71834   13.029
 6202.00    0.72354   0.71963   13.821
 6203.00    0.66314   0.72068   15.080
 6204.00    0.59791   0.72127   -2.000
 6205.00    0.54165   0.72132   -2.000
 6206.00    0.50498   0.72068   -2.000
 6207.00    0.49240   0.71941   -2.000
 6208.00    0.51200   0.71732   -2.000
 6209.00    0.57819   0.71430   -2.000
 6210.00    0.68232   0.71059   -2.000
 6211.00    0.77920   0.70631   -2.000
 6212.00    0.82618   0.70176   -2.000
 6213.00    0.81010   0.69717   -2.000
 6214.00    0.75744   0.69288   -2.000
 6215.00    0.72767   0.68916   -2.000
 6216.00    0.75039   0.68615   13.326
 6217.00    0.79912   0.68393   12.514
 6218.00    0.83532   0.68261   11.971
 6219.00    0.83298   0.68199   12.005
 6220.00    0.78301   0.68200   12.771
 6221.00    0.69467   0.68253   14.395
 6222.00    0.59446   0.68321   16.822
 6223.00    0.51883   0.68378   19.274
 6224.00    0.48685   0.68411   -1.000
 6225.00    0.49294   0.68409   -1.000
 6226.00    0.52332   0.68361   19.109
 6227.00    0.56472   0.68307   17.708
 6228.00    0.61091   0.68224   16.369
 6229.00    0.66027   0.68141   15.145
 6230.00    0.69993   0.68059   14.287
 6231.00    0.70983   0.68007   14.088
 6232.00    0.69243   0.67995   14.442
 6233.00    0.67114   0.67995   14.900
 6234.00    0.65779   0.68028   15.202
 6235.00    0.64986   0.68039   15.388
 6236.00    0.65048   0.68026   15.373
 6237.00    0.67081   0.67973   14.907
 6238.00    0.72123   0.67894   13.865
 6239.00    0.80026   0.67759   12.496
 6240.00    0.87466   0.67598   11.433
 6241.00    0.89708   0.67431   11.147
 6242.00    0.85630   0.67259   11.678
 6243.00    0.77572   0.67115   12.891
 6244.00    0.68553   0.67010   14.587
 6245.00    0.61231   0.66938   16.331
 6246.00    0.57096   0.66906   17.514
 6247.00    0.56368   0.66885   17.741
 6248.00    0.58148   0.66872   17.197
 6249.00    0.60895   0.66812   16.422
 6250.00    0.63200   0.66726   15.823
 6251.00    0.64317   0.66600   15.548
 6252.00    0.64741   0.66433   15.446
 6253.00    0.65372   0.66268   15.297
 6254.00    0.66126   0.66099   15.123
 6255.00    0.66521   0.65978   15.033
 6256.00    0.66776   0.65904   14.975
 6257.00    0.67512   0.65926   14.812
 6258.00    0.69110   0.66018   14.470
 6259.00    0.71168   0.66217   14.051
 6260.00    0.72061   0.66496   13.877
 6261.00    0.70649   0.66827   14.155
 6262.00    0.68211   0.67193   14.660
 6263.00    0.66584   0.67551   15.019
 6264.00    0.65932   0.67905   15.167
 6265.00    0.65522   0.68213   15.262
 6266.00    0.64801   0.68498   15.432
 6267.00    0.63716   0.68724   15.695
 6268.00    0.62873   0.68917   15.905
 6269.00    0.63100   0.69073   15.848
 6270.00    0.64993   0.69197   15.386
 6271.00    0.68507   0.69294   14.597
 6272.00    0.72676   0.69374   13.760
 6273.00    0.75920   0.69431   13.172
 6274.00    0.76459   0.69467   13.079
 6275.00    0.73575   0.69481   13.592
 6276.00    0.68387   0.69476   14.623
 6277.00    0.62770   0.69461   15.931
 6278.00    0.58463   0.69439   17.105
 6279.00    0.56607   0.69435   17.666
 6280.00    0.57501   0.69441    0.000
 6281.00    0.60822   0.69486    0.000
 6282.00    0.65804   0.69555    0.000
 6283.00    0.71376   0.69661    0.000
 6284.00    0.76264   0.69784    0.000
 6285.00    0.79101   0.69919    0.000
 6286.00    0.78643   0.70044    0.000
 6287.00    0.74549   0.70142    0.000
 6288.00    0.67799   0.70204    0.000
 6289.00    0.60778   0.70205    0.000
 6290.00    0.56619   0.70155    0.000
 6291.00    0.56243   0.70034    0.000
 6292.00    0.57768   0.69862    0.000
 6293.00    0.59557   0.69641    0.000
 6294.00    0.61499   0.69388    0.000
 6295.00    0.64852   0.69121    0.000
 6296.00    0.71283   0.68853    0.000
 6297.00    0.79824   0.68604    0.000
 6298.00    0.86890   0.68390    0.000
 6299.00    0.90058   0.68227    0.000
 6300.00    0.89168   0.68126    0.000
 6301.00    0.85569   0.68090    0.000
 6302.00    0.81404   0.68113    0.000
 6303.00    0.78299   0.68192    0.000
 6304.00    0.77118   0.68311    0.000
 6305.00    0.78365   0.68447    0.000
 6306.00    0.81660   0.68582    0.000
 6307.00    0.84181   0.68690    0.000
 6308.00    0.82323   0.68745    0.000
 6309.00    0.76541   0.68737    0.000
 6310.00    0.70371   0.68659    0.000
 6311.00    0.65559   0.68520    0.000
 6312.00    0.61809   0.68325    0.000
 6313.00    0.58643   0.68094    0.000
 6314.00    0.56034   0.67850    0.000
 6315.00    0.54807   0.67629    0.000
 6316.00    0.55711   0.67447    0.000
 6317.00    0.57646   0.67331    0.000
 6318.00    0.58820   0.67288    0.000
 6319.00    0.59263   0.67339    0.000
 6320.00    0.59903   0.67469    0.000
 6321.00    0.60415   0.67678   16.552
 6322.00    0.59883   0.67932   16.699
 6323.00    0.58334   0.68219   17.143
 6324.00    0.56706   0.68515   17.635
 6325.00    0.56422   0.68792   17.724
 6326.00    0.58313   0.69025   17.149
 6327.00    0.61364   0.69198   16.296
 6328.00    0.63853   0.69317   15.661
 6329.00    0.64966   0.69352   15.393
 6330.00    0.64637   0.69315   15.471
 6331.00    0.63142   0.69213   15.837
 6332.00    0.61151   0.69057   16.353
 6333.00    0.59769   0.68864   16.731
 6334.00    0.59629   0.68643   16.770
 6335.00    0.60078   0.68422   16.645
 6336.00    0.60350   0.68216   16.570
 6337.00    0.60702   0.68038   16.474
 6338.00    0.61649   0.67897   16.221
 6339.00    0.63185   0.67789   15.827
 6340.00    0.64847   0.67733   15.421
 6341.00    0.65917   0.67704   15.171
 6342.00    0.66129   0.67715   15.122
 6343.00    0.66112   0.67748   15.126
 6344.00    0.66542   0.67811   15.028
 6345.00    0.67449   0.67895   14.826
 6346.00    0.68010   0.67989   14.704
 6347.00    0.66734   0.68084   14.985
 6348.00    0.63437   0.68163   15.764
 6349.00    0.60196   0.68218   16.612
 6350.00    0.59164   0.68224   16.902
 6351.00    0.61043   0.68176   16.382
 6352.00    0.64364   0.68059   15.537
 6353.00    0.65786   0.67875   15.201
 6354.00    0.63693   0.67625   15.700
 6355.00    0.59722   0.67319   16.744
 6356.00    0.56484   0.66978   17.704
 6357.00    0.56097   0.66625   17.826
 6358.00    0.59008   0.66288   16.947
 6359.00    0.63788   0.65995   15.677
 6360.00    0.68619   0.65771   14.573
 6361.00    0.72162   0.65637   13.858
 6362.00    0.74307   0.65608   13.458
 6363.00    0.75934   0.65687   13.169
 6364.00    0.76872   0.65871   13.009
 6365.00    0.75667   0.66147   13.216
 6366.00    0.71595   0.66492   13.967
 6367.00    0.65518   0.66883   15.263
 6368.00    0.60148   0.67300   16.626
 6369.00    0.59109   0.67710   16.918
 6370.00    0.63799   0.68102   15.674
 6371.00    0.72680   0.68450   13.759
 6372.00    0.82207   0.68752   12.164
 6373.00    0.88011   0.68990   11.362
 6374.00    0.87303   0.69171   11.454
 6375.00    0.79911   0.69288   12.514
 6376.00    0.69165   0.69356   14.458
 6377.00    0.60440   0.69379   16.545
 6378.00    0.57163   0.69371   17.494
 6379.00    0.59567   0.69345   16.788
 6380.00    0.64180   0.69311   15.581
 6381.00    0.66471   0.69280   15.044
 6382.00    0.66448   0.69255   15.049
 6383.00    0.67186   0.69240   14.884
 6384.00    0.69637   0.69228   14.360
 6385.00    0.72663   0.69216   13.762
 6386.00    0.75023   0.69192   13.329
 6387.00    0.75832   0.69149   13.187
 6388.00    0.74703   0.69077   13.386
 6389.00    0.71563   0.68976   13.974
 6390.00    0.66355   0.68850   15.070
 6391.00    0.59766   0.68704   16.732
 6392.00    0.54292   0.68549   18.419
 6393.00    0.52605   0.68392   19.010
 6394.00    0.55064   0.68252   18.161
 6395.00    0.60347   0.68129   16.571
 6396.00    0.66761   0.68038   14.979
 6397.00    0.72358   0.67975   13.820
 6398.00    0.74933   0.67942   13.345
 6399.00    0.72924   0.67937   13.713
 6400.00    0.66451   0.67950   15.049
 6401.00    0.57233   0.67982   17.472
 6402.00    0.48286   0.68011   -1.000
 6403.00    0.42871   0.68043   -1.000
 6404.00    0.43323   0.68056   -1.000
 6405.00    0.49672   0.68059   -1.000
 6406.00    0.58702   0.68033   17.035
 6407.00    0.66705   0.67991   14.991
 6408.00    0.72036   0.67930   13.882
 6409.00    0.74950   0.67863   13.342
 6410.00    0.77071   0.67791   12.975
 6411.00    0.79485   0.67728   12.581
 6412.00    0.81456   0.67674   12.277
 6413.00    0.82111   0.67627   12.179
 6414.00    0.81591   0.67594   12.256
 6415.00    0.79832   0.67569   12.526
 6416.00    0.75891   0.67562   13.177
 6417.00    0.69539   0.67565   14.380
 6418.00    0.62188   0.67593   16.080
 6419.00    0.55965   0.67639   17.868
 6420.00    0.52857   0.67717   18.919
 6421.00    0.53275   0.67812   18.770
 6422.00    0.55530   0.67929   18.008
 6423.00    0.57327   0.68053   17.444
 6424.00    0.56892   0.68168   17.577
 6425.00    0.54347   0.68266   18.400
 6426.00    0.51874   0.68325   19.277
 6427.00    0.51340   0.68350   19.478
 6428.00    0.53138   0.68328   18.819
 6429.00    0.56209   0.68277   17.791
 6430.00    0.58659   0.68198   17.048
 6431.00    0.60085   0.68114   16.643
 6432.00    0.61774   0.68037   16.188
 6433.00    0.63793   0.67976   15.676
 6434.00    0.64582   0.67946   15.484
 6435.00    0.63578   0.67944   15.729
 6436.00    0.61650   0.67978   16.221
 6437.00    0.59380   0.68040   16.841
 6438.00    0.56864   0.68131   17.586
 6439.00    0.54954   0.68237   18.197
 6440.00    0.55097   0.68349   18.150
 6441.00    0.57727   0.68448   17.323
 6442.00    0.62087   0.68522   16.106
 6443.00    0.67049   0.68549   14.914
 6444.00    0.71448   0.68521   13.996
 6445.00    0.74317   0.68426   13.456
 6446.00    0.74733   0.68271   13.381
 6447.00    0.71360   0.68063   14.013
 6448.00    0.63759   0.67828   15.684
 6449.00    0.55426   0.67586   18.042
 6450.00    0.51761   0.67368   19.319
 6451.00    0.54466   0.67194   18.360
 6452.00    0.60961   0.67076   16.404
 6453.00    0.65750   0.67026   15.209
 6454.00    0.64039   0.67029   15.615
 6455.00    0.57612   0.67082   17.357
 6456.00    0.52090   0.67160   19.198
 6457.00    0.50389   0.67257   19.846
 6458.00    0.52277   0.67346   19.129
 6459.00    0.55576   0.67429   17.993
 6460.00    0.58350   0.67491   17.138
 6461.00    0.61732   0.67544   16.199
 6462.00    0.67469   0.67583   14.822
 6463.00    0.73989   0.67627   13.516
 6464.00    0.77865   0.67672   12.843
 6465.00    0.76589   0.67726   13.057
 6466.00    0.70573   0.67789   14.170
 6467.00    0.64828   0.67853   15.425
 6468.00    0.64511   0.67924   15.501
 6469.00    0.69677   0.67982   14.352
 6470.00    0.77204   0.68040   12.953
 6471.00    0.83594   0.68075   11.963
 6472.00    0.86236   0.68103   11.596
 6473.00    0.84379   0.68107   11.851
 6474.00    0.79004   0.68095   12.658
 6475.00    0.72475   0.68060   13.798
 6476.00    0.67263   0.68004   14.867
 6477.00    0.64709   0.67926   15.454
 6478.00    0.63980   0.67824   15.630
 6479.00    0.61811   0.67706   16.178
 6480.00    0.56959   0.67571   17.557
 6481.00    0.53086   0.67430   18.837
 6482.00    0.53711   0.67278   18.618
 6483.00    0.58541   0.67119   17.082
 6484.00    0.65286   0.66944   15.317
 6485.00    0.71264   0.66740   14.032
 6486.00    0.74460   0.66492   13.430
 6487.00    0.74134   0.66183   13.489
 6488.00    0.70530   0.65802   14.178
 6489.00    0.64680   0.65346   15.461
 6490.00    0.58350   0.64821   17.138
 6491.00    0.53695   0.64253   18.624
 6492.00    0.51608   0.63669   19.377
 6493.00    0.51145   0.63120   19.552
 6494.00    0.51111   0.62643   19.565
 6495.00    0.50927   0.62290   19.636
 6496.00    0.50808   0.62086   19.682
 6497.00    0.51471   0.62057   19.428
 6498.00    0.52633   0.62198   19.000
 6499.00    0.52901   0.62495   18.903
 6500.00    0.52068   0.62921   19.206
 6501.00    0.51689   0.63432   19.346
 6502.00    0.53636   0.63994   18.644
 6503.00    0.58854   0.64556   16.991
 6504.00    0.65114   0.65092   15.358
 6505.00    0.67937   0.65568   14.720
 6506.00    0.66249   0.65973   15.095
 6507.00    0.62928   0.66293   15.891
 6508.00    0.60541   0.66530   16.518
 6509.00    0.59959   0.66688   16.678
 6510.00    0.60411   0.66773   16.553
 6511.00    0.60545   0.66801   16.517
 6512.00    0.61144   0.66777   16.355
 6513.00    0.64224   0.66722   15.571
 6514.00    0.68940   0.66644   14.505
 6515.00    0.72364   0.66562   13.819
 6516.00    0.73754   0.66484   13.559
 6517.00    0.74288   0.66426   13.461
 6518.00    0.74167   0.66388   13.483
 6519.00    0.72645   0.66378   13.766
 6520.00    0.69467   0.66390   14.395
 6521.00    0.65170   0.66419   15.345
 6522.00    0.61050   0.66456   16.380
 6523.00    0.58715   0.66489   17.031
 6524.00    0.59240   0.66514   16.881
 6525.00    0.62367   0.66521   16.034
 6526.00    0.65538   0.66514   15.258
 6527.00    0.66133   0.66489   15.121
 6528.00    0.65157   0.66455    0.000
 6529.00    0.65010   0.66416    0.000
 6530.00    0.65409   0.66382    0.000
 6531.00    0.65155   0.66354    0.000
 6532.00    0.65317   0.66339    0.000
 6533.00    0.67398   0.66336    0.000
 6534.00    0.70425   0.66341    0.000
 6535.00    0.71978   0.66350    0.000
 6536.00    0.70013   0.66352    0.000
 6537.00    0.64251   0.66338    0.000
 6538.00    0.57334   0.66299    0.000
 6539.00    0.52425   0.66225    0.000
 6540.00    0.50521   0.66112    0.000
 6541.00    0.51111   0.65958    0.000
 6542.00    0.53298   0.65765    0.000
 6543.00    0.57532   0.65540    0.000
 6544.00    0.66709   0.65289    0.000
 6545.00    0.81790   0.65022    0.000
 6546.00    0.98226   0.64742    0.000
 6547.00    1.09918   0.64453    0.000
 6548.00    1.13001   0.64151    0.000
 6549.00    1.07383   0.63829    0.000
 6550.00    0.97274   0.63473    0.000
 6551.00    0.87429   0.63072    0.000
 6552.00    0.80285   0.62611    0.000
 6553.00    0.75766   0.62076    0.000
 6554.00    0.72024   0.61462    0.000
 6555.00    0.70351   0.60767    0.000
 6556.00    0.78082   0.60003    0.000
 6557.00    1.06694   0.59188    0.000
 6558.00    1.68531   0.58358    0.000
 6559.00    2.65550   0.57555    0.000
 6560.00    3.83618   0.56836    0.000
 6561.00    4.95862   0.56250    0.000
 6562.00    5.68396   0.55848    0.000
 6563.00    5.78617   0.55662    0.000
 6564.00    5.24226   0.55711    0.000
 6565.00    4.22378   0.55978    0.000
 6566.00    3.04874   0.56443    0.000
 6567.00    2.00705   0.57047    0.000
 6568.00    1.27293   0.57746    0.000
 6569.00    0.86792   0.58480    0.000
 6570.00    0.68205   0.59208    0.000
 6571.00    0.60352   0.59892    0.000
 6572.00    0.56839   0.60518    0.000
 6573.00    0.55587   0.61077    0.000
 6574.00    0.57263   0.61572    0.000
 6575.00    0.61020   0.62010    0.000
 6576.00    0.64494   0.62402    0.000
 6577.00    0.68175   0.62750    0.000
 6578.00    0.75629   0.63061    0.000
 6579.00    0.90121   0.63333    0.000
 6580.00    1.12902   0.63571    0.000
 6581.00    1.41419   0.63769    0.000
 6582.00    1.69200   0.63930    0.000
 6583.00    1.86866   0.64050    0.000
 6584.00    1.86164   0.64130    0.000
 6585.00    1.68517   0.64168    0.000
 6586.00    1.42861   0.64163    0.000
 6587.00    1.16415   0.64118    0.000
 6588.00    0.93412   0.64035    0.000
 6589.00    0.76818   0.63921    0.000
 6590.00    0.67811   0.63787    0.000
 6591.00    0.64182   0.63647    0.000
 6592.00    0.62035   0.63518    0.000
 6593.00    0.59382   0.63414    0.000
 6594.00    0.56129   0.63352    0.000
 6595.00    0.52953   0.63334    0.000
 6596.00    0.51069   0.63366    0.000
 6597.00    0.52104   0.63436    0.000
 6598.00    0.56402   0.63535    0.000
 6599.00    0.60740   0.63645    0.000
 6600.00    0.61505   0.63750    0.000
 6601.00    0.59409   0.63832    0.000
 6602.00    0.57525   0.63884    0.000
 6603.00    0.57817   0.63900    0.000
 6604.00    0.60478   0.63886    0.000
 6605.00    0.63795   0.63850    0.000
 6606.00    0.65758   0.63807    0.000
 6607.00    0.65936   0.63772    0.000
 6608.00    0.65419   0.63761    0.000
 6609.00    0.66328   0.63782   15.077
 6610.00    0.69632   0.63842   14.361
 6611.00    0.73221   0.63940   13.657
 6612.00    0.74362   0.64070   13.448
 6613.00    0.72212   0.64220   13.848
 6614.00    0.67859   0.64378   14.736
 6615.00    0.63871   0.64530   15.657
 6616.00    0.61706   0.64660   16.206
 6617.00    0.59952   0.64760   16.680
 6618.00    0.57425   0.64820   17.414
 6619.00    0.55411   0.64835   18.047
 6620.00    0.55417   0.64806   18.045
 6621.00    0.57499   0.64735   17.392
 6622.00    0.60929   0.64626   16.413
 6623.00    0.64726   0.64486   15.450
 6624.00    0.67690   0.64324   14.773
 6625.00    0.68580   0.64145   14.582
 6626.00    0.67125   0.63958   14.898
 6627.00    0.64436   0.63767   15.519
 6628.00    0.61820   0.63580   16.176
 6629.00    0.60154   0.63401   16.624
 6630.00    0.60183   0.63238   16.616
 6631.00    0.62401   0.63095   16.025
 6632.00    0.65598   0.62979   15.244
 6633.00    0.66988   0.62893   14.928
 6634.00    0.65998   0.62841   15.152
 6635.00    0.65130   0.62822   15.354
 6636.00    0.66029   0.62831   15.145
 6637.00    0.67977   0.62863   14.711
 6638.00    0.69008   0.62908   14.491
 6639.00    0.67162   0.62960   14.889
 6640.00    0.63292   0.63012   15.800
 6641.00    0.60835   0.63061   16.438
 6642.00    0.61302   0.63103   16.313
 6643.00    0.63381   0.63142   15.778
 6644.00    0.65355   0.63178   15.301
 6645.00    0.65992   0.63216   15.153
 6646.00    0.64681   0.63256   15.460
 6647.00    0.61539   0.63299   16.250
 6648.00    0.57575   0.63341   17.369
 6649.00    0.54331   0.63382   18.406
 6650.00    0.52792   0.63416   18.942
 6651.00    0.53278   0.63438   18.769
 6652.00    0.55889   0.63443   17.893
 6653.00    0.60261   0.63427   16.595
 6654.00    0.64770   0.63387   15.439
 6655.00    0.67511   0.63320   14.812
 6656.00    0.68778   0.63227   14.539
 6657.00    0.69857   0.63106   14.315
 6658.00    0.69529   0.62964   14.383
 6659.00    0.65941   0.62806   15.165
 6660.00    0.61436   0.62642   16.277
 6661.00    0.60384   0.62481   16.561
 6662.00    0.63662   0.62337   15.708
 6663.00    0.68868   0.62219   14.520
 6664.00    0.72520   0.62136   13.789
 6665.00    0.72622   0.62095   13.770
 6666.00    0.71851   0.62093   13.918
 6667.00    0.73139   0.62128   13.673
 6668.00    0.72769   0.62187   13.742
 6669.00    0.65849   0.62259   15.186
 6670.00    0.55041   0.62328   18.168
 6671.00    0.47052   0.62381   21.253
 6672.00    0.46381   0.62408   -1.000
 6673.00    0.52972   0.62403   18.878
 6674.00    0.60747   0.62368   16.462
 6675.00    0.63686   0.62309   15.702
 6676.00    0.62611   0.62241   15.972
 6677.00    0.60968   0.62173   16.402
 6678.00    0.59646   0.62125   16.766
 6679.00    0.58379   0.62104   17.129
 6680.00    0.57642   0.62121   17.349
 6681.00    0.58243   0.62173   17.170
 6682.00    0.60688   0.62257   16.478
 6683.00    0.64329   0.62363   15.545
 6684.00    0.66883   0.62479   14.951
 6685.00    0.66326   0.62594   15.077
 6686.00    0.62469   0.62692   16.008
 6687.00    0.56562   0.62767   17.680
 6688.00    0.50723   0.62810   19.715
 6689.00    0.46610   0.62819   -1.000
 6690.00    0.44633   0.62792   -1.000
 6691.00    0.44996   0.62733   -1.000
 6692.00    0.48146   0.62648   20.770
 6693.00    0.52763   0.62543   18.953
 6694.00    0.55257   0.62429   18.097
 6695.00    0.54669   0.62312   18.292
 6696.00    0.54669   0.62203    0.000
 6697.00    0.58077   0.62105    0.000
 6698.00    0.63938   0.62026    0.000
 6699.00    0.68937   0.61963    0.000
 6700.00    0.69076   0.61917    0.000
 6701.00    0.63715   0.61883    0.000
 6702.00    0.56743   0.61857    0.000
 6703.00    0.52755   0.61832    0.000
 6704.00    0.54676   0.61801    0.000
 6705.00    0.61493   0.61761    0.000
 6706.00    0.68570   0.61705    0.000
 6707.00    0.72599   0.61632    0.000
 6708.00    0.73296   0.61537    0.000
 6709.00    0.72081   0.61422    0.000
 6710.00    0.71530   0.61286    0.000
 6711.00    0.75308   0.61136    0.000
 6712.00    0.87643   0.60977    0.000
 6713.00    1.11708   0.60820    0.000
 6714.00    1.47170   0.60675    0.000
 6715.00    1.84678   0.60556    0.000
 6716.00    2.08497   0.60469    0.000
 6717.00    2.08684   0.60425    0.000
 6718.00    1.84971   0.60425    0.000
 6719.00    1.47339   0.60469    0.000
 6720.00    1.11203   0.60549    0.000
 6721.00    0.85312   0.60659    0.000
 6722.00    0.70539   0.60788    0.000
 6723.00    0.64352   0.60924    0.000
 6724.00    0.63328   0.61060    0.000
 6725.00    0.66121   0.61185    0.000
 6726.00    0.72713   0.61298    0.000
 6727.00    0.81625   0.61391    0.000
 6728.00    0.91009   0.61466    0.000
 6729.00    1.01683   0.61517    0.000
 6730.00    1.14212   0.61549    0.000
 6731.00    1.22898   0.61556    0.000
 6732.00    1.19939   0.61543    0.000
 6733.00    1.04149   0.61505    0.000
 6734.00    0.80969   0.61448    0.000
 6735.00    0.59859   0.61371    0.000
 6736.00    0.48557   0.61279    0.000
 6737.00    0.45599   0.61175    0.000
 6738.00    0.45309   0.61062    0.000
 6739.00    0.46028   0.60947    0.000
 6740.00    0.48036   0.60830    0.000
 6741.00    0.49541   0.60719    0.000
 6742.00    0.48238   0.60611    0.000
 6743.00    0.43823   0.60512    0.000
 6744.00    0.38248   0.60421    0.000
 6745.00    0.35371   0.60343    0.000
 6746.00    0.37404   0.60276    0.000
 6747.00    0.41556   0.60226    0.000
 6748.00    0.44429   0.60196    0.000
 6749.00    0.46415   0.60186    0.000
 6750.00    0.48202   0.60206    0.000
 6751.00    0.47565   0.60251    0.000
 6752.00    0.43646   0.60328    0.000
 6753.00    0.40431   0.60430   -1.000
 6754.00    0.41854   0.60556   -1.000
 6755.00    0.47729   0.60698   20.952
 6756.00    0.55400   0.60845   18.050
 6757.00    0.61698   0.60990   16.208
 6758.00    0.66032   0.61117   15.144
 6759.00    0.71488   0.61222   13.988
 6760.00    0.77357   0.61291   12.927
 6761.00    0.75694   0.61325   13.211
 6762.00    0.62475   0.61320   16.006
 6763.00    0.43743   0.61280   -1.000
 6764.00    0.28635   0.61214   -1.000
 6765.00    0.24321   0.61130   -1.000
 6766.00    0.32350   0.61045   -1.000
 6767.00    0.47410   0.60965   21.092
 6768.00    0.60903   0.60909   16.419
 6769.00    0.64539   0.60878   15.494
 6770.00    0.58131   0.60885   17.203
 6771.00    0.50632   0.60921   19.750
 6772.00    0.47618   0.60989   21.000
 6773.00    0.47411   0.61074   21.092
 6774.00    0.49507   0.61166   20.199
 6775.00    0.56434   0.61251   17.720
 6776.00    0.66332   0.61315   15.076
 6777.00    0.72038   0.61347   13.882
 6778.00    0.68942   0.61339   14.505
 6779.00    0.58131   0.61292   17.202
 6780.00    0.46656   0.61204   21.434
 6781.00    0.44011   0.61087   -1.000
 6782.00    0.50893   0.60950   19.649
 6783.00    0.59294   0.60809   16.865
 6784.00    0.64030   0.60674   15.618
 6785.00    0.65168   0.60557   15.345
 6786.00    0.64586   0.60464   15.483
 6787.00    0.64221   0.60398   15.571
 6788.00    0.64262   0.60356   15.561
 6789.00    0.63916   0.60337   15.646
 6790.00    0.64437   0.60330   15.519
 6791.00    0.67853   0.60335   14.738
 6792.00    0.72360   0.60342   13.820
 6793.00    0.74000   0.60353   13.513
 6794.00    0.72560   0.60363   13.782
 6795.00    0.70739   0.60377   14.136
 6796.00    0.69845   0.60393   14.317
 6797.00    0.69669   0.60413   14.354
 6798.00    0.69951   0.60437   14.296
 6799.00    0.70227   0.60462   14.240
 6800.00    0.69109   0.60489   14.470
 6801.00    0.65384   0.60511   15.294
 6802.00    0.59976   0.60530   16.673
 6803.00    0.54852   0.60538   18.231
 6804.00    0.50865   0.60539   19.660
 6805.00    0.48480   0.60529   20.627
 6806.00    0.49231   0.60511   20.312
 6807.00    0.54103   0.60487   18.483
 6808.00    0.61149   0.60459   16.354
 6809.00    0.67243   0.60432   14.871
 6810.00    0.70701   0.60408   14.144
 6811.00    0.70963   0.60390   14.092
 6812.00    0.67856   0.60381   14.737
 6813.00    0.62243   0.60384   16.066
 6814.00    0.56703   0.60397   17.636
 6815.00    0.54052   0.60422   18.501
 6816.00    0.55634   0.60457   17.975
 6817.00    0.60709   0.60500   16.472
 6818.00    0.66197   0.60548   15.106
 6819.00    0.68460   0.60597   14.607
 6820.00    0.65340   0.60643   15.305
 6821.00    0.59378   0.60683   16.841
 6822.00    0.59383   0.60714   16.840
 6823.00    0.70714   0.60732   14.141
 6824.00    0.87995   0.60737   -1.000
 6825.00    1.01675   0.60728   -1.000
 6826.00    1.04234   0.60706   -1.000
 6827.00    0.95423   0.60673   -1.000
 6828.00    0.84175   0.60629   -1.000
 6829.00    0.77640   0.60576   12.880
 6830.00    0.74603   0.60512   13.404
 6831.00    0.71872   0.60435   13.914
 6832.00    0.68607   0.60344   14.576
 6833.00    0.66284   0.60233   15.087
 6834.00    0.67885   0.60104   14.731
 6835.00    0.74227   0.59951   13.472
 6836.00    0.82266   0.59786   12.156
 6837.00    0.86900   0.59608   -1.000
 6838.00    0.83062   0.59435   -1.000
 6839.00    0.70930   0.59272   14.098
 6840.00    0.57089   0.59138   17.516
 6841.00    0.48325   0.59040   20.693
 6842.00    0.48206   0.58986   20.744
 6843.00    0.55073   0.58979   18.158
 6844.00    0.62817   0.59011   15.919
 6845.00    0.67137   0.59080   14.895
 6846.00    0.67320   0.59165   14.855
 6847.00    0.63406   0.59257   15.771
 6848.00    0.55862   0.59337   17.901
 6849.00    0.48171   0.59396   20.759
 6850.00    0.45542   0.59422   21.958
 6851.00    0.47922   0.59413   20.867
 6852.00    0.50532   0.59370   19.789
 6853.00    0.52289   0.59295   19.124
 6854.00    0.55411   0.59200   18.047
 6855.00    0.57113   0.59092   17.509
 6856.00    0.52201   0.58984   19.157
 6857.00    0.45890   0.58883   21.791
 6858.00    0.49047   0.58798   20.389
 6859.00    0.58436   0.58731   17.113
 6860.00    0.61056   0.58685   16.378
 6861.00    0.55293   0.58657   18.085
 6862.00    0.49739   0.58643   20.105
 6863.00    0.49810   0.58640   20.076
 6864.00    0.54987   0.58639   18.186
 6865.00    0.59481   0.58642   16.812
 6866.00    0.56857   0.58639   17.588
 6867.00    0.48294   0.58636   20.707
 6868.00    0.40367   0.58628   -1.000
 6869.00    0.38277   0.58622   -1.000
 6870.00    0.43395   0.58617   -1.000
 6871.00    0.51398   0.58617   19.456
 6872.00    0.55781   0.58624   17.927
 6873.00    0.53726   0.58637   18.613
 6874.00    0.45821   0.58659   21.824
 6875.00    0.34296   0.58682   -1.000
 6876.00    0.22502   0.58713   -1.000
 6877.00    0.14490   0.58741   -1.000
 6878.00    0.13834   0.58774   -1.000
 6879.00    0.22130   0.58806   -1.000
 6880.00    0.37870   0.58843   -1.000
 6881.00    0.55610   0.58888   17.982
 6882.00    0.69428   0.58941   14.403
 6883.00    0.76915   0.59011   13.001
 6884.00    0.79190   0.59093   12.628
 6885.00    0.80068   0.59191   12.489
 6886.00    0.81854   0.59300   12.217
 6887.00    0.81742   0.59417   12.234
 6888.00    0.76666   0.59536   13.044
 6889.00    0.67817   0.59649   14.746
 6890.00    0.57769   0.59752   17.310
 6891.00    0.47907   0.59836   20.874
 6892.00    0.40726   0.59904   -1.000
 6893.00    0.41044   0.59952   -1.000
 6894.00    0.49470   0.59982   20.214
 6895.00    0.58523   0.60000   17.087
 6896.00    0.61811   0.60006   16.178
 6897.00    0.60148   0.60010   16.626
 6898.00    0.56617   0.60007   17.662
 6899.00    0.52992   0.60010   18.871
 6900.00    0.49937   0.60010   20.025
 6901.00    0.47579   0.60019   21.018
 6902.00    0.47413   0.60022   21.091
 6903.00    0.52526   0.60030   19.038
 6904.00    0.62731   0.60029   15.941
 6905.00    0.72843   0.60023   13.728
 6906.00    0.77908   0.60005   12.836
 6907.00    0.76008   0.59974   13.156
 6908.00    0.68213   0.59930   14.660
 6909.00    0.58142   0.59870   17.199
 6910.00    0.50393   0.59802   19.844
 6911.00    0.48955   0.59722   20.427
 6912.00    0.53711   0.59643   18.618
 6913.00    0.60082   0.59564   16.644
 6914.00    0.63421   0.59495   15.768
 6915.00    0.61221   0.59436   16.334
 6916.00    0.54512   0.59389   18.345
 6917.00    0.47335   0.59356   21.126
 6918.00    0.43241   0.59328   -1.000
 6919.00    0.43805   0.59308   -1.000
 6920.00    0.47900   0.59282   20.877
 6921.00    0.52137   0.59254   19.180
 6922.00    0.52786   0.59217   18.944
 6923.00    0.47636   0.59171   20.992
 6924.00    0.39353   0.59122   -1.000
 6925.00    0.33852   0.59065   -1.000
 6926.00    0.33660   0.59018   -1.000
 6927.00    0.37376   0.58967   -1.000
 6928.00    0.42764   0.58937   -1.000
 6929.00    0.48203   0.58908   20.746
 6930.00    0.54077   0.58901   18.492
 6931.00    0.60754   0.58899   16.460
 6932.00    0.63789   0.58910   15.677
 6933.00    0.58167   0.58929   17.192
 6934.00    0.48592   0.58948   20.580
 6935.00    0.44448   0.58971   22.498
 6936.00    0.46647   0.58983   21.438
 6937.00    0.50314   0.58991   19.875
 6938.00    0.53825   0.58982   18.579
 6939.00    0.57707   0.58961   17.329
 6940.00    0.60308   0.58923   16.581
 6941.00    0.60058   0.58869   16.651
 6942.00    0.59799   0.58806   16.723
 6943.00    0.62666   0.58729   15.958
 6944.00    0.65415   0.58655   15.287
 6945.00    0.62339   0.58577   16.041
 6946.00    0.51958   0.58510   19.246
 6947.00    0.38733   0.58449   -1.000
 6948.00    0.33334   0.58404   -1.000
 6949.00    0.42090   0.58371   -1.000
 6950.00    0.55410   0.58354   18.047
 6951.00    0.61123   0.58354   16.360
 6952.00    0.60186   0.58368   16.615
 6953.00    0.58251   0.58402   17.167
 6954.00    0.55562   0.58446   17.998
 6955.00    0.52296   0.58511   19.122
 6956.00    0.53818   0.58582   18.581
 6957.00    0.60953   0.58668   16.406
 6958.00    0.62405   0.58755   16.024
 6959.00    0.51904   0.58848   19.266
 6960.00    0.41281   0.58935   -1.000
 6961.00    0.40091   0.59018   -1.000
 6962.00    0.40434   0.59089   -1.000
 6963.00    0.35043   0.59147   -1.000
 6964.00    0.30181   0.59188   -1.000
 6965.00    0.32347   0.59210   -1.000
 6966.00    0.39039   0.59209   -1.000
 6967.00    0.45132   0.59183   22.157
 6968.00    0.47539   0.59127   21.036
 6969.00    0.45106   0.59042   22.170
 6970.00    0.38614   0.58921   -1.000
 6971.00    0.32068   0.58772   -1.000
 6972.00    0.31852   0.58593   -1.000
 6973.00    0.38114   0.58397   -1.000
 6974.00    0.42714   0.58192   -1.000
 6975.00    0.43169   0.57993   23.165
 6976.00    0.46831   0.57818   21.353
 6977.00    0.55928   0.57676   17.880
 6978.00    0.62899   0.57588   15.898
 6979.00    0.62571   0.57552   15.982
 6980.00    0.56745   0.57580   17.623
 6981.00    0.49581   0.57658   20.169
 6982.00    0.44846   0.57786   22.298
 6983.00    0.43397   0.57942   23.043
 6984.00    0.43415   0.58119   -1.000
 6985.00    0.44786   0.58295   22.328
 6986.00    0.48984   0.58462   20.415
 6987.00    0.53174   0.58604   18.806
 6988.00    0.51459   0.58719   19.433
 6989.00    0.45194   0.58800   22.127
 6990.00    0.41989   0.58849   -1.000
 6991.00    0.42799   0.58864   -1.000
 6992.00    0.42095   0.58850   -1.000
 6993.00    0.39220   0.58806   -1.000
 6994.00    0.38592   0.58736   -1.000
 6995.00    0.41745   0.58643   -1.000
 6996.00    0.46291   0.58531   21.602
 6997.00    0.48721   0.58406   20.525
 6998.00    0.46480   0.58270   21.515
 6999.00    0.40958   0.58134   -1.000
 7000.00    0.36507   0.57997   -1.000
 7001.00    0.36825   0.57873   -2.000
 7002.00    0.41686   0.57759   -2.000
 7003.00    0.42557   0.57665   -2.000
 7004.00    0.34854   0.57585   -2.000
 7005.00    0.40564   0.57525   -2.000
 7006.00    0.71266   0.57474   -2.000
 7007.00    0.60784   0.57437   -2.000
 7008.00   -0.46543   0.57403   -2.000
 7009.00   -1.40184   0.57373   -2.000
 7010.00   -0.82539   0.57336   -2.000
 7011.00    0.47704   0.57297   -2.000
 7012.00    0.93057   0.57251   -2.000
 7013.00    0.62019   0.57204   -2.000
 7014.00    0.44344   0.57156   -2.000
 7015.00    0.52175   0.57114   -2.000
 7016.00    0.55029   0.57082   -2.000
 7017.00    0.49594   0.57059   -2.000
 7018.00    0.47302   0.57053   -2.000
 7019.00    0.49823   0.57055   -2.000
 7020.00    0.53196   0.57074   -2.000
 7021.00    0.55480   0.57096   -2.000
 7022.00    0.56120   0.57129   -2.000
 7023.00    0.54536   0.57165   -2.000
 7024.00    0.51025   0.57210   -2.000
 7025.00    0.47634   0.57259   -2.000
 7026.00    0.46650   0.57313   -2.000
 7027.00    0.49004   0.57373   -2.000
 7028.00    0.53091   0.57433   -2.000
 7029.00    0.54560   0.57503   -2.000
 7030.00    0.52341   0.57572   -2.000
 7031.00    0.52233   0.57644   -2.000
 7032.00    0.56442   0.57715   -2.000
 7033.00    0.57269   0.57792   -2.000
 7034.00    0.50557   0.57870   -2.000
 7035.00    0.43763   0.57957   -2.000
 7036.00    0.43412   0.58056   -2.000
 7037.00    0.47328   0.58167   -2.000
 7038.00    0.50988   0.58293   -2.000
 7039.00    0.51842   0.58425   -2.000
 7040.00    0.49544   0.58570   -2.000
 7041.00    0.45649   0.58709   -2.000
 7042.00    0.41921   0.58844   -2.000
 7043.00    0.39394   0.58953   -2.000
 7044.00    0.38343   0.59038   -2.000
 7045.00    0.38417   0.59080   -2.000
 7046.00    0.39207   0.59080   -2.000
 7047.00    0.40221   0.59028   -2.000
 7048.00    0.39588   0.58924   -2.000
 7049.00    0.35105   0.58770   -2.000
 7050.00    0.30815   0.58570   -2.000
 7051.00    0.35678   0.58336   -2.000
 7052.00    0.48020   0.58072   -2.000
 7053.00    0.55246   0.57795   -2.000
 7054.00    0.55075   0.57513   -2.000
 7055.00    0.57158   0.57241   -2.000
 7056.00    0.61900   0.56982   -2.000
 7057.00    0.59374   0.56748   -2.000
 7058.00    0.49145   0.56534   -2.000
 7059.00    0.41283   0.56349   -2.000
 7060.00    0.40184   0.56185   -2.000
 7061.00    0.42565   0.56049   -2.000
 7062.00    0.45701   0.55934   -2.000
 7063.00    0.49125   0.55843   -2.000
 7064.00    0.52789   0.55772   -2.000
 7065.00    0.56357   0.55723   -2.000
 7066.00    0.58740   0.55698   -2.000
 7067.00    0.58769   0.55694   -2.000
 7068.00    0.56944   0.55719   -2.000
 7069.00    0.54945   0.55765   -2.000
 7070.00    0.53752   0.55841   -2.000
 7071.00    0.53830   0.55928   -2.000
 7072.00    0.56250   0.56031   -2.000
 7073.00    0.61430   0.56130   -2.000
 7074.00    0.66487   0.56223   -2.000
 7075.00    0.67371   0.56287   -2.000
 7076.00    0.63381   0.56323   -2.000
 7077.00    0.56647   0.56316   -2.000
 7078.00    0.49942   0.56267   -2.000
 7079.00    0.45727   0.56168   -2.000
 7080.00    0.45205   0.56018   -2.000
 7081.00    0.47541   0.55823   -2.000
 7082.00    0.49178   0.55588   -2.000
 7083.00    0.47359   0.55329   -2.000
 7084.00    0.44651   0.55056   -2.000
 7085.00    0.44341   0.54780   -2.000
 7086.00    0.44247   0.54519   -2.000
 7087.00    0.41230   0.54277   -2.000
 7088.00    0.37166   0.54070   -2.000
 7089.00    0.35750   0.53896   -2.000
 7090.00    0.38210   0.53767   -2.000
 7091.00    0.43232   0.53675   -2.000
 7092.00    0.47590   0.53624   -2.000
 7093.00    0.48833   0.53605   -2.000
 7094.00    0.47712   0.53615   -2.000
 7095.00    0.46720   0.53655   -2.000
 7096.00    0.48280   0.53705   -2.000
 7097.00    0.52129   0.53769   -2.000
 7098.00    0.53976   0.53827   -2.000
 7099.00    0.52081   0.53887   -2.000
 7100.00    0.51443   0.53932   -2.000
 7101.00    0.54378   0.53972   -2.000
 7102.00    0.54689   0.53987   -2.000
 7103.00    0.48822   0.53984   -2.000
 7104.00    0.42599   0.53964   -2.000
 7105.00    0.41184   0.53926   -2.000
 7106.00    0.43010   0.53876   -2.000
 7107.00    0.45439   0.53812   -2.000
 7108.00    0.48057   0.53748   -2.000
 7109.00    0.50000   0.53677   -2.000
 7110.00    0.49058   0.53615   -2.000
 7111.00    0.45824   0.53553   -2.000
 7112.00    0.44637   0.53507   -2.000
 7113.00    0.46733   0.53467   -2.000
 7114.00    0.48068   0.53437   -2.000
 7115.00    0.45844   0.53412   -2.000
 7116.00    0.41058   0.53389   -2.000
 7117.00    0.35515   0.53368   -2.000
 7118.00    0.30926   0.53338   -2.000
 7119.00    0.30906   0.53306   -2.000
 7120.00    0.38959   0.53259   -2.000
 7121.00    0.47733   0.53209   -2.000
 7122.00    0.42319   0.53141   -2.000
 7123.00    0.26758   0.53069   -2.000
 7124.00    0.22904   0.52991   -2.000
 7125.00    0.34137   0.52911   -2.000
 7126.00    0.42740   0.52839   -2.000
 7127.00    0.41265   0.52773   -2.000
 7128.00    0.37224   0.52724   -2.000
 7129.00    0.36620   0.52695   -2.000
 7130.00    0.40605   0.52688   -2.000
 7131.00    0.50269   0.52705   -2.000
 7132.00    0.65979   0.52745   -2.000
 7133.00    0.82328   0.52814   -2.000
 7134.00    0.91146   0.52891   -2.000
 7135.00    0.91742   0.52983   -2.000
 7136.00    0.88703   0.53075   -2.000
 7137.00    0.81463   0.53163   -2.000
 7138.00    0.66526   0.53239   -2.000
 7139.00    0.47057   0.53294   -2.000
 7140.00    0.30583   0.53329   -2.000
 7141.00    0.20395   0.53341   -2.000
 7142.00    0.14733   0.53336   -2.000
 7143.00    0.08724   0.53309   -2.000
 7144.00    0.00169   0.53278   -2.000
 7145.00   -0.01723   0.53240   -2.000
 7146.00    0.12653   0.53206   -2.000
 7147.00    0.33727   0.53183   -2.000
 7148.00    0.44476   0.53174   -2.000
 7149.00    0.42721   0.53188   -2.000
 7150.00    0.36606   0.53218   -2.000
 7151.00    0.33171   0.53269   -2.000
 7152.00    0.34819   0.53322   -2.000
 7153.00    0.37134   0.53390   -2.000
 7154.00    0.34396   0.53448   -2.000
 7155.00    0.26733   0.53501   -2.000
 7156.00    0.18573   0.53532   -2.000
 7157.00    0.15454   0.53546   -2.000
 7158.00    0.19701   0.53537   -2.000
 7159.00    0.26633   0.53509   -2.000
 7160.00    0.31527   0.53476   -2.000
 7161.00    0.36496   0.53424   -2.000
 7162.00    0.42784   0.53386   -2.000
 7163.00    0.43893   0.53348   -2.000
 7164.00    0.37808   0.53342   -2.000
 7165.00    0.36649   0.53352   -2.000
 7166.00    0.47918   0.53396   -2.000
 7167.00    0.60157   0.53458   -2.000
 7168.00    0.63101   0.53540   -2.000
 7169.00    0.62294   0.53634   -2.000
 7170.00    0.60075   0.53728   -2.000
 7171.00    0.44075   0.53811   -2.000
 7172.00    0.13090   0.53875   -2.000
 7173.00   -0.09115   0.53912   -2.000
 7174.00   -0.07550   0.53920   -2.000
 7175.00    0.05263   0.53894   -2.000
 7176.00    0.15654   0.53838   -2.000
 7177.00    0.23866   0.53755   -2.000
 7178.00    0.32329   0.53648   -2.000
 7179.00    0.39060   0.53523   -2.000
 7180.00    0.41605   0.53387   -2.000
 7181.00    0.39460   0.53245   -2.000
 7182.00    0.34524   0.53102   -2.000
 7183.00    0.30621   0.52968   -2.000
 7184.00    0.30419   0.52840   -2.000
 7185.00    0.33880   0.52731   -2.000
 7186.00    0.38030   0.52624   -2.000
 7187.00    0.39155   0.52538   -2.000
 7188.00    0.41867   0.52466   -2.000
 7189.00    0.56639   0.52430   -2.000
 7190.00    0.76420   0.52413   -2.000
 7191.00    0.78116   0.52418   -2.000
 7192.00    0.60178   0.52443   -2.000
 7193.00    0.45245   0.52487   -2.000
 7194.00    0.42619   0.52546   -2.000
 7195.00    0.42728   0.52614   -2.000
 7196.00    0.40650   0.52695   -2.000
 7197.00    0.39257   0.52772   -2.000
 7198.00    0.36058   0.52846   -2.000
 7199.00    0.24649   0.52896   -2.000
 7200.00    0.09353   0.52927   -2.000
 7201.00    0.02781   0.52931   -2.000
 7202.00    0.09184   0.52931   -2.000
 7203.00    0.22878   0.52912   -2.000
 7204.00    0.35107   0.52883   -2.000
 7205.00    0.39043   0.52849   -2.000
 7206.00    0.36849   0.52812   -2.000
 7207.00    0.37142   0.52779   -2.000
 7208.00    0.46191   0.52751   -2.000
 7209.00    0.61963   0.52746   -2.000
 7210.00    0.66902   0.52752   -2.000
 7211.00    0.43489   0.52789   -2.000
 7212.00    0.04442   0.52830   -2.000
 7213.00   -0.21901   0.52877   -2.000
 7214.00   -0.26051   0.52932   -2.000
 7215.00   -0.15345   0.52991   -2.000
 7216.00   -0.00808   0.53067   -2.000
 7217.00    0.08992   0.53130   -2.000
 7218.00    0.13727   0.53197   -2.000
