###################################################################
## OUTPUT of StarlightChains_v04.for    [Cid@UFSC - 01/Apr/2007] ##
###################################################################

## Some input info
2007sa.txt                               [arq_obs]
Base.CB07.vall.4m                        [arq_base]
Masks.EmLines.NEW.gm                     [arq_masks]
StCv04.C11.config                        [arq_config]
   66                                    [N_base]
    0                                    [N_YAV_components = # of components with extra extinction!]
    0                                    [i_FitPowerLaw (1/0 = Yes/No)]
-9.99                                    [alpha_PowerLaw]
CCM                                      [red_law_option]
 1.458241                                [q_norm = A(l_norm)/A(V)]

## (Re)Sampling Parameters
 3741.00                                 [l_ini (A)]
 7218.00                                 [l_fin (A)]
    1.00                                 [dl    (A)]     (OBS: dl_cushion =    50.00 A)

## Normalization info
 4020.00                                 [l_norm (A) - for base]
 4010.00                                 [llow_norm (A) - window for f_obs]
 4060.00                                 [lupp_norm (A) - window for f_obs]
1.255077E-15                             [fobs_norm (in input units)]

## S/N
 3691.00                                 [llow_SN (A) - window for S/N]
 7268.00                                 [lupp_SN (A) - window for S/N]
   6.289                                 [S/N in S/N window]
   5.578                                 [S/N in norm. window]
  20.758                                 [S/N_err in S/N window]
  18.410                                 [S/N_err in norm. window]
  1.0000                                 [fscale_chi2]

## etc...
    -2007341                             [idum_orig]
  2397                                   [NOl_eff]
  2397                                   [Nl_eff]
     0    NSIGMA                         [Ntot_cliped & clip_method]
  1541540                                [Nglobal_steps]
   7                                     [N_chains]
  26                                     [NEX0s_base = N_base in EX0s-fits]
 0   0   1        9   2.0   3.625E+01    [Clip-Bug, RC-Crash & Burn-In warning-flags, n_censored_weights, wei_nsig_threshold & wei_limit]
    15     15.162     14.650      0.512  [idt_all, wdt_TotTime, wdt_UsrTime & wdt_SysTime (sec)]

## Synthesis Results - Best model ##

 1.71180E-01                             [chi2/Nl_eff]
     1.59646                             [adev (%)]

   101.51830                             [sum-of-x (%)]
 1.33657E-15                             [Flux_tot (units of input spectrum!)]
 4.65065E-11                             [Mini_tot (???)]
 2.40423E-11                             [Mcor_tot (???)]

 -28.17                                  [v0_min  (km/s)]
 158.04                                  [vd_min  (km/s)]
 0.0356                                  [AV_min  (mag)]
 0.0000                                  [YAV_min (mag)]

# j     x_j(%)      Mini_j(%)     Mcor_j(%)     age_j(yr)     Z_j      (L/M)_j    YAV?  Mstars   component_j        a/Fe...       SSP_chi2r SSP_adev(%)   SSP_AV   SSP_x(%)
  1      0.0000     0.0000E+00    0.0000E+00    1.000000E+06  0.00400  1.094E-02    0   1.0000   age020_m42            0.0000     3.5293E+00     7.0622   3.5816    85.0643
  2      0.9660     6.8250E-04    1.3201E-03    3.160000E+06  0.00400  4.007E-02    0   0.9999   age045_m42            0.0000     2.9010E+00     5.8148   2.8123    92.9891
  3      0.0000     0.0000E+00    0.0000E+00    5.010000E+06  0.00400  2.539E-02    0   0.9488   age055_m42            0.0000     3.2067E+00     6.3459   3.1504    89.8477
  4      0.0000     0.0000E+00    0.0000E+00    6.610000E+06  0.00400  2.620E-02    0   0.9220   age061_m42            0.0000     2.9542E+00     5.8209   2.7288    93.6417
  5      0.0000     0.0000E+00    0.0000E+00    1.000000E+07  0.00400  1.322E-02    0   0.8862   age070_m42            0.0000     3.5856E+00     6.4986   2.3880    98.2521
  6      0.0000     0.0000E+00    0.0000E+00    1.445000E+07  0.00400  7.883E-03    0   0.8571   age078_m42            0.0000     3.7271E+00     6.7401   2.7347    94.8233
  7      0.0742     4.0021E-04    6.3279E-04    2.512000E+07  0.00400  5.251E-03    0   0.8174   age090_m42            0.0000     3.7448E+00     6.6746   2.2432    99.5047
  8      0.0000     0.0000E+00    0.0000E+00    4.000000E+07  0.00400  3.649E-03    0   0.7851   age104_m42            0.0000     3.3977E+00     6.3503   2.0111   100.6159
  9      0.3603     3.2925E-03    4.8588E-03    5.500000E+07  0.00400  3.098E-03    0   0.7629   age110_m42            0.0000     3.0935E+00     5.8686   2.1870    99.6353
 10      0.0000     0.0000E+00    0.0000E+00    1.015200E+08  0.00400  2.228E-03    0   0.7207   age116_m42            0.0000     2.9421E+00     5.6428   2.2195    99.3007
 11      0.0000     0.0000E+00    0.0000E+00    2.861200E+08  0.00400  1.093E-03    0   0.6648   age125_m42            0.0000     3.0185E+00     6.0697   1.6046   104.6079
 12      0.0000     0.0000E+00    0.0000E+00    5.088000E+08  0.00400  6.597E-04    0   0.6365   age130_m42            0.0000     2.4542E+00     5.4297   1.6133   104.6493
 13      0.0000     0.0000E+00    0.0000E+00    1.434000E+09  0.00400  2.132E-04    0   0.5798   age139_m42            0.0000     1.0718E+00     3.8305   0.6275   107.6226
 14      8.8093     4.2305E+00    4.4002E+00    4.250000E+09  0.00400  5.895E-05    0   0.5377   age158_m42            0.0000     3.2752E-01     2.0986   0.2348   101.2453
 15      9.3955     7.5778E+00    7.6399E+00    7.500000E+09  0.00400  3.510E-05    0   0.5212   age171_m42            0.0000     2.2332E-01     1.7221   0.0638    99.8507
 16     20.5187     2.8971E+01    2.8211E+01    1.300000E+10  0.00400  2.005E-05    0   0.5034   age193_m42            0.0000     2.1414E-01     1.7559  -0.0850    98.6228
 17     12.2894     2.2814E+01    2.1919E+01    1.800000E+10  0.00400  1.525E-05    0   0.4967   age213_m42            0.0000     2.2210E-01     1.7715  -0.1116    98.3257
 18      0.0000     0.0000E+00    0.0000E+00    1.000000E+06  0.00800  1.238E-02    0   1.0000   age020_m52            0.0000     3.5120E+00     7.0541   3.5779    85.2304
 19      0.0000     0.0000E+00    0.0000E+00    3.160000E+06  0.00800  3.074E-02    0   0.9966   age045_m52            0.0000     3.4312E+00     6.9351   3.5026    85.9477
 20      0.0000     0.0000E+00    0.0000E+00    5.010000E+06  0.00800  2.668E-02    0   0.9443   age055_m52            0.0000     3.2233E+00     6.4886   3.2358    88.8904
 21      0.0000     0.0000E+00    0.0000E+00    6.610000E+06  0.00800  2.136E-02    0   0.9177   age061_m52            0.0000     2.6766E+00     5.8933   1.8855    99.5480
 22      0.0000     0.0000E+00    0.0000E+00    1.000000E+07  0.00800  1.215E-02    0   0.8827   age070_m52            0.0000     3.9556E+00     7.0097   2.5557    98.5150
 23      0.0000     0.0000E+00    0.0000E+00    1.445000E+07  0.00800  8.717E-03    0   0.8552   age078_m52            0.0000     3.5951E+00     6.5950   2.6918    96.5281
 24      0.0000     0.0000E+00    0.0000E+00    2.512000E+07  0.00800  5.592E-03    0   0.8162   age090_m52            0.0000     3.7039E+00     6.6710   2.2971   101.1675
 25      1.1565     8.4033E-03    1.2746E-02    4.000000E+07  0.00800  3.896E-03    0   0.7841   age104_m52            0.0000     3.3799E+00     6.3356   2.2107   101.9822
 26      0.4909     6.4700E-03    9.0436E-03    1.015200E+08  0.00800  2.148E-03    0   0.7226   age116_m52            0.0000     2.8269E+00     5.7478   2.1669   101.0631
 27      0.0109     3.1021E-04    4.0102E-04    2.861200E+08  0.00800  9.925E-04    0   0.6683   age125_m52            0.0000     2.3456E+00     5.3605   1.6726   105.9333
 28      0.0492     4.4305E-03    5.2604E-03    9.047900E+08  0.00800  3.141E-04    0   0.6138   age135_m52            0.0000     9.1864E-01     3.8692   0.8706   110.8463
 29      0.0000     0.0000E+00    0.0000E+00    1.434000E+09  0.00800  1.719E-04    0   0.5853   age139_m52            0.0000     5.7661E-01     2.7782   0.3023   107.9479
 30      0.0000     0.0000E+00    0.0000E+00    2.500000E+09  0.00800  7.872E-05    0   0.5600   age150_m52            0.0000     2.1601E-01     1.7759   0.0877   102.5167
 31      0.0000     0.0000E+00    0.0000E+00    4.250000E+09  0.00800  4.336E-05    0   0.5426   age158_m52            0.0000     2.1256E-01     1.7453   0.0767   101.3583
 32      0.0000     0.0000E+00    0.0000E+00    6.250000E+09  0.00800  3.159E-05    0   0.5319   age166_m52            0.0000     2.5606E-01     2.1023  -0.1026   100.3658
 33      3.4929     7.2653E+00    7.1295E+00    1.300000E+10  0.00800  1.361E-05    0   0.5073   age193_m52            0.0000     4.7350E-01     3.0573  -0.5398    98.3820
 34      0.0000     0.0000E+00    0.0000E+00    1.800000E+10  0.00800  9.886E-06    0   0.4990   age213_m52            0.0000     7.5797E-01     3.9461  -0.6173    96.5941
 35      0.0000     0.0000E+00    0.0000E+00    1.000000E+06  0.02000  1.544E-02    0   1.0000   age020_m62            0.0000     3.5227E+00     7.0877   3.5765    85.3214
 36      0.0000     0.0000E+00    0.0000E+00    3.160000E+06  0.02000  3.762E-02    0   0.9858   age045_m62            0.0000     3.4921E+00     7.0557   3.5167    86.0255
 37      0.0000     0.0000E+00    0.0000E+00    5.010000E+06  0.02000  3.296E-02    0   0.9342   age055_m62            0.0000     3.0117E+00     6.0806   3.1102    91.0108
 38      2.3935     5.8716E-03    1.0064E-02    8.710000E+06  0.02000  1.154E-02    0   0.8861   age067_m62            0.0000     7.5564E+00    10.3490   1.9129   105.6398
 39      0.0000     0.0000E+00    0.0000E+00    1.445000E+07  0.02000  7.663E-03    0   0.8472   age078_m62            0.0000     4.6103E+00     7.8480   2.1610   102.7395
 40      0.0000     0.0000E+00    0.0000E+00    2.512000E+07  0.02000  4.532E-03    0   0.8099   age090_m62            0.0000     4.9841E+00     8.0904   2.1455   102.8372
 41      0.0000     0.0000E+00    0.0000E+00    5.500000E+07  0.02000  2.733E-03    0   0.7595   age110_m62            0.0000     3.3834E+00     6.3076   2.1989   100.9507
 42      0.0000     0.0000E+00    0.0000E+00    1.609000E+08  0.02000  1.369E-03    0   0.6985   age120_m62            0.0000     2.8563E+00     5.7311   2.0473   103.4349
 43      0.0000     0.0000E+00    0.0000E+00    2.861200E+08  0.02000  9.013E-04    0   0.6714   age125_m62            0.0000     2.4420E+00     5.4801   1.7909   106.8223
 44      0.0000     0.0000E+00    0.0000E+00    5.088000E+08  0.02000  5.028E-04    0   0.6449   age130_m62            0.0000     1.4767E+00     4.6436   1.4273   109.1860
 45      0.0000     0.0000E+00    0.0000E+00    9.047900E+08  0.02000  2.428E-04    0   0.6179   age135_m62            0.0000     5.4912E-01     2.9062   0.8536   108.0460
 46      0.0601     1.3476E-02    1.5401E-02    1.434000E+09  0.02000  1.263E-04    0   0.5908   age139_m62            0.0000     2.8342E-01     2.0433   0.4257   105.6688
 47      0.0000     0.0000E+00    0.0000E+00    2.500000E+09  0.02000  5.985E-05    0   0.5673   age150_m62            0.0000     2.7226E-01     2.2079   0.1011   102.2922
 48     12.3342     1.0675E+01    1.1291E+01    4.250000E+09  0.02000  3.271E-05    0   0.5468   age158_m62            0.0000     5.0431E-01     3.2388  -0.1646    99.6865
 49      0.0000     0.0000E+00    0.0000E+00    1.000000E+10  0.02000  1.360E-05    0   0.5167   age181_m62            0.0000     1.0704E+00     4.7972  -0.4692    97.4115
 50      1.2963     5.1511E+00    4.9950E+00    1.800000E+10  0.02000  7.124E-06    0   0.5013   age213_m62            0.0000     1.6321E+00     5.9632  -0.6367    94.8517
 51      0.0000     0.0000E+00    0.0000E+00    1.000000E+06  0.05000  2.592E-02    0   0.9998   age020_m72            0.0000     3.5813E+00     7.2039   3.5683    85.3141
 52      1.5021     8.7770E-04    1.6260E-03    3.160000E+06  0.05000  4.845E-02    0   0.9577   age045_m72            0.0000     3.2983E+00     6.6551   3.3947    87.4289
 53      0.0000     0.0000E+00    0.0000E+00    5.010000E+06  0.05000  3.072E-02    0   0.9147   age055_m72            0.0000     4.2683E+00     7.4565   2.8087    96.0534
 54      0.0000     0.0000E+00    0.0000E+00    6.610000E+06  0.05000  1.455E-02    0   0.8877   age061_m72            0.0000     1.2469E+01    13.1830   1.9216   108.7320
 55      0.0000     0.0000E+00    0.0000E+00    1.000000E+07  0.05000  9.074E-03    0   0.8524   age070_m72            0.0000     5.4820E+00     8.0692   2.9954    95.8096
 56      0.0000     0.0000E+00    0.0000E+00    2.512000E+07  0.05000  4.250E-03    0   0.7902   age090_m72            0.0000     4.6697E+00     7.4413   2.6680    98.8067
 57      0.0000     0.0000E+00    0.0000E+00    4.000000E+07  0.05000  3.087E-03    0   0.7618   age104_m72            0.0000     4.8416E+00     7.5745   2.4191   101.4765
 58      0.0000     0.0000E+00    0.0000E+00    1.015200E+08  0.05000  1.700E-03    0   0.7096   age116_m72            0.0000     3.3057E+00     6.2567   2.1737   103.7413
 59      0.0000     0.0000E+00    0.0000E+00    2.861200E+08  0.05000  7.384E-04    0   0.6633   age125_m72            0.0000     1.9104E+00     5.0298   1.6644   108.1385
 60      1.4388     1.0665E-01    1.3146E-01    5.088000E+08  0.05000  3.819E-04    0   0.6372   age130_m72            0.0000     8.7684E-01     3.5898   1.1935   108.9502
 61      9.6386     1.6281E+00    1.9242E+00    9.047900E+08  0.05000  1.676E-04    0   0.6110   age135_m72            0.0000     4.0716E-01     2.6542   0.5570   104.2510
 62      2.2219     7.1180E-01    8.0877E-01    1.434000E+09  0.05000  8.837E-05    0   0.5874   age139_m72            0.0000     3.3809E-01     2.5147   0.1017   103.7607
 63     11.7139     7.8340E+00    8.4831E+00    2.500000E+09  0.05000  4.233E-05    0   0.5598   age150_m72            0.0000     6.5406E-01     3.7197  -0.1520    99.9503
 64      1.1298     2.2289E+00    2.2631E+00    6.250000E+09  0.05000  1.435E-05    0   0.5249   age166_m72            0.0000     1.2733E+00     5.2557  -0.5499    96.2985
 65      0.1753     7.6186E-01    7.4217E-01    1.300000E+10  0.05000  6.513E-06    0   0.5036   age193_m72            0.0000     2.0768E+00     6.7440  -0.7759    94.9076
 66      0.0000     0.0000E+00    0.0000E+00    1.800000E+10  0.05000  4.527E-06    0   0.4945   age213_m72            0.0000     2.6438E+00     7.6465  -0.9010    93.2131


## Synthesis Results - Average & Chains ##

# j      x_j: min, <> & last-chain-values for 1 ...  7 chains
  1      0.0000      0.0587      0.1613      0.2300      0.3300      0.0000      0.0000      0.8384      0.0000
  2      0.9660      0.1073      0.1054      0.4448      0.0000      0.0000      0.0594      0.1491      0.0000
  3      0.0000      0.3140      0.0000      0.0000      0.0000      0.0000      0.1948      0.0000      1.3924
  4      0.0000      0.1742      0.0599      0.0000      1.2181      0.4448      0.0000      0.0000      0.0956
  5      0.0000      0.0725      0.0000      0.0223      0.0178      0.7991      0.0000      0.0420      0.0000
  6      0.0000      0.0767      0.0000      0.0000      0.0000      0.2628      0.0000      0.0000      0.0000
  7      0.0742      0.2211      0.3193      0.6616      0.0000      0.0000      0.0000      0.0000      0.0000
  8      0.0000      0.2651      0.5293      0.2166      0.0546      0.1073      0.2304      0.0000      0.9932
  9      0.3603      0.1073      0.0000      0.9065      0.0000      0.0000      0.0000      0.0000      0.0000
 10      0.0000      0.1112      0.5523      0.0000      0.0000      0.5968      0.0000      0.0000      0.0000
 11      0.0000      0.1273      0.0000      0.0000      0.0000      0.8559      0.3313      0.0000      0.0000
 12      0.0000      0.1615      0.0000      0.0000      0.3193      0.0000      0.0000      0.0000      0.0000
 13      0.0000      0.5067      0.0000      0.0000      0.9541      0.6845      0.0000      1.7680      0.0000
 14      8.8093      8.7588      7.6213      8.8915      9.6420     13.4110      9.7961      8.6834     10.8433
 15      9.3955      9.3864      9.0380     15.3149      9.4222     10.0895      9.6251      8.8132      8.1051
 16     20.5187      7.6413      9.0077      9.3113     15.6728      8.1839      7.5709      8.5155     10.4503
 17     12.2894      8.0281      7.2369      8.7420      8.8975      8.9599      8.8209      8.8212      7.9416
 18      0.0000      0.0921      0.0000      0.2068      0.0000      0.0000      0.0000      0.0000      0.0000
 19      0.0000      0.1542      0.0000      0.0000      0.0000      0.2746      0.4331      0.0594      0.3247
 20      0.0000      0.4251      0.0000      0.0000      0.6887      0.0673      0.0000      1.2410      0.7034
 21      0.0000      0.1402      0.0429      0.0000      0.0000      0.3084      0.4901      0.0000      0.0000
 22      0.0000      0.0642      0.0613      0.0000      0.0000      0.0000      0.7891      0.0000      0.0000
 23      0.0000      0.1521      0.0000      0.1484      0.0000      0.0000      0.0000      0.0000      0.0000
 24      0.0000      0.1417      0.0000      0.0000      0.5750      0.0000      0.2228      0.0000      0.0000
 25      1.1565      0.3873      0.6562      0.4552      0.0000      0.6278      0.0000      0.0320      0.8322
 26      0.4909      0.0740      0.0000      0.3010      0.0000      0.0000      0.0000      0.0391      0.1023
 27      0.0109      0.2518      0.4215      0.5880      0.0000      0.0000      0.0000      0.0000      0.0000
 28      0.0492      1.0053      0.7239      0.9245      0.0000      1.0287      0.0000      0.0000      0.4509
 29      0.0000      0.6862      0.1253      0.0000      0.2095      0.8062      0.0000      0.4651      0.0000
 30      0.0000      1.8800      2.8347      0.7502      0.0000      1.3926      1.9538      2.0609      1.3840
 31      0.0000      2.7118      5.5919      0.0000      0.0000      2.4075      1.9009      0.0000      0.0000
 32      0.0000      5.2287      5.3738      5.8920      4.0496      3.4264      6.1474      5.3762      2.9506
 33      3.4929      0.2998      0.2751      1.0767      0.1458      0.0000      0.9677      0.0000      0.1006
 34      0.0000      0.1864      0.8712      0.0000      0.4071      0.2103      0.0000      0.0000      0.0000
 35      0.0000      0.0643      0.0000      0.0000      0.0527      0.0000      0.0309      0.5447      0.6913
 36      0.0000      0.3067      0.8507      0.0000      0.0000      0.0000      0.7457      1.2555      0.0000
 37      0.0000      0.1361      0.0000      0.1826      0.0000      0.7495      0.5165      0.0000      0.0000
 38      2.3935      0.3340      0.0000      0.6300      0.5077      0.7420      0.0000      1.0547      0.2016
 39      0.0000      0.0717      0.5478      0.2063      0.0000      0.0819      0.0000      0.0000      0.0000
 40      0.0000      0.4624      0.2166      0.0000      0.0000      0.1528      0.8341      0.3514      1.2505
 41      0.0000      0.1109      0.3236      0.0000      0.0000      0.0000      0.0000      0.0000      0.0000
 42      0.0000      0.0776      0.0000      0.0000      0.4708      0.0105      0.0000      0.0000      0.3690
 43      0.0000      0.1649      0.4649      0.0000      0.0000      0.0000      0.5999      0.1787      0.0000
 44      0.0000      0.0946      0.0000      0.0562      0.3740      0.0000      0.3716      0.0000      0.0000
 45      0.0000      0.8479      2.6187      0.0000      0.0000      1.1038      0.0000      1.9592      0.0000
 46      0.0601      1.6490      1.6154      1.2436      2.8716      0.4804      1.6178      0.3695      0.0000
 47      0.0000      7.4226     10.7878      7.7548      0.0000      1.2893      8.1675      6.1799      7.5521
 48     12.3342      9.1215      9.8882      8.0394     10.7943      9.9118      9.8164      9.0717     11.2315
 49      0.0000      0.4094      1.0903      0.0000      0.2139      0.1565      0.0896      0.0000      0.4574
 50      1.2963      2.5832      2.7707      2.5547      2.3505      2.9987      2.7979      2.7410      3.9611
 51      0.0000      0.1756      0.4422      0.0000      0.0000      0.0000      0.3815      0.0000      0.0000
 52      1.5021      0.1654      0.0607      0.4387      0.0000      0.0000      0.2498      0.0000      0.0000
 53      0.0000      0.2012      0.0000      0.2436      0.7926      0.0885      0.0000      0.0000      0.5470
 54      0.0000      0.1083      0.4976      0.0000      0.0000      0.0000      0.0000      0.0000      0.1697
 55      0.0000      0.1134      0.3145      0.0000      0.0000      0.0000      0.9141      0.1510      0.0000
 56      0.0000      0.0973      0.0000      0.0000      0.0000      0.0000      0.0000      0.0285      0.0000
 57      0.0000      0.0940      0.0000      0.0000      0.7273      0.0000      0.0000      0.0000      0.0000
 58      0.0000      0.0852      0.0000      0.2384      0.0000      0.0000      0.0000      0.1398      0.0000
 59      0.0000      0.1381      0.0000      0.0000      0.0329      0.0000      1.0505      0.0000      0.0000
 60      1.4388      0.2949      0.0000      0.5392      0.2227      1.0029      0.0000      0.5075      0.6416
 61      9.6386     11.0579      9.6718      8.6865     13.1877      9.6289     10.4661     12.0735     12.8560
 62      2.2219     11.9971      0.0000     11.6298     14.5789     12.7131      9.7770     12.6584     11.3734
 63     11.7139      3.7549      8.4709      2.8947      2.2122      6.1939      4.3425      5.2972      4.3275
 64      1.1298      0.2180      0.0000      0.6433      0.0204      0.0000      0.0000      1.0707      0.1659
 65      0.1753      0.1201      0.0000      0.8035      0.0000      0.0000      0.0000      0.0000      0.1041
 66      0.0000      0.0358      0.0000      0.0000      0.0000      0.0000      0.0000      0.0000      0.0000

# j      m_j: min, <> & last-chain-values for 1 ...  7 chains
  1  0.0000E+00  3.6842E-04  9.3945E-04  1.3122E-03  1.9426E-03  0.0000E+00  0.0000E+00  5.2085E-03  0.0000E+00
  2  1.3201E-03  1.8378E-04  1.6765E-04  6.9278E-04  0.0000E+00  0.0000E+00  9.8859E-05  2.5285E-04  0.0000E+00
  3  0.0000E+00  8.0530E-04  0.0000E+00  0.0000E+00  0.0000E+00  0.0000E+00  4.8558E-04  0.0000E+00  3.3445E-03
  4  0.0000E+00  4.2084E-04  1.3431E-04  0.0000E+00  2.7604E-03  1.0514E-03  0.0000E+00  0.0000E+00  2.1622E-04
  5  0.0000E+00  3.3357E-04  0.0000E+00  9.3205E-05  7.6961E-05  3.5986E-03  0.0000E+00  1.9117E-04  0.0000E+00
  6  0.0000E+00  5.7244E-04  0.0000E+00  0.0000E+00  0.0000E+00  1.9193E-03  0.0000E+00  0.0000E+00  0.0000E+00
  7  6.3279E-04  2.3623E-03  3.1679E-03  6.4280E-03  0.0000E+00  0.0000E+00  0.0000E+00  0.0000E+00  0.0000E+00
  8  0.0000E+00  3.9152E-03  7.2582E-03  2.9086E-03  7.5600E-04  1.5513E-03  3.3060E-03  0.0000E+00  1.3735E-02
  9  4.8588E-03  1.8137E-03  0.0000E+00  1.3934E-02  0.0000E+00  0.0000E+00  0.0000E+00  0.0000E+00  0.0000E+00
 10  0.0000E+00  2.4693E-03  1.1385E-02  0.0000E+00  0.0000E+00  1.2969E-02  0.0000E+00  0.0000E+00  0.0000E+00
 11  0.0000E+00  5.3143E-03  0.0000E+00  0.0000E+00  0.0000E+00  3.4970E-02  1.3440E-02  0.0000E+00  0.0000E+00
 12  0.0000E+00  1.0693E-02  0.0000E+00  0.0000E+00  1.9840E-02  0.0000E+00  0.0000E+00  0.0000E+00  0.0000E+00
 13  0.0000E+00  9.4578E-02  0.0000E+00  0.0000E+00  1.6709E-01  1.2505E-01  0.0000E+00  3.2677E-01  0.0000E+00
 14  4.4002E+00  5.4830E+00  4.4302E+00  5.0623E+00  5.6635E+00  8.2173E+00  5.9592E+00  5.3830E+00  6.3572E+00
 15  7.6399E+00  9.5656E+00  8.5528E+00  1.4195E+01  9.0097E+00  1.0064E+01  9.5319E+00  8.8943E+00  7.7358E+00
 16  2.8211E+01  1.3167E+01  1.4413E+01  1.4592E+01  2.5340E+01  1.3803E+01  1.2677E+01  1.4531E+01  1.6865E+01
 17  2.1919E+01  1.7945E+01  1.5021E+01  1.7772E+01  1.8662E+01  1.9604E+01  1.9161E+01  1.9527E+01  1.6626E+01
 18  0.0000E+00  5.1074E-04  0.0000E+00  1.0425E-03  0.0000E+00  0.0000E+00  0.0000E+00  0.0000E+00  0.0000E+00
 19  0.0000E+00  3.4310E-04  0.0000E+00  0.0000E+00  0.0000E+00  5.9794E-04  9.3634E-04  1.3095E-04  6.7661E-04
 20  0.0000E+00  1.0326E-03  0.0000E+00  0.0000E+00  1.5697E-03  1.5994E-04  0.0000E+00  2.9851E-03  1.6003E-03
 21  0.0000E+00  4.1331E-04  1.1754E-04  0.0000E+00  0.0000E+00  8.9011E-04  1.4043E-03  0.0000E+00  0.0000E+00
 22  0.0000E+00  3.2025E-04  2.8374E-04  0.0000E+00  0.0000E+00  0.0000E+00  3.8235E-03  0.0000E+00  0.0000E+00
 23  0.0000E+00  1.0239E-03  0.0000E+00  9.0870E-04  0.0000E+00  0.0000E+00  0.0000E+00  0.0000E+00  0.0000E+00
 24  0.0000E+00  1.4191E-03  0.0000E+00  0.0000E+00  5.4042E-03  0.0000E+00  2.1687E-03  0.0000E+00  0.0000E+00
 25  1.2746E-02  5.3490E-03  8.4161E-03  5.7189E-03  0.0000E+00  8.4881E-03  0.0000E+00  4.3710E-04  1.0765E-02
 26  9.0436E-03  1.7082E-03  0.0000E+00  6.3212E-03  0.0000E+00  0.0000E+00  0.0000E+00  8.9444E-04  2.2126E-03
 27  4.0102E-04  1.1635E-02  1.8089E-02  2.4714E-02  0.0000E+00  0.0000E+00  0.0000E+00  0.0000E+00  0.0000E+00
 28  5.2604E-03  1.3483E-01  9.0157E-02  1.1277E-01  0.0000E+00  1.3504E-01  0.0000E+00  0.0000E+00  5.6632E-02
 29  0.0000E+00  1.6035E-01  2.7190E-02  0.0000E+00  4.5928E-02  1.8441E-01  0.0000E+00  1.0762E-01  0.0000E+00
 30  0.0000E+00  9.1785E-01  1.2851E+00  3.3313E-01  0.0000E+00  6.6547E-01  9.2697E-01  9.9643E-01  6.3282E-01
 31  0.0000E+00  2.3289E+00  4.4595E+00  0.0000E+00  0.0000E+00  2.0238E+00  1.5864E+00  0.0000E+00  0.0000E+00
 32  0.0000E+00  6.0421E+00  5.7663E+00  6.1924E+00  4.3909E+00  3.8756E+00  6.9032E+00  6.1523E+00  3.1933E+00
 33  7.1295E+00  7.6700E-01  6.5347E-01  2.5051E+00  3.4997E-01  0.0000E+00  2.4055E+00  0.0000E+00  2.4097E-01
 34  0.0000E+00  6.4575E-01  2.8024E+00  0.0000E+00  1.3233E+00  7.1313E-01  0.0000E+00  0.0000E+00  0.0000E+00
 35  0.0000E+00  2.8583E-04  0.0000E+00  0.0000E+00  2.1996E-04  0.0000E+00  1.3365E-04  2.3975E-03  2.8777E-03
 36  0.0000E+00  5.5157E-04  1.4206E-03  0.0000E+00  0.0000E+00  0.0000E+00  1.3031E-03  2.2360E-03  0.0000E+00
 37  0.0000E+00  2.6468E-04  0.0000E+00  3.2309E-04  0.0000E+00  1.4270E-03  9.7627E-04  0.0000E+00  0.0000E+00
 38  1.0064E-02  1.7600E-03  0.0000E+00  3.0193E-03  2.5103E-03  3.8274E-03  0.0000E+00  5.5042E-03  9.9475E-04
 39  0.0000E+00  5.4402E-04  3.8597E-03  1.4233E-03  0.0000E+00  6.0788E-04  0.0000E+00  0.0000E+00  0.0000E+00
 40  0.0000E+00  5.6714E-03  2.4663E-03  0.0000E+00  0.0000E+00  1.8340E-03  9.9414E-03  4.2680E-03  1.4363E-02
 41  0.0000E+00  2.1160E-03  5.7310E-03  0.0000E+00  0.0000E+00  0.0000E+00  0.0000E+00  0.0000E+00  0.0000E+00
 42  0.0000E+00  2.7171E-03  0.0000E+00  0.0000E+00  1.5469E-02  3.5929E-04  0.0000E+00  0.0000E+00  1.2100E-02
 43  0.0000E+00  8.4288E-03  2.2072E-02  0.0000E+00  0.0000E+00  0.0000E+00  2.9805E-02  9.0463E-03  0.0000E+00
 44  0.0000E+00  8.3240E-03  0.0000E+00  4.5025E-03  3.0887E-02  0.0000E+00  3.1790E-02  0.0000E+00  0.0000E+00
 45  0.0000E+00  1.4809E-01  4.2471E-01  0.0000E+00  0.0000E+00  1.8870E-01  0.0000E+00  3.3886E-01  0.0000E+00
 46  1.5401E-02  5.2940E-01  4.8157E-01  3.6311E-01  8.6500E-01  1.5095E-01  5.0471E-01  1.1746E-01  0.0000E+00
 47  0.0000E+00  4.8286E+00  6.5165E+00  4.5881E+00  0.0000E+00  8.2096E-01  5.1632E+00  3.9811E+00  4.6011E+00
 48  1.1291E+01  1.0465E+01  1.0534E+01  8.3885E+00  1.1620E+01  1.1130E+01  1.0944E+01  1.0307E+01  1.2068E+01
 49  0.0000E+00  1.0675E+00  2.6399E+00  0.0000E+00  5.2325E-01  3.9940E-01  2.2703E-01  0.0000E+00  1.1169E+00
 50  4.9950E+00  1.2475E+01  1.2425E+01  1.1221E+01  1.0651E+01  1.4175E+01  1.3131E+01  1.3109E+01  1.7916E+01
 51  0.0000E+00  4.6497E-04  1.0871E-03  0.0000E+00  0.0000E+00  0.0000E+00  9.8138E-04  0.0000E+00  0.0000E+00
 52  1.6260E-03  2.2443E-04  7.6486E-05  5.4125E-04  0.0000E+00  0.0000E+00  3.2927E-04  0.0000E+00  0.0000E+00
 53  0.0000E+00  4.1119E-04  0.0000E+00  4.5273E-04  1.5198E-03  1.7705E-04  0.0000E+00  0.0000E+00  1.0469E-03
 54  0.0000E+00  4.5332E-04  1.9348E-03  0.0000E+00  0.0000E+00  0.0000E+00  0.0000E+00  0.0000E+00  6.6548E-04
 55  0.0000E+00  7.3118E-04  1.8826E-03  0.0000E+00  0.0000E+00  0.0000E+00  5.7270E-03  9.6431E-04  0.0000E+00
 56  0.0000E+00  1.2415E-03  0.0000E+00  0.0000E+00  0.0000E+00  0.0000E+00  0.0000E+00  3.5983E-04  0.0000E+00
 57  0.0000E+00  1.5929E-03  0.0000E+00  0.0000E+00  1.1558E-02  0.0000E+00  0.0000E+00  0.0000E+00  0.0000E+00
 58  0.0000E+00  2.4397E-03  0.0000E+00  6.2120E-03  0.0000E+00  0.0000E+00  0.0000E+00  3.9650E-03  0.0000E+00
 59  0.0000E+00  8.5165E-03  0.0000E+00  0.0000E+00  1.9045E-03  0.0000E+00  6.2938E-02  0.0000E+00  0.0000E+00
 60  1.3146E-01  3.3764E-02  0.0000E+00  5.6152E-02  2.3933E-02  1.1240E-01  0.0000E+00  5.7548E-02  6.8805E-02
 61  1.9242E+00  2.7667E+00  2.2470E+00  1.9766E+00  3.0960E+00  2.3581E+00  2.5447E+00  2.9914E+00  3.0125E+00
 62  8.0877E-01  5.4729E+00  0.0000E+00  4.8252E+00  6.2404E+00  5.6766E+00  4.3342E+00  5.7186E+00  4.8592E+00
 63  8.4831E+00  3.4080E+00  7.1392E+00  2.3895E+00  1.8839E+00  5.5025E+00  3.8301E+00  4.7611E+00  3.6785E+00
 64  2.2631E+00  5.4715E-01  0.0000E+00  1.4687E+00  4.8102E-02  0.0000E+00  0.0000E+00  2.6618E+00  3.8997E-01
 65  7.4217E-01  6.3724E-01  0.0000E+00  3.8778E+00  0.0000E+00  0.0000E+00  0.0000E+00  0.0000E+00  5.1756E-01
 66  0.0000E+00  2.6868E-01  0.0000E+00  0.0000E+00  0.0000E+00  0.0000E+00  0.0000E+00  0.0000E+00  0.0000E+00

# AV, chi2 & Mass for <> & i_chain = 1 ...  7 solutions
AV       0.0356      0.1196      0.0856      0.0839      0.1113      0.1133      0.1156      0.1174      0.1073
chi2 1.7118E-01  1.8545E-01  1.8174E-01  1.8070E-01  1.8164E-01  1.8335E-01  1.8432E-01  1.8335E-01  1.8330E-01
Mass 2.4042E-11  2.1474E-11  2.2092E-11  2.2505E-11  2.2631E-11  2.1755E-11  2.1978E-11  2.1622E-11  2.2553E-11
 -28.17                                  [v0_min (km/s) before EX0s...]
 158.04                                  [vd_min (km/s) before EX0s...]


## Synthetic spectrum (Best Model) ##l_obs f_obs f_syn wei
 3478    [Nl_obs]
 3741.00    0.72941   0.60501    0.000
 3742.00    0.71965   0.59247    0.000
 3743.00    0.68381   0.56699    0.000
 3744.00    0.63859   0.53518    0.000
 3745.00    0.60033   0.50282   16.658
 3746.00    0.57318   0.47249   17.447
 3747.00    0.55191   0.44695   18.119
 3748.00    0.52694   0.43404   18.977
 3749.00    0.50230   0.44187   19.908
 3750.00    0.50237   0.47115   19.906
 3751.00    0.53950   0.51685   18.536
 3752.00    0.59677   0.57016   16.757
 3753.00    0.65420   0.61832   15.286
 3754.00    0.70368   0.64844   14.211
 3755.00    0.73383   0.65379   13.627
 3756.00    0.72512   0.63789   13.791
 3757.00    0.67952   0.61287   14.716
 3758.00    0.63168   0.59187   15.831
 3759.00    0.60803   0.58246   16.447
 3760.00    0.60548   0.58566   16.516
 3761.00    0.61127   0.59615   16.359
 3762.00    0.61552   0.60644   16.246
 3763.00    0.61367   0.61237   16.295
 3764.00    0.60681   0.61171   16.480
 3765.00    0.59773   0.60455   16.730
 3766.00    0.58878   0.59528   16.984
 3767.00    0.58227   0.58700   17.174
 3768.00    0.58028   0.58033   17.233
 3769.00    0.58270   0.57962   17.162
 3770.00    0.58747   0.58947   17.022
 3771.00    0.59664   0.60779   16.761
 3772.00    0.61725   0.62945   16.201
 3773.00    0.65028   0.65113   15.378
 3774.00    0.68680   0.67068   14.560
 3775.00    0.71689   0.68706   13.949
 3776.00    0.73433   0.70182   13.618
 3777.00    0.73787   0.71797   13.552
 3778.00    0.73141   0.73646   13.672
 3779.00    0.72269   0.75453   13.837
 3780.00    0.72091   0.76890   13.871
 3781.00    0.72881   0.77814   13.721
 3782.00    0.74004   0.78050   13.513
 3783.00    0.74288   0.77241   13.461
 3784.00    0.72627   0.75219   13.769
 3785.00    0.69713   0.72368   14.345
 3786.00    0.67948   0.69284   14.717
 3787.00    0.67996   0.66492   14.707
 3788.00    0.68039   0.64486   14.698
 3789.00    0.66832   0.63497   14.963
 3790.00    0.64702   0.63066   15.455
 3791.00    0.62352   0.62448   16.038
 3792.00    0.60189   0.61211   16.614
 3793.00    0.57733   0.59296   17.321
 3794.00    0.54006   0.56837   18.517
 3795.00    0.49820   0.54128   20.072
 3796.00    0.47791   0.51803   20.924
 3797.00    0.49089   0.50731   20.371
 3798.00    0.52707   0.51523   18.973
 3799.00    0.57332   0.54170   17.442
 3800.00    0.61937   0.58197   16.145
 3801.00    0.65371   0.62840   15.297
 3802.00    0.66667   0.67062   15.000
 3803.00    0.66593   0.70009   15.017
 3804.00    0.67274   0.71453   14.865
 3805.00    0.69149   0.71823   14.461
 3806.00    0.70772   0.71904   14.130
 3807.00    0.71596   0.72327   13.967
 3808.00    0.72355   0.73163   13.821
 3809.00    0.73206   0.73961   13.660
 3810.00    0.73476   0.74004   13.610
 3811.00    0.72816   0.72743   13.733
 3812.00    0.71412   0.70294   14.003
 3813.00    0.69516   0.67350   14.385
 3814.00    0.67312   0.64798   14.856
 3815.00    0.64974   0.63280   15.391
 3816.00    0.62694   0.62660   15.951
 3817.00    0.60699   0.62174   16.475
 3818.00    0.59230   0.61330   16.883
 3819.00    0.58467   0.60344   17.104
 3820.00    0.58407   0.59560   17.121
 3821.00    0.58609   0.58924   17.062
 3822.00    0.58255   0.58116   17.166
 3823.00    0.56533   0.56952   17.689
 3824.00    0.53167   0.55431   18.809
 3825.00    0.49484   0.53746   20.209
 3826.00    0.47543   0.52280   21.034
 3827.00    0.47188   0.51346   21.192
 3828.00    0.46407   0.50804   21.548
 3829.00    0.44172   0.50061   22.639
 3830.00    0.40946   0.48637   24.422
 3831.00    0.38053   0.46617   26.279
 3832.00    0.36918   0.44461   27.087
 3833.00    0.37681   0.42697   26.538
 3834.00    0.39476   0.41770   25.332
 3835.00    0.41886   0.41737   23.874
 3836.00    0.44818   0.42353   22.313
 3837.00    0.47433   0.43487   21.082
 3838.00    0.48643   0.45187   20.558
 3839.00    0.48733   0.47631   20.520
 3840.00    0.48984   0.50980   20.415
 3841.00    0.50021   0.54984   19.992
 3842.00    0.51880   0.59068   19.275
 3843.00    0.54921   0.62648   18.208
 3844.00    0.59496   0.65396   16.808
 3845.00    0.64862   0.67281   15.417
 3846.00    0.69450   0.68353   14.399
 3847.00    0.71896   0.68675    0.000
 3848.00    0.71737   0.68550    0.000
 3849.00    0.70287   0.68471    0.000
 3850.00    0.69468   0.68621    0.000
 3851.00    0.69242   0.68844    0.000
 3852.00    0.68390   0.68937    0.000
 3853.00    0.66927   0.68624    0.000
 3854.00    0.65698   0.67701    0.000
 3855.00    0.64775   0.66284    0.000
 3856.00    0.63759   0.64559    0.000
 3857.00    0.62845   0.62791    0.000
 3858.00    0.62604   0.61586    0.000
 3859.00    0.63241   0.61581    0.000
 3860.00    0.64551   0.62906    0.000
 3861.00    0.66062   0.65133    0.000
 3862.00    0.67227   0.67562    0.000
 3863.00    0.67719   0.69498    0.000
 3864.00    0.67694   0.70569    0.000
 3865.00    0.68111   0.70816    0.000
 3866.00    0.69833   0.70491    0.000
 3867.00    0.72133   0.69775    0.000
 3868.00    0.73422   0.68621    0.000
 3869.00    0.72773   0.67011    0.000
 3870.00    0.70329   0.65209    0.000
 3871.00    0.67485   0.63868    0.000
 3872.00    0.65798   0.63545    0.000
 3873.00    0.65342   0.64193    0.000
 3874.00    0.65330   0.65175    0.000
 3875.00    0.65369   0.65697    0.000
 3876.00    0.65278   0.65377    0.000
 3877.00    0.64601   0.64546    0.000
 3878.00    0.63194   0.63685    0.000
 3879.00    0.62095   0.62955    0.000
 3880.00    0.62371   0.62447    0.000
 3881.00    0.63429   0.62176   15.766
 3882.00    0.63850   0.61769   15.662
 3883.00    0.62830   0.60618   15.916
 3884.00    0.60384   0.58631   16.561
 3885.00    0.57329   0.56240   17.443
 3886.00    0.54794   0.53916   18.250
 3887.00    0.53575   0.52286   18.666
 3888.00    0.53948   0.52169   18.536
 3889.00    0.55562   0.53862   17.998
 3890.00    0.57824   0.56868   17.294
 3891.00    0.60387   0.60293   16.560
 3892.00    0.63176   0.63352   15.829
 3893.00    0.66302   0.65607   15.083
 3894.00    0.69629   0.67133   14.362
 3895.00    0.72347   0.68206   13.822
 3896.00    0.73924   0.68959   13.527
 3897.00    0.75151   0.69542   13.307
 3898.00    0.76782   0.70134   13.024
 3899.00    0.78001   0.70771   12.820
 3900.00    0.77715   0.71224   12.867
 3901.00    0.76109   0.71361   13.139
 3902.00    0.74022   0.71207   13.510
 3903.00    0.72118   0.70722   13.866
 3904.00    0.70929   0.70232   14.099
 3905.00    0.70939   0.70392   14.097
 3906.00    0.72145   0.71552   13.861
 3907.00    0.73672   0.73535   13.574
 3908.00    0.74776   0.75907   13.373
 3909.00    0.75782   0.78211   13.196
 3910.00    0.77072   0.79978   12.975
 3911.00    0.78094   0.80869   12.805
 3912.00    0.78270   0.80939   12.776
 3913.00    0.77891   0.80423   12.838
 3914.00    0.77460   0.79456   12.910
 3915.00    0.77036   0.78177   12.981
 3916.00    0.76447   0.76667   13.081
 3917.00    0.75552   0.74920   13.236
 3918.00    0.74324   0.72992   13.455
 3919.00    0.72913   0.71126   13.715
 3920.00    0.71667   0.69639   13.953
 3921.00    0.71077   0.68657   14.069
 3922.00    0.71096   0.68026   14.065
 3923.00    0.70666   0.67272   14.151
 3924.00    0.68570   0.65835   14.584
 3925.00    0.64213   0.63297   15.573
 3926.00    0.57878   0.59517   17.278
 3927.00    0.50809   0.54715   19.682
 3928.00    0.44410   0.49278   22.517
 3929.00    0.39565   0.43641   25.275
 3930.00    0.36224   0.38252   27.606
 3931.00    0.33328   0.33620   30.005
 3932.00    0.30333   0.30341   32.968
 3933.00    0.28230   0.28966   35.423
 3934.00    0.28298   0.29802   35.338
 3935.00    0.31071   0.32769   32.184
 3936.00    0.36017   0.37402   27.765
 3937.00    0.41550   0.42963   24.067
 3938.00    0.46512   0.48584   21.500
 3939.00    0.51042   0.53503   19.592
 3940.00    0.55254   0.57326   18.098
 3941.00    0.58463   0.60035   17.105
 3942.00    0.60460   0.62027   16.540
 3943.00    0.62213   0.63958   16.074
 3944.00    0.64505   0.66180   15.503
 3945.00    0.67124   0.68540   14.898
 3946.00    0.69741   0.70779   14.339
 3947.00    0.72421   0.72800   13.808
 3948.00    0.75081   0.74541   13.319
 3949.00    0.77216   0.75875   12.951
 3950.00    0.78481   0.76775   12.742
 3951.00    0.79004   0.77458   12.658
 3952.00    0.78967   0.78028   12.664
 3953.00    0.78386   0.78252   12.757
 3954.00    0.77366   0.77980   12.926
 3955.00    0.76180   0.77369   13.127
 3956.00    0.74911   0.76563   13.349
 3957.00    0.73321   0.75397   13.639
 3958.00    0.71389   0.73477   14.008
 3959.00    0.69460   0.70538   14.397
 3960.00    0.67372   0.66666    0.000
 3961.00    0.64178   0.62116    0.000
 3962.00    0.59253   0.57130    0.000
 3963.00    0.52855   0.51872    0.000
 3964.00    0.45915   0.46407    0.000
 3965.00    0.39728   0.40867    0.000
 3966.00    0.35110   0.35663    0.000
 3967.00    0.32110   0.31555    0.000
 3968.00    0.30772   0.29411    0.000
 3969.00    0.31436   0.29763    0.000
 3970.00    0.34343   0.32568    0.000
 3971.00    0.39381   0.37294    0.000
 3972.00    0.45915   0.43208    0.000
 3973.00    0.52848   0.49580    0.000
 3974.00    0.59291   0.55836    0.000
 3975.00    0.64863   0.61681    0.000
 3976.00    0.69615   0.67025    0.000
 3977.00    0.73886   0.71780    0.000
 3978.00    0.77870   0.75758    0.000
 3979.00    0.81440   0.78728    0.000
 3980.00    0.84279   0.80658    0.000
 3981.00    0.86041   0.81808   11.622
 3982.00    0.86761   0.82574   11.526
 3983.00    0.86936   0.83310   11.503
 3984.00    0.87115   0.84221   11.479
 3985.00    0.87670   0.85377   11.406
 3986.00    0.88593   0.86676   11.288
 3987.00    0.89513   0.87852   11.172
 3988.00    0.90053   0.88825   11.105
 3989.00    0.90116   0.89702   11.097
 3990.00    0.90392   0.90533   11.063
 3991.00    0.91985   0.91212   10.871
 3992.00    0.94372   0.91507   10.596
 3993.00    0.95452   0.91289   10.476
 3994.00    0.94538   0.90570   10.578
 3995.00    0.92920   0.89598   10.762
 3996.00    0.91880   0.88925   10.884
 3997.00    0.91969   0.89058   10.873
 3998.00    0.93083   0.90071   10.743
 3999.00    0.94633   0.91629   10.567
 4000.00    0.95999   0.93198   10.417
 4001.00    0.96694   0.94131   10.342
 4002.00    0.96382   0.93891   10.375
 4003.00    0.95033   0.92529   10.523
 4004.00    0.93377   0.90809   10.709
 4005.00    0.92613   0.89655   10.798
 4006.00    0.93053   0.89562   10.747
 4007.00    0.94021   0.90508   10.636
 4008.00    0.94899   0.92125   10.538
 4009.00    0.95494   0.93881   10.472
 4010.00    0.96110   0.95306   10.405
 4011.00    0.97224   0.96247   10.286
 4012.00    0.98491   0.96850   10.153
 4013.00    0.99031   0.97301   10.098
 4014.00    0.99039   0.97633   10.097
 4015.00    0.99655   0.97838   10.035
 4016.00    1.01275   0.98051    9.874
 4017.00    1.03341   0.98342    9.677
 4018.00    1.05110   0.98621    9.514
 4019.00    1.05992   0.98762    9.435
 4020.00    1.05855   0.98655    9.447
 4021.00    1.05001   0.98259    9.524
 4022.00    1.03852   0.97680    9.629
 4023.00    1.02870   0.97249    9.721
 4024.00    1.02528   0.97300    9.753
 4025.00    1.03027   0.97834    9.706
 4026.00    1.03659   0.98409    9.647
 4027.00    1.03195   0.98313    9.690
 4028.00    1.01224   0.97054    9.879
 4029.00    0.98238   0.94711   10.179
 4030.00    0.95041   0.91875   10.522
 4031.00    0.92568   0.89434   10.803
 4032.00    0.91770   0.88227   10.897
 4033.00    0.93237   0.88709   10.725
 4034.00    0.96444   0.90832   10.369
 4035.00    1.00056   0.94001    9.994
 4036.00    1.02994   0.97304    9.709
 4037.00    1.04687   0.99904    9.552
 4038.00    1.05081   1.01310    9.516
 4039.00    1.04492   1.01480    9.570
 4040.00    1.03295   1.00562    9.681
 4041.00    1.01765   0.98600    9.827
 4042.00    0.99905   0.95670   10.010
 4043.00    0.97692   0.92257   10.236
 4044.00    0.95625   0.89370   10.458
 4045.00    0.94534   0.88007   10.578
 4046.00    0.94985   0.88590   10.528
 4047.00    0.96985   0.90864   10.311
 4048.00    0.99665   0.93985   10.034
 4049.00    1.01855   0.96844    9.818
 4050.00    1.03215   0.98598    9.689
 4051.00    1.03930   0.98964    9.622
 4052.00    1.03784   0.98211    9.635
 4053.00    1.02403   0.96888    9.765
 4054.00    1.00000   0.95438   10.000
 4055.00    0.97317   0.94173   10.276
 4056.00    0.95256   0.93399   10.498
 4057.00    0.94457   0.93263   10.587
 4058.00    0.94698   0.93568   10.560
 4059.00    0.95223   0.93776   10.502
 4060.00    0.95451   0.93283   10.477
 4061.00    0.95167   0.91984   10.508
 4062.00    0.94617   0.90399   10.569
 4063.00    0.94314   0.89200   10.603
 4064.00    0.94706   0.88896   10.559
 4065.00    0.95940   0.89708   10.423
 4066.00    0.97620   0.91402   10.244
 4067.00    0.99139   0.93288   10.087
 4068.00    1.00218   0.94572    9.978
 4069.00    1.00733   0.94910    9.927
 4070.00    1.00352   0.94605    9.965
 4071.00    0.98901   0.94094   10.111
 4072.00    0.96940   0.93532   10.316
 4073.00    0.95311   0.92760   10.492
 4074.00    0.94391   0.91559   10.594
 4075.00    0.94058   0.90050   10.632
 4076.00    0.93835   0.88794   10.657
 4077.00    0.93448   0.88506   10.701
 4078.00    0.93507   0.89621   10.694
 4079.00    0.94757   0.91881   10.553
 4080.00    0.96994   0.94429   10.310
 4081.00    0.99293   0.96399   10.071
 4082.00    1.00549   0.97404    9.945
 4083.00    1.00415   0.97714    9.959
 4084.00    1.00296   0.98010    9.971
 4085.00    1.01769   0.98853    9.826
 4086.00    1.04569   1.00312    9.563
 4087.00    1.07476   1.01988    9.304
 4088.00    1.09673   1.03294    9.118
 4089.00    1.10710   1.03795    9.033
 4090.00    1.10301   1.03434    9.066
 4091.00    1.08485   1.02386    9.218
 4092.00    1.05809   1.00777    0.000
 4093.00    1.02835   0.98685    0.000
 4094.00    0.99616   0.96191    0.000
 4095.00    0.96172   0.93344    0.000
 4096.00    0.93028   0.90175    0.000
 4097.00    0.90508   0.86650    0.000
 4098.00    0.88005   0.82782    0.000
 4099.00    0.85004   0.78970    0.000
 4100.00    0.82170   0.75975    0.000
 4101.00    0.80633   0.74569    0.000
 4102.00    0.81123   0.75249    0.000
 4103.00    0.83640   0.77915    0.000
 4104.00    0.87276   0.81813    0.000
 4105.00    0.90846   0.85901    0.000
 4106.00    0.93547   0.89285    0.000
 4107.00    0.95146   0.91527    0.000
 4108.00    0.96064   0.92744    0.000
 4109.00    0.96937   0.93408    0.000
 4110.00    0.98184   0.94046    0.000
 4111.00    0.99878   0.95006    0.000
 4112.00    1.01704   0.96335    0.000
 4113.00    1.03392   0.97830    9.672
 4114.00    1.05049   0.99095    9.519
 4115.00    1.06552   0.99708    9.385
 4116.00    1.07116   0.99543    9.336
 4117.00    1.06419   0.98826    9.397
 4118.00    1.05441   0.97909    9.484
 4119.00    1.05040   0.97155    9.520
 4120.00    1.04842   0.96837    9.538
 4121.00    1.04341   0.97032    9.584
 4122.00    1.03795   0.97614    9.634
 4123.00    1.03576   0.98295    9.655
 4124.00    1.03600   0.98753    9.653
 4125.00    1.03395   0.98756    9.672
 4126.00    1.02296   0.98246    9.776
 4127.00    1.00262   0.97295    9.974
 4128.00    0.98339   0.96013   10.169
 4129.00    0.97397   0.94526   10.267
 4130.00    0.97255   0.93087   10.282
 4131.00    0.97353   0.92018   10.272
 4132.00    0.97309   0.91700   10.277
 4133.00    0.96991   0.92401   10.310
 4134.00    0.96539   0.94046   10.359
 4135.00    0.96306   0.96323   10.384
 4136.00    0.96757   0.98708   10.335
 4137.00    0.98117   1.00608   10.192
 4138.00    1.00124   1.01513    9.988
 4139.00    1.01995   1.01046    9.804
 4140.00    1.02569   0.99193    9.750
 4141.00    1.01307   0.96526    9.871
 4142.00    0.98863   0.93993   10.115
 4143.00    0.96522   0.92454   10.360
 4144.00    0.95639   0.92345   10.456
 4145.00    0.96529   0.93452   10.360
 4146.00    0.98013   0.95031   10.203
 4147.00    0.98759   0.96346   10.126
 4148.00    0.98208   0.97023   10.182
 4149.00    0.97022   0.97042   10.307
 4150.00    0.96936   0.96618   10.316
 4151.00    0.98550   0.95994   10.147
 4152.00    1.00399   0.95353    9.960
 4153.00    1.01039   0.94820    9.897
 4154.00    1.00214   0.94563    9.979
 4155.00    0.98617   0.94784   10.140
 4156.00    0.97527   0.95563   10.254
 4157.00    0.97807   0.96810   10.224
 4158.00    0.99410   0.98315   10.059
 4159.00    1.01685   0.99851    9.834
 4160.00    1.03690   1.01184    9.644
 4161.00    1.04872   1.02127    9.535
 4162.00    1.05326   1.02602    9.494
 4163.00    1.05322   1.02553    9.495
 4164.00    1.05043   1.01998    9.520
 4165.00    1.04568   1.01129    9.563
 4166.00    1.03885   1.00193    9.626
 4167.00    1.03018   0.99261    9.707
 4168.00    1.02045   0.98191    9.800
 4169.00    1.00948   0.96760    9.906
 4170.00    0.99627   0.94898   10.037
 4171.00    0.98320   0.92861   10.171
 4172.00    0.97565   0.91143   10.250
 4173.00    0.97213   0.90185   10.287
 4174.00    0.96393   0.90110   10.374
 4175.00    0.95259   0.90745   10.497
 4176.00    0.95193   0.91794   10.506
 4177.00    0.96378   0.92962   10.378
 4178.00    0.97363   0.94031   10.269
 4179.00    0.97560   0.94900   10.245
 4180.00    0.97863   0.95566   10.224
 4181.00    0.98847   0.96066   10.129
 4182.00    1.00196   0.96457    9.965
 4183.00    1.01407   0.96704    9.828
 4184.00    1.02129   0.96714    9.833
 4185.00    1.02342   0.96514    9.861
 4186.00    1.02332   0.96253    9.655
 4187.00    1.02387   0.96142    9.516
 4188.00    1.02669   0.96401   10.174
 4189.00    1.03216   0.97154   11.702
 4190.00    1.03922   0.98265   12.694
 4191.00    1.04473   0.99356   12.292
 4192.00    1.04424   1.00001   11.807
 4193.00    1.03571   0.99861   11.863
 4194.00    1.02019   0.98775   12.055
 4195.00    0.99954   0.96900   12.073
 4196.00    0.97587   0.94715   12.003
 4197.00    0.95206   0.92748   11.993
 4198.00    0.93211   0.91334   12.112
 4199.00    0.92166   0.90638   12.303
 4200.00    0.92545   0.90656   12.427
 4201.00    0.93957   0.91250   12.507
 4202.00    0.95394   0.92306   12.714
 4203.00    0.96785   0.93765   12.996
 4204.00    0.98877   0.95520   13.080
 4205.00    1.01461   0.97380   12.932
 4206.00    1.03386   0.99107   12.784
 4207.00    1.04210   1.00509   12.727
 4208.00    1.04401   1.01489   12.680
 4209.00    1.04448   1.02046   12.594
 4210.00    1.04554   1.02190   12.494
 4211.00    1.04552   1.01875   12.411
 4212.00    1.04083   1.01072   12.374
 4213.00    1.03157   0.99956   12.441
 4214.00    1.02180   0.98945   12.646
 4215.00    1.01628   0.98535   12.821
 4216.00    1.01813   0.99056   12.732
 4217.00    1.02551   1.00420   12.619
 4218.00    1.03202   1.02063   12.867
 4219.00    1.03019   1.03174   12.902
 4220.00    1.01459   1.03036   11.812
 4221.00    0.98718   1.01204   10.516
 4222.00    0.95564   0.97619   10.179
 4223.00    0.92614   0.92781   10.679
 4224.00    0.90229   0.87789   11.198
 4225.00    0.88679   0.84014   11.322
 4226.00    0.88268   0.82585   11.286
 4227.00    0.89500   0.83922   11.158
 4228.00    0.92660   0.87445   10.806
 4229.00    0.96829   0.91794   10.332
 4230.00    1.00361   0.95540    9.960
 4231.00    1.02440   0.97806    9.761
 4232.00    1.03120   0.98443    9.698
 4233.00    1.02673   0.97917    9.740
 4234.00    1.01437   0.96929    9.859
 4235.00    0.99829   0.96062   10.018
 4236.00    0.98339   0.95678   10.165
 4237.00    0.97496   0.95949   10.253
 4238.00    0.97681   0.96846   10.249
 4239.00    0.98762   0.98214   10.135
 4240.00    1.00333   0.99868    9.936
 4241.00    1.02313   1.01575    9.750
 4242.00    1.04661   1.03023    9.634
 4243.00    1.06637   1.03886    9.437
 4244.00    1.07228   1.03917    9.118
 4245.00    1.06197   1.03011    9.246
 4246.00    1.04023   1.01296   10.579
 4247.00    1.01408   0.99206   13.014
 4248.00    0.99026   0.97329   14.473
 4249.00    0.97250   0.96072   14.141
 4250.00    0.96155   0.95539   13.848
 4251.00    0.95622   0.95599   14.026
 4252.00    0.95510   0.96027   14.067
 4253.00    0.95889   0.96622   13.847
 4254.00    0.96865   0.97243   13.649
 4255.00    0.98219   0.97761   13.576
 4256.00    0.99518   0.97955   13.576
 4257.00    1.00385   0.97632   13.617
 4258.00    1.00654   0.96912   13.688
 4259.00    1.00511   0.96306   13.750
 4260.00    1.00337   0.96471   13.760
 4261.00    1.00414   0.97810   13.714
 4262.00    1.00805   1.00141   13.653
 4263.00    1.01263   1.02739   13.657
 4264.00    1.01412   1.04745   13.776
 4265.00    1.01044   1.05516   13.930
 4266.00    1.00036   1.04748   14.002
 4267.00    0.98204   1.02496   14.008
 4268.00    0.95576   0.99155   14.041
 4269.00    0.92794   0.95338   14.132
 4270.00    0.90585   0.91730   14.256
 4271.00    0.88994   0.89040   14.357
 4272.00    0.87990   0.87836   14.396
 4273.00    0.88354   0.88329   14.426
 4274.00    0.90594   0.90309   14.511
 4275.00    0.93444   0.93210   14.622
 4276.00    0.95231   0.96250   14.694
 4277.00    0.95861   0.98705   14.732
 4278.00    0.96152   1.00108   14.775
 4279.00    0.96672   1.00440   14.836
 4280.00    0.97503   1.00070   14.905
 4281.00    0.98156   0.99423   14.955
 4282.00    0.98062   0.98743   14.975
 4283.00    0.97160   0.98018   14.994
 4284.00    0.95679   0.97052   15.050
 4285.00    0.93810   0.95665   15.135
 4286.00    0.91843   0.93863   15.216
 4287.00    0.90343   0.91880   15.255
 4288.00    0.89780   0.90142   15.218
 4289.00    0.90106   0.89130   15.073
 4290.00    0.90953   0.89144   14.815
 4291.00    0.91913   0.90106   14.484
 4292.00    0.92701   0.91481   14.149
 4293.00    0.93266   0.92505   13.892
 4294.00    0.93287   0.92541   13.769
 4295.00    0.91726   0.91283   13.772
 4296.00    0.88002   0.88815   13.867
 4297.00    0.83141   0.85540   14.018
 4298.00    0.78729   0.82059   14.209
 4299.00    0.75720   0.79051   14.463
 4300.00    0.74210   0.77037   14.788
 4301.00    0.73418   0.76143   15.104
 4302.00    0.72642   0.76092   15.306
 4303.00    0.72103   0.76363   15.357
 4304.00    0.72145   0.76443   15.277
 4305.00    0.72459   0.76089   15.128
 4306.00    0.72706   0.75425   14.982
 4307.00    0.73081   0.74898   14.911
 4308.00    0.73803   0.75084   14.933
 4309.00    0.74691   0.76390   14.987
 4310.00    0.76019   0.78907   15.011
 4311.00    0.79115   0.82498   15.006
 4312.00    0.84762   0.86940   14.994
 4313.00    0.91896   0.92016   14.981
 4314.00    0.98743   0.97455   14.987
 4315.00    1.03896   1.02811   15.075
 4316.00    1.06733   1.07420   15.251
 4317.00    1.07629   1.10618   15.388
 4318.00    1.07377   1.11970   15.379
 4319.00    1.06667   1.11377   15.267
 4320.00    1.05635   1.09028   15.138
 4321.00    1.03668   1.05330   15.030
 4322.00    1.00415   1.00917   14.944
 4323.00    0.96521   0.96704   14.859
 4324.00    0.93170   0.93756   14.760
 4325.00    0.91612   0.92919   14.650
 4326.00    0.92413   0.94397   14.562
 4327.00    0.95019   0.97596   14.545
 4328.00    0.98409   1.01400   -2.000
 4329.00    1.01642   1.04761   -2.000
 4330.00    1.04212   1.07138   -2.000
 4331.00    1.06199   1.08464   -2.000
 4332.00    1.07695   1.08808   -2.000
 4333.00    1.08456   1.08079   -2.000
 4334.00    1.08305   1.06001   -2.000
 4335.00    1.07353   1.02331   -2.000
 4336.00    1.05553   0.97232   -2.000
 4337.00    1.02539   0.91469   -2.000
 4338.00    0.98441   0.86223   -2.000
 4339.00    0.94336   0.82719   -2.000
 4340.00    0.91640   0.81758   -2.000
 4341.00    0.91549   0.83392   -2.000
 4342.00    0.94000   0.86974   -2.000
 4343.00    0.97351   0.91521   -2.000
 4344.00    1.00109   0.96121    0.000
 4345.00    1.01905   1.00131    0.000
 4346.00    1.02919   1.03155    0.000
 4347.00    1.03454   1.04953    0.000
 4348.00    1.03505   1.05396    0.000
 4349.00    1.02690   1.04570    0.000
 4350.00    1.01139   1.02951    0.000
 4351.00    0.99817   1.01373   14.637
 4352.00    0.99603   1.00664   14.633
 4353.00    1.00761   1.01201   14.575
 4354.00    1.02899   1.02757   14.479
 4355.00    1.05105   1.04724   14.384
 4356.00    1.06662   1.06501   14.355
 4357.00    1.07410   1.07802   14.456
 4358.00    1.07648   1.08747   14.663
 4359.00    1.07981   1.09670   14.836
 4360.00    1.08828   1.10828   14.914
 4361.00    1.10190   1.12209   14.982
 4362.00    1.11681   1.13545   15.061
 4363.00    1.12659   1.14474   15.050
 4364.00    1.12663   1.14694   14.988
 4365.00    1.11651   1.14105   15.068
 4366.00    1.10122   1.12880   15.177
 4367.00    1.08938   1.11386   14.911
 4368.00    1.08339   1.09980   14.651
 4369.00    1.07730   1.08811   15.373
 4370.00    1.06696   1.07769   16.148
 4371.00    1.05376   1.06641   13.912
 4372.00    1.04099   1.05371   10.725
 4373.00    1.03182   1.04208    9.359
 4374.00    1.02783   1.03612    9.463
 4375.00    1.02877   1.03936    9.839
 4376.00    1.03414   1.05078    9.761
 4377.00    1.04282   1.06407    9.553
 4378.00    1.04923   1.07008    9.511
 4379.00    1.04412   1.06115    9.576
 4380.00    1.02319   1.03486    9.747
 4381.00    0.99028   0.99573   10.146
 4382.00    0.95617   0.95443   10.577
 4383.00    0.93469   0.92390   10.529
 4384.00    0.93055   0.91332   10.386
 4385.00    0.93794   0.92373   11.322
 4386.00    0.95182   0.94809   13.729
 4387.00    0.97060   0.97627   15.694
 4388.00    0.99060   1.00052   15.422
 4389.00    1.00597   1.01821   14.872
 4390.00    1.01457   1.03058   14.968
 4391.00    1.01920   1.04000   14.925
 4392.00    1.02454   1.04822   14.863
 4393.00    1.03474   1.05647   15.754
 4394.00    1.04956   1.06565   16.187
 4395.00    1.06451   1.07574   13.276
 4396.00    1.07560   1.08493   10.086
 4397.00    1.08076   1.09012    8.893
 4398.00    1.07931   1.08896    9.067
 4399.00    1.07199   1.08147    9.463
 4400.00    1.06182   1.06961    9.494
 4401.00    1.05299   1.05523    9.443
 4402.00    1.04724   1.03949    9.515
 4403.00    1.04320   1.02398    9.618
 4404.00    1.03782   1.01181    9.665
 4405.00    1.02944   1.00688    9.668
 4406.00    1.02468   1.01196    9.700
 4407.00    1.03431   1.02738    9.782
 4408.00    1.05680   1.05074    9.610
 4409.00    1.08008   1.07741    8.979
 4410.00    1.09874   1.10123    8.730
 4411.00    1.11427   1.11597   10.092
 4412.00    1.12358   1.11795   13.715
 4413.00    1.12053   1.10859   16.773
 4414.00    1.10749   1.09450   15.924
 4415.00    1.09413   1.08437   14.819
 4416.00    1.08671   1.08436   14.938
 4417.00    1.08673   1.09477   15.394
 4418.00    1.09428   1.11050   15.550
 4419.00    1.10791   1.12434   15.433
 4420.00    1.12249   1.13129   15.274
 4421.00    1.13125   1.13079   15.262
 4422.00    1.13180   1.12587   15.372
 4423.00    1.12636   1.12042   15.435
 4424.00    1.11907   1.11686   15.381
 4425.00    1.11399   1.11555   15.268
 4426.00    1.11203   1.11557   15.203
 4427.00    1.11197   1.11567   15.262
 4428.00    1.11381   1.11489   15.388
 4429.00    1.11782   1.11253   15.457
 4430.00    1.12093   1.10805   15.486
 4431.00    1.11834   1.10111   15.576
 4432.00    1.10848   1.09237   15.693
 4433.00    1.09407   1.08449   15.743
 4434.00    1.08193   1.08183   15.829
 4435.00    1.07976   1.08810   16.061
 4436.00    1.08980   1.10334   16.076
 4437.00    1.10760   1.12252   15.602
 4438.00    1.12236   1.13768   15.612
 4439.00    1.12386   1.14261   16.865
 4440.00    1.11499   1.13654   16.523
 4441.00    1.10719   1.12486   12.499
 4442.00    1.10766   1.11573    9.417
 4443.00    1.11728   1.11540    8.515
 4444.00    1.13129   1.12494    8.734
 4445.00    1.14298   1.14040    8.918
 4446.00    1.14982   1.15572    8.741
 4447.00    1.15272   1.16607    8.580
 4448.00    1.15287   1.16937    8.636
 4449.00    1.15108   1.16572    8.828
 4450.00    1.14765   1.15590    8.789
 4451.00    1.14194   1.14054    8.420
 4452.00    1.13180   1.12053    8.627
 4453.00    1.11576   1.09797   10.672
 4454.00    1.09646   1.07636   15.050
 4455.00    1.07845   1.05921   17.719
 4456.00    1.06396   1.04836   16.446
 4457.00    1.05353   1.04326   15.721
 4458.00    1.04807   1.04218   16.189
 4459.00    1.04876   1.04405   16.495
 4460.00    1.05648   1.04928   16.271
 4461.00    1.07070   1.05881    0.000
 4462.00    1.08814   1.07245    0.000
 4463.00    1.10467   1.08797    0.000
 4464.00    1.11820   1.10186    0.000
 4465.00    1.12896   1.11118    0.000
 4466.00    1.13898   1.11528    0.000
 4467.00    1.14914   1.11618    0.000
 4468.00    1.15559   1.11763    0.000
 4469.00    1.15562   1.12345    0.000
 4470.00    1.15559   1.13573    0.000
 4471.00    1.16321   1.15394    0.000
 4472.00    1.17663   1.17527    0.000
 4473.00    1.18927   1.19595    0.000
 4474.00    1.19760   1.21257    0.000
 4475.00    1.20079   1.22263    0.000
 4476.00    1.19884   1.22431    0.000
 4477.00    1.19181   1.21667    0.000
 4478.00    1.17923   1.20068    0.000
 4479.00    1.16309   1.18044    0.000
 4480.00    1.15102   1.16269    0.000
 4481.00    1.15057   1.15418    0.000
 4482.00    1.16235   1.15809   15.301
 4483.00    1.18100   1.17204   15.201
 4484.00    1.19766   1.18913   14.930
 4485.00    1.20521   1.20154   14.440
 4486.00    1.20345   1.20440   14.808
 4487.00    1.19500   1.19791   16.212
 4488.00    1.18062   1.18650   15.060
 4489.00    1.16382   1.17574   11.067
 4490.00    1.15528   1.16895    8.670
 4491.00    1.16169   1.16588    8.191
 4492.00    1.17479   1.16416    8.512
 4493.00    1.18299   1.16220    8.625
 4494.00    1.18387   1.16090    8.445
 4495.00    1.18099   1.16288    8.352
 4496.00    1.17924   1.16999    8.484
 4497.00    1.18160   1.18166    8.666
 4498.00    1.18688   1.19553    8.411
 4499.00    1.19433   1.20950    7.895
 4500.00    1.20753   1.22322    8.339
 4501.00    1.22743   1.23768   11.092
 4502.00    1.24652   1.25313   16.236
 4503.00    1.25788   1.26792   17.819
 4504.00    1.26325   1.27919   15.943
 4505.00    1.26734   1.28491   15.582
 4506.00    1.27222   1.28527   16.271
 4507.00    1.27694   1.28227   16.420
 4508.00    1.27793   1.27788   16.154
 4509.00    1.27271   1.27274   16.136
 4510.00    1.26260   1.26610   16.268
 4511.00    1.24986   1.25716   16.272
 4512.00    1.23538   1.24626   16.198
 4513.00    1.22127   1.23496   16.179
 4514.00    1.21241   1.22529   16.211
 4515.00    1.21139   1.21871   16.247
 4516.00    1.21502   1.21572   16.285
 4517.00    1.21883   1.21590   16.324
 4518.00    1.22076   1.21799   16.327
 4519.00    1.22045   1.21987   16.303
 4520.00    1.21835   1.21892   16.340
 4521.00    1.21375   1.21291   16.494
 4522.00    1.20385   1.20088   16.705
 4523.00    1.18760   1.18334   16.864
 4524.00    1.16784   1.16189   16.886
 4525.00    1.14715   1.13884   16.808
 4526.00    1.12528   1.11711   16.818
 4527.00    1.10263   1.09975   17.028
 4528.00    1.08263   1.08909   17.348
 4529.00    1.07029   1.08554   17.593
 4530.00    1.07040   1.08728   17.611
 4531.00    1.08201   1.09146   17.446
 4532.00    1.09654   1.09638   17.368
 4533.00    1.10795   1.10295   17.475
 4534.00    1.11850   1.11393   17.521
 4535.00    1.13231   1.13131   17.366
 4536.00    1.15084   1.15375   17.215
 4537.00    1.17092   1.17664   17.211
 4538.00    1.18504   1.19469   17.256
 4539.00    1.18863   1.20508   17.278
 4540.00    1.18388   1.20830   17.368
 4541.00    1.17572   1.20688   17.549
 4542.00    1.16896   1.20308   17.675
 4543.00    1.16594   1.19798   17.645
 4544.00    1.16546   1.19176   17.530
 4545.00    1.16430   1.18446   17.439
 4546.00    1.15891   1.17643   17.440
 4547.00    1.14943   1.16844   17.543
 4548.00    1.14083   1.16157   17.705
 4549.00    1.13706   1.15672   17.837
 4550.00    1.13827   1.15404    0.000
 4551.00    1.14267   1.15300    0.000
 4552.00    1.14808   1.15336    0.000
 4553.00    1.15414   1.15607    0.000
 4554.00    1.16291   1.16316    0.000
 4555.00    1.17615   1.17610    0.000
 4556.00    1.19372   1.19422    0.000
 4557.00    1.21254   1.21432    0.000
 4558.00    1.22709   1.23199    0.000
 4559.00    1.23377   1.24339    0.000
 4560.00    1.23272   1.24661    0.000
 4561.00    1.22596   1.24218    0.000
 4562.00    1.21659   1.23298    0.000
 4563.00    1.20902   1.22349    0.000
 4564.00    1.20786   1.21815    0.000
 4565.00    1.21280   1.21929    0.000
 4566.00    1.21819   1.22583    0.000
 4567.00    1.22097   1.23380    0.000
 4568.00    1.22303   1.23900    0.000
 4569.00    1.22685   1.23959    0.000
 4570.00    1.23326   1.23713    0.000
 4571.00    1.24017   1.23508    0.000
 4572.00    1.24323   1.23606    0.000
 4573.00    1.24016   1.23990    0.000
 4574.00    1.23218   1.24391    0.000
 4575.00    1.22248   1.24459    0.000
 4576.00    1.21469   1.23960    0.000
 4577.00    1.20917   1.22873    0.000
 4578.00    1.20308   1.21393    0.000
 4579.00    1.19535   1.19852    0.000
 4580.00    1.18772   1.18581    0.000
 4581.00    1.18152   1.17799    0.000
 4582.00    1.17708   1.17559    0.000
 4583.00    1.17568   1.17802    0.000
 4584.00    1.17933   1.18437    0.000
 4585.00    1.18778   1.19378    0.000
 4586.00    1.19799   1.20499    0.000
 4587.00    1.20611   1.21584    0.000
 4588.00    1.20915   1.22356    0.000
 4589.00    1.20809   1.22600    0.000
 4590.00    1.20707   1.22285    0.000
 4591.00    1.20764   1.21588    0.000
 4592.00    1.20805   1.20801    0.000
 4593.00    1.20688   1.20188    0.000
 4594.00    1.20445   1.19880    0.000
 4595.00    1.20341   1.19864    0.000
 4596.00    1.20690   1.20026    0.000
 4597.00    1.21257   1.20228    0.000
 4598.00    1.21439   1.20367    0.000
 4599.00    1.21295   1.20420    0.000
 4600.00    1.21483   1.20446    0.000
 4601.00    1.22221   1.20545    0.000
 4602.00    1.23135   1.20812    0.000
 4603.00    1.23698   1.21317    0.000
 4604.00    1.23573   1.22110    0.000
 4605.00    1.23192   1.23211    0.000
 4606.00    1.23494   1.24558    0.000
 4607.00    1.24865   1.25964    0.000
 4608.00    1.26945   1.27151    0.000
 4609.00    1.28897   1.27873    0.000
 4610.00    1.29805   1.28051    0.000
 4611.00    1.29473   1.27814    0.000
 4612.00    1.28418   1.27416    0.000
 4613.00    1.27344   1.27081    0.000
 4614.00    1.26823   1.26908    0.000
 4615.00    1.26885   1.26866    0.000
 4616.00    1.27102   1.26883    0.000
 4617.00    1.27016   1.26927    0.000
 4618.00    1.26402   1.27029    0.000
 4619.00    1.25609   1.27238    0.000
 4620.00    1.25278   1.27548    0.000
 4621.00    1.25551   1.27875    0.000
 4622.00    1.26080   1.28096    0.000
 4623.00    1.26458   1.28122    0.000
 4624.00    1.26424   1.27945    0.000
 4625.00    1.26084   1.27630    0.000
 4626.00    1.25754   1.27277    0.000
 4627.00    1.25557   1.26972    0.000
 4628.00    1.25483   1.26759    0.000
 4629.00    1.25669   1.26621    0.000
 4630.00    1.26267   1.26476    0.000
 4631.00    1.27061   1.26209    0.000
 4632.00    1.27603   1.25738    0.000
 4633.00    1.27619   1.25055    0.000
 4634.00    1.27119   1.24230    0.000
 4635.00    1.26429   1.23366    0.000
 4636.00    1.25946   1.22581    0.000
 4637.00    1.25679   1.21996    0.000
 4638.00    1.25400   1.21718    0.000
 4639.00    1.25056   1.21773    0.000
 4640.00    1.24676   1.22042    0.000
 4641.00    1.24088   1.22261    0.000
 4642.00    1.23061   1.22124    0.000
 4643.00    1.21652   1.21450    0.000
 4644.00    1.20082   1.20304    0.000
 4645.00    1.18443   1.19013    0.000
 4646.00    1.16860   1.18024    0.000
 4647.00    1.15820   1.17699    0.000
 4648.00    1.15889   1.18139    0.000
 4649.00    1.17189   1.19143    0.000
 4650.00    1.19307   1.20314    0.000
 4651.00    1.21323   1.21248    0.000
 4652.00    1.22380   1.21734    0.000
 4653.00    1.22516   1.21846    0.000
 4654.00    1.22439   1.21900    0.000
 4655.00    1.22947   1.22288    0.000
 4656.00    1.24439   1.23242    0.000
 4657.00    1.26341   1.24678    0.000
 4658.00    1.27678   1.26197    0.000
 4659.00    1.27992   1.27270    0.000
 4660.00    1.27218   1.27490    0.000
 4661.00    1.25346   1.26718    0.000
 4662.00    1.22601   1.25071    0.000
 4663.00    1.19720   1.22810    0.000
 4664.00    1.17483   1.20248    0.000
 4665.00    1.16057   1.17752    0.000
 4666.00    1.15303   1.15760    0.000
 4667.00    1.15275   1.14697    0.000
 4668.00    1.16103   1.14797    0.000
 4669.00    1.17750   1.15953    0.000
 4670.00    1.19928   1.17759    0.000
 4671.00    1.22038   1.19700    0.000
 4672.00    1.23492   1.21390    0.000
 4673.00    1.24106   1.22666    0.000
 4674.00    1.24051   1.23506    0.000
 4675.00    1.23719   1.23911    0.000
 4676.00    1.23428   1.23859    0.000
 4677.00    1.23122   1.23360    0.000
 4678.00    1.22668   1.22554    0.000
 4679.00    1.22205   1.21709    0.000
 4680.00    1.21905   1.21133    0.000
 4681.00    1.21684   1.21022    0.000
 4682.00    1.21471   1.21373    0.000
 4683.00    1.21509   1.22003    0.000
 4684.00    1.21988   1.22654    0.000
 4685.00    1.22667   1.23123    0.000
 4686.00    1.23203   1.23329    0.000
 4687.00    1.23537   1.23316    0.000
 4688.00    1.23709   1.23199    0.000
 4689.00    1.23670   1.23117    0.000
 4690.00    1.23428   1.23196    0.000
 4691.00    1.23194   1.23509    0.000
 4692.00    1.23182   1.24038    0.000
 4693.00    1.23401   1.24639    0.000
 4694.00    1.23648   1.25071    0.000
 4695.00    1.23558   1.25081    0.000
 4696.00    1.22913   1.24534    0.000
 4697.00    1.21893   1.23482    0.000
 4698.00    1.20801   1.22145    0.000
 4699.00    1.19785   1.20799    0.000
 4700.00    1.18892   1.19675    0.000
 4701.00    1.18138   1.18904    0.000
 4702.00    1.17682   1.18514    0.000
 4703.00    1.17905   1.18435    0.000
 4704.00    1.18899   1.18529    0.000
 4705.00    1.20092   1.18653    0.000
 4706.00    1.20908   1.18746    0.000
 4707.00    1.21295   1.18883    0.000
 4708.00    1.21354   1.19211    0.000
 4709.00    1.21063   1.19815    0.000
 4710.00    1.20630   1.20621    0.000
 4711.00    1.20708   1.21449    0.000
 4712.00    1.21679   1.22153    0.000
 4713.00    1.23160   1.22755    0.000
 4714.00    1.24599   1.23419    0.000
 4715.00    1.25755   1.24318    0.000
 4716.00    1.26682   1.25484    0.000
 4717.00    1.27639   1.26776    0.000
 4718.00    1.28670   1.27966    0.000
 4719.00    1.29371   1.28862    0.000
 4720.00    1.29339   1.29393    0.000
 4721.00    1.28505   1.29579    0.000
 4722.00    1.27123   1.29458    0.000
 4723.00    1.25689   1.28999    0.000
 4724.00    1.24494   1.28113    0.000
 4725.00    1.23385   1.26743    0.000
 4726.00    1.22101   1.24994    0.000
 4727.00    1.20541   1.23162    0.000
 4728.00    1.18987   1.21642    0.000
 4729.00    1.18112   1.20750    0.000
 4730.00    1.18269   1.20589    0.000
 4731.00    1.19121   1.21033    0.000
 4732.00    1.20173   1.21814    0.000
 4733.00    1.21128   1.22657    0.000
 4734.00    1.21902   1.23380    0.000
 4735.00    1.22584   1.23939    0.000
 4736.00    1.23212   1.24388    0.000
 4737.00    1.23671   1.24801    0.000
 4738.00    1.23930   1.25213    0.000
 4739.00    1.24152   1.25615    0.000
 4740.00    1.24559   1.26000    0.000
 4741.00    1.25321   1.26380    0.000
 4742.00    1.26401   1.26784    0.000
 4743.00    1.27505   1.27227    0.000
 4744.00    1.28296   1.27694    0.000
 4745.00    1.28534   1.28146    0.000
 4746.00    1.28192   1.28530    0.000
 4747.00    1.27485   1.28781    0.000
 4748.00    1.26668   1.28833    0.000
 4749.00    1.25928   1.28630    0.000
 4750.00    1.25338   1.28153    0.000
 4751.00    1.24851   1.27440    0.000
 4752.00    1.24375   1.26595    0.000
 4753.00    1.23832   1.25766    0.000
 4754.00    1.23248   1.25104    0.000
 4755.00    1.22749   1.24700    0.000
 4756.00    1.22382   1.24544    0.000
 4757.00    1.22049   1.24508    0.000
 4758.00    1.21631   1.24388    0.000
 4759.00    1.21053   1.23976    0.000
 4760.00    1.20349   1.23159    0.000
 4761.00    1.19652   1.21996   21.019
 4762.00    1.19053   1.20704   20.957
 4763.00    1.18561   1.19594   20.953
 4764.00    1.18221   1.18951   21.056
 4765.00    1.18156   1.18940   21.123
 4766.00    1.18538   1.19552   21.048
 4767.00    1.19495   1.20611   20.866
 4768.00    1.20786   1.21851   20.722
 4769.00    1.21858   1.23023   20.778
 4770.00    1.22581   1.24004   20.955
 4771.00    1.23357   1.24824   20.947
 4772.00    1.24461   1.25589   20.728
 4773.00    1.25809   1.26369   20.607
 4774.00    1.27077   1.27129   20.712
 4775.00    1.27845   1.27745   20.892
 4776.00    1.27936   1.28087   20.990
 4777.00    1.27480   1.28081   20.955
 4778.00    1.26711   1.27733   20.888
 4779.00    1.25877   1.27111   20.956
 4780.00    1.25193   1.26313   21.112
 4781.00    1.24786   1.25441   21.125
 4782.00    1.24570   1.24587   21.011
 4783.00    1.24285   1.23819   21.036
 4784.00    1.23777   1.23184   21.207
 4785.00    1.23061   1.22716   21.264
 4786.00    1.22227   1.22453   21.187
 4787.00    1.21427   1.22451   21.214
 4788.00    1.20923   1.22774   21.339
 4789.00    1.21045   1.23474   21.308
 4790.00    1.22025   1.24550   21.101
 4791.00    1.23866   1.25914   20.945
 4792.00    1.26138   1.27374   20.904
 4793.00    1.28108   1.28654   20.867
 4794.00    1.29284   1.29479   20.785
 4795.00    1.29563   1.29680   20.716
 4796.00    1.29169   1.29290   20.719
 4797.00    1.28485   1.28545   20.813
 4798.00    1.27666   1.27790   20.955
 4799.00    1.26700   1.27311   21.061
 4800.00    1.25854   1.27202   21.095
 4801.00    1.25530   1.27333   21.082
 4802.00    1.25598   1.27452   21.077
 4803.00    1.25485   1.27345   21.132
 4804.00    1.24883   1.26957   21.250
 4805.00    1.23907   1.26405   21.383
 4806.00    1.23021   1.25895   21.454
 4807.00    1.22775   1.25603   21.405
 4808.00    1.23256   1.25606   21.303
 4809.00    1.24133   1.25873   21.279
 4810.00    1.25115   1.26320   21.324
 4811.00    1.26052   1.26861   21.337
 4812.00    1.26928   1.27451   21.316
 4813.00    1.27788   1.28082   21.337
 4814.00    1.28587   1.28753   21.406
 4815.00    1.29231   1.29433   21.470
 4816.00    1.29735   1.30042   21.526
 4817.00    1.30131   1.30451   21.596
 4818.00    1.30203   1.30517   21.623
 4819.00    1.29658   1.30136   21.539
 4820.00    1.28629   1.29309   21.447
 4821.00    1.27530   1.28179   21.512
 4822.00    1.26558   1.27008   21.671
 4823.00    1.25726   1.26078   21.740
 4824.00    1.25143   1.25558   21.789
 4825.00    1.24949   1.25422   22.002
 4826.00    1.25062   1.25492   22.260
 4827.00    1.25227   1.25552   22.288
 4828.00    1.25214   1.25474   22.160
 4829.00    1.24918   1.25268   22.180
 4830.00    1.24477   1.25046   22.446
 4831.00    1.24156   1.24942   22.842
 4832.00    1.24096   1.25025   23.147
 4833.00    1.24254   1.25264   23.197
 4834.00    1.24376   1.25526   23.169
 4835.00    1.24187   1.25642   23.331
 4836.00    1.23718   1.25491   23.528
 4837.00    1.23190   1.25062   23.423
 4838.00    1.22730   1.24464   23.092
 4839.00    1.22369   1.23879   22.841
 4840.00    1.22140   1.23481   22.738
 4841.00    1.22053   1.23375   22.670
 4842.00    1.22033   1.23557   22.530
 4843.00    1.22009   1.23922   22.318
 4844.00    1.22057   1.24300   22.249
 4845.00    1.22269   1.24526   22.507
 4846.00    1.22523   1.24505   22.882
 4847.00    1.22578   1.24250   22.974
 4848.00    1.22289   1.23844    0.000
 4849.00    1.21635   1.23346    0.000
 4850.00    1.20713   1.22718    0.000
 4851.00    1.19662   1.21833    0.000
 4852.00    1.18549   1.20563    0.000
 4853.00    1.17369   1.18854    0.000
 4854.00    1.16079   1.16733    0.000
 4855.00    1.14692   1.14231    0.000
 4856.00    1.13384   1.11322    0.000
 4857.00    1.12153   1.07992    0.000
 4858.00    1.10380   1.04401    0.000
 4859.00    1.07596   1.01018    0.000
 4860.00    1.04530   0.98564    0.000
 4861.00    1.02402   0.97699    0.000
 4862.00    1.01822   0.98706    0.000
 4863.00    1.02774   1.01312    0.000
 4864.00    1.04800   1.04812    0.000
 4865.00    1.07243   1.08372    0.000
 4866.00    1.09540   1.11306    0.000
 4867.00    1.11279   1.13244    0.000
 4868.00    1.12248   1.14158    0.000
 4869.00    1.12469   1.14310    0.000
 4870.00    1.12236   1.14139    0.000
 4871.00    1.12003   1.14113    0.000
 4872.00    1.12227   1.14556    0.000
 4873.00    1.13146   1.15557    0.000
 4874.00    1.14564   1.16989    0.000
 4875.00    1.16172   1.18619   22.587
 4876.00    1.17911   1.20213   21.995
 4877.00    1.19696   1.21587   21.709
 4878.00    1.21107   1.22605   21.805
 4879.00    1.21718   1.23174   21.862
 4880.00    1.21465   1.23259   21.936
 4881.00    1.20626   1.22899   22.195
 4882.00    1.19715   1.22202   22.445
 4883.00    1.19067   1.21303   22.464
 4884.00    1.18477   1.20335   22.399
 4885.00    1.17654   1.19394   22.467
 4886.00    1.16698   1.18547   22.614
 4887.00    1.15968   1.17857   22.677
 4888.00    1.15877   1.17437   22.569
 4889.00    1.16578   1.17486   22.350
 4890.00    1.17730   1.18246   22.235
 4891.00    1.19034   1.19872   22.341
 4892.00    1.20701   1.22286   22.501
 4893.00    1.22961   1.25127   22.520
 4894.00    1.25589   1.27860   22.424
 4895.00    1.28012   1.29966   22.320
 4896.00    1.29486   1.31136   22.240
 4897.00    1.29599   1.31347   22.184
 4898.00    1.28654   1.30819   22.155
 4899.00    1.27324   1.29895   22.141
 4900.00    1.26301   1.28930   22.107
 4901.00    1.25980   1.28194   22.026
 4902.00    1.26244   1.27824   21.904
 4903.00    1.26686   1.27800   21.780
 4904.00    1.26843   1.27956   21.714
 4905.00    1.26500   1.28036   21.743
 4906.00    1.25871   1.27800   21.848
 4907.00    1.25171   1.27162   21.974
 4908.00    1.24332   1.26254   22.053
 4909.00    1.23417   1.25388   22.071
 4910.00    1.22884   1.24891   22.113
 4911.00    1.23071   1.24930   22.226
 4912.00    1.23826   1.25392   22.339
 4913.00    1.24678   1.25912   22.349
 4914.00    1.25020   1.26002   22.213
 4915.00    1.24429   1.25260   22.016
 4916.00    1.22862   1.23552   21.967
 4917.00    1.20564   1.21118   22.121
 4918.00    1.17983   1.18513   22.256
 4919.00    1.15734   1.16402   22.226
 4920.00    1.14518   1.15304   22.183
 4921.00    1.14735   1.15414   22.225
 4922.00    1.16258   1.16597   22.204
 4923.00    1.18633   1.18532   22.027
 4924.00    1.21254   1.20869   21.824
 4925.00    1.23639   1.23322   21.723
 4926.00    1.25579   1.25653   21.726
 4927.00    1.27061   1.27634   21.786
 4928.00    1.28175   1.29034   21.856
 4929.00    1.28855   1.29671   21.906
 4930.00    1.28812   1.29485   21.932
 4931.00    1.27982   1.28582   21.976
 4932.00    1.26732   1.27207   22.107
 4933.00    1.25455   1.25654   22.284
 4934.00    1.24349   1.24170   22.314
 4935.00    1.23468   1.22910   22.150
 4936.00    1.22778   1.21991   21.999
 4937.00    1.22250   1.21547   21.968
 4938.00    1.21919   1.21729   21.949
 4939.00    1.21929   1.22617   21.928
 4940.00    1.22495   1.24113    0.000
 4941.00    1.23641   1.25933    0.000
 4942.00    1.25096   1.27715    0.000
 4943.00    1.26495   1.29176    0.000
 4944.00    1.27524   1.30220    0.000
 4945.00    1.28099   1.30927    0.000
 4946.00    1.28397   1.31451    0.000
 4947.00    1.28614   1.31902    0.000
 4948.00    1.28855   1.32283    0.000
 4949.00    1.29174   1.32490    0.000
 4950.00    1.29560   1.32360    0.000
 4951.00    1.29748   1.31731    0.000
 4952.00    1.29274   1.30501    0.000
 4953.00    1.28075   1.28677    0.000
 4954.00    1.26644   1.26442    0.000
 4955.00    1.25476   1.24174    0.000
 4956.00    1.24826   1.22368    0.000
 4957.00    1.24743   1.21479    0.000
 4958.00    1.25111   1.21682    0.000
 4959.00    1.25730   1.22782    0.000
 4960.00    1.26354   1.24280    0.000
 4961.00    1.26704   1.25596    0.000
 4962.00    1.26526   1.26318    0.000
 4963.00    1.25782   1.26328    0.000
 4964.00    1.24686   1.25787    0.000
 4965.00    1.23543   1.25011    0.000
 4966.00    1.22633   1.24333    0.000
 4967.00    1.22039   1.23998    0.000
 4968.00    1.21684   1.24118    0.000
 4969.00    1.21679   1.24675    0.000
 4970.00    1.22331   1.25549    0.000
 4971.00    1.23650   1.26550    0.000
 4972.00    1.25243   1.27462    0.000
 4973.00    1.26580   1.28071    0.000
 4974.00    1.27161   1.28206    0.000
 4975.00    1.26748   1.27766    0.000
 4976.00    1.25390   1.26734    0.000
 4977.00    1.23272   1.25162    0.000
 4978.00    1.20674   1.23169    0.000
 4979.00    1.18021   1.20936    0.000
 4980.00    1.15809   1.18721    0.000
 4981.00    1.14302   1.16852    0.000
 4982.00    1.13534   1.15667    0.000
 4983.00    1.13599   1.15403    0.000
 4984.00    1.14616   1.16086    0.000
 4985.00    1.16353   1.17491    0.000
 4986.00    1.18267   1.19215    0.000
 4987.00    1.19989   1.20836    0.000
 4988.00    1.21405   1.22065    0.000
 4989.00    1.22461   1.22829    0.000
 4990.00    1.23107   1.23233    0.000
 4991.00    1.23328   1.23459    0.000
 4992.00    1.23184   1.23654    0.000
 4993.00    1.22926   1.23856    0.000
 4994.00    1.22850   1.23992    0.000
 4995.00    1.22836   1.23921    0.000
 4996.00    1.22480   1.23514    0.000
 4997.00    1.21751   1.22724    0.000
 4998.00    1.21030   1.21620    0.000
 4999.00    1.20756   1.20363    0.000
 5000.00    1.21271   1.19132    0.000
 5001.00    1.22701   1.18052    0.000
 5002.00    1.24862   1.17174    0.000
 5003.00    1.27096   1.16520    0.000
 5004.00    1.28514   1.16129    0.000
 5005.00    1.28620   1.16062    0.000
 5006.00    1.27441   1.16326    0.000
 5007.00    1.25445   1.16797    0.000
 5008.00    1.23303   1.17209    0.000
 5009.00    1.21416   1.17262    0.000
 5010.00    1.19819   1.16779    0.000
 5011.00    1.18248   1.15821    0.000
 5012.00    1.16408   1.14663    0.000
 5013.00    1.14522   1.13659    0.000
 5014.00    1.13154   1.13084    0.000
 5015.00    1.12577   1.13029    0.000
 5016.00    1.12678   1.13425    0.000
 5017.00    1.13072   1.14111    0.000
 5018.00    1.13389   1.14930    0.000
 5019.00    1.13809   1.15775    0.000
 5020.00    1.14773   1.16594    0.000
 5021.00    1.16214   1.17372    0.000
 5022.00    1.17658   1.18097    0.000
 5023.00    1.18731   1.18755    0.000
 5024.00    1.19304   1.19337    0.000
 5025.00    1.19567   1.19864    0.000
 5026.00    1.19864   1.20409    0.000
 5027.00    1.20353   1.21068    0.000
 5028.00    1.21062   1.21908    0.000
 5029.00    1.22085   1.22893   23.560
 5030.00    1.23377   1.23859   23.402
 5031.00    1.24343   1.24548   23.176
 5032.00    1.24287   1.24703   23.172
 5033.00    1.23274   1.24169   23.403
 5034.00    1.21852   1.22940   23.670
 5035.00    1.20319   1.21148   23.760
 5036.00    1.18671   1.19016   23.619
 5037.00    1.16750   1.16821   23.523
 5038.00    1.14586   1.14887   23.768
 5039.00    1.12894   1.13579   24.175
 5040.00    1.12525   1.13231   24.332
 5041.00    1.13499   1.14024   24.188
 5042.00    1.15285   1.15842   23.957
 5043.00    1.17469   1.18254   23.776
 5044.00    1.19693   1.20628   23.678
 5045.00    1.21425   1.22362   23.638
 5046.00    1.22201   1.23121   23.629
 5047.00    1.22032   1.22943   23.680
 5048.00    1.21298   1.22183   23.820
 5049.00    1.20492   1.21345   23.992
 5050.00    1.20016   1.20879   24.110
 5051.00    1.19947   1.21034   24.185
 5052.00    1.20219   1.21814   24.271
 5053.00    1.20914   1.23033   24.370
 5054.00    1.22093   1.24424   24.430
 5055.00    1.23535   1.25750   24.378
 5056.00    1.24862   1.26856   24.161
 5057.00    1.25756   1.27669   23.814
 5058.00    1.26101   1.28155   23.548
 5059.00    1.26117   1.28264   23.790
 5060.00    1.26101   1.27929   24.433
 5061.00    1.26087   1.27113   23.880
 5062.00    1.25891   1.25865   22.232
 5063.00    1.25233   1.24367   23.612
 5064.00    1.23983   1.22888   30.174
 5065.00    1.22423   1.21691   24.994
 5066.00    1.21037   1.20940   12.826
 5067.00    1.20223   1.20642    8.426
 5068.00    1.20123   1.20674    7.718
 5069.00    1.20494   1.20861    8.271
 5070.00    1.20975   1.21058    8.524
 5071.00    1.21398   1.21184    8.247
 5072.00    1.21690   1.21204    8.068
 5073.00    1.21740   1.21084    8.207
 5074.00    1.21430   1.20755    8.474
 5075.00    1.20695   1.20127    8.294
 5076.00    1.19536   1.19151    7.799
 5077.00    1.18036   1.17893    8.462
 5078.00    1.16372   1.16559   12.708
 5079.00    1.14829   1.15452   25.054
 5080.00    1.13734   1.14862   31.759
 5081.00    1.13381   1.14951   24.826
 5082.00    1.13921   1.15705   23.324
 5083.00    1.15268   1.16949   25.245
 5084.00    1.17129   1.18430   25.635
 5085.00    1.19062   1.19912   24.658
 5086.00    1.20680   1.21245   24.497
 5087.00    1.21828   1.22374   24.823
 5088.00    1.22524   1.23312   24.710
 5089.00    1.22893   1.24094   24.407
 5090.00    1.23133   1.24723   24.384
 5091.00    1.23464   1.25135   24.446
 5092.00    1.23904   1.25205   24.338
 5093.00    1.24105   1.24809   24.279
 5094.00    1.23654   1.23901   24.490
 5095.00    1.22356   1.22574   24.812
 5096.00    1.20431   1.21075   24.992
 5097.00    1.18580   1.19735   24.979
 5098.00    1.17339   1.18857   24.898
 5099.00    1.16624   1.18578   24.962
 5100.00    1.16254   1.18825   25.224
 5101.00    1.16372   1.19344   25.409
 5102.00    1.17065   1.19816   25.290
 5103.00    1.18087   1.19988   24.991
 5104.00    1.19054   1.19767   24.750
 5105.00    1.19631   1.19234   24.710
 5106.00    1.19669   1.18592   24.819
 5107.00    1.19290   1.18082   24.804
 5108.00    1.18813   1.17901   24.579
 5109.00    1.18652   1.18161   24.465
 5110.00    1.19011   1.18863   24.659
 5111.00    1.19710   1.19915   24.936
 5112.00    1.20482   1.21167   25.061
 5113.00    1.21190   1.22460   25.090
 5114.00    1.21815   1.23641   25.081
 5115.00    1.22410   1.24572   24.928
 5116.00    1.22921   1.25126   24.649
 5117.00    1.23107   1.25189   24.503
 5118.00    1.22785   1.24687   24.629
 5119.00    1.21955   1.23614   24.855
 5120.00    1.20546   1.22072   24.893
 5121.00    1.18312   1.20261   24.514
 5122.00    1.15262   1.18440   23.717
 5123.00    1.11893   1.16859   22.754
 5124.00    1.08965   1.15692   21.927
 5125.00    1.07254   1.15008   21.458
 5126.00    1.06977   1.14786   21.285
 5127.00    1.07593   1.14956   21.080
 5128.00    1.08594   1.15441   20.888
 5129.00    1.09916   1.16165   21.292
 5130.00    1.11643   1.17053   22.468
 5131.00    1.13787   1.18005   23.670
 5132.00    1.16056   1.18871   24.255
 5133.00    1.17834   1.19493   24.589
 5134.00    1.18710   1.19738   25.002
 5135.00    1.18727   1.19541   25.186
 5136.00    1.18139   1.18959   25.098
 5137.00    1.17265   1.18138   25.293
 5138.00    1.16399   1.17263   25.928
 5139.00    1.15755   1.16503   26.391
 5140.00    1.15400   1.15957   26.354
 5141.00    1.15255   1.15640   26.282
 5142.00    1.15245   1.15506   26.518
 5143.00    1.15355   1.15486   26.900
 5144.00    1.15547   1.15515   27.058
 5145.00    1.15692   1.15553   26.720
 5146.00    1.15477   1.15571   26.315
 5147.00    1.14520   1.15544   26.680
 5148.00    1.13086   1.15463   27.022
 5149.00    1.12149   1.15347   25.292
 5150.00    1.12240   1.15251   24.016
 5151.00    1.13082   1.15287   28.451
 5152.00    1.14284   1.15597   33.733
 5153.00    1.15633   1.16292   19.555
 5154.00    1.16990   1.17391   10.420
 5155.00    1.18236   1.18782    7.968
 5156.00    1.19232   1.20249    8.001
 5157.00    1.19816   1.21526    8.533
 5158.00    1.19862   1.22345    8.506
 5159.00    1.19295   1.22484    8.292
 5160.00    1.18051   1.21784    8.359
 5161.00    1.16081   1.20144    8.725
 5162.00    1.13415   1.17545    9.031
 5163.00    1.10184   1.14100    8.807
 5164.00    1.06633   1.10086    8.792
 5165.00    1.03097   1.05925   10.924
 5166.00    0.99922   1.02099   18.817
 5167.00    0.97394   0.99008   32.903
 5168.00    0.95605   0.96884   30.769
 5169.00    0.94487   0.95768   25.406
 5170.00    0.94095   0.95622   25.420
 5171.00    0.94631   0.96433   26.614
 5172.00    0.96222   0.98206   26.275
 5173.00    0.98821   1.00868   25.576
 5174.00    1.02174   1.04159   25.405
 5175.00    1.05834   1.07577   25.403
 5176.00    1.09259   1.10462   25.317
 5177.00    1.11821   1.12197   25.285
 5178.00    1.12749   1.12417   25.479
 5179.00    1.11405   1.11134   25.950
 5180.00    1.08163   1.08750   26.495
 5181.00    1.04362   1.06021   26.736
 5182.00    1.01370   1.03831   26.624
 5183.00    1.00102   1.02905   26.465
 5184.00    1.00506   1.03552   26.407
 5185.00    1.01836   1.05582   26.369
 5186.00    1.03842   1.08384   26.263
 5187.00    1.06716   1.11187   26.060
 5188.00    1.09987   1.13346   25.818
 5189.00    1.12580   1.14551   25.645
 5190.00    1.13860   1.14884    0.000
 5191.00    1.13881   1.14686    0.000
 5192.00    1.13269   1.14408    0.000
 5193.00    1.12935   1.14431    0.000
 5194.00    1.13462   1.14947    0.000
 5195.00    1.14920   1.15933    0.000
 5196.00    1.16869   1.17204    0.000
 5197.00    1.18566   1.18509    0.000
 5198.00    1.19494   1.19564    0.000
 5199.00    1.19481   1.20090    0.000
 5200.00    1.18678   1.19916    0.000
 5201.00    1.17381   1.19001    0.000
 5202.00    1.15658   1.17421    0.000
 5203.00    1.13454   1.15398    0.000
 5204.00    1.11042   1.13277    0.000
 5205.00    1.08966   1.11443    0.000
 5206.00    1.07679   1.10253    0.000
 5207.00    1.07442   1.09963    0.000
 5208.00    1.08291   1.10651    0.000
 5209.00    1.10051   1.12178    0.000
 5210.00    1.12375   1.14240    0.000
 5211.00    1.14847   1.16449   25.239
 5212.00    1.17163   1.18420   25.246
 5213.00    1.19129   1.19919   25.405
 5214.00    1.20571   1.20940   25.562
 5215.00    1.21417   1.21639   25.625
 5216.00    1.21863   1.22232   25.624
 5217.00    1.22252   1.22865   25.662
 5218.00    1.22756   1.23510   25.790
 5219.00    1.23295   1.23963   25.960
 5220.00    1.23508   1.23920   25.994
 5221.00    1.22980   1.23144   25.783
 5222.00    1.21656   1.21614   25.666
 5223.00    1.19850   1.19553   25.992
 5224.00    1.18099   1.17408   26.267
 5225.00    1.17009   1.15715   25.700
 5226.00    1.17006   1.14883   24.598
 5227.00    1.18176   1.15033   23.762
 5228.00    1.20062   1.15994   23.384
 5229.00    1.21899   1.17379   23.309
 5230.00    1.23073   1.18777   23.464
 5231.00    1.23380   1.19922   23.849
 5232.00    1.23301   1.20785   24.444
 5233.00    1.23537   1.21512   25.165
 5234.00    1.24199   1.22294   25.840
 5235.00    1.25009   1.23261   26.276
 5236.00    1.25806   1.24396   26.438
 5237.00    1.26561   1.25548   26.430
 5238.00    1.27261   1.26559   26.374
 5239.00    1.27840   1.27316   26.358
 5240.00    1.28123   1.27751   26.408
 5241.00    1.27975   1.27846   26.473
 5242.00    1.27541   1.27613   26.426
 5243.00    1.27028   1.27058   26.198
 5244.00    1.26358   1.26180   25.965
 5245.00    1.25361   1.25027   25.919
 5246.00    1.24116   1.23731   25.967
 5247.00    1.22873   1.22472   25.905
 5248.00    1.21895   1.21436   25.725
 5249.00    1.21333   1.20753   25.558
 5250.00    1.21121   1.20486   25.543
 5251.00    1.21167   1.20653   25.745
 5252.00    1.21610   1.21222   26.065
 5253.00    1.22588   1.22110   26.309
 5254.00    1.23901   1.23204   26.319
 5255.00    1.25140   1.24350   26.089
 5256.00    1.25915   1.25305   25.858
 5257.00    1.25999   1.25755   25.839
 5258.00    1.25438   1.25413   25.934
 5259.00    1.24303   1.24116   25.943
 5260.00    1.22389   1.21897   25.862
 5261.00    1.19582   1.19010   25.815
 5262.00    1.16303   1.15867   25.930
 5263.00    1.13155   1.12877   26.219
 5264.00    1.10475   1.10343   26.467
 5265.00    1.08410   1.08451   26.503
 5266.00    1.07069   1.07277   26.529
 5267.00    1.06521   1.06802   26.742
 5268.00    1.06774   1.06981   26.900
 5269.00    1.07754   1.07794   26.734
 5270.00    1.09286   1.09184   26.439
 5271.00    1.11207   1.11076   26.305
 5272.00    1.13475   1.13332   26.317
 5273.00    1.16069   1.15766   26.328
 5274.00    1.18874   1.18209   26.257
 5275.00    1.21624   1.20479   26.081
 5276.00    1.23888   1.22365   25.819
 5277.00    1.25338   1.23723   25.573
 5278.00    1.25998   1.24497   25.537
 5279.00    1.26044   1.24716   25.779
 5280.00    1.25602   1.24562   26.045
 5281.00    1.24861   1.24323   26.098
 5282.00    1.24189   1.24301   26.057
 5283.00    1.23990   1.24737   26.090
 5284.00    1.24564   1.25725   26.114
 5285.00    1.25958   1.27146   26.015
 5286.00    1.27865   1.28734   25.844
 5287.00    1.29825   1.30185   25.713
 5288.00    1.31413   1.31272   25.684
 5289.00    1.32341   1.31881   25.755
 5290.00    1.32515   1.31950   25.872
 5291.00    1.31923   1.31458   25.972
 5292.00    1.30554   1.30428   26.038
 5293.00    1.28581   1.28943   26.087
 5294.00    1.26465   1.27161   26.162
 5295.00    1.24611   1.25292   26.267
 5296.00    1.23123   1.23605   26.336
 5297.00    1.22108   1.22390   26.356
 5298.00    1.21883   1.21873   26.442
 5299.00    1.22575   1.22125   26.595
 5300.00    1.23846   1.23061   26.562
 5301.00    1.25282   1.24482   26.259
 5302.00    1.26680   1.26129   26.021
 5303.00    1.27976   1.27753   26.047
 5304.00    1.29167   1.29160   26.096
 5305.00    1.30211   1.30261   25.968
 5306.00    1.30984   1.31073   25.813
 5307.00    1.31507   1.31629   25.757
 5308.00    1.32030   1.31951   25.694
 5309.00    1.32630   1.32069   25.556
 5310.00    1.32993   1.32000   25.475
 5311.00    1.32882   1.31737   25.527
 5312.00    1.32427   1.31290   25.590
 5313.00    1.31864   1.30706   25.575
 5314.00    1.31359   1.30050   25.548
 5315.00    1.30993   1.29416   25.507
 5316.00    1.30755   1.28881   25.287
 5317.00    1.30503   1.28446   24.835
 5318.00    1.29974   1.28027   24.335
 5319.00    1.28975   1.27500   23.954
 5320.00    1.27514   1.26779   23.736
 5321.00    1.25804   1.25789   23.659
 5322.00    1.24206   1.24409   23.681
 5323.00    1.22857   1.22588   23.724
 5324.00    1.21514   1.20524   23.692
 5325.00    1.19959   1.18534   23.569
 5326.00    1.18235   1.16930   23.450
 5327.00    1.16669   1.15997   23.418
 5328.00    1.15813   1.15959   23.467
 5329.00    1.16059   1.16888   23.505
 5330.00    1.17438   1.18594   23.387
 5331.00    1.19659   1.20712   23.140
 5332.00    1.22190   1.22879   22.997
 5333.00    1.24520   1.24766   23.045
 5334.00    1.26288   1.26040   23.133
 5335.00    1.27262   1.26526   23.188
 5336.00    1.27336   1.26356   23.347
 5337.00    1.26588   1.25804   23.726
 5338.00    1.25305   1.25114   24.314
 5339.00    1.23976   1.24486   24.985
 5340.00    1.23193   1.24088   25.523
 5341.00    1.23217   1.24017   25.761
 5342.00    1.23831   1.24249   25.698
 5343.00    1.24601   1.24615   25.488
 5344.00    1.25081   1.24955   25.360
 5345.00    1.25162   1.25222   25.401
 5346.00    1.25131   1.25432   25.505
 5347.00    1.25252   1.25650   25.546
 5348.00    1.25602   1.26024   25.471
 5349.00    1.26181   1.26697   25.340
 5350.00    1.26965   1.27720   25.285
 5351.00    1.27946   1.29015   25.330
 5352.00    1.29130   1.30433   25.357
 5353.00    1.30476   1.31840   25.327
 5354.00    1.31862   1.33101   25.318
 5355.00    1.33084   1.34065   25.320
 5356.00    1.33901   1.34615   25.216
 5357.00    1.34254   1.34716   25.023
 5358.00    1.34266   1.34385   24.917
 5359.00    1.33941   1.33647   25.024
 5360.00    1.33136   1.32565   25.337
 5361.00    1.31863   1.31281   25.690
 5362.00    1.30329   1.29931   25.824
 5363.00    1.28688   1.28606   25.787
 5364.00    1.26992   1.27333   25.908
 5365.00    1.25348   1.26071   26.196
 5366.00    1.23928   1.24788   26.309
 5367.00    1.22811   1.23547   26.202
 5368.00    1.21967   1.22508   26.194
 5369.00    1.21410   1.21879   26.341
 5370.00    1.21252   1.21842   26.376
 5371.00    1.21727   1.22469   26.222
 5372.00    1.23060   1.23695   26.063
 5373.00    1.25075   1.25327   26.007
 5374.00    1.27232   1.27082   26.017
 5375.00    1.29148   1.28650   25.993
 5376.00    1.30673   1.29773   25.864
 5377.00    1.31619   1.30328   25.750
 5378.00    1.31808   1.30362   25.864
 5379.00    1.31440   1.30071   26.101
 5380.00    1.31023   1.29674   26.114
 5381.00    1.30854   1.29325   25.908
 5382.00    1.30905   1.29092   25.807
 5383.00    1.30947   1.28969   25.871
 5384.00    1.30685   1.28899   25.892
 5385.00    1.30037   1.28788   25.813
 5386.00    1.29127   1.28532   25.746
 5387.00    1.28106   1.28069   25.726
 5388.00    1.27069   1.27388   25.700
 5389.00    1.26019   1.26526   25.704
 5390.00    1.24937   1.25565   25.823
 5391.00    1.24001   1.24572   26.002
 5392.00    1.23464   1.23569   26.087
 5393.00    1.23224   1.22630   26.079
 5394.00    1.22925   1.21889   26.114
 5395.00    1.22456   1.21411   26.243
 5396.00    1.21985   1.21214   26.408
 5397.00    1.21741   1.21313   26.530
 5398.00    1.21848   1.21623   26.550
 5399.00    1.22079   1.21909   26.503
 5400.00    1.21988   1.21932   26.485
 5401.00    1.21336   1.21585   26.562
 5402.00    1.20167   1.20883   26.746
 5403.00    1.18769   1.19940   26.989
 5404.00    1.17552   1.18972   27.210
 5405.00    1.16824   1.18212   27.362
 5406.00    1.16744   1.17858   27.433
 5407.00    1.17332   1.18046   27.398
 5408.00    1.18472   1.18794   27.248
 5409.00    1.19919   1.19974   27.071
 5410.00    1.21383   1.21386   26.961
 5411.00    1.22695   1.22861   26.838
 5412.00    1.23850   1.24311   26.581
 5413.00    1.24997   1.25688   26.349
 5414.00    1.26285   1.26913   26.383
 5415.00    1.27578   1.27865   26.582
 5416.00    1.28558   1.28464   26.654
 5417.00    1.29039   1.28751   26.580
 5418.00    1.29055   1.28803   26.526
 5419.00    1.28919   1.28639   26.503
 5420.00    1.28959   1.28297   26.421
 5421.00    1.29049   1.27907   26.294
 5422.00    1.28833   1.27601   26.208
 5423.00    1.28244   1.27396   26.221
 5424.00    1.27464   1.27171   26.329
 5425.00    1.26669   1.26783   26.444
 5426.00    1.25907   1.26222   -2.000
 5427.00    1.24966   1.25546   -2.000
 5428.00    1.23551   1.24758   -2.000
 5429.00    1.21608   1.23876   -2.000
 5430.00    1.19425   1.22974   -2.000
 5431.00    1.17702   1.22212   -2.000
 5432.00    1.17126   1.21800   -2.000
 5433.00    1.17723   1.21919   -2.000
 5434.00    1.19120   1.22600   -2.000
 5435.00    1.21089   1.23718   -2.000
 5436.00    1.23522   1.25162   -2.000
 5437.00    1.26255   1.26829   -2.000
 5438.00    1.28960   1.28509   -2.000
 5439.00    1.31040   1.29910   -2.000
 5440.00    1.31973   1.30727   -2.000
 5441.00    1.31792   1.30751   25.644
 5442.00    1.30839   1.29962   25.753
 5443.00    1.29330   1.28609   25.946
 5444.00    1.27446   1.27103   26.275
 5445.00    1.25535   1.25784   26.605
 5446.00    1.24019   1.24874   26.767
 5447.00    1.23233   1.24473   26.815
 5448.00    1.23267   1.24529   26.882
 5449.00    1.23803   1.24843   26.934
 5450.00    1.24352   1.25117   26.896
 5451.00    1.24575   1.25096   26.840
 5452.00    1.24379   1.24739   26.881
 5453.00    1.23971   1.24234   27.014
 5454.00    1.23649   1.23827   27.153
 5455.00    1.23556   1.23691   27.192
 5456.00    1.23706   1.23873   27.097
 5457.00    1.24060   1.24279   26.988
 5458.00    1.24557   1.24734   26.977
 5459.00    1.25133   1.25101   26.999
 5460.00    1.25662   1.25319   26.979
 5461.00    1.25907   1.25336   27.023
 5462.00    1.25769   1.25213   27.212
 5463.00    1.25539   1.25147   27.356
 5464.00    1.25568   1.25275   27.291
 5465.00    1.25895   1.25551   27.202
 5466.00    1.26358   1.25864   27.279
 5467.00    1.26752   1.26123   27.348
 5468.00    1.26878   1.26180   27.224
 5469.00    1.26570   1.25905   27.080
 5470.00    1.25772   1.25349   27.132
 5471.00    1.24607   1.24557   27.321
 5472.00    1.23287   1.23499   27.493
 5473.00    1.22024   1.22352   27.603
 5474.00    1.21006   1.21416   27.657
 5475.00    1.20373   1.20799   27.643
 5476.00    1.20177   1.20460   27.559
 5477.00    1.20353   1.20410   27.446
 5478.00    1.20793   1.20677   27.339
 5479.00    1.21427   1.21222   27.228
 5480.00    1.22209   1.22024   27.110
 5481.00    1.23112   1.22989   27.035
 5482.00    1.24089   1.23870   27.054
 5483.00    1.25056   1.24524   27.169
 5484.00    1.25888   1.25037   27.317
 5485.00    1.26430   1.25499   27.365
 5486.00    1.26612   1.25843   27.264
 5487.00    1.26540   1.26045   27.147
 5488.00    1.26437   1.26150   27.118
 5489.00    1.26558   1.26179   27.100
 5490.00    1.26979   1.26217   27.017
 5491.00    1.27459   1.26343   26.931
 5492.00    1.27721   1.26457   26.919
 5493.00    1.27675   1.26427   26.969
 5494.00    1.27393   1.26337   27.018
 5495.00    1.27062   1.26279   27.001
 5496.00    1.26839   1.26177   26.961
 5497.00    1.26747   1.25991   27.089
 5498.00    1.26755   1.25760   27.385
 5499.00    1.26816   1.25494   27.466
 5500.00    1.26788   1.25201   27.194
 5501.00    1.26412   1.24891   27.044
 5502.00    1.25608   1.24508   27.313
 5503.00    1.24639   1.24087   27.674
 5504.00    1.23819   1.23786   27.753
 5505.00    1.23300   1.23650   27.564
 5506.00    1.23087   1.23611   27.365
 5507.00    1.23062   1.23545   27.454
 5508.00    1.23126   1.23355   27.828
 5509.00    1.23260   1.23082   28.027
 5510.00    1.23381   1.22840   27.774
 5511.00    1.23283   1.22685   27.352
 5512.00    1.22877   1.22639   27.076
 5513.00    1.22342   1.22833   26.997
 5514.00    1.22084   1.23385   27.043
 5515.00    1.22617   1.24269   27.113
 5516.00    1.24082   1.25367   27.141
 5517.00    1.26032   1.26500   27.136
 5518.00    1.27908   1.27484   27.118
 5519.00    1.29325   1.28192   27.088
 5520.00    1.30101   1.28556   27.070
 5521.00    1.30249   1.28539   27.119
 5522.00    1.29877   1.28122   27.219
 5523.00    1.29132   1.27341   27.274
 5524.00    1.28159   1.26334   27.287
 5525.00    1.27077   1.25348   27.418
 5526.00    1.26006   1.24593   27.669
 5527.00    1.25077   1.24139   27.783
 5528.00    1.24431   1.23993   27.634
 5529.00    1.24198   1.24141   27.392
 5530.00    1.24415   1.24495   27.237
 5531.00    1.25001   1.24942   27.214
 5532.00    1.25850   1.25431   27.188
 5533.00    1.26855   1.25852   26.918
 5534.00    1.27842   1.26127   26.462
 5535.00    1.28578   1.26369   26.211
 5536.00    1.28952   1.26710   26.325
 5537.00    1.29048   1.27150   -2.000
 5538.00    1.29047   1.27600   -2.000
 5539.00    1.29156   1.27976   -2.000
 5540.00    1.29488   1.28213   -2.000
 5541.00    1.29987   1.28305   -2.000
 5542.00    1.30355   1.28305   -2.000
 5543.00    1.29975   1.28288   -2.000
 5544.00    1.27714   1.28338   -2.000
 5545.00    1.22371   1.28501   -2.000
 5546.00    1.14814   1.28796   -2.000
 5547.00    1.08228   1.29191   -2.000
 5548.00    1.05493   1.29557   -2.000
 5549.00    1.07925   1.29757   -2.000
 5550.00    1.14687   1.29749   -2.000
 5551.00    1.23003   1.29557   -2.000
 5552.00    1.29840   1.29222   -2.000
 5553.00    1.33016   1.28813   -2.000
 5554.00    1.32812   1.28415   -2.000
 5555.00    1.31670   1.28089   -2.000
 5556.00    1.30942   1.27851   -2.000
 5557.00    1.30193   1.27676   -2.000
 5558.00    1.29105   1.27496   -2.000
 5559.00    1.28016   1.27225   -2.000
 5560.00    1.27349   1.26848   -2.000
 5561.00    1.27305   1.26402   27.139
 5562.00    1.27593   1.25912   27.157
 5563.00    1.27580   1.25416   27.204
 5564.00    1.27078   1.24966   27.325
 5565.00    1.26436   1.24574   27.390
 5566.00    1.25968   1.24289   27.353
 5567.00    1.25787   1.24163   27.297
 5568.00    1.25888   1.24094   27.259
 5569.00    1.26194   1.24043   27.217
 5570.00    1.26608   1.24121   27.206
 5571.00    1.27029   1.24331   27.288
 5572.00    1.27378   1.24599   27.363
 5573.00    1.27600   1.24964   27.220
 5574.00    1.27678   1.25401   26.892
 5575.00    1.27637   1.25808   26.614
 5576.00    1.27568   1.26222   26.445
 5577.00    1.27578   1.26603   26.303
 5578.00    1.27652   1.26768   26.281
 5579.00    1.27680   1.26712   26.570
 5580.00    1.27653   1.26487   26.997
 5581.00    1.27622   1.25991   27.135
 5582.00    1.27430   1.25152   27.099
 5583.00    1.26776   1.23994   27.367
 5584.00    1.25556   1.22607   27.703
 5585.00    1.23930   1.21204   27.468
 5586.00    1.22268   1.20009   27.278
 5587.00    1.21015   1.19153   28.139
 5588.00    1.20428   1.18699   28.374
 5589.00    1.20506   1.18668   25.991
 5590.00    1.20983   1.19026   25.665
 5591.00    1.21481   1.19722   33.409
 5592.00    1.21835   1.20638   34.621
 5593.00    1.22103   1.21535   16.319
 5594.00    1.22367   1.22144    9.086
 5595.00    1.22671   1.22400    7.530
 5596.00    1.22964   1.22405    7.906
 5597.00    1.23134   1.22212    8.361
 5598.00    1.23084   1.21881    8.206
 5599.00    1.22799   1.21523    8.059
 5600.00    1.22425   1.21333    8.139
 5601.00    1.22240   1.21579    8.215
 5602.00    1.22571   1.22363    8.171
 5603.00    1.23636   1.23537    8.069
 5604.00    1.25290   1.24904    7.971
 5605.00    1.27109   1.26332    7.893
 5606.00    1.28663   1.27667    7.791
 5607.00    1.29695   1.28727    7.651
 5608.00    1.30341   1.29347    7.625
 5609.00    1.30901   1.29468    7.804
 5610.00    1.31321   1.29061    7.742
 5611.00    1.31284   1.28120    7.188
 5612.00    1.30560   1.26845    7.307
 5613.00    1.29139   1.25583   10.139
 5614.00    1.27325   1.24528   20.878
 5615.00    1.25632   1.23711   36.224
 5616.00    1.24546   1.23180   28.146
 5617.00    1.24355   1.23014   23.994
 5618.00    1.24939   1.23243   25.830
 5619.00    1.25854   1.23718   27.449
 5620.00    1.26547   1.24057   26.868
 5621.00    1.26622   1.24067   26.718
 5622.00    1.26202   1.23945   27.302
 5623.00    1.25733   1.23902   27.432
 5624.00    1.25572   1.23984   27.578
 5625.00    1.25863   1.24217   28.492
 5626.00    1.26484   1.24653   28.016
 5627.00    1.27184   1.25307   25.426
 5628.00    1.27839   1.26113   26.569
 5629.00    1.28416   1.26865   36.254
 5630.00    1.28879   1.27349   31.123
 5631.00    1.29186   1.27517   13.550
 5632.00    1.29315   1.27389    8.076
 5633.00    1.29276   1.26983    7.115
 5634.00    1.29111   1.26394    7.648
 5635.00    1.28892   1.25774    8.027
 5636.00    1.28696   1.25211    7.812
 5637.00    1.28529   1.24716    7.627
 5638.00    1.28233   1.24329    7.762
 5639.00    1.27684   1.24125    8.072
 5640.00    1.27071   1.24112    7.941
 5641.00    1.26674   1.24254    7.341
 5642.00    1.26528   1.24501    7.716
 5643.00    1.26559   1.24805   11.440
 5644.00    1.26793   1.25173   24.860
 5645.00    1.27243   1.25575   36.254
 5646.00    1.27740   1.25927   27.384
 5647.00    1.28121   1.26215   24.393
 5648.00    1.28464   1.26475   26.723
 5649.00    1.28864   1.26664   27.743
 5650.00    1.29141   1.26685   26.429
 5651.00    1.29006   1.26480   25.662
 5652.00    1.28303   1.26095   25.629
 5653.00    1.27043   1.25547   25.442
 5654.00    1.25402   1.24719   25.050
 5655.00    1.23656   1.23645   24.789
 5656.00    1.22097   1.22637   24.704
 5657.00    1.20997   1.21908   24.656
 5658.00    1.20578   1.21429   24.489
 5659.00    1.20949   1.21173   24.196
 5660.00    1.22054   1.21208   24.030
 5661.00    1.23660   1.21629   24.186
 5662.00    1.25372   1.22352   24.512
 5663.00    1.26795   1.23059   24.771
 5664.00    1.27703   1.23557   24.963
 5665.00    1.27994   1.23967   25.199
 5666.00    1.27655   1.24407   25.517
 5667.00    1.26896   1.24836   25.874
 5668.00    1.26258   1.25234   26.149
 5669.00    1.26185   1.25685   26.295
 5670.00    1.26635   1.26243   26.470
 5671.00    1.27365   1.26857   26.764
 5672.00    1.28236   1.27446   26.955
 5673.00    1.29183   1.27976   26.869
 5674.00    1.30161   1.28386   26.735
 5675.00    1.31062   1.28585   26.796
 5676.00    1.31669   1.28543   26.977
 5677.00    1.31832   1.28297   27.135
 5678.00    1.31617   1.27871   27.288
 5679.00    1.31164   1.27282   27.468
 5680.00    1.30563   1.26606   27.583
 5681.00    1.29847   1.25952   27.556
 5682.00    1.29001   1.25380   27.459
 5683.00    1.28062   1.24869   27.428
 5684.00    1.27166   1.24426   27.577
 5685.00    1.26404   1.24170   27.840
 5686.00    1.25721   1.24216   27.894
 5687.00    1.25170   1.24528   27.632
 5688.00    1.25079   1.24997   27.462
 5689.00    1.25704   1.25579   27.613
 5690.00    1.26964   1.26232   27.708
 5691.00    1.28449   1.26875   27.487
 5692.00    1.29506   1.27415   27.302
 5693.00    1.29739   1.27743   27.416
 5694.00    1.29307   1.27762   27.585
 5695.00    1.28522   1.27466   27.567
 5696.00    1.27547   1.26951   27.496
 5697.00    1.26471   1.26291   27.540
 5698.00    1.25381   1.25545   27.667
 5699.00    1.24401   1.24821   27.772
 5700.00    1.23692   1.24203   27.774
 5701.00    1.23339   1.23707   27.707
 5702.00    1.23273   1.23245   27.724
 5703.00    1.23307   1.22716   27.854
 5704.00    1.23190   1.22132   27.886
 5705.00    1.22784   1.21497   27.732
 5706.00    1.22148   1.20834   27.610
 5707.00    1.21415   1.20239   27.701
 5708.00    1.20712   1.19805   27.953
 5709.00    1.20251   1.19709   28.171
 5710.00    1.20343   1.20104   28.116
 5711.00    1.21129   1.20899   27.820
 5712.00    1.22446   1.21987   27.646
 5713.00    1.23984   1.23255   27.736
 5714.00    1.25405   1.24529   27.804
 5715.00    1.26530   1.25735   27.673
 5716.00    1.27410   1.26823   27.528
 5717.00    1.28207   1.27706   27.511
 5718.00    1.29078   1.28419   27.531
 5719.00    1.29956   1.29015   27.451
 5720.00    1.30506   1.29467   27.249
 5721.00    1.30554   1.29770   27.330
 5722.00    1.30267   1.29893   28.339
 5723.00    1.29909   1.29779   29.139
 5724.00    1.29684   1.29480   26.963
 5725.00    1.29607   1.29141   25.064
 5726.00    1.29492   1.28821   30.544
 5727.00    1.29204   1.28486   36.254
 5728.00    1.28778   1.28150   20.736
 5729.00    1.28383   1.27958    9.976
 5730.00    1.28254   1.28020    7.349
 5731.00    1.28494   1.28249    7.361
 5732.00    1.28999   1.28484    7.913
 5733.00    1.29528   1.28657    7.868
 5734.00    1.29774   1.28831    7.658
 5735.00    1.29513   1.29031    7.695
 5736.00    1.28710   1.29167    7.760
 5737.00    1.27690   1.29191    7.770
 5738.00    1.27065   1.29131    7.954
 5739.00    1.27103   1.29032    8.096
 5740.00    1.27572   1.28952    0.000
 5741.00    1.28224   1.28937    0.000
 5742.00    1.28968   1.28984    0.000
 5743.00    1.29732   1.29011    0.000
 5744.00    1.30386   1.28916    0.000
 5745.00    1.30700   1.28729    0.000
 5746.00    1.30428   1.28583    0.000
 5747.00    1.29711   1.28464    0.000
 5748.00    1.29065   1.28220    0.000
 5749.00    1.28779   1.27771    0.000
 5750.00    1.28754   1.27228    0.000
 5751.00    1.28789   1.26823    0.000
 5752.00    1.28733   1.26680    0.000
 5753.00    1.28646   1.26713    0.000
 5754.00    1.28734   1.26820    0.000
 5755.00    1.28954   1.27010    0.000
 5756.00    1.28995   1.27260    0.000
 5757.00    1.28718   1.27478    0.000
 5758.00    1.28257   1.27531    0.000
 5759.00    1.27814   1.27358    0.000
 5760.00    1.27549   1.27112    0.000
 5761.00    1.27448   1.27020    0.000
 5762.00    1.27353   1.27116    0.000
 5763.00    1.27212   1.27382    0.000
 5764.00    1.27123   1.27818    0.000
 5765.00    1.27216   1.28381    0.000
 5766.00    1.27577   1.28959    0.000
 5767.00    1.28153   1.29391    0.000
 5768.00    1.28781   1.29557    0.000
 5769.00    1.29382   1.29495    0.000
 5770.00    1.29942   1.29313    0.000
 5771.00    1.30325   1.29049    0.000
 5772.00    1.30309   1.28749    0.000
 5773.00    1.29858   1.28467    0.000
 5774.00    1.29147   1.28170    0.000
 5775.00    1.28400   1.27804    0.000
 5776.00    1.27786   1.27284    0.000
 5777.00    1.27240   1.26511    0.000
 5778.00    1.26524   1.25537    0.000
 5779.00    1.25511   1.24541    0.000
 5780.00    1.24297   1.23625    0.000
 5781.00    1.23281   1.22798    0.000
 5782.00    1.22953   1.22139    0.000
 5783.00    1.23336   1.21876    0.000
 5784.00    1.24027   1.22120    0.000
 5785.00    1.24670   1.22705    0.000
 5786.00    1.25126   1.23421    0.000
 5787.00    1.25569   1.24115    0.000
 5788.00    1.26284   1.24806    0.000
 5789.00    1.27151   1.25545    0.000
 5790.00    1.27783   1.26218    0.000
 5791.00    1.28105   1.26773    0.000
 5792.00    1.28352   1.27234    0.000
 5793.00    1.28766   1.27597    0.000
 5794.00    1.29463   1.27872    0.000
 5795.00    1.30313   1.28135    0.000
 5796.00    1.31040   1.28477    0.000
 5797.00    1.31488   1.28863    0.000
 5798.00    1.31656   1.29209    0.000
 5799.00    1.31660   1.29498    0.000
 5800.00    1.31656   1.29728    0.000
 5801.00    1.31703   1.29873    0.000
 5802.00    1.31791   1.29895    0.000
 5803.00    1.31918   1.29783    0.000
 5804.00    1.32046   1.29600    0.000
 5805.00    1.31975   1.29399    0.000
 5806.00    1.31523   1.29238    0.000
 5807.00    1.30887   1.29206    0.000
 5808.00    1.30449   1.29294    0.000
 5809.00    1.30316   1.29409    0.000
 5810.00    1.30334   1.29478    0.000
 5811.00    1.30280   1.29450    0.000
 5812.00    1.30013   1.29307    0.000
 5813.00    1.29663   1.29104    0.000
 5814.00    1.29518   1.28978    0.000
 5815.00    1.29766   1.29016    0.000
 5816.00    1.30397   1.29173    0.000
 5817.00    1.31134   1.29407    0.000
 5818.00    1.31645   1.29731    0.000
 5819.00    1.31911   1.30123    0.000
 5820.00    1.32101   1.30501    0.000
 5821.00    1.32294   1.30787    0.000
 5822.00    1.32479   1.30974    0.000
 5823.00    1.32631   1.31076    0.000
 5824.00    1.32706   1.31124    0.000
 5825.00    1.32601   1.31163    0.000
 5826.00    1.32278   1.31221    0.000
 5827.00    1.31924   1.31277    0.000
 5828.00    1.31810   1.31277    0.000
 5829.00    1.32043   1.31233    0.000
 5830.00    1.32537   1.31155    0.000
 5831.00    1.33035   1.31022    0.000
 5832.00    1.33268   1.30857    0.000
 5833.00    1.33169   1.30725    0.000
 5834.00    1.32816   1.30624    0.000
 5835.00    1.32320   1.30524    0.000
 5836.00    1.31831   1.30482    0.000
 5837.00    1.31553   1.30567    0.000
 5838.00    1.31628   1.30755    0.000
 5839.00    1.31994   1.30932    0.000
 5840.00    1.32482   1.31038    0.000
 5841.00    1.32953   1.31077    0.000
 5842.00    1.33221   1.31030    0.000
 5843.00    1.32949   1.30828    0.000
 5844.00    1.32005   1.30447    0.000
 5845.00    1.30874   1.29969    0.000
 5846.00    1.30134   1.29461    0.000
 5847.00    1.29815   1.28935    0.000
 5848.00    1.29693   1.28365    0.000
 5849.00    1.29720   1.27704    0.000
 5850.00    1.29853   1.26983    0.000
 5851.00    1.29811   1.26310    0.000
 5852.00    1.29308   1.25701    0.000
 5853.00    1.28301   1.25040    0.000
 5854.00    1.26781   1.24282   -2.000
 5855.00    1.24539   1.23651   -2.000
 5856.00    1.21479   1.23383   -2.000
 5857.00    1.17986   1.23420   -2.000
 5858.00    1.15020   1.23576   -2.000
 5859.00    1.14065   1.23769   -2.000
 5860.00    1.15887   1.24134   -2.000
 5861.00    1.19384   1.24711   -2.000
 5862.00    1.22746   1.25287   -2.000
 5863.00    1.24751   1.25672   -2.000
 5864.00    1.25152   1.25923   -2.000
 5865.00    1.24845   1.26239   -2.000
 5866.00    1.24987   1.26647   -2.000
 5867.00    1.26134   1.27035   -2.000
 5868.00    1.28096   1.27338   -2.000
 5869.00    1.29972   1.27597   -2.000
 5870.00    1.31030   1.27847   -2.000
 5871.00    1.31438   1.28032   -2.000
 5872.00    1.31636   1.28072   -2.000
 5873.00    1.31743   1.27932    0.000
 5874.00    1.31721   1.27650    0.000
 5875.00    1.31548   1.27281    0.000
 5876.00    1.31176   1.26851    0.000
 5877.00    1.30503   1.26352    0.000
 5878.00    1.29551   1.25846    0.000
 5879.00    1.28587   1.25378    0.000
 5880.00    1.27799   1.24859    0.000
 5881.00    1.27067   1.24175    0.000
 5882.00    1.26213   1.23294    0.000
 5883.00    1.25197   1.22188    0.000
 5884.00    1.23903   1.20674    0.000
 5885.00    1.22020   1.18480    0.000
 5886.00    1.19345   1.15514    0.000
 5887.00    1.16032   1.12249    0.000
 5888.00    1.12525   1.09484    0.000
 5889.00    1.09470   1.07441    0.000
 5890.00    1.07433   1.05885    0.000
 5891.00    1.06688   1.04751    0.000
 5892.00    1.07105   1.04146    0.000
 5893.00    1.08146   1.04339    0.000
 5894.00    1.09337   1.05386    0.000
 5895.00    1.10570   1.06896    0.000
 5896.00    1.11971   1.08526    0.000
 5897.00    1.13764   1.10289    0.000
 5898.00    1.16026   1.12466    0.000
 5899.00    1.18545   1.15092    0.000
 5900.00    1.20917   1.17635    0.000
 5901.00    1.22672   1.19659   23.801
 5902.00    1.23669   1.21200   23.715
 5903.00    1.24260   1.22376   23.984
 5904.00    1.24854   1.23242   24.336
 5905.00    1.25621   1.23854   24.835
 5906.00    1.26482   1.24237   25.458
 5907.00    1.27144   1.24445   25.868
 5908.00    1.27356   1.24580   25.954
 5909.00    1.27060   1.24642   26.114
 5910.00    1.26421   1.24517   26.502
 5911.00    1.25772   1.24178   26.695
 5912.00    1.25285   1.23804   26.466
 5913.00    1.24847   1.23527   26.151
 5914.00    1.24368   1.23354   25.982
 5915.00    1.23936   1.23268   25.833
 5916.00    1.23681   1.23322   25.717
 5917.00    1.23683   1.23589   25.914
 5918.00    1.23930   1.23961   26.306
 5919.00    1.24313   1.24324   26.198
 5920.00    1.24769   1.24649   25.454
 5921.00    1.25325   1.24929   24.804
 5922.00    1.26009   1.25146   24.596
 5923.00    1.26807   1.25267   24.536
 5924.00    1.27674   1.25294   24.468
 5925.00    1.28524   1.25256   24.627
 5926.00    1.29139   1.25129   25.131
 5927.00    1.29189   1.24926   25.779
 5928.00    1.28576   1.24774   26.278
 5929.00    1.27542   1.24716   26.422
 5930.00    1.26485   1.24665   26.286
 5931.00    1.25804   1.24576   26.196
 5932.00    1.25626   1.24555   26.274
 5933.00    1.25743   1.24729   26.340
 5934.00    1.25859   1.24970   26.284
 5935.00    1.25750   1.25112   26.187
 5936.00    1.25419   1.25185   26.122
 5937.00    1.25115   1.25250   26.075
 5938.00    1.25093   1.25287   26.009
 5939.00    1.25485   1.25275   25.906
 5940.00    1.26201   1.25256   25.831
 5941.00    1.26934   1.25249   25.896
 5942.00    1.27331   1.25235   26.060
 5943.00    1.27136   1.25235   26.104
 5944.00    1.26426   1.25250   25.914
 5945.00    1.25597   1.25172   25.583
 5946.00    1.24952   1.24979   25.347
 5947.00    1.24579   1.24808   25.461
 5948.00    1.24454   1.24664   25.907
 5949.00    1.24479   1.24408   26.384
 5950.00    1.24486   1.24071   26.715
 5951.00    1.24315   1.23906   26.961
 5952.00    1.24089   1.23967   27.157
 5953.00    1.24151   1.24021   27.248
 5954.00    1.24552   1.23983   27.215
 5955.00    1.25008   1.24054   27.105
 5956.00    1.25345   1.24356   26.945
 5957.00    1.25602   1.24750   26.751
 5958.00    1.25889   1.25115   26.613
 5959.00    1.26283   1.25493   26.649
 5960.00    1.26644   1.25909   26.801
 5961.00    1.26685   1.26285   26.853
 5962.00    1.26343   1.26540   26.731
 5963.00    1.25846   1.26668   26.536
 5964.00    1.25554   1.26764   26.344
 5965.00    1.25795   1.26870   26.171
 5966.00    1.26546   1.26978   26.051
 5967.00    1.27457   1.27084   26.032
 5968.00    1.28209   1.27204   26.129
 5969.00    1.28608   1.27320   26.301
 5970.00    1.28563   1.27343   26.446
 5971.00    1.28099   1.27218   26.456
 5972.00    1.27376   1.26926   26.376
 5973.00    1.26666   1.26486   26.377
 5974.00    1.26242   1.25980   26.555
 5975.00    1.26262   1.25509   26.890
 5976.00    1.26543   1.25121   27.268
 5977.00    1.26677   1.24828   27.537
 5978.00    1.26469   1.24634   27.655
 5979.00    1.25987   1.24505   27.699
 5980.00    1.25369   1.24350   27.752
 5981.00    1.24761   1.24128   27.854
 5982.00    1.24242   1.23938   27.962
 5983.00    1.23833   1.23839   28.006
 5984.00    1.23539   1.23787   28.035
 5985.00    1.23380   1.23771   28.139
 5986.00    1.23413   1.23915   28.186
 5987.00    1.23707   1.24281   27.972
 5988.00    1.24256   1.24699   27.672
 5989.00    1.25005   1.25043   27.624
 5990.00    1.25926   1.25391   27.714
 5991.00    1.26968   1.25752   27.588
 5992.00    1.27909   1.25989   27.368
 5993.00    1.28442   1.26035   27.421
 5994.00    1.28425   1.25970   27.598
 5995.00    1.27902   1.25862   27.476
 5996.00    1.27039   1.25695   27.183
 5997.00    1.26076   1.25477   27.143
 5998.00    1.25269   1.25237   27.310
 5999.00    1.24801   1.24960   27.350
 6000.00    1.24658   1.24676   27.261
 6001.00    1.24687   1.24469   27.267
 6002.00    1.24764   1.24320   27.374
 6003.00    1.24798   1.24106   27.443
 6004.00    1.24683   1.23761   27.481
 6005.00    1.24357   1.23401   27.589
 6006.00    1.23936   1.23225   27.772
 6007.00    1.23624   1.23247   27.950
 6008.00    1.23505   1.23307   28.046
 6009.00    1.23557   1.23298   28.055
 6010.00    1.23724   1.23279   28.128
 6011.00    1.23917   1.23416   28.398
 6012.00    1.23994   1.23615   28.678
 6013.00    1.23883   1.23612   28.688
 6014.00    1.23776   1.23415   28.557
 6015.00    1.23925   1.23255   28.551
 6016.00    1.24270   1.23186   28.533
 6017.00    1.24507   1.23048   28.273
 6018.00    1.24301   1.22838   28.042
 6019.00    1.23560   1.22758   28.199
 6020.00    1.22780   1.22843   28.515
 6021.00    1.22606   1.22966   28.538
 6022.00    1.23127   1.23179   28.343
 6023.00    1.24007   1.23582   28.261
 6024.00    1.24845   1.24081   28.325
 6025.00    1.25404   1.24602   28.373
 6026.00    1.25837   1.25169   28.294
 6027.00    1.26396   1.25762   28.088
 6028.00    1.26985   1.26267   27.872
 6029.00    1.27394   1.26683   27.774
 6030.00    1.27675   1.27108   27.810
 6031.00    1.28010   1.27474   27.894
 6032.00    1.28465   1.27701   27.889
 6033.00    1.28959   1.27838   27.719
 6034.00    1.29281   1.27944   27.495
 6035.00    1.29268   1.27984   27.393
 6036.00    1.29012   1.27926   27.483
 6037.00    1.28720   1.27813   27.736
 6038.00    1.28497   1.27711   28.030
 6039.00    1.28368   1.27642   28.227
 6040.00    1.28326   1.27627   28.280
 6041.00    1.28320   1.27684   28.263
 6042.00    1.28245   1.27806   28.362
 6043.00    1.28118   1.27979   28.636
 6044.00    1.28242   1.28178   28.754
 6045.00    1.28830   1.28384   28.486
 6046.00    1.29573   1.28525   28.258
 6047.00    1.29976   1.28582   28.407
 6048.00    1.29789   1.28582   28.441
 6049.00    1.29046   1.28490   28.119
 6050.00    1.28048   1.28270   28.519
 6051.00    1.27212   1.27971   29.795
 6052.00    1.26897   1.27667   28.763
 6053.00    1.27165   1.27337   25.861
 6054.00    1.27599   1.27010   28.389
 6055.00    1.27790   1.26776   36.254
 6056.00    1.27820   1.26668   28.032
 6057.00    1.27921   1.26611   12.105
 6058.00    1.28112   1.26539    7.775
 6059.00    1.28311   1.26458    7.237
 6060.00    1.28478   1.26346    7.797
 6061.00    1.28534   1.26148    7.921
 6062.00    1.28303   1.25845    7.794
 6063.00    1.27734   1.25594    7.983
 6064.00    1.27087   1.25601    7.843
 6065.00    1.26702   1.25864    7.300
 6066.00    1.26767   1.26241    8.002
 6067.00    1.27264   1.26708   12.850
 6068.00    1.27963   1.27368   29.909
 6069.00    1.28538   1.28092   36.254
 6070.00    1.28696   1.28615   27.709
 6071.00    1.28397   1.28877   25.480
 6072.00    1.27984   1.28947   28.006
 6073.00    1.27781   1.28850   28.900
 6074.00    1.27775   1.28548   27.903
 6075.00    1.27769   1.28032   27.491
 6076.00    1.27559   1.27409   27.693
 6077.00    1.27109   1.26821   27.838
 6078.00    1.26655   1.26256   27.872
 6079.00    1.26393   1.25676   27.882
 6080.00    1.26253   1.25183   27.690
 6081.00    1.26117   1.24924   27.277
 6082.00    1.25964   1.24810   27.030
 6083.00    1.25781   1.24678   27.152
 6084.00    1.25490   1.24615   27.352
 6085.00    1.25037   1.24703   27.394
 6086.00    1.24454   1.24777   27.478
 6087.00    1.23850   1.24712   27.791
 6088.00    1.23386   1.24661   28.190
 6089.00    1.23203   1.24724   28.439
 6090.00    1.23352   1.24809   28.418
 6091.00    1.23730   1.24874   28.227
 6092.00    1.24067   1.25049   28.161
 6093.00    1.24205   1.25358   28.311
 6094.00    1.24244   1.25610   28.394
 6095.00    1.24336   1.25695   28.241
 6096.00    1.24533   1.25700   28.073
 6097.00    1.24693   1.25625   28.047
 6098.00    1.24493   1.25294   28.029
 6099.00    1.23787   1.24631   27.954
 6100.00    1.22796   1.23840   28.003
 6101.00    1.21884   1.23318   28.246
 6102.00    1.21395   1.23174   28.479
 6103.00    1.21512   1.23141   28.475
 6104.00    1.22194   1.23109   28.186
 6105.00    1.23221   1.23393   27.817
 6106.00    1.24271   1.24095   27.742
 6107.00    1.25141   1.24821   27.975
 6108.00    1.25837   1.25289   28.037
 6109.00    1.26370   1.25571   27.743
 6110.00    1.26670   1.25874   27.518
 6111.00    1.26752   1.26234   27.604
 6112.00    1.26756   1.26430   27.765
 6113.00    1.26744   1.26357   27.809
 6114.00    1.26622   1.26174   27.827
 6115.00    1.26290   1.25965   27.920
 6116.00    1.25719   1.25606   28.063
 6117.00    1.24919   1.25005   28.189
 6118.00    1.23927   1.24238   28.241
 6119.00    1.22806   1.23465   28.231
 6120.00    1.21660   1.22849   28.231
 6121.00    1.20693   1.22506   28.206
 6122.00    1.20192   1.22394   28.004
 6123.00    1.20339   1.22388   27.697
 6124.00    1.21113   1.22556   27.600
 6125.00    1.22255   1.23029   27.782
 6126.00    1.23351   1.23594   27.951
 6127.00    1.24215   1.24009   27.899
 6128.00    1.24962   1.24305   27.690
 6129.00    1.25589   1.24445   27.516
 6130.00    1.25858   1.24326   27.571
 6131.00    1.25610   1.23975   27.851
 6132.00    1.24861   1.23391   28.148
 6133.00    1.23627   1.22471   28.391
 6134.00    1.21927   1.21283   28.701
 6135.00    1.20075   1.20256   28.956
 6136.00    1.18675   1.19757   28.770
 6137.00    1.18139   1.19670   28.206
 6138.00    1.18532   1.19705   27.799
 6139.00    1.19674   1.19998   27.759
 6140.00    1.21233   1.20892   27.872
 6141.00    1.22860   1.22109   27.988
 6142.00    1.24246   1.23052   28.137
 6143.00    1.25151   1.23631   28.323
 6144.00    1.25448   1.24144   28.472
 6145.00    1.25228   1.24616   28.572
 6146.00    1.24765   1.24805   28.685
 6147.00    1.24229   1.24703   28.814
 6148.00    1.23639   1.24506   28.891
 6149.00    1.23033   1.24337   28.904
 6150.00    1.22512   1.24179   28.896
 6151.00    1.22196   1.23985   28.809
 6152.00    1.22167   1.23725   28.544
 6153.00    1.22344   1.23459   28.286
 6154.00    1.22464   1.23116   28.396
 6155.00    1.22140   1.22507   28.816
 6156.00    1.21015   1.21597   29.087
 6157.00    1.19168   1.20513   29.029
 6158.00    1.17082   1.19208   28.868
 6159.00    1.15180   1.17649   28.817
 6160.00    1.13718   1.16215   28.929
 6161.00    1.12870   1.15238   29.067
 6162.00    1.12732   1.14591   29.027
 6163.00    1.13249   1.14135   28.915
 6164.00    1.14191   1.14108   29.035
 6165.00    1.15179   1.14573   29.280
 6166.00    1.15819   1.15082   29.217
 6167.00    1.16054   1.15375   28.831
 6168.00    1.16140   1.15762   28.474
 6169.00    1.16343   1.16409   28.198
 6170.00    1.16811   1.16965   27.842
 6171.00    1.17475   1.17345   27.607
 6172.00    1.18127   1.17944   27.870
 6173.00    1.18703   1.18766   28.471
 6174.00    1.19282   1.19428   28.834
 6175.00    1.19907   1.19920   28.890
 6176.00    1.20573   1.20464   29.025
 6177.00    1.21273   1.20959   29.194
 6178.00    1.21990   1.21308   29.020
 6179.00    1.22624   1.21638   28.589
 6180.00    1.23029   1.21941   28.322
 6181.00    1.23106   1.22050   28.334
 6182.00    1.22850   1.21970   28.470
 6183.00    1.22387   1.21766   28.615
 6184.00    1.21872   1.21328   28.734
 6185.00    1.21277   1.20672   28.800
 6186.00    1.20436   1.19976   28.765
 6187.00    1.19259   1.19293   28.539
 6188.00    1.17841   1.18524   28.117
 6189.00    1.16558   1.17838   27.809
 6190.00    1.15882   1.17612   27.962
 6191.00    1.15957   1.17831   28.413
 6192.00    1.16611   1.18120   28.700
 6193.00    1.17546   1.18430   28.790
 6194.00    1.18454   1.19023   28.969
 6195.00    1.19147   1.19748   29.254
 6196.00    1.19542   1.20173   29.451
 6197.00    1.19587   1.20291   29.503
 6198.00    1.19362   1.20422   29.369
 6199.00    1.19288   1.20672   28.706
 6200.00    1.19840   1.20898   27.285
 6201.00    1.20973   1.21055   25.614
 6202.00    1.22253   1.21309   24.343
 6203.00    1.23282   1.21710   23.647
 6204.00    1.23771   1.22074   23.469
 6205.00    1.23553   1.22254   23.771
 6206.00    1.22670   1.22251   24.496
 6207.00    1.21510   1.22076   25.408
 6208.00    1.20560   1.21690   26.162
 6209.00    1.19950   1.21093   26.591
 6210.00    1.19519   1.20307   26.777
 6211.00    1.19036   1.19368   26.964
 6212.00    1.18345   1.18416   27.362
 6213.00    1.17542   1.17583   27.890
 6214.00    1.16884   1.16940   28.308
 6215.00    1.16596   1.16501   28.551
 6216.00    1.16755   1.16240   28.703
 6217.00    1.17152   1.16108   28.838
 6218.00    1.17442   1.16177   29.037
 6219.00    1.17384   1.16453   29.440
 6220.00    1.16959   1.16742   29.930
 6221.00    1.16477   1.16926   29.679
 6222.00    1.16317   1.17114   28.143
 6223.00    1.16551   1.17330   26.300
 6224.00    1.16953   1.17410   25.152
 6225.00    1.17113   1.17277   24.646
 6226.00    1.16705   1.16989   24.483
 6227.00    1.15822   1.16563   24.835
 6228.00    1.14861   1.16053   25.896
 6229.00    1.14295   1.15693   27.115
 6230.00    1.14416   1.15584   27.630
 6231.00    1.15062   1.15634   27.515
 6232.00    1.15853   1.15880   27.359
 6233.00    1.16540   1.16345   27.298
 6234.00    1.16969   1.16834   27.281
 6235.00    1.17013   1.17165   27.508
 6236.00    1.16670   1.17296   28.133
 6237.00    1.16173   1.17167   28.827
 6238.00    1.15727   1.16823   29.120
 6239.00    1.15190   1.16412   28.994
 6240.00    1.14305   1.15919   28.743
 6241.00    1.13014   1.15413   28.625
 6242.00    1.11491   1.15132   28.736
 6243.00    1.10135   1.15081   28.936
 6244.00    1.09332   1.15091   29.062
 6245.00    1.09211   1.15235   29.186
 6246.00    1.09664   1.15565   29.404
 6247.00    1.10413   1.15854   29.605
 6248.00    1.11097   1.15957   29.668
 6249.00    1.11375   1.15875   29.683
 6250.00    1.11094   1.15556   29.641
 6251.00    1.10421   1.15049   29.144
 6252.00    1.09687   1.14467   28.030
 6253.00    1.09191   1.13855   26.826
 6254.00    1.09094   1.13260   26.025
 6255.00    1.09333   1.12847   25.664
 6256.00    1.09805   1.12745   25.733
 6257.00    1.10529   1.12992   26.459
 6258.00    1.11457   1.13460   27.852
 6259.00    1.12307   1.14040   29.108
 6260.00    1.12885   1.14833   29.432
 6261.00    1.13343   1.15793   29.275
 6262.00    1.13872   1.16581   -2.000
 6263.00    1.14413   1.17105   -2.000
 6264.00    1.14778   1.17627   -2.000
 6265.00    1.14792   1.18106   -2.000
 6266.00    1.14551   1.18316   -2.000
 6267.00    1.14548   1.18381   -2.000
 6268.00    1.15087   1.18560   -2.000
 6269.00    1.15834   1.18807   -2.000
 6270.00    1.16332   1.18989   -2.000
 6271.00    1.16449   1.19125   -2.000
 6272.00    1.16398   1.19259   -2.000
 6273.00    1.16661   1.19376   -2.000
 6274.00    1.17422   1.19410   24.496
 6275.00    1.18208   1.19332   24.434
 6276.00    1.18524   1.19162   25.062
 6277.00    1.18344   1.18929   26.302
 6278.00    1.17925   1.18672   27.756
 6279.00    1.17616   1.18507   28.965
 6280.00    1.17578   1.18501    0.000
 6281.00    1.17637   1.18620    0.000
 6282.00    1.17628   1.18849    0.000
 6283.00    1.17623   1.19213    0.000
 6284.00    1.17743   1.19700    0.000
 6285.00    1.18026   1.20199    0.000
 6286.00    1.18545   1.20603    0.000
 6287.00    1.19432   1.20867    0.000
 6288.00    1.20508   1.20990    0.000
 6289.00    1.21141   1.20965    0.000
 6290.00    1.20913   1.20786    0.000
 6291.00    1.20014   1.20481    0.000
 6292.00    1.18963   1.20109    0.000
 6293.00    1.18343   1.19675    0.000
 6294.00    1.18379   1.19149    0.000
 6295.00    1.18764   1.18621    0.000
 6296.00    1.19119   1.18225    0.000
 6297.00    1.19270   1.17915    0.000
 6298.00    1.19192   1.17581    0.000
 6299.00    1.18952   1.17311    0.000
 6300.00    1.18637   1.17310    0.000
 6301.00    1.18312   1.17586    0.000
 6302.00    1.18003   1.17937    0.000
 6303.00    1.17711   1.18293    0.000
 6304.00    1.17538   1.18795    0.000
 6305.00    1.17700   1.19437    0.000
 6306.00    1.18255   1.19962    0.000
 6307.00    1.18987   1.20234    0.000
 6308.00    1.19551   1.20323    0.000
 6309.00    1.19614   1.20273    0.000
 6310.00    1.19074   1.20084    0.000
 6311.00    1.18138   1.19728    0.000
 6312.00    1.17080   1.19168    0.000
 6313.00    1.16112   1.18597    0.000
 6314.00    1.15376   1.18238    0.000
 6315.00    1.14945   1.17917    0.000
 6316.00    1.14870   1.17524    0.000
 6317.00    1.15181   1.17430    0.000
 6318.00    1.15781   1.17731    0.000
 6319.00    1.16449   1.18065    0.000
 6320.00    1.17082   1.18394    0.000
 6321.00    1.17757   1.18967   27.890
 6322.00    1.18552   1.19684   27.187
 6323.00    1.19449   1.20258   26.743
 6324.00    1.20287   1.20679   26.728
 6325.00    1.20799   1.21059   27.108
 6326.00    1.20853   1.21417   27.538
 6327.00    1.20525   1.21638   27.418
 6328.00    1.20000   1.21645   26.589
 6329.00    1.19504   1.21538   25.504
 6330.00    1.19225   1.21426   24.634
 6331.00    1.19257   1.21226   24.279
 6332.00    1.19506   1.20801   24.625
 6333.00    1.19721   1.20239   25.764
 6334.00    1.19724   1.19812   27.420
 6335.00    1.19502   1.19582   28.790
 6336.00    1.19198   1.19366   29.455
 6337.00    1.19035   1.19171   29.844
 6338.00    1.19082   1.19226   30.180
 6339.00    1.19227   1.19476   30.179
 6340.00    1.19400   1.19628   29.848
 6341.00    1.19623   1.19630   29.589
 6342.00    1.19903   1.19668   29.543
 6343.00    1.20207   1.19810   29.479
 6344.00    1.20507   1.19916   29.116
 6345.00    1.20791   1.19992   28.427
 6346.00    1.21042   1.20207   28.125
 6347.00    1.21230   1.20536   29.007
 6348.00    1.21290   1.20765   29.512
 6349.00    1.21137   1.20871   27.215
 6350.00    1.20725   1.20922   26.319
 6351.00    1.20092   1.20791   33.427
 6352.00    1.19437   1.20370   36.254
 6353.00    1.19043   1.19826   18.340
 6354.00    1.18982   1.19316    9.760
 6355.00    1.19080   1.18687    7.785
 6356.00    1.19089   1.17878    8.075
 6357.00    1.18826   1.17197    8.670
 6358.00    1.18402   1.16783    8.591
 6359.00    1.18170   1.16396    8.326
 6360.00    1.18370   1.16044    8.333
 6361.00    1.19001   1.16020    8.589
 6362.00    1.19754   1.16336    8.573
 6363.00    1.20183   1.16756    7.906
 6364.00    1.20210   1.17268    7.768
 6365.00    1.20110   1.17978   10.275
 6366.00    1.20132   1.18799   20.996
 6367.00    1.20373   1.19527   36.254
 6368.00    1.20724   1.20139   34.232
 6369.00    1.20981   1.20731   27.068
 6370.00    1.21143   1.21292   28.627
 6371.00    1.21374   1.21700   31.153
 6372.00    1.21722   1.21930   30.600
 6373.00    1.22071   1.22076   29.712
 6374.00    1.22175   1.22171   29.816
 6375.00    1.21824   1.22117   30.068
 6376.00    1.21183   1.21902   30.057
 6377.00    1.20663   1.21660   30.028
 6378.00    1.20457   1.21448   30.023
 6379.00    1.20500   1.21247   29.888
 6380.00    1.20624   1.21123   29.717
 6381.00    1.20670   1.21091   29.727
 6382.00    1.20665   1.21083   29.813
 6383.00    1.20730   1.21135   29.708
 6384.00    1.20829   1.21273   29.506
 6385.00    1.20840   1.21367   29.488
 6386.00    1.20814   1.21312   29.580
 6387.00    1.20887   1.21170   29.505
 6388.00    1.21009   1.21007   29.312
 6389.00    1.20977   1.20777   29.267
 6390.00    1.20607   1.20386   29.462
 6391.00    1.19867   1.19936   29.802
 6392.00    1.19047   1.19689   30.089
 6393.00    1.18560   1.19592   30.159
 6394.00    1.18520   1.19428   30.122
 6395.00    1.18779   1.19370   30.194
 6396.00    1.19133   1.19507   30.326
 6397.00    1.19403   1.19530   30.340
 6398.00    1.19487   1.19462   30.300
 6399.00    1.19392   1.19702   30.386
 6400.00    1.19257   1.20072   30.546
 6401.00    1.19247   1.20242   30.598
 6402.00    1.19389   1.20451   30.505
 6403.00    1.19651   1.20871   30.348
 6404.00    1.20133   1.21150   30.194
 6405.00    1.20893   1.21063   30.081
 6406.00    1.21648   1.20901   30.036
 6407.00    1.21972   1.20873   30.084
 6408.00    1.21691   1.20732   30.247
 6409.00    1.20957   1.20386   30.477
 6410.00    1.20235   1.20223   30.552
 6411.00    1.19956   1.20320   30.312
 6412.00    1.20007   1.20340   30.022
 6413.00    1.20001   1.20273   30.016
 6414.00    1.19784   1.20312   30.175
 6415.00    1.19420   1.20353   30.168
 6416.00    1.19073   1.20304   29.917
 6417.00    1.18879   1.20218   29.577
 6418.00    1.18811   1.20091   29.378
 6419.00    1.18774   1.20020   29.458
 6420.00    1.18757   1.20196   29.682
 6421.00    1.18820   1.20533   29.821
 6422.00    1.19037   1.20836   29.852
 6423.00    1.19466   1.21178   29.840
 6424.00    1.20106   1.21587   29.740
 6425.00    1.20863   1.21870   29.499
 6426.00    1.21522   1.21927   29.207
 6427.00    1.21834   1.21796   28.915
 6428.00    1.21651   1.21494   28.431
 6429.00    1.20989   1.21167   27.640
 6430.00    1.20078   1.20989   26.824
 6431.00    1.19324   1.20871   26.316
 6432.00    1.19213   1.20732   26.174
 6433.00    1.19917   1.20709   26.271
 6434.00    1.20887   1.20872   26.389
 6435.00    1.21428   1.21013   26.377
 6436.00    1.21396   1.20962   26.338
 6437.00    1.21048   1.20957   26.454
 6438.00    1.20769   1.21248   26.778
 6439.00    1.20812   1.21621   27.282
 6440.00    1.21062   1.21896   27.921
 6441.00    1.21303   1.22274   28.607
 6442.00    1.21524   1.22728   29.176
 6443.00    1.21754   1.22933   29.442
 6444.00    1.21870   1.22815   29.309
 6445.00    1.21643   1.22533   28.963
 6446.00    1.20822   1.22024   28.945
 6447.00    1.19423   1.21198   29.538
 6448.00    1.17963   1.20394   30.214
 6449.00    1.17002   1.19941   30.383
 6450.00    1.16677   1.19654   30.326
 6451.00    1.16840   1.19482   30.492
 6452.00    1.17246   1.19616   30.736
 6453.00    1.17714   1.19953   30.756
 6454.00    1.18252   1.20314   30.577
 6455.00    1.18916   1.20719   30.352
 6456.00    1.19662   1.21015   30.146
 6457.00    1.20310   1.21116   30.021
 6458.00    1.20543   1.21183   30.099
 6459.00    1.20204   1.21129   30.272
 6460.00    1.19526   1.20782   29.984
 6461.00    1.18923   1.20524   28.855
 6462.00    1.18775   1.20575   27.184
 6463.00    1.19260   1.20609   25.538
 6464.00    1.20237   1.20645   24.374
 6465.00    1.21367   1.20938   23.903
 6466.00    1.22227   1.21317   24.106
 6467.00    1.22486   1.21536   24.833
 6468.00    1.22044   1.21648   25.767
 6469.00    1.21131   1.21644   26.550
 6470.00    1.20322   1.21567   26.987
 6471.00    1.20066   1.21530   27.147
 6472.00    1.20347   1.21414   27.347
 6473.00    1.20901   1.21218   27.830
 6474.00    1.21418   1.21170   28.538
 6475.00    1.21682   1.21201   29.256
 6476.00    1.21662   1.21045   29.757
 6477.00    1.21454   1.20828   29.917
 6478.00    1.21206   1.20683   29.801
 6479.00    1.20975   1.20412   29.588
 6480.00    1.20655   1.20014   29.477
 6481.00    1.20189   1.19777   29.619
 6482.00    1.19692   1.19707   30.056
 6483.00    1.19309   1.19624   30.593
 6484.00    1.19112   1.19556   30.747
 6485.00    1.19106   1.19574   30.318
 6486.00    1.19229   1.19530   29.695
 6487.00    1.19313   1.19207   29.237
 6488.00    1.19097   1.18535   28.967
 6489.00    1.18396   1.17610   28.866
 6490.00    1.17213   1.16480   29.016
 6491.00    1.15703   1.15061   29.411
 6492.00    1.14128   1.13474   29.867
 6493.00    1.12699   1.12136   30.189
 6494.00    1.11503   1.11204   30.266
 6495.00    1.10645   1.10648   29.877
 6496.00    1.10299   1.10584   28.733
 6497.00    1.10569   1.11038   27.154
 6498.00    1.11430   1.11968   25.959
 6499.00    1.12815   1.13204   25.503
 6500.00    1.14645   1.14533   25.604
 6501.00    1.16697   1.15837   26.105
 6502.00    1.18580   1.17057   27.054
 6503.00    1.19985   1.18108   28.343
 6504.00    1.20821   1.18927   29.465
 6505.00    1.21197   1.19515   29.917
 6506.00    1.21359   1.19881   29.627
 6507.00    1.21437   1.20120   28.974
 6508.00    1.21368   1.20277   28.515
 6509.00    1.21171   1.20290   28.358
 6510.00    1.21018   1.20181   28.139
 6511.00    1.20923   1.20054   27.863
 6512.00    1.20662   1.19864   28.065
 6513.00    1.20092   1.19551   28.849
 6514.00    1.19293   1.19241   29.535
 6515.00    1.18493   1.19029   29.415
 6516.00    1.18004   1.18831   28.349
 6517.00    1.18048   1.18717   26.806
 6518.00    1.18658   1.18832   25.462
 6519.00    1.19596   1.19060   24.655
 6520.00    1.20387   1.19268   24.429
 6521.00    1.20612   1.19492   24.831
 6522.00    1.20109   1.19764   25.946
 6523.00    1.19217   1.19960   27.553
 6524.00    1.18684   1.19983   28.899
 6525.00    1.18891   1.19936   29.415
 6526.00    1.19625   1.19930   29.256
 6527.00    1.20441   1.19904   28.804
 6528.00    1.20895   1.19817    0.000
 6529.00    1.20830   1.19751    0.000
 6530.00    1.20438   1.19740    0.000
 6531.00    1.20084   1.19746    0.000
 6532.00    1.20153   1.19798    0.000
 6533.00    1.20735   1.19920    0.000
 6534.00    1.21576   1.20056    0.000
 6535.00    1.22273   1.20169    0.000
 6536.00    1.22438   1.20288    0.000
 6537.00    1.21999   1.20389    0.000
 6538.00    1.21245   1.20390    0.000
 6539.00    1.20634   1.20224    0.000
 6540.00    1.20603   1.19901    0.000
 6541.00    1.21214   1.19494    0.000
 6542.00    1.22153   1.19033    0.000
 6543.00    1.23135   1.18457    0.000
 6544.00    1.23974   1.17815    0.000
 6545.00    1.24382   1.17342    0.000
 6546.00    1.24052   1.17017    0.000
 6547.00    1.23114   1.16665    0.000
 6548.00    1.22038   1.16300    0.000
 6549.00    1.20946   1.15984    0.000
 6550.00    1.19603   1.15629    0.000
 6551.00    1.18008   1.15127    0.000
 6552.00    1.16486   1.14439    0.000
 6553.00    1.15415   1.13555    0.000
 6554.00    1.15116   1.12513    0.000
 6555.00    1.15759   1.11278    0.000
 6556.00    1.17273   1.09614    0.000
 6557.00    1.19172   1.07541    0.000
 6558.00    1.20629   1.05488    0.000
 6559.00    1.20784   1.03431    0.000
 6560.00    1.19067   1.01056    0.000
 6561.00    1.15789   0.99300    0.000
 6562.00    1.11984   0.99087    0.000
 6563.00    1.08634   0.99608    0.000
 6564.00    1.06464   1.00460    0.000
 6565.00    1.05959   1.02319    0.000
 6566.00    1.07219   1.04804    0.000
 6567.00    1.09613   1.06927    0.000
 6568.00    1.12050   1.08749    0.000
 6569.00    1.13816   1.10426    0.000
 6570.00    1.14729   1.11620    0.000
 6571.00    1.15016   1.12375    0.000
 6572.00    1.15123   1.13014    0.000
 6573.00    1.15362   1.13600    0.000
 6574.00    1.15949   1.14176    0.000
 6575.00    1.17278   1.14771    0.000
 6576.00    1.19762   1.15371    0.000
 6577.00    1.23390   1.15958    0.000
 6578.00    1.27682   1.16467    0.000
 6579.00    1.31829   1.16851    0.000
 6580.00    1.34846   1.17195    0.000
 6581.00    1.35853   1.17483    0.000
 6582.00    1.34454   1.17671    0.000
 6583.00    1.31360   1.17803    0.000
 6584.00    1.27920   1.17898    0.000
 6585.00    1.24974   1.17982    0.000
 6586.00    1.22745   1.17993    0.000
 6587.00    1.21069   1.17820    0.000
 6588.00    1.19678   1.17553    0.000
 6589.00    1.18618   1.17253    0.000
 6590.00    1.18053   1.16786    0.000
 6591.00    1.17790   1.16221    0.000
 6592.00    1.17485   1.15918    0.000
 6593.00    1.17172   1.15854    0.000
 6594.00    1.17098   1.15826    0.000
 6595.00    1.17288   1.15975    0.000
 6596.00    1.17599   1.16357    0.000
 6597.00    1.17930   1.16818    0.000
 6598.00    1.18237   1.17272    0.000
 6599.00    1.18489   1.17668    0.000
 6600.00    1.18647   1.17940    0.000
 6601.00    1.18644   1.18087    0.000
 6602.00    1.18440   1.18084    0.000
 6603.00    1.18103   1.17911    0.000
 6604.00    1.17755   1.17676    0.000
 6605.00    1.17447   1.17458    0.000
 6606.00    1.17184   1.17226    0.000
 6607.00    1.16974   1.17029    0.000
 6608.00    1.16851   1.17045    0.000
 6609.00    1.16884   1.17254   30.276
 6610.00    1.17136   1.17491   30.304
 6611.00    1.17595   1.17752   30.396
 6612.00    1.18157   1.18125   30.189
 6613.00    1.18620   1.18555   29.853
 6614.00    1.18829   1.18869   29.726
 6615.00    1.18865   1.19084   29.754
 6616.00    1.18920   1.19288   29.723
 6617.00    1.19109   1.19440   29.646
 6618.00    1.19421   1.19452   29.625
 6619.00    1.19709   1.19350   29.608
 6620.00    1.19838   1.19206   29.518
 6621.00    1.19868   1.18993   29.454
 6622.00    1.19916   1.18669   29.551
 6623.00    1.19951   1.18341   29.778
 6624.00    1.19855   1.18104   29.992
 6625.00    1.19519   1.17858   30.050
 6626.00    1.18980   1.17597   29.929
 6627.00    1.18527   1.17394   29.841
 6628.00    1.18368   1.17195   29.950
 6629.00    1.18253   1.16963   30.082
 6630.00    1.17858   1.16748   30.022
 6631.00    1.17267   1.16536   29.896
 6632.00    1.16740   1.16373   29.897
 6633.00    1.16386   1.16360   29.938
 6634.00    1.16142   1.16428   29.885
 6635.00    1.15812   1.16532   29.826
 6636.00    1.15364   1.16726   29.883
 6637.00    1.15208   1.16908   29.998
 6638.00    1.15648   1.16984   30.056
 6639.00    1.16322   1.17077   30.047
 6640.00    1.16680   1.17131   30.007
 6641.00    1.16534   1.16977   29.939
 6642.00    1.16022   1.16848   29.870
 6643.00    1.15501   1.16901   29.893
 6644.00    1.15302   1.16910   30.044
 6645.00    1.15507   1.16852   30.183
 6646.00    1.16021   1.16944   30.194
 6647.00    1.16670   1.17126   30.175
 6648.00    1.17284   1.17203   30.220
 6649.00    1.17761   1.17229   30.224
 6650.00    1.18021   1.17299   30.098
 6651.00    1.17969   1.17334   29.969
 6652.00    1.17658   1.17293   29.963
 6653.00    1.17406   1.17248   30.011
 6654.00    1.17503   1.17175   30.034
 6655.00    1.17949   1.17057   30.094
 6656.00    1.18463   1.16921   30.187
 6657.00    1.18567   1.16710   30.112
 6658.00    1.18020   1.16406   29.842
 6659.00    1.17128   1.16118   29.754
 6660.00    1.16346   1.15820   29.946
 6661.00    1.15911   1.15433   29.794
 6662.00    1.15811   1.15181   29.041
 6663.00    1.15802   1.15121   28.480
 6664.00    1.15642   1.15095   28.602
 6665.00    1.15292   1.15168   28.886
 6666.00    1.14957   1.15424   28.820
 6667.00    1.15057   1.15764   28.681
 6668.00    1.15771   1.16075   28.793
 6669.00    1.16751   1.16353   28.993
 6670.00    1.17551   1.16570   29.039
 6671.00    1.17954   1.16663   28.936
 6672.00    1.17972   1.16555   28.835
 6673.00    1.17799   1.16307   28.910
 6674.00    1.17572   1.16018   29.194
 6675.00    1.17239   1.15583   29.488
 6676.00    1.16773   1.15084   29.608
 6677.00    1.16303   1.14843   29.564
 6678.00    1.15962   1.14779   29.476
 6679.00    1.15792   1.14707   29.480
 6680.00    1.15765   1.14830   29.577
 6681.00    1.15820   1.15184   29.590
 6682.00    1.15923   1.15515   29.466
 6683.00    1.16091   1.15774   29.417
 6684.00    1.16279   1.16071   29.546
 6685.00    1.16334   1.16325   29.678
 6686.00    1.16207   1.16447   29.688
 6687.00    1.16041   1.16520   29.679
 6688.00    1.16010   1.16565   29.687
 6689.00    1.16189   1.16536   29.561
 6690.00    1.16468   1.16433   29.338
 6691.00    1.16562   1.16302   29.355
 6692.00    1.16342   1.16147   29.678
 6693.00    1.15977   1.15937   29.890
 6694.00    1.15670   1.15710   29.786
 6695.00    1.15517   1.15568   29.676
 6696.00    1.15582   1.15487    0.000
 6697.00    1.15920   1.15426    0.000
 6698.00    1.16453   1.15443    0.000
 6699.00    1.16937   1.15514    0.000
 6700.00    1.17074   1.15569    0.000
 6701.00    1.16630   1.15597    0.000
 6702.00    1.15693   1.15609    0.000
 6703.00    1.14701   1.15622    0.000
 6704.00    1.13952   1.15623    0.000
 6705.00    1.13445   1.15580    0.000
 6706.00    1.13303   1.15531    0.000
 6707.00    1.13862   1.15488    0.000
 6708.00    1.15144   1.15340    0.000
 6709.00    1.16726   1.15125    0.000
 6710.00    1.18292   1.14893    0.000
 6711.00    1.19798   1.14525    0.000
 6712.00    1.21053   1.14050    0.000
 6713.00    1.21616   1.13618    0.000
 6714.00    1.21194   1.13219    0.000
 6715.00    1.19810   1.12799    0.000
 6716.00    1.17758   1.12529    0.000
 6717.00    1.15539   1.12522    0.000
 6718.00    1.13696   1.12617    0.000
 6719.00    1.12681   1.12762    0.000
 6720.00    1.12593   1.13046    0.000
 6721.00    1.13162   1.13419    0.000
 6722.00    1.14089   1.13744    0.000
 6723.00    1.15215   1.13990    0.000
 6724.00    1.16666   1.14212    0.000
 6725.00    1.18697   1.14441    0.000
 6726.00    1.20909   1.14611    0.000
 6727.00    1.22280   1.14714    0.000
 6728.00    1.22288   1.14829    0.000
 6729.00    1.21214   1.14943    0.000
 6730.00    1.19676   1.14991    0.000
 6731.00    1.18312   1.14991    0.000
 6732.00    1.17313   1.14975    0.000
 6733.00    1.16409   1.14902    0.000
 6734.00    1.15373   1.14783    0.000
 6735.00    1.14230   1.14640    0.000
 6736.00    1.13323   1.14459    0.000
 6737.00    1.13100   1.14248    0.000
 6738.00    1.13357   1.14062    0.000
 6739.00    1.13327   1.13918    0.000
 6740.00    1.12753   1.13749    0.000
 6741.00    1.12036   1.13575    0.000
 6742.00    1.11601   1.13490    0.000
 6743.00    1.11646   1.13422    0.000
 6744.00    1.11988   1.13277    0.000
 6745.00    1.12217   1.13150    0.000
 6746.00    1.12266   1.13091    0.000
 6747.00    1.12401   1.12980    0.000
 6748.00    1.12705   1.12840    0.000
 6749.00    1.13033   1.12854    0.000
 6750.00    1.13313   1.12930    0.000
 6751.00    1.13551   1.12993    0.000
 6752.00    1.13610   1.13222    0.000
 6753.00    1.13305   1.13565   29.405
 6754.00    1.12797   1.13888   29.663
 6755.00    1.12536   1.14256   29.849
 6756.00    1.12802   1.14660   29.872
 6757.00    1.13572   1.14980   29.816
 6758.00    1.14481   1.15232   29.758
 6759.00    1.15010   1.15416   29.713
 6760.00    1.14952   1.15466   29.644
 6761.00    1.14465   1.15421   29.531
 6762.00    1.13913   1.15289   29.529
 6763.00    1.13684   1.15070   29.780
 6764.00    1.13845   1.14813   29.884
 6765.00    1.14152   1.14516   29.392
 6766.00    1.14234   1.14247   29.200
 6767.00    1.13857   1.14099   30.334
 6768.00    1.13380   1.14008   30.643
 6769.00    1.13434   1.13985   27.901
 6770.00    1.13992   1.14141   27.673
 6771.00    1.14553   1.14410   36.254
 6772.00    1.14992   1.14693   36.254
 6773.00    1.15496   1.15025   16.784
 6774.00    1.16047   1.15381    9.441
 6775.00    1.16442   1.15637    7.923
 6776.00    1.16577   1.15786    8.369
 6777.00    1.16461   1.15841    8.844
 6778.00    1.16125   1.15728    8.686
 6779.00    1.15607   1.15476    8.561
 6780.00    1.14959   1.15148    8.674
 6781.00    1.14277   1.14739    8.778
 6782.00    1.13766   1.14320    8.794
 6783.00    1.13589   1.13995    8.811
 6784.00    1.13584   1.13739    8.815
 6785.00    1.13418   1.13571    8.767
 6786.00    1.12971   1.13558    8.813
 6787.00    1.12324   1.13608    9.062
 6788.00    1.11593   1.13646    9.071
 6789.00    1.10906   1.13742    8.579
 6790.00    1.10390   1.13842    8.745
 6791.00    1.10159   1.13848   11.376
 6792.00    1.10280   1.13857   18.313
 6793.00    1.10802   1.13906   22.967
 6794.00    1.11797   1.13923   19.502
 6795.00    1.13140   1.13962   17.796
 6796.00    1.14174   1.14061   18.698
 6797.00    1.14296   1.14177   19.877
 6798.00    1.13946   1.14284   20.378
 6799.00    1.13920   1.14392   20.843
 6800.00    1.14094   1.14504   21.693
 6801.00    1.13872   1.14550   22.917
 6802.00    1.13169   1.14531   24.338
 6803.00    1.12346   1.14541   25.637
 6804.00    1.11903   1.14501   26.465
 6805.00    1.12144   1.14381   26.664
 6806.00    1.12804   1.14334   26.509
 6807.00    1.13399   1.14301   26.451
 6808.00    1.13792   1.14203   26.732
 6809.00    1.14046   1.14156   27.362
 6810.00    1.14102   1.14157   28.093
 6811.00    1.13900   1.14141   28.583
 6812.00    1.13584   1.14132   28.735
 6813.00    1.13355   1.14148   28.661
 6814.00    1.13250   1.14197   28.495
 6815.00    1.13272   1.14261   28.356
 6816.00    1.13587   1.14331   28.321
 6817.00    1.14287   1.14425   28.400
 6818.00    1.15088   1.14536   28.494
 6819.00    1.15600   1.14647   28.513
 6820.00    1.15700   1.14765   28.528
 6821.00    1.15360   1.14871   28.646
 6822.00    1.14431   1.14929   28.823
 6823.00    1.13092   1.14942   28.581
 6824.00    1.12340   1.14942   26.926
 6825.00    1.12853   1.14891   23.965
 6826.00    1.13717   1.14791   21.306
 6827.00    1.13755   1.14714   19.762
 6828.00    1.13105   1.14679   19.000
 6829.00    1.12329   1.14666   18.655
 6830.00    1.11308   1.14659   18.837
 6831.00    1.10088   1.14668   19.691
 6832.00    1.09796   1.14677   20.859
 6833.00    1.11325   1.14615   21.671
 6834.00    1.13938   1.14450   21.751
 6835.00    1.16395   1.14214   21.307
 6836.00    1.18222   1.13890   20.989
 6837.00    1.19309   1.13496   21.258
 6838.00    1.19425   1.13113   22.001
 6839.00    1.18647   1.12778   22.859
 6840.00    1.17745   1.12541   23.579
 6841.00    1.17400   1.12449   24.007
 6842.00    1.17466   1.12506   24.049
 6843.00    1.17511   1.12697   23.829
 6844.00    1.17379   1.12964   23.753
 6845.00    1.17174   1.13262   24.064
 6846.00    1.17134   1.13552   24.522
 6847.00    1.17088   1.13769   24.882
 6848.00    1.16118   1.13894   25.359
 6849.00    1.14070   1.13902   25.948
 6850.00    1.12639   1.13793   25.796
 6851.00    1.13033   1.13640   24.561
 6852.00    1.14102   1.13405   23.330
 6853.00    1.14408   1.13083   22.870
 6854.00    1.13976   1.12841   22.940
 6855.00    1.13395   1.12646   23.172
 6856.00    1.12966   1.12409   23.608
 6857.00    1.12681   1.12298   24.295
 6858.00    1.12300   1.12327   24.909
 6859.00    1.11763   1.12336   25.167
 6860.00    1.11473   1.12388   25.225
 6861.00    1.11974   1.12555   25.155
 6862.00    1.13606   1.12699   24.603
 6863.00    1.15832   1.12763   23.596
 6864.00    1.17043   1.12849   22.859
 6865.00    1.16792   1.12923   22.784
 6866.00    1.16979   1.12870   23.076
 6867.00    1.18488   1.12794   23.455
 6868.00    1.19245   1.12794   24.097
 6869.00    1.18079   1.12759   25.104
 6870.00    1.16997   1.12700   26.045
 6871.00    1.17429   1.12770   26.358
 6872.00    1.17994   1.12903   25.896
 6873.00    1.17417   1.13001   24.943
 6874.00    1.16361   1.13146   23.975
 6875.00    1.15925   1.13351   23.224
 6876.00    1.16543   1.13495   22.622
 6877.00    1.17700   1.13554   22.216
 6878.00    1.17999   1.13610   22.314
 6879.00    1.16512   1.13632   23.132
 6880.00    1.13599   1.13569   24.584
 6881.00    1.10692   1.13500   26.146
 6882.00    1.09787   1.13514   26.740
 6883.00    1.11372   1.13582   25.823
 6884.00    1.13662   1.13666   24.137
 6885.00    1.15305   1.13850   22.448
 6886.00    1.16674   1.14140   21.026
 6887.00    1.18044   1.14395   20.090
 6888.00    1.18730   1.14620   19.945
 6889.00    1.18338   1.14877   20.699
 6890.00    1.17369   1.15051   22.156
 6891.00    1.16557   1.15109   23.926
 6892.00    1.16440   1.15150   25.455
 6893.00    1.17134   1.15148   26.328
 6894.00    1.18256   1.15074   26.635
 6895.00    1.19174   1.14991   26.708
 6896.00    1.19274   1.14947   26.813
 6897.00    1.18617   1.14919   26.953
 6898.00    1.18032   1.14889   26.849
 6899.00    1.17979   1.14914   26.316
 6900.00    1.18124   1.14996   25.420
 6901.00    1.18115   1.15082   24.292
 6902.00    1.17943   1.15189   23.095
 6903.00    1.17871   1.15318   22.277
 6904.00    1.18241   1.15444   22.377
 6905.00    1.18806   1.15546   22.969
 6906.00    1.18703   1.15584   22.729
 6907.00    1.17675   1.15589   22.871
 6908.00    1.16436   1.15526   27.109
 6909.00    1.15843   1.15343   30.412
 6910.00    1.16378   1.15151   18.283
 6911.00    1.17624   1.14936   10.238
 6912.00    1.18385   1.14642    7.993
 6913.00    1.18083   1.14451    8.103
 6914.00    1.17164   1.14352    8.707
 6915.00    1.16313   1.14244    8.738
 6916.00    1.16047   1.14259    8.554
 6917.00    1.16395   1.14369    8.541
 6918.00    1.16926   1.14439    8.577
 6919.00    1.17341   1.14499    8.543
 6920.00    1.17616   1.14559    8.489
 6921.00    1.17685   1.14547    8.481
 6922.00    1.17404   1.14475    8.534
 6923.00    1.16849   1.14403    8.588
 6924.00    1.16339   1.14339    8.556
 6925.00    1.16128   1.14294    8.534
 6926.00    1.16253   1.14299    8.714
 6927.00    1.16424   1.14342    8.805
 6928.00    1.16190   1.14388    8.301
 6929.00    1.15628   1.14462    8.074
 6930.00    1.15287   1.14540   10.001
 6931.00    1.15232   1.14567   17.454
 6932.00    1.15040   1.14614   29.925
 6933.00    1.14814   1.14695   26.679
 6934.00    1.15126   1.14744   22.198
 6935.00    1.15752   1.14807   23.025
 6936.00    1.15798   1.14894   25.176
 6937.00    1.15311   1.14942   25.484
 6938.00    1.15221   1.14961   24.602
 6939.00    1.15641   1.14935   23.650
 6940.00    1.15822   1.14831   22.799
 6941.00    1.15611   1.14722   22.016
 6942.00    1.15478   1.14598   21.351
 6943.00    1.15338   1.14422   21.104
 6944.00    1.14611   1.14332   21.663
 6945.00    1.13383   1.14317   22.962
 6946.00    1.12368   1.14263   24.392
 6947.00    1.11930   1.14278   25.455
 6948.00    1.11965   1.14357   26.101
 6949.00    1.12338   1.14351   26.403
 6950.00    1.12913   1.14351   26.448
 6951.00    1.13301   1.14408   26.416
 6952.00    1.13059   1.14423   26.501
 6953.00    1.12354   1.14464   26.666
 6954.00    1.11832   1.14600   26.718
 6955.00    1.11853   1.14749   26.632
 6956.00    1.12395   1.14918   26.540
 6957.00    1.13312   1.15130   26.464
 6958.00    1.14307   1.15332   26.336
 6959.00    1.14744   1.15517   26.200
 6960.00    1.14087   1.15676   26.173
 6961.00    1.12972   1.15794   26.259
 6962.00    1.12656   1.15902   26.324
 6963.00    1.13221   1.15975   26.140
 6964.00    1.13833   1.16008   25.577
 6965.00    1.14226   1.16050   24.923
 6966.00    1.14627   1.16064   24.587
 6967.00    1.14872   1.16030   24.533
 6968.00    1.14565   1.15982   24.490
 6969.00    1.13813   1.15862   24.504
 6970.00    1.13101   1.15640   24.775
 6971.00    1.12710   1.15368   25.073
 6972.00    1.12654   1.15004   24.897
 6973.00    1.12823   1.14506   24.152
 6974.00    1.13029   1.14001   23.197
 6975.00    1.13038   1.13570   22.530
 6976.00    1.12633   1.13152   22.512
 6977.00    1.11713   1.12869   23.118
 6978.00    1.10471   1.12886   24.054
 6979.00    1.09647   1.13072   24.991
 6980.00    1.10038   1.13371   25.619
 6981.00    1.11504   1.13869   25.736
 6982.00    1.13112   1.14417   25.426
 6983.00    1.13731   1.14869   25.205
 6984.00    1.12755   1.15255   25.555
 6985.00    1.11104   1.15556   26.241
 6986.00    1.10251   1.15719   26.617
 6987.00    1.10290   1.15783   26.579
 6988.00    1.10435   1.15810   26.462
 6989.00    1.10397   1.15808   26.423
 6990.00    1.10386   1.15787   26.421
 6991.00    1.10711   1.15765   26.358
 6992.00    1.11528   1.15732   26.188
 6993.00    1.12555   1.15679   26.054
 6994.00    1.13367   1.15590   26.100
 6995.00    1.13919   1.15451   26.169
 6996.00    1.14282   1.15286   26.045
 6997.00    1.14147   1.15097   25.880
 6998.00    1.13272   1.14880   25.913
 6999.00    1.12213   1.14677   26.002
 7000.00    1.11732   1.14517   25.862
 7001.00    1.11782   1.14376   -2.000
 7002.00    1.11891   1.14265   -2.000
 7003.00    1.11893   1.14223   -2.000
 7004.00    1.11890   1.14233   -2.000
 7005.00    1.12033   1.14259   -2.000
 7006.00    1.12304   1.14311   -2.000
 7007.00    1.12297   1.14385   -2.000
 7008.00    1.11751   1.14430   -2.000
 7009.00    1.11248   1.14418   -2.000
 7010.00    1.11513   1.14356   -2.000
 7011.00    1.12413   1.14214   -2.000
 7012.00    1.13209   1.14031   -2.000
 7013.00    1.13088   1.13864   -2.000
 7014.00    1.11763   1.13673   -2.000
 7015.00    1.10069   1.13558   -2.000
 7016.00    1.09087   1.13606   -2.000
 7017.00    1.09019   1.13680   -2.000
 7018.00    1.09484   1.13789   -2.000
 7019.00    1.10039   1.13995   -2.000
 7020.00    1.10403   1.14169   -2.000
 7021.00    1.10629   1.14272   -2.000
 7022.00    1.10803   1.14361   -2.000
 7023.00    1.10722   1.14448   -2.000
 7024.00    1.10317   1.14540   -2.000
 7025.00    1.10113   1.14643   -2.000
 7026.00    1.10527   1.14789   -2.000
 7027.00    1.11145   1.14976   -2.000
 7028.00    1.11577   1.15161   -2.000
 7029.00    1.12356   1.15324   -2.000
 7030.00    1.13838   1.15444   -2.000
 7031.00    1.15074   1.15537   -2.000
 7032.00    1.15059   1.15595   -2.000
 7033.00    1.14032   1.15578   -2.000
 7034.00    1.12812   1.15599   -2.000
 7035.00    1.11990   1.15700   -2.000
 7036.00    1.11739   1.15781   -2.000
 7037.00    1.11748   1.15969   -2.000
 7038.00    1.11733   1.16338   -2.000
 7039.00    1.11881   1.16708   -2.000
 7040.00    1.12426   1.17098   -2.000
 7041.00    1.13225   1.17580   -2.000
 7042.00    1.13918   1.17987   -2.000
 7043.00    1.14133   1.18272   -2.000
 7044.00    1.13846   1.18499   -2.000
 7045.00    1.13608   1.18605   -2.000
 7046.00    1.13916   1.18553   -2.000
 7047.00    1.14661   1.18356   -2.000
 7048.00    1.15255   1.18013   -2.000
 7049.00    1.14865   1.17547   -2.000
 7050.00    1.13306   1.16943   -2.000
 7051.00    1.11591   1.16247   -2.000
 7052.00    1.10548   1.15565   -2.000
 7053.00    1.09805   1.14894   -2.000
 7054.00    1.08938   1.14261   -2.000
 7055.00    1.08306   1.13745   -2.000
 7056.00    1.08063   1.13330   -2.000
 7057.00    1.07507   1.12980   -2.000
 7058.00    1.06389   1.12694   -2.000
 7059.00    1.05719   1.12493   -2.000
 7060.00    1.06120   1.12337   -2.000
 7061.00    1.06768   1.12168   -2.000
 7062.00    1.06803   1.12063   -2.000
 7063.00    1.06306   1.11993   -2.000
 7064.00    1.05627   1.11881   -2.000
 7065.00    1.04900   1.11853   -2.000
 7066.00    1.04302   1.11881   -2.000
 7067.00    1.04198   1.11916   -2.000
 7068.00    1.04773   1.12089   -2.000
 7069.00    1.05815   1.12343   -2.000
 7070.00    1.06935   1.12601   -2.000
 7071.00    1.07755   1.12934   -2.000
 7072.00    1.08054   1.13274   -2.000
 7073.00    1.07871   1.13535   -2.000
 7074.00    1.07545   1.13745   -2.000
 7075.00    1.07625   1.13886   -2.000
 7076.00    1.08184   1.13907   -2.000
 7077.00    1.08579   1.13808   -2.000
 7078.00    1.08524   1.13595   -2.000
 7079.00    1.08559   1.13241   -2.000
 7080.00    1.08958   1.12736   -2.000
 7081.00    1.09190   1.12142   -2.000
 7082.00    1.08583   1.11439   -2.000
 7083.00    1.06830   1.10663   -2.000
 7084.00    1.04550   1.09947   -2.000
 7085.00    1.03228   1.09241   -2.000
 7086.00    1.03296   1.08573   -2.000
 7087.00    1.03477   1.08083   -2.000
 7088.00    1.02920   1.07665   -2.000
 7089.00    1.02129   1.07323   -2.000
 7090.00    1.01738   1.07155   -2.000
 7091.00    1.01894   1.07055   -2.000
 7092.00    1.02466   1.07033   -2.000
 7093.00    1.03180   1.07134   -2.000
 7094.00    1.03638   1.07300   -2.000
 7095.00    1.03513   1.07525   -2.000
 7096.00    1.03408   1.07794   -2.000
 7097.00    1.04702   1.08119   -2.000
 7098.00    1.06904   1.08434   -2.000
 7099.00    1.07345   1.08710   -2.000
 7100.00    1.05442   1.09002   -2.000
 7101.00    1.03745   1.09222   -2.000
 7102.00    1.03659   1.09372   -2.000
 7103.00    1.04077   1.09507   -2.000
 7104.00    1.04062   1.09571   -2.000
 7105.00    1.03818   1.09569   -2.000
 7106.00    1.03642   1.09548   -2.000
 7107.00    1.03503   1.09504   -2.000
 7108.00    1.03287   1.09436   -2.000
 7109.00    1.02950   1.09380   -2.000
 7110.00    1.02687   1.09369   -2.000
 7111.00    1.02831   1.09407   -2.000
 7112.00    1.03185   1.09482   -2.000
 7113.00    1.03016   1.09591   -2.000
 7114.00    1.02065   1.09737   -2.000
 7115.00    1.00889   1.09869   -2.000
 7116.00    1.00619   1.09957   -2.000
 7117.00    1.02291   1.09997   -2.000
 7118.00    1.04825   1.09976   -2.000
 7119.00    1.05481   1.09901   -2.000
 7120.00    1.04113   1.09735   -2.000
 7121.00    1.03378   1.09517   -2.000
 7122.00    1.03965   1.09291   -2.000
 7123.00    1.04018   1.08977   -2.000
 7124.00    1.03018   1.08630   -2.000
 7125.00    1.02295   1.08308   -2.000
 7126.00    1.02154   1.07957   -2.000
 7127.00    1.01617   1.07648   -2.000
 7128.00    1.00795   1.07414   -2.000
 7129.00    1.00990   1.07259   -2.000
 7130.00    1.02454   1.07249   -2.000
 7131.00    1.04163   1.07331   -2.000
 7132.00    1.05362   1.07511   -2.000
 7133.00    1.05992   1.07808   -2.000
 7134.00    1.06406   1.08095   -2.000
 7135.00    1.07099   1.08395   -2.000
 7136.00    1.08167   1.08705   -2.000
 7137.00    1.09345   1.08911   -2.000
 7138.00    1.10581   1.09085   -2.000
 7139.00    1.11908   1.09245   -2.000
 7140.00    1.12661   1.09290   -2.000
 7141.00    1.11874   1.09298   -2.000
 7142.00    1.09975   1.09311   -2.000
 7143.00    1.08410   1.09213   -2.000
 7144.00    1.07375   1.09110   -2.000
 7145.00    1.06081   1.09075   -2.000
 7146.00    1.05057   1.08990   -2.000
 7147.00    1.05712   1.09014   -2.000
 7148.00    1.07662   1.09207   -2.000
 7149.00    1.09092   1.09419   -2.000
 7150.00    1.09402   1.09751   -2.000
 7151.00    1.09184   1.10213   -2.000
 7152.00    1.08511   1.10642   -2.000
 7153.00    1.07184   1.11033   -2.000
 7154.00    1.06292   1.11394   -2.000
 7155.00    1.07342   1.11644   -2.000
 7156.00    1.09414   1.11709   -2.000
 7157.00    1.10154   1.11660   -2.000
 7158.00    1.09529   1.11458   -2.000
 7159.00    1.09176   1.11059   -2.000
 7160.00    1.09078   1.10612   -2.000
 7161.00    1.08060   1.10055   -2.000
 7162.00    1.06504   1.09476   -2.000
 7163.00    1.05893   1.09030   -2.000
 7164.00    1.06567   1.08637   -2.000
 7165.00    1.07638   1.08421   -2.000
 7166.00    1.07832   1.08399   -2.000
 7167.00    1.06482   1.08482   -2.000
 7168.00    1.05055   1.08691   -2.000
 7169.00    1.05680   1.08941   -2.000
 7170.00    1.07707   1.09172   -2.000
 7171.00    1.08853   1.09358   -2.000
 7172.00    1.08728   1.09454   -2.000
 7173.00    1.08354   1.09468   -2.000
 7174.00    1.07982   1.09382   -2.000
 7175.00    1.07153   1.09218   -2.000
 7176.00    1.05585   1.09029   -2.000
 7177.00    1.03511   1.08789   -2.000
 7178.00    1.01955   1.08550   -2.000
 7179.00    1.01910   1.08356   -2.000
 7180.00    1.02855   1.08156   -2.000
 7181.00    1.03355   1.08002   -2.000
 7182.00    1.02551   1.07864   -2.000
 7183.00    1.00560   1.07695   -2.000
 7184.00    0.98665   1.07567   -2.000
 7185.00    0.98285   1.07401   -2.000
 7186.00    0.99283   1.07229   -2.000
 7187.00    1.00535   1.07147   -2.000
 7188.00    1.01267   1.07070   -2.000
 7189.00    1.01338   1.07074   -2.000
 7190.00    1.01272   1.07185   -2.000
 7191.00    1.01608   1.07310   -2.000
 7192.00    1.01918   1.07482   -2.000
 7193.00    1.01500   1.07685   -2.000
 7194.00    1.00595   1.07847   -2.000
 7195.00    0.99844   1.07968   -2.000
 7196.00    0.99284   1.08088   -2.000
 7197.00    0.98898   1.08152   -2.000
 7198.00    0.99566   1.08150   -2.000
 7199.00    1.01994   1.08157   -2.000
 7200.00    1.05102   1.08102   -2.000
 7201.00    1.06898   1.08005   -2.000
 7202.00    1.06044   1.07893   -2.000
 7203.00    1.02865   1.07727   -2.000
 7204.00    1.00256   1.07580   -2.000
 7205.00    1.00983   1.07427   -2.000
 7206.00    1.04156   1.07323   -2.000
 7207.00    1.07017   1.07326   -2.000
 7208.00    1.07826   1.07357   -2.000
 7209.00    1.06483   1.07512   -2.000
 7210.00    1.04718   1.07757   -2.000
 7211.00    1.04130   1.07979   -2.000
 7212.00    1.03957   1.08263   -2.000
 7213.00    1.03345   1.08549   -2.000
 7214.00    1.04114   1.08772   -2.000
 7215.00    1.07449   1.08996   -2.000
 7216.00    1.10042   1.09203   -2.000
 7217.00    1.08764   1.09359   -2.000
 7218.00    1.06104   1.09502   -2.000
