###################################################################
## OUTPUT of StarlightChains_v04.for    [Cid@UFSC - 01/Apr/2007] ##
###################################################################

## Some input info
2008ij.txt                               [arq_obs]
Base.CB07.vall.4m                        [arq_base]
Masks.EmLines.NEW.gm                     [arq_masks]
StCv04.C11.config                        [arq_config]
   66                                    [N_base]
    0                                    [N_YAV_components = # of components with extra extinction!]
    0                                    [i_FitPowerLaw (1/0 = Yes/No)]
-9.99                                    [alpha_PowerLaw]
CCM                                      [red_law_option]
 1.458241                                [q_norm = A(l_norm)/A(V)]

## (Re)Sampling Parameters
 3741.00                                 [l_ini (A)]
 7218.00                                 [l_fin (A)]
    1.00                                 [dl    (A)]     (OBS: dl_cushion =    50.00 A)

## Normalization info
 4020.00                                 [l_norm (A) - for base]
 4010.00                                 [llow_norm (A) - window for f_obs]
 4060.00                                 [lupp_norm (A) - window for f_obs]
4.281438E-16                             [fobs_norm (in input units)]

## S/N
 3691.00                                 [llow_SN (A) - window for S/N]
 7268.00                                 [lupp_SN (A) - window for S/N]
  13.454                                 [S/N in S/N window]
  15.046                                 [S/N in norm. window]
  10.000                                 [S/N_err in S/N window]
  11.183                                 [S/N_err in norm. window]
  1.0000                                 [fscale_chi2]

## etc...
    -2007349                             [idum_orig]
  2254                                   [NOl_eff]
  2248                                   [Nl_eff]
     6    NSIGMA                         [Ntot_cliped & clip_method]
  1474620                                [Nglobal_steps]
   7                                     [N_chains]
  21                                     [NEX0s_base = N_base in EX0s-fits]
 0   0   1       70   2.0   1.282E+01    [Clip-Bug, RC-Crash & Burn-In warning-flags, n_censored_weights, wei_nsig_threshold & wei_limit]
    17     16.662     16.154      0.508  [idt_all, wdt_TotTime, wdt_UsrTime & wdt_SysTime (sec)]

## Synthesis Results - Best model ##

 3.32305E-01                             [chi2/Nl_eff]
     4.28412                             [adev (%)]

    95.82074                             [sum-of-x (%)]
 1.65832E-15                             [Flux_tot (units of input spectrum!)]
 9.74746E-12                             [Mini_tot (???)]
 5.17197E-12                             [Mcor_tot (???)]

   0.00                                  [v0_min  (km/s)]
 150.00                                  [vd_min  (km/s)]
 1.0400                                  [AV_min  (mag)]
 0.0000                                  [YAV_min (mag)]

# j     x_j(%)      Mini_j(%)     Mcor_j(%)     age_j(yr)     Z_j      (L/M)_j    YAV?  Mstars   component_j        a/Fe...       SSP_chi2r SSP_adev(%)   SSP_AV   SSP_x(%)
  1      0.0000     0.0000E+00    0.0000E+00    1.000000E+06  0.00400  1.094E-02    0   1.0000   age020_m42            0.0000     6.6719E-01     6.5964   2.9535    84.4005
  2      0.0000     0.0000E+00    0.0000E+00    3.160000E+06  0.00400  4.007E-02    0   0.9999   age045_m42            0.0000     5.9356E-01     5.9438   2.2720    88.4202
  3      0.0000     0.0000E+00    0.0000E+00    5.010000E+06  0.00400  2.539E-02    0   0.9488   age055_m42            0.0000     6.0049E-01     6.1141   2.5735    86.9838
  4      0.0000     0.0000E+00    0.0000E+00    6.610000E+06  0.00400  2.620E-02    0   0.9220   age061_m42            0.0000     5.6411E-01     5.7807   2.2003    88.5581
  5      0.0000     0.0000E+00    0.0000E+00    1.000000E+07  0.00400  1.322E-02    0   0.8862   age070_m42            0.0000     4.2487E-01     4.9164   1.9002    91.2959
  6      0.0000     0.0000E+00    0.0000E+00    1.445000E+07  0.00400  7.883E-03    0   0.8571   age078_m42            0.0000     4.5517E-01     5.1811   2.2181    89.3324
  7      0.0000     0.0000E+00    0.0000E+00    2.512000E+07  0.00400  5.251E-03    0   0.8174   age090_m42            0.0000     4.0534E-01     4.7408   1.7700    91.8329
  8      0.0000     0.0000E+00    0.0000E+00    4.000000E+07  0.00400  3.649E-03    0   0.7851   age104_m42            0.0000     4.1132E-01     4.7405   1.5493    92.3116
  9      0.0000     0.0000E+00    0.0000E+00    5.500000E+07  0.00400  3.098E-03    0   0.7629   age110_m42            0.0000     4.6697E-01     5.0438   1.7192    91.5821
 10      0.0000     0.0000E+00    0.0000E+00    1.015200E+08  0.00400  2.228E-03    0   0.7207   age116_m42            0.0000     5.0247E-01     5.1937   1.7517    91.2378
 11      0.0000     0.0000E+00    0.0000E+00    2.861200E+08  0.00400  1.093E-03    0   0.6648   age125_m42            0.0000     4.9229E-01     5.0339   1.1853    93.9269
 12      0.0000     0.0000E+00    0.0000E+00    5.088000E+08  0.00400  6.597E-04    0   0.6365   age130_m42            0.0000     5.4227E-01     5.2188   1.1893    94.0928
 13      0.0000     0.0000E+00    0.0000E+00    1.434000E+09  0.00400  2.132E-04    0   0.5798   age139_m42            0.0000     5.8550E-01     5.2928   0.2252    95.7324
 14      9.0094     2.7135E+01    2.7498E+01    4.250000E+09  0.00400  5.895E-05    0   0.5377   age158_m42            0.0000     8.1455E-01     6.3683  -0.2248    92.4176
 15      5.0656     2.5624E+01    2.5170E+01    7.500000E+09  0.00400  3.510E-05    0   0.5212   age171_m42            0.0000     9.5631E-01     6.9308  -0.4074    91.5827
 16      0.0000     0.0000E+00    0.0000E+00    1.300000E+10  0.00400  2.005E-05    0   0.5034   age193_m42            0.0000     1.1035E+00     7.4737  -0.5693    90.9486
 17      0.0000     0.0000E+00    0.0000E+00    1.800000E+10  0.00400  1.525E-05    0   0.4967   age213_m42            0.0000     1.0769E+00     7.3798  -0.5953    90.6825
 18      2.3681     3.3963E-02    6.4008E-02    1.000000E+06  0.00800  1.238E-02    0   1.0000   age020_m52            0.0000     6.6740E-01     6.6014   2.9498    84.5674
 19      2.6712     1.5429E-02    2.8979E-02    3.160000E+06  0.00800  3.074E-02    0   0.9966   age045_m52            0.0000     6.5863E-01     6.5439   2.8772    85.1647
 20      0.0000     0.0000E+00    0.0000E+00    5.010000E+06  0.00800  2.668E-02    0   0.9443   age055_m52            0.0000     5.9936E-01     6.1590   2.6489    86.4888
 21     14.2103     1.1812E-01    2.0429E-01    6.610000E+06  0.00800  2.136E-02    0   0.9177   age061_m52            0.0000     4.0629E-01     4.8871   1.3867    92.9373
 22      0.0000     0.0000E+00    0.0000E+00    1.000000E+07  0.00800  1.215E-02    0   0.8827   age070_m52            0.0000     4.0927E-01     4.8430   2.0687    91.5852
 23      0.0000     0.0000E+00    0.0000E+00    1.445000E+07  0.00800  8.717E-03    0   0.8552   age078_m52            0.0000     4.3729E-01     5.0479   2.1856    90.4928
 24      0.0006     2.0638E-05    3.1746E-05    2.512000E+07  0.00800  5.592E-03    0   0.8162   age090_m52            0.0000     4.0355E-01     4.6967   1.8367    92.8344
 25      0.0000     0.0000E+00    0.0000E+00    4.000000E+07  0.00800  3.896E-03    0   0.7841   age104_m52            0.0000     4.2774E-01     4.8205   1.7604    93.0451
 26      0.0000     0.0000E+00    0.0000E+00    1.015200E+08  0.00800  2.148E-03    0   0.7226   age116_m52            0.0000     4.6926E-01     5.0331   1.7138    92.2299
 27      0.0000     0.0000E+00    0.0000E+00    2.861200E+08  0.00800  9.925E-04    0   0.6683   age125_m52            0.0000     5.3493E-01     5.1524   1.2574    94.8541
 28      0.0011     6.4240E-04    7.4314E-04    9.047900E+08  0.00800  3.141E-04    0   0.6138   age135_m52            0.0000     7.3757E-01     5.8745   0.4804    97.8995
 29      0.0000     0.0000E+00    0.0000E+00    1.434000E+09  0.00800  1.719E-04    0   0.5853   age139_m52            0.0000     7.8339E-01     6.2006  -0.1100    96.3967
 30      0.0000     0.0000E+00    0.0000E+00    2.500000E+09  0.00800  7.872E-05    0   0.5600   age150_m52            0.0000     1.0011E+00     7.1482  -0.3753    93.6245
 31      0.0000     0.0000E+00    0.0000E+00    4.250000E+09  0.00800  4.336E-05    0   0.5426   age158_m52            0.0000     1.0490E+00     7.2734  -0.3925    92.8212
 32      0.0000     0.0000E+00    0.0000E+00    6.250000E+09  0.00800  3.159E-05    0   0.5319   age166_m52            0.0000     1.2407E+00     7.9167  -0.5836    92.3674
 33      2.0785     2.7115E+01    2.5924E+01    1.300000E+10  0.00800  1.361E-05    0   0.5073   age193_m52            0.0000     1.5187E+00     8.6401  -1.0000    89.9239
 34      0.0000     0.0000E+00    0.0000E+00    1.800000E+10  0.00800  9.886E-06    0   0.4990   age213_m52            0.0000     1.7838E+00     9.0563  -1.0000    85.8133
 35      2.3738     2.7298E-02    5.1447E-02    1.000000E+06  0.02000  1.544E-02    0   1.0000   age020_m62            0.0000     6.6873E-01     6.6129   2.9439    84.8388
 36     10.7620     5.0792E-02    9.4366E-02    3.160000E+06  0.02000  3.762E-02    0   0.9858   age045_m62            0.0000     6.6891E-01     6.6126   2.8840    85.5408
 37      0.0000     0.0000E+00    0.0000E+00    5.010000E+06  0.02000  3.296E-02    0   0.9342   age055_m62            0.0000     6.0716E-01     6.1455   2.5433    87.6621
 38     33.5419     5.1606E-01    8.6182E-01    8.710000E+06  0.02000  1.154E-02    0   0.8861   age067_m62            0.0000     4.1812E-01     4.7312   1.4694    96.6313
 39      0.0000     0.0000E+00    0.0000E+00    1.445000E+07  0.02000  7.663E-03    0   0.8472   age078_m62            0.0000     3.8649E-01     4.6826   1.7028    94.3137
 40      0.0000     0.0000E+00    0.0000E+00    2.512000E+07  0.02000  4.532E-03    0   0.8099   age090_m62            0.0000     4.0279E-01     4.7245   1.7000    93.8639
 41      0.0000     0.0000E+00    0.0000E+00    5.500000E+07  0.02000  2.733E-03    0   0.7595   age110_m62            0.0000     4.1932E-01     4.7912   1.7390    92.5605
 42      0.0000     0.0000E+00    0.0000E+00    1.609000E+08  0.02000  1.369E-03    0   0.6985   age120_m62            0.0000     4.9167E-01     5.0037   1.6083    93.7494
 43      0.0000     0.0000E+00    0.0000E+00    2.861200E+08  0.02000  9.013E-04    0   0.6714   age125_m62            0.0000     5.4409E-01     5.0953   1.3748    95.6885
 44      0.0000     0.0000E+00    0.0000E+00    5.088000E+08  0.02000  5.028E-04    0   0.6449   age130_m62            0.0000     7.0071E-01     5.7907   1.0163    97.3758
 45      0.0000     0.0000E+00    0.0000E+00    9.047900E+08  0.02000  2.428E-04    0   0.6179   age135_m62            0.0000     8.4007E-01     6.3825   0.4279    96.9648
 46      0.0000     0.0000E+00    0.0000E+00    1.434000E+09  0.02000  1.263E-04    0   0.5908   age139_m62            0.0000     9.6709E-01     6.8885  -0.0220    95.8010
 47      0.8177     2.4256E+00    2.5934E+00    2.500000E+09  0.02000  5.985E-05    0   0.5673   age150_m62            0.0000     1.2084E+00     7.8511  -0.3827    94.2560
 48      3.0972     1.6812E+01    1.7325E+01    4.250000E+09  0.02000  3.271E-05    0   0.5468   age158_m62            0.0000     1.5023E+00     8.8469  -0.6726    92.8239
 49      0.0000     0.0000E+00    0.0000E+00    1.000000E+10  0.02000  1.360E-05    0   0.5167   age181_m62            0.0000     1.9000E+00     9.9308  -0.9969    91.4755
 50      0.0000     0.0000E+00    0.0000E+00    1.800000E+10  0.02000  7.124E-06    0   0.5013   age213_m62            0.0000     2.3155E+00    10.3049  -1.0000    83.7857
 51      9.8210     6.7273E-02    1.2676E-01    1.000000E+06  0.05000  2.592E-02    0   0.9998   age020_m72            0.0000     6.6840E-01     6.6224   2.9306    85.0570
 52      0.0000     0.0000E+00    0.0000E+00    3.160000E+06  0.05000  4.845E-02    0   0.9577   age045_m72            0.0000     6.6223E-01     6.5414   2.7835    86.0288
 53      0.0000     0.0000E+00    0.0000E+00    5.010000E+06  0.05000  3.072E-02    0   0.9147   age055_m72            0.0000     4.7938E-01     5.4275   2.2934    90.5448
 54      0.0000     0.0000E+00    0.0000E+00    6.610000E+06  0.05000  1.455E-02    0   0.8877   age061_m72            0.0000     7.5548E-01     6.3857   1.5165    97.9872
 55      0.0000     0.0000E+00    0.0000E+00    1.000000E+07  0.05000  9.074E-03    0   0.8524   age070_m72            0.0000     5.8088E-01     6.0144   2.4944    89.8484
 56      0.0000     0.0000E+00    0.0000E+00    2.512000E+07  0.05000  4.250E-03    0   0.7902   age090_m72            0.0000     5.1102E-01     5.4970   2.2017    90.9982
 57      0.0000     0.0000E+00    0.0000E+00    4.000000E+07  0.05000  3.087E-03    0   0.7618   age104_m72            0.0000     5.0580E-01     5.3747   1.9787    92.3159
 58      0.0000     0.0000E+00    0.0000E+00    1.015200E+08  0.05000  1.700E-03    0   0.7096   age116_m72            0.0000     4.7185E-01     4.9329   1.7449    93.6546
 59      0.0000     0.0000E+00    0.0000E+00    2.861200E+08  0.05000  7.384E-04    0   0.6633   age125_m72            0.0000     6.1865E-01     5.4140   1.2534    96.5084
 60      0.0000     0.0000E+00    0.0000E+00    5.088000E+08  0.05000  3.819E-04    0   0.6372   age130_m72            0.0000     7.7493E-01     6.1501   0.7687    97.7479
 61      0.0000     0.0000E+00    0.0000E+00    9.047900E+08  0.05000  1.676E-04    0   0.6110   age135_m72            0.0000     1.1370E+00     7.5494   0.0767    95.8843
 62      0.0000     0.0000E+00    0.0000E+00    1.434000E+09  0.05000  8.837E-05    0   0.5874   age139_m72            0.0000     1.3006E+00     8.0577  -0.3769    95.3769
 63      0.0000     0.0000E+00    0.0000E+00    2.500000E+09  0.05000  4.233E-05    0   0.5598   age150_m72            0.0000     1.6179E+00     9.1830  -0.6668    93.3546
 64      0.0000     0.0000E+00    0.0000E+00    6.250000E+09  0.05000  1.435E-05    0   0.5249   age166_m72            0.0000     2.0225E+00    10.0184  -1.0000    87.9309
 65      0.0022     5.9329E-02    5.6310E-02    1.300000E+10  0.05000  6.513E-06    0   0.5036   age193_m72            0.0000     2.7583E+00    11.0027  -1.0000    79.4053
 66      0.0000     0.0000E+00    0.0000E+00    1.800000E+10  0.05000  4.527E-06    0   0.4945   age213_m72            0.0000     3.3593E+00    12.0148  -1.0000    74.1224


## Synthesis Results - Average & Chains ##

# j      x_j: min, <> & last-chain-values for 1 ...  7 chains
  1      0.0000      1.7259      0.0000      3.2485      0.4770      1.9481      2.5694      0.0000      0.0000
  2      0.0000      0.3434      0.0000      0.0000      0.0000      1.8495      0.0000      0.0000      0.0000
  3      0.0000      0.6065      0.0000      0.0000      0.0000      1.2833      1.5966      0.0000      0.1102
  4      0.0000      0.3239      0.0000      0.0000      0.0000      0.0000      0.0000      0.0000      0.0000
  5      0.0000      0.6924      4.0127      0.0000      0.0000      2.2595      0.0000      0.0000      0.2493
  6      0.0000      0.6013      0.0000      0.7335      2.9036      0.0000      0.0000      0.0000      0.0000
  7      0.0000      0.8864      0.0000      0.0000      0.0000      0.0000      0.0000      0.0000      0.5072
  8      0.0000      0.8961      0.0382      0.0400      0.0000      0.0000      0.1043      0.8603      0.5224
  9      0.0000      0.5360      0.0000      0.0000      0.0000      0.0000      0.0000      0.0000      0.0000
 10      0.0000      0.4635      0.0000      0.0000      0.0000      0.0000      0.0000      0.0000      0.0000
 11      0.0000      0.3749      0.0000      0.3688      0.0000      0.4514      0.0000      0.0000      0.0000
 12      0.0000      0.3681      0.0000      0.0000      0.0000      0.0000      0.4597      0.0000      0.0000
 13      0.0000      4.2093      3.0654      4.8962      4.1768      4.2094      3.5965      4.8965      6.6477
 14      9.0094      2.9659      1.9523      2.9278      5.2215      1.9170      2.9376      5.3816      4.4101
 15      5.0656      2.9514      2.3734      5.6840      3.8597      1.8236      3.1777      2.0662      1.7779
 16      0.0000      0.3308      0.0000      0.0000      0.2806      0.0000      0.0000      0.0000      0.0000
 17      0.0000      0.2242      0.0000      0.0000      0.3668      0.0000      0.0000      0.0000      0.0000
 18      2.3681      0.7904      5.7161      3.1347      1.5982      1.4343      1.1079      0.0000      1.4786
 19      2.6712      1.1492      1.9613      2.2358      6.6136      0.6686      2.2543      0.2866      0.6138
 20      0.0000      0.8076      0.0000      4.2747      0.0944      2.8257      0.0000      0.0000      0.0000
 21     14.2103      9.0742     10.6799      7.7348     10.7354      8.9645     13.5009     18.1638     12.7994
 22      0.0000      0.7737      1.8864      0.0000      0.0000      0.4019      0.0000      0.0000      2.1865
 23      0.0000      0.5243      0.0000      1.0470      1.6904      0.5022      0.9158      0.0000      0.0000
 24      0.0006      0.8015      0.0000      0.0000      0.8156      0.0000      1.1830      0.0000      0.0000
 25      0.0000      0.4768      0.0000      0.0771      0.0000      0.0000      0.0000      0.0183      0.0000
 26      0.0000      0.3803      0.0000      0.0000      0.0000      0.0000      0.0000      0.0000      0.0000
 27      0.0000      0.3716      0.0000      0.0000      0.0000      0.0000      0.0000      0.1826      0.0967
 28      0.0011      0.4378      0.0000      0.0000      0.8839      0.0000      0.0000      0.0000      1.1314
 29      0.0000      0.1303      0.0000      0.1351      0.0000      0.0000      0.0000      0.0000      0.0000
 30      0.0000      0.2137      0.8484      0.1958      0.0000      0.5734      0.1291      0.0000      0.0000
 31      0.0000      0.2748      0.0000      0.0000      0.0196      0.1013      0.0000      0.0000      1.0778
 32      0.0000      1.6929      1.6536      0.9329      1.7797      1.5370      1.0636      3.4991      2.1830
 33      2.0785      1.3572      2.2191      1.7523      1.3340      2.3029      1.8128      0.0000      1.6750
 34      0.0000      0.4059      0.0000      0.2228      0.0000      0.2895      1.4190      0.0000      0.0000
 35      2.3738      0.9141      2.1991      2.0761      0.5436      2.8185      1.6643      0.0000      2.3706
 36     10.7620      6.5276      7.7006      6.8391      8.2170      5.8677      8.0117      8.3969      9.4796
 37      0.0000      0.6944      0.0000      0.0000      0.0000      1.4305      0.5766      0.0000      0.5451
 38     33.5419     33.9106     36.8421     31.4324     35.0039     34.3999     35.7355     42.9648     37.2686
 39      0.0000      0.8990      0.0000      0.2620      0.3219      0.0000      1.0464      0.2446      0.0000
 40      0.0000      0.7178      0.0000      2.9249      0.0000      0.0000      0.1083      0.0000      0.0000
 41      0.0000      0.5081      0.0000      0.0000      0.0000      0.0000      0.0000      0.0000      0.0000
 42      0.0000      0.3364      0.0000      0.0000      0.0000      0.0000      0.0000      0.0000      0.0173
 43      0.0000      0.4029      0.0000      0.0000      0.0000      0.0000      0.0000      0.0000      0.0000
 44      0.0000      0.2885      0.0000      0.0000      0.0000      0.0000      0.0000      0.0000      0.0000
 45      0.0000      0.4231      0.0000      0.0000      0.0000      0.0000      0.1533      0.0000      0.0000
 46      0.0000      0.2039      0.4167      0.0000      0.0000      0.0000      0.0004      0.0000      0.0000
 47      0.8177      3.0301      7.6478      2.9986      0.7870      2.7569      2.9547      4.2314      1.7083
 48      3.0972      0.1678      0.0000      0.0000      1.5786      1.5473      0.0000      0.0000      0.0000
 49      0.0000      0.0721      0.0546      0.0000      0.0000      0.0000      0.0000      0.0000      0.0000
 50      0.0000      0.1352      0.0000      0.0000      0.0000      1.2639      0.0000      0.0000      0.0000
 51      9.8210      2.0975      1.8604      1.6081      3.3845      5.3019      2.4246      1.7589      4.7094
 52      0.0000      3.1092      2.7168      4.8394      1.3749      1.4969      2.6523      3.1044      0.0000
 53      0.0000      0.4463      0.0000      0.0000      0.0407      1.0973      0.0000      0.0000      1.2040
 54      0.0000      0.3551      0.0000      0.0000      0.0000      0.2156      0.0000      0.0000      0.0000
 55      0.0000      0.2706      0.0000      0.0000      0.0000      0.0000      0.0000      0.0000      0.0000
 56      0.0000      0.2141      0.0000      0.0000      0.0000      0.0000      0.0000      0.0000      0.0000
 57      0.0000      0.1800      0.0000      0.0000      0.0000      0.0000      0.0000      0.0000      0.0000
 58      0.0000      0.3992      0.0000      0.0000      0.0000      0.0000      0.0000      0.0000      0.0000
 59      0.0000      0.2408      0.0000      0.0000      0.0000      0.0000      0.0000      0.0000      0.1794
 60      0.0000      0.4063      0.0000      0.1366      0.0000      0.2091      1.4186      0.0000      0.0000
 61      0.0000      0.4053      0.0000      0.9290      1.0581      0.9724      0.6551      0.3100      0.0000
 62      0.0000      0.2963      0.6307      1.2538      0.0000      1.0628      0.0000      0.0000      0.6184
 63      0.0000      0.1821      0.0000      1.2072      0.0000      0.0000      0.0000      0.0000      0.1335
 64      0.0000      0.1075      0.0000      0.0000      0.0000      0.0000      0.9290      0.0000      0.0000
 65      0.0022      0.1140      0.0000      0.0000      0.7759      0.0000      0.0000      0.0000      0.3578
 66      0.0000      0.0336      0.0000      0.0000      0.0871      0.2320      0.0000      0.0000      0.0000

# j      m_j: min, <> & last-chain-values for 1 ...  7 chains
  1  0.0000E+00  5.6344E-02  0.0000E+00  1.0611E-01  1.3262E-02  4.8176E-02  7.4786E-02  0.0000E+00  0.0000E+00
  2  0.0000E+00  3.0606E-03  0.0000E+00  0.0000E+00  0.0000E+00  1.2487E-02  0.0000E+00  0.0000E+00  0.0000E+00
  3  0.0000E+00  8.0948E-03  0.0000E+00  0.0000E+00  0.0000E+00  1.2974E-02  1.8998E-02  0.0000E+00  1.6207E-03
  4  0.0000E+00  4.0710E-03  0.0000E+00  0.0000E+00  0.0000E+00  0.0000E+00  0.0000E+00  0.0000E+00  0.0000E+00
  5  0.0000E+00  1.6577E-02  1.0213E-01  0.0000E+00  0.0000E+00  4.0978E-02  0.0000E+00  0.0000E+00  6.5756E-03
  6  0.0000E+00  2.3350E-02  0.0000E+00  2.8499E-02  9.6032E-02  0.0000E+00  0.0000E+00  0.0000E+00  0.0000E+00
  7  0.0000E+00  4.9282E-02  0.0000E+00  0.0000E+00  0.0000E+00  0.0000E+00  0.0000E+00  0.0000E+00  3.1069E-02
  8  0.0000E+00  6.8861E-02  3.1178E-03  3.0767E-03  0.0000E+00  0.0000E+00  7.1465E-03  9.3473E-02  4.4230E-02
  9  0.0000E+00  4.7142E-02  0.0000E+00  0.0000E+00  0.0000E+00  0.0000E+00  0.0000E+00  0.0000E+00  0.0000E+00
 10  0.0000E+00  5.3547E-02  0.0000E+00  0.0000E+00  0.0000E+00  0.0000E+00  0.0000E+00  0.0000E+00  0.0000E+00
 11  0.0000E+00  8.1440E-02  0.0000E+00  8.0157E-02  0.0000E+00  7.4276E-02  0.0000E+00  0.0000E+00  0.0000E+00
 12  0.0000E+00  1.2683E-01  0.0000E+00  0.0000E+00  0.0000E+00  0.0000E+00  1.4124E-01  0.0000E+00  0.0000E+00
 13  0.0000E+00  4.0885E+00  3.1651E+00  4.7579E+00  3.4552E+00  3.0971E+00  3.1145E+00  6.7247E+00  7.1142E+00
 14  2.7498E+01  9.6620E+00  6.7609E+00  9.5427E+00  1.4488E+01  4.7306E+00  8.5323E+00  2.4790E+01  1.5829E+01
 15  2.5170E+01  1.5652E+01  1.3381E+01  3.0159E+01  1.7434E+01  7.3261E+00  1.5025E+01  1.5494E+01  1.0389E+01
 16  0.0000E+00  2.9661E+00  0.0000E+00  0.0000E+00  2.1432E+00  0.0000E+00  0.0000E+00  0.0000E+00  0.0000E+00
 17  0.0000E+00  2.6079E+00  0.0000E+00  0.0000E+00  3.6345E+00  0.0000E+00  0.0000E+00  0.0000E+00  0.0000E+00
 18  6.4008E-02  2.2802E-02  1.7530E-01  9.0477E-02  3.9270E-02  3.1345E-02  2.8497E-02  0.0000E+00  4.7000E-02
 19  2.8979E-02  1.3307E-02  2.4142E-02  2.5902E-02  6.5223E-02  5.8643E-03  2.3272E-02  4.6922E-03  7.8303E-03
 20  0.0000E+00  1.0209E-02  0.0000E+00  5.4063E-02  1.0164E-03  2.7058E-02  0.0000E+00  0.0000E+00  0.0000E+00
 21  2.0429E-01  1.3924E-01  1.7421E-01  1.1875E-01  1.4030E-01  1.0420E-01  1.8470E-01  3.9410E-01  2.1640E-01
 22  0.0000E+00  2.0075E-02  5.2033E-02  0.0000E+00  0.0000E+00  7.8987E-03  0.0000E+00  0.0000E+00  6.2509E-02
 23  0.0000E+00  1.8371E-02  0.0000E+00  3.6703E-02  5.0446E-02  1.3330E-02  2.8610E-02  0.0000E+00  0.0000E+00
 24  3.1746E-05  4.1783E-02  0.0000E+00  0.0000E+00  3.6213E-02  0.0000E+00  5.4981E-02  0.0000E+00  0.0000E+00
 25  0.0000E+00  3.4270E-02  0.0000E+00  5.5461E-03  0.0000E+00  0.0000E+00  0.0000E+00  1.8591E-03  0.0000E+00
 26  0.0000E+00  4.5693E-02  0.0000E+00  0.0000E+00  0.0000E+00  0.0000E+00  0.0000E+00  0.0000E+00  0.0000E+00
 27  0.0000E+00  8.9371E-02  0.0000E+00  0.0000E+00  0.0000E+00  0.0000E+00  0.0000E+00  6.2088E-02  2.5621E-02
 28  7.4314E-04  3.0555E-01  0.0000E+00  0.0000E+00  5.2542E-01  0.0000E+00  0.0000E+00  0.0000E+00  8.7001E-01
 29  0.0000E+00  1.5845E-01  0.0000E+00  1.6434E-01  0.0000E+00  0.0000E+00  0.0000E+00  0.0000E+00  0.0000E+00
 30  0.0000E+00  5.4292E-01  2.2914E+00  4.9775E-01  0.0000E+00  1.1035E+00  2.9234E-01  0.0000E+00  0.0000E+00
 31  0.0000E+00  1.2282E+00  0.0000E+00  0.0000E+00  7.4551E-02  3.4298E-01  0.0000E+00  0.0000E+00  5.3077E+00
 32  0.0000E+00  1.0181E+01  1.0571E+01  5.6130E+00  9.1152E+00  7.0016E+00  5.7026E+00  2.9753E+01  1.4464E+01
 33  2.5924E+01  1.8068E+01  3.1405E+01  2.3339E+01  1.5125E+01  2.3224E+01  2.1516E+01  0.0000E+00  2.4569E+01
 34  0.0000E+00  7.3167E+00  0.0000E+00  4.0176E+00  0.0000E+00  3.9529E+00  2.2808E+01  0.0000E+00  0.0000E+00
 35  5.1447E-02  2.1144E-02  5.4076E-02  4.8047E-02  1.0709E-02  4.9387E-02  3.4323E-02  0.0000E+00  6.0420E-02
 36  9.4366E-02  6.1092E-02  7.6614E-02  6.4038E-02  6.5498E-02  4.1599E-02  6.6850E-02  1.1112E-01  9.7751E-02
 37  0.0000E+00  7.0293E-03  0.0000E+00  0.0000E+00  0.0000E+00  1.0969E-02  5.2040E-03  0.0000E+00  6.0801E-03
 38  8.6182E-01  9.2998E-01  1.0741E+00  8.6243E-01  8.1759E-01  7.1462E-01  8.7375E-01  1.6661E+00  1.1261E+00
 39  0.0000E+00  3.5498E-02  0.0000E+00  1.0351E-02  1.0827E-02  0.0000E+00  3.6838E-02  1.3656E-02  0.0000E+00
 40  0.0000E+00  4.5813E-02  0.0000E+00  1.8678E-01  0.0000E+00  0.0000E+00  6.1607E-03  0.0000E+00  0.0000E+00
 41  0.0000E+00  5.0434E-02  0.0000E+00  0.0000E+00  0.0000E+00  0.0000E+00  0.0000E+00  0.0000E+00  0.0000E+00
 42  0.0000E+00  6.1299E-02  0.0000E+00  0.0000E+00  0.0000E+00  0.0000E+00  0.0000E+00  0.0000E+00  3.4791E-03
 43  0.0000E+00  1.0720E-01  0.0000E+00  0.0000E+00  0.0000E+00  0.0000E+00  0.0000E+00  0.0000E+00  0.0000E+00
 44  0.0000E+00  1.3218E-01  0.0000E+00  0.0000E+00  0.0000E+00  0.0000E+00  0.0000E+00  0.0000E+00  0.0000E+00
 45  0.0000E+00  3.8455E-01  0.0000E+00  0.0000E+00  0.0000E+00  0.0000E+00  1.2420E-01  0.0000E+00  0.0000E+00
 46  0.0000E+00  3.4062E-01  7.4001E-01  0.0000E+00  0.0000E+00  0.0000E+00  5.4449E-04  0.0000E+00  0.0000E+00
 47  2.5934E+00  1.0258E+01  2.7523E+01  1.0156E+01  2.2691E+00  7.0700E+00  8.9180E+00  2.0255E+01  6.3722E+00
 48  1.7325E+01  1.0020E+00  0.0000E+00  0.0000E+00  8.0271E+00  6.9980E+00  0.0000E+00  0.0000E+00  0.0000E+00
 49  0.0000E+00  9.7786E-01  7.8771E-01  0.0000E+00  0.0000E+00  0.0000E+00  0.0000E+00  0.0000E+00  0.0000E+00
 50  0.0000E+00  3.3982E+00  0.0000E+00  0.0000E+00  0.0000E+00  2.4062E+01  0.0000E+00  0.0000E+00  0.0000E+00
 51  1.2676E-01  2.8896E-02  2.7246E-02  2.2165E-02  3.9711E-02  5.5329E-02  2.9780E-02  3.4262E-02  7.1483E-02
 52  0.0000E+00  2.1951E-02  2.0389E-02  3.4182E-02  8.2668E-03  8.0050E-03  1.6694E-02  3.0989E-02  0.0000E+00
 53  0.0000E+00  4.7460E-03  0.0000E+00  0.0000E+00  3.6854E-04  8.8391E-03  0.0000E+00  0.0000E+00  1.4108E-02
 54  0.0000E+00  7.7369E-03  0.0000E+00  0.0000E+00  0.0000E+00  3.5585E-03  0.0000E+00  0.0000E+00  0.0000E+00
 55  0.0000E+00  9.0794E-03  0.0000E+00  0.0000E+00  0.0000E+00  0.0000E+00  0.0000E+00  0.0000E+00  0.0000E+00
 56  0.0000E+00  1.4216E-02  0.0000E+00  0.0000E+00  0.0000E+00  0.0000E+00  0.0000E+00  0.0000E+00  0.0000E+00
 57  0.0000E+00  1.5869E-02  0.0000E+00  0.0000E+00  0.0000E+00  0.0000E+00  0.0000E+00  0.0000E+00  0.0000E+00
 58  0.0000E+00  5.9520E-02  0.0000E+00  0.0000E+00  0.0000E+00  0.0000E+00  0.0000E+00  0.0000E+00  0.0000E+00
 59  0.0000E+00  7.7261E-02  0.0000E+00  0.0000E+00  0.0000E+00  0.0000E+00  0.0000E+00  0.0000E+00  6.3421E-02
 60  0.0000E+00  2.4214E-01  0.0000E+00  8.1451E-02  0.0000E+00  9.4406E-02  7.5370E-01  0.0000E+00  0.0000E+00
 61  0.0000E+00  5.2775E-01  0.0000E+00  1.2102E+00  1.1734E+00  9.5906E-01  7.6043E-01  5.7065E-01  0.0000E+00
 62  0.0000E+00  7.0352E-01  1.5916E+00  2.9780E+00  0.0000E+00  1.9114E+00  0.0000E+00  0.0000E+00  1.6174E+00
 63  0.0000E+00  8.6034E-01  0.0000E+00  5.7048E+00  0.0000E+00  0.0000E+00  0.0000E+00  0.0000E+00  6.9488E-01
 64  0.0000E+00  1.4039E+00  0.0000E+00  0.0000E+00  0.0000E+00  0.0000E+00  1.0820E+01  0.0000E+00  0.0000E+00
 65  5.6310E-02  3.1492E+00  0.0000E+00  0.0000E+00  1.8248E+01  0.0000E+00  0.0000E+00  0.0000E+00  1.0886E+01
 66  0.0000E+00  1.3102E+00  0.0000E+00  0.0000E+00  2.8929E+00  6.8564E+00  0.0000E+00  0.0000E+00  0.0000E+00

# AV, chi2 & Mass for <> & i_chain = 1 ...  7 solutions
AV       1.0400      1.0363      1.0238      1.0300      1.0156      1.0221      1.0344      1.0117      1.0438
chi2 3.3231E-01  3.4358E-01  3.3863E-01  3.3927E-01  3.3721E-01  3.3958E-01  3.3820E-01  3.3807E-01  3.3857E-01
Mass 5.1720E-12  4.8214E-12  4.4601E-12  4.7786E-12  5.5058E-12  6.2446E-12  5.3945E-12  3.2992E-12  4.4207E-12
   0.00                                  [v0_min (km/s) before EX0s...]
 150.00                                  [vd_min (km/s) before EX0s...]


## Synthetic spectrum (Best Model) ##l_obs f_obs f_syn wei
 3478    [Nl_obs]
 3741.00    0.00000   0.86104   -2.000
 3742.00    0.00000   0.86303   -2.000
 3743.00    0.00000   0.85480   -2.000
 3744.00    0.00000   0.83831   -2.000
 3745.00    0.00000   0.81454   -2.000
 3746.00    0.00000   0.78486   -2.000
 3747.00    0.00000   0.75215   -2.000
 3748.00    0.00000   0.72094   -2.000
 3749.00    0.00000   0.69893   -2.000
 3750.00    0.00000   0.69455   -2.000
 3751.00    0.00000   0.71056   -2.000
 3752.00    0.00000   0.74145   -2.000
 3753.00    0.00000   0.77772   -2.000
 3754.00    0.00000   0.81091   -2.000
 3755.00    0.00000   0.83569   -2.000
 3756.00    0.00000   0.85024   -2.000
 3757.00    0.00000   0.85616   -2.000
 3758.00    0.00000   0.85829   -2.000
 3759.00    0.00000   0.86043   -2.000
 3760.00    0.00000   0.86398   -2.000
 3761.00    0.00000   0.86843   -2.000
 3762.00    0.00000   0.87071   -2.000
 3763.00    0.00000   0.86820   -2.000
 3764.00    0.00000   0.85964   -2.000
 3765.00    0.00000   0.84370   -2.000
 3766.00    0.00000   0.81943   -2.000
 3767.00    0.00000   0.78863   -2.000
 3768.00    0.00000   0.75597   -2.000
 3769.00    0.00000   0.72724   -2.000
 3770.00    0.00000   0.70972   -2.000
 3771.00    0.00000   0.71059   -2.000
 3772.00    0.00000   0.73037   -2.000
 3773.00    0.00000   0.76184   -2.000
 3774.00    0.00000   0.79706   -2.000
 3775.00    0.00000   0.83048   -2.000
 3776.00    0.00000   0.85897   -2.000
 3777.00    0.00000   0.88216   -2.000
 3778.00    0.00000   0.90105   -2.000
 3779.00    0.00000   0.91688   -2.000
 3780.00    0.00000   0.92985   -2.000
 3781.00    0.00000   0.93899   -2.000
 3782.00    0.00000   0.94378   -2.000
 3783.00    0.00000   0.94436   -2.000
 3784.00    0.00000   0.94072   -2.000
 3785.00    0.00000   0.93330   -2.000
 3786.00    0.00000   0.92345   -2.000
 3787.00    0.00000   0.91283   -2.000
 3788.00    0.00000   0.90196   -2.000
 3789.00    0.00000   0.89037   -2.000
 3790.00    0.00000   0.87713   -2.000
 3791.00    0.00000   0.86088   -2.000
 3792.00    0.00000   0.83992   -2.000
 3793.00    0.00000   0.81213   -2.000
 3794.00    0.00000   0.77688   -2.000
 3795.00    0.00000   0.73718   -2.000
 3796.00    0.00000   0.69940   -2.000
 3797.00    0.00000   0.67234   -2.000
 3798.00    0.00000   0.66531   -2.000
 3799.00    0.00000   0.68242   -2.000
 3800.00    0.00000   0.71831   -2.000
 3801.00    0.00000   0.76230   -2.000
 3802.00    0.00000   0.80463   -2.000
 3803.00    0.00000   0.83902   -2.000
 3804.00    0.00000   0.86312   -2.000
 3805.00    0.00000   0.87838   -2.000
 3806.00    0.00000   0.88887   -2.000
 3807.00    0.00000   0.89938   -2.000
 3808.00    0.00000   0.91154   -2.000
 3809.00    0.00000   0.92301   -2.000
 3810.00    0.00000   0.93095   -2.000
 3811.00    0.00000   0.93360   -2.000
 3812.00    0.00000   0.93065   -2.000
 3813.00    0.00000   0.92370   -2.000
 3814.00    0.00000   0.91502   -2.000
 3815.00    0.00000   0.90508   -2.000
 3816.00    0.00000   0.89296   -2.000
 3817.00    0.00000   0.87831   -2.000
 3818.00    0.00000   0.86157   -2.000
 3819.00    0.00000   0.84633   -2.000
 3820.00    0.00000   0.84035   -2.000
 3821.00    0.00000   0.84627   -2.000
 3822.00    0.00000   0.85771   -2.000
 3823.00    0.00000   0.86706   -2.000
 3824.00    0.00000   0.87007   -2.000
 3825.00    0.00000   0.86658   -2.000
 3826.00    0.00000   0.85874   -2.000
 3827.00    0.00000   0.84798   -2.000
 3828.00    0.00000   0.83399   -2.000
 3829.00    0.00000   0.81524   -2.000
 3830.00    0.00000   0.78981   -2.000
 3831.00    0.00000   0.75631   -2.000
 3832.00    0.00000   0.71648   -2.000
 3833.00    0.00000   0.67626   -2.000
 3834.00    0.00000   0.64327   -2.000
 3835.00    0.00000   0.62563   -2.000
 3836.00    0.00000   0.62899   -2.000
 3837.00    0.00000   0.65118   -2.000
 3838.00    0.00000   0.68539   -2.000
 3839.00    0.00000   0.72542   -2.000
 3840.00    0.00000   0.76560   -2.000
 3841.00    0.00000   0.80221   -2.000
 3842.00    0.00000   0.83370   -2.000
 3843.00    0.00000   0.85913   -2.000
 3844.00    0.00000   0.87843   -2.000
 3845.00    0.00000   0.89230   -2.000
 3846.00    0.00000   0.90169   -2.000
 3847.00    0.00000   0.90771   -2.000
 3848.00    0.00000   0.91100   -2.000
 3849.00    0.00000   0.91244   -2.000
 3850.00    0.00000   0.91345   -2.000
 3851.00    0.00000   0.91530   -2.000
 3852.00    0.00000   0.91730   -2.000
 3853.00    0.00000   0.91754   -2.000
 3854.00    0.00000   0.91547   -2.000
 3855.00    0.00000   0.91155   -2.000
 3856.00    0.00000   0.90683   -2.000
 3857.00    0.00000   0.90297   -2.000
 3858.00    0.00000   0.90020   -2.000
 3859.00    0.00000   0.89866   -2.000
 3860.00    0.00000   0.89959   -2.000
 3861.00    0.00000   0.90326   -2.000
 3862.00    1.01177   0.90788    0.000
 3863.00    1.00317   0.91107    0.000
 3864.00    0.99362   0.91178    0.000
 3865.00    0.98576   0.91061    0.000
 3866.00    0.98017   0.90845    0.000
 3867.00    0.97578   0.90566    0.000
 3868.00    0.97146   0.90292    0.000
 3869.00    0.96690   0.89964    0.000
 3870.00    0.96245   0.89421    0.000
 3871.00    0.95843   0.88767    0.000
 3872.00    0.95458   0.88288    0.000
 3873.00    0.95005   0.88188    0.000
 3874.00    0.94379   0.88300    0.000
 3875.00    0.93497   0.88284    0.000
 3876.00    0.92303   0.87997    0.000
 3877.00    0.90758   0.87502    0.000
 3878.00    0.88830   0.86884    0.000
 3879.00    0.86496   0.86230    0.000
 3880.00    0.83829   0.85466    0.000
 3881.00    0.81218   0.84358   12.313
 3882.00    0.79419   0.82801   12.591
 3883.00    0.79344   0.80776   12.603
 3884.00    0.81271   0.78096   12.305
 3885.00    0.84523   0.74587   11.831
 3886.00    0.87651   0.70544   11.409
 3887.00    0.89503   0.66714   11.173
 3888.00    0.89882   0.63963   -1.000
 3889.00    0.89503   0.63196   -1.000
 3890.00    0.89317   0.64851   -1.000
 3891.00    0.89908   0.68333   11.123
 3892.00    0.91444   0.72551   10.936
 3893.00    0.93783   0.76622   10.663
 3894.00    0.96610   0.80036   10.351
 3895.00    0.99454   0.82652   10.055
 3896.00    1.01811   0.84615    9.822
 3897.00    1.03378   0.86086    9.673
 3898.00    1.04108   0.87143    9.605
 3899.00    1.04163   0.87964    9.600
 3900.00    1.03791   0.88747    9.635
 3901.00    1.03278   0.89480    9.683
 3902.00    1.02925   0.90013    9.716
 3903.00    1.02927   0.90332    9.716
 3904.00    1.03307   0.90543    9.680
 3905.00    1.03931   0.90719    9.622
 3906.00    1.04602   0.91026    9.560
 3907.00    1.05132   0.91584    9.512
 3908.00    1.05355   0.92258    9.492
 3909.00    1.05183   0.92847    9.507
 3910.00    1.04681   0.93227    9.553
 3911.00    1.04065   0.93392    9.609
 3912.00    1.03537   0.93421    9.658
 3913.00    1.02991   0.93379    9.710
 3914.00    1.01972   0.93250    9.807
 3915.00    0.99885   0.92959   10.012
 3916.00    0.96533   0.92402   10.359
 3917.00    0.92274   0.91555   10.837
 3918.00    0.87880   0.90493   11.379
 3919.00    0.83999   0.89414   11.905
 3920.00    0.80926   0.88602   12.357
 3921.00    0.78639   0.88212   12.716
 3922.00    0.77055   0.88117   12.823
 3923.00    0.76203   0.88000   12.823
 3924.00    0.76208   0.87655   12.823
 3925.00    0.77103   0.87012   12.823
 3926.00    0.78645   0.86106   12.715
 3927.00    0.80318   0.85116   12.450
 3928.00    0.81619   0.84120   12.252
 3929.00    0.82474   0.83060   12.125
 3930.00    0.83289   0.81889   12.006
 3931.00    0.84645   0.80632   11.814
 3932.00    0.86640   0.79458   11.542
 3933.00    0.88739   0.78672   11.269
 3934.00    0.90028   0.78617   11.108
 3935.00    0.90060   0.79421   11.104
 3936.00    0.89154   0.80892   11.217
 3937.00    0.88223   0.82697   11.335
 3938.00    0.87876   0.84501   11.380
 3939.00    0.87935   0.86050   11.372
 3940.00    0.87516   0.87186   11.427
 3941.00    0.85895   0.87868   11.642
 3942.00    0.83208   0.88220   12.018
 3943.00    0.80440   0.88404   12.432
 3944.00    0.78718   0.88594   12.704
 3945.00    0.78451   0.88978   12.747
 3946.00    0.79238   0.89537   12.620
 3947.00    0.80239   0.90056   12.463
 3948.00    0.80832   0.90454   12.371
 3949.00    0.80741   0.90778   12.385
 3950.00    0.79979   0.90995   12.503
 3951.00    0.78701   0.91010   12.706
 3952.00    0.77159   0.90800   12.823
 3953.00    0.75671   0.90481   12.823
 3954.00    0.74498   0.90147   12.823
 3955.00    0.73788   0.89785   12.823
 3956.00    0.73572   0.89364   12.823
 3957.00    0.73761   0.88852   12.823
 3958.00    0.74151   0.88130   12.823
 3959.00    0.74429   0.86984   12.823
 3960.00    0.74353   0.85240    0.000
 3961.00    0.73925   0.82917    0.000
 3962.00    0.73397   0.80246    0.000
 3963.00    0.73092   0.77318    0.000
 3964.00    0.73133   0.74008    0.000
 3965.00    0.73405   0.70299    0.000
 3966.00    0.73718   0.66272    0.000
 3967.00    0.74182   0.62113    0.000
 3968.00    0.75297   0.58386    0.000
 3969.00    0.77752   0.55925    0.000
 3970.00    0.81713   0.55520    0.000
 3971.00    0.86552   0.57467    0.000
 3972.00    0.90999   0.61250    0.000
 3973.00    0.93962   0.65961    0.000
 3974.00    0.95006   0.70851    0.000
 3975.00    0.94339   0.75366    0.000
 3976.00    0.92571   0.79181    0.000
 3977.00    0.90497   0.82264    0.000
 3978.00    0.89063   0.84699    0.000
 3979.00    0.89006   0.86535    0.000
 3980.00    0.90405   0.87818    0.000
 3981.00    0.92635   0.88636   10.795
 3982.00    0.94731   0.89159   10.556
 3983.00    0.96086   0.89645   10.407
 3984.00    0.96592   0.90264   10.353
 3985.00    0.96530   0.90977   10.359
 3986.00    0.96249   0.91670   10.390
 3987.00    0.96062   0.92306   10.410
 3988.00    0.96221   0.92854   10.393
 3989.00    0.96786   0.93241   10.332
 3990.00    0.97560   0.93494   10.250
 3991.00    0.98146   0.93682   10.189
 3992.00    0.98306   0.93766   10.172
 3993.00    0.98233   0.93662   10.180
 3994.00    0.98524   0.93356   10.150
 3995.00    0.99693   0.93012   10.031
 3996.00    1.01657   0.92807    9.837
 3997.00    1.03697   0.92804    9.643
 3998.00    1.04891   0.93036    9.534
 3999.00    1.04802   0.93494    9.542
 4000.00    1.03595   0.93968    9.653
 4001.00    1.01851   0.94222    9.818
 4002.00    1.00135   0.94169    9.987
 4003.00    0.98879   0.93786   10.113
 4004.00    0.98366   0.93092   10.166
 4005.00    0.98666   0.92279   10.135
 4006.00    0.99611   0.91658   10.039
 4007.00    1.00864   0.91346    9.914
 4008.00    1.02330   0.91256    9.772
 4009.00    1.04404   0.91411    9.578
 4010.00    1.07877   0.91920    9.270
 4011.00    1.12949   0.92681    8.854
 4012.00    1.18334   0.93454    8.451
 4013.00    1.21285   0.94121    8.245
 4014.00    1.19339   0.94626    8.380
 4015.00    1.12675   0.94955    8.875
 4016.00    1.04378   0.95115    9.581
 4017.00    0.98597   0.95138   10.142
 4018.00    0.96813   0.95109   10.329
 4019.00    0.97045   0.95000   10.305
 4020.00    0.95218   0.94621   10.502
 4021.00    0.89410   0.93808   11.184
 4022.00    0.81269   0.92524   12.305
 4023.00    0.75213   0.90853   12.823
 4024.00    0.74460   0.89050   12.823
 4025.00    0.79007   0.87602   12.657
 4026.00    0.85909   0.87079   11.640
 4027.00    0.91981   0.87707   10.872
 4028.00    0.95858   0.88994   10.432
 4029.00    0.98040   0.90183   10.200
 4030.00    0.99736   0.90892   10.026
 4031.00    1.01549   0.91189    9.847
 4032.00    1.03348   0.91339    9.676
 4033.00    1.04614   0.91581    9.559
 4034.00    1.05045   0.92106    9.520
 4035.00    1.04654   0.92957    9.555
 4036.00    1.03698   0.94001    9.643
 4037.00    1.02487   0.94954    9.757
 4038.00    1.01329   0.95547    9.869
 4039.00    1.00500   0.95677    9.950
 4040.00    1.00112   0.95384    9.989
 4041.00    1.00062   0.94812    9.994
 4042.00    1.00071   0.94084    9.993
 4043.00    0.99958   0.93212   10.004
 4044.00    0.99819   0.92292   10.018
 4045.00    1.00000   0.91641   10.000
 4046.00    1.00763   0.91601    9.924
 4047.00    1.01967   0.92215    9.807
 4048.00    1.03055   0.93142    9.704
 4049.00    1.03381   0.94015    9.673
 4050.00    1.02686   0.94620    9.738
 4051.00    1.01155   0.94831    9.886
 4052.00    0.99271   0.94642   10.073
 4053.00    0.97487   0.94197   10.258
 4054.00    0.96153   0.93674   10.400
 4055.00    0.95474   0.93220   10.474
 4056.00    0.95387   0.92914   10.484
 4057.00    0.95518   0.92736   10.469
 4058.00    0.95265   0.92658   10.497
 4059.00    0.94257   0.92632   10.609
 4060.00    0.92602   0.92526   10.799
 4061.00    0.90846   0.92232   11.008
 4062.00    0.89587   0.91753   11.162
 4063.00    0.89162   0.91258   11.216
 4064.00    0.89631   0.91015   11.157
 4065.00    0.90845   0.91058   11.008
 4066.00    0.92535   0.91122   10.807
 4067.00    0.94321   0.91022   10.602
 4068.00    0.95810   0.90762   10.437
 4069.00    0.96758   0.90393   10.335
 4070.00    0.97106   0.89991   10.298
 4071.00    0.96948   0.89689   10.315
 4072.00    0.96468   0.89612   10.366
 4073.00    0.95908   0.89711   10.427
 4074.00    0.95549   0.89683   10.466
 4075.00    0.95586   0.89368   10.462
 4076.00    0.96081   0.89015   10.408
 4077.00    0.96951   0.88969   10.315
 4078.00    0.97905   0.89379   10.214
 4079.00    0.98412   0.90173   10.161
 4080.00    0.97730   0.91089   10.232
 4081.00    0.95314   0.91778   10.492
 4082.00    0.91233   0.92022   10.961
 4083.00    0.86193   0.91859   11.602
 4084.00    0.81196   0.91511   12.316
 4085.00    0.77028   0.91221   12.823
 4086.00    0.74179   0.91090   12.823
 4087.00    0.72831   0.91041   12.823
 4088.00    0.72847   0.90947   12.823
 4089.00    0.73762   0.90796   12.823
 4090.00    0.74919   0.90601   12.823
 4091.00    0.75952   0.90200   12.823
 4092.00    0.76960   0.89421    0.000
 4093.00    0.78406   0.88216    0.000
 4094.00    0.80505   0.86509    0.000
 4095.00    0.82878   0.84179    0.000
 4096.00    0.84618   0.81279    0.000
 4097.00    0.85011   0.77958    0.000
 4098.00    0.84154   0.74342    0.000
 4099.00    0.82959   0.70583    0.000
 4100.00    0.82490   0.67095    0.000
 4101.00    0.83115   0.64692    0.000
 4102.00    0.84412   0.64298    0.000
 4103.00    0.85612   0.66169    0.000
 4104.00    0.86443   0.69645    0.000
 4105.00    0.87302   0.73781    0.000
 4106.00    0.88928   0.77761    0.000
 4107.00    0.91468   0.81041    0.000
 4108.00    0.94180   0.83461    0.000
 4109.00    0.95710   0.85153    0.000
 4110.00    0.95351   0.86372    0.000
 4111.00    0.93647   0.87358    0.000
 4112.00    0.92225   0.88247    0.000
 4113.00    0.92392   0.89032   10.824
 4114.00    0.94129   0.89605   10.624
 4115.00    0.96123   0.89871   10.403
 4116.00    0.96880   0.89853   10.322
 4117.00    0.95924   0.89605   10.425
 4118.00    0.93893   0.89134   10.650
 4119.00    0.91954   0.88628   10.875
 4120.00    0.90853   0.88406   11.007
 4121.00    0.90762   0.88669   11.018
 4122.00    0.91421   0.89407   10.938
 4123.00    0.92479   0.90383   10.813
 4124.00    0.93588   0.91280   10.685
 4125.00    0.94438   0.91859   10.589
 4126.00    0.94898   0.91987   10.538
 4127.00    0.95067   0.91717   10.519
 4128.00    0.95238   0.91226   10.500
 4129.00    0.95638   0.90689   10.456
 4130.00    0.96278   0.90175   10.387
 4131.00    0.96954   0.89748   10.314
 4132.00    0.97353   0.89544   10.272
 4133.00    0.97150   0.89717   10.293
 4134.00    0.96024   0.90272   10.414
 4135.00    0.93888   0.91064   10.651
 4136.00    0.91189   0.91859   10.966
 4137.00    0.88939   0.92420   11.244
 4138.00    0.88249   0.92622   11.332
 4139.00    0.89379   0.92348   11.188
 4140.00    0.91541   0.91506   10.924
 4141.00    0.93285   0.90154   10.720
 4142.00    0.93703   0.88551   10.672
 4143.00    0.92840   0.87237   10.771
 4144.00    0.91519   0.86846   10.927
 4145.00    0.90511   0.87509   11.048
 4146.00    0.90103   0.88705   11.098
 4147.00    0.90131   0.89863   11.095
 4148.00    0.90339   0.90658   11.069
 4149.00    0.90648   0.90997   11.032
 4150.00    0.91165   0.91007   10.969
 4151.00    0.92001   0.90862   10.869
 4152.00    0.93070   0.90638   10.745
 4153.00    0.94071   0.90419   10.630
 4154.00    0.94608   0.90335   10.570
 4155.00    0.94401   0.90444   10.593
 4156.00    0.93319   0.90730   10.716
 4157.00    0.91420   0.91180   10.939
 4158.00    0.89062   0.91731   11.228
 4159.00    0.86929   0.92240   11.504
 4160.00    0.85858   0.92592   11.647
 4161.00    0.86159   0.92763   11.606
 4162.00    0.87325   0.92792   11.451
 4163.00    0.88180   0.92701   11.340
 4164.00    0.87876   0.92487   11.380
 4165.00    0.86533   0.92188   11.556
 4166.00    0.85186   0.91831   11.739
 4167.00    0.84905   0.91435   11.778
 4168.00    0.85935   0.91050   11.637
 4169.00    0.87660   0.90701   11.408
 4170.00    0.89119   0.90321   11.221
 4171.00    0.89761   0.89835   11.141
 4172.00    0.89549   0.89321   11.167
 4173.00    0.88820   0.88990   11.259
 4174.00    0.87992   0.88960   11.365
 4175.00    0.87483   0.89161   11.431
 4176.00    0.87661   0.89469   11.408
 4177.00    0.88635   0.89800   11.282
 4178.00    0.90187   0.90140   11.088
 4179.00    0.91832   0.90487   10.889
 4180.00    0.93134   0.90771   10.737
 4181.00    0.93872   0.90906   10.653
 4182.00    0.94044   0.90909   10.633
 4183.00    0.93781   0.90847   10.663
 4184.00    0.93278   0.90715   10.721
 4185.00    0.92786   0.90497   10.778
 4186.00    0.92493   0.90204   10.812
 4187.00    0.92390   0.89942   10.824
 4188.00    0.92256   0.89891   10.839
 4189.00    0.91831   0.90081   10.890
 4190.00    0.91127   0.90433   10.974
 4191.00    0.90485   0.90865   11.052
 4192.00    0.90381   0.91263   11.064
 4193.00    0.90903   0.91461   11.001
 4194.00    0.91592   0.91268   10.918
 4195.00    0.91636   0.90653   10.913
 4196.00    0.90672   0.89791   11.029
 4197.00    0.89153   0.88882   11.217
 4198.00    0.88214   0.88084   11.336
 4199.00    0.88667   0.87569   11.278
 4200.00    0.90314   0.87446   11.073
 4201.00    0.91994   0.87671   10.870
 4202.00    0.92499   0.88166   10.811
 4203.00    0.91515   0.88859   10.927
 4204.00    0.89676   0.89625   11.151
 4205.00    0.88040   0.90360   11.358
 4206.00    0.87274   0.91024   11.458
 4207.00    0.87529   0.91555   11.425
 4208.00    0.88557   0.91898   11.292
 4209.00    0.89973   0.92029   11.114
 4210.00    0.91316   0.91989   10.951
 4211.00    0.92121   0.91849   10.855
 4212.00    0.92151   0.91620   10.852
 4213.00    0.91486   0.91294   10.931
 4214.00    0.90475   0.90918   11.053
 4215.00    0.89447   0.90618   11.180
 4216.00    0.88550   0.90609   11.293
 4217.00    0.87759   0.90963   11.395
 4218.00    0.87035   0.91476   11.490
 4219.00    0.86457   0.91878   11.566
 4220.00    0.86224   0.91969   11.598
 4221.00    0.86490   0.91597   11.562
 4222.00    0.87151   0.90694   11.474
 4223.00    0.87827   0.89369   11.386
 4224.00    0.88055   0.87853   11.357
 4225.00    0.87662   0.86459   11.407
 4226.00    0.86842   0.85573   11.515
 4227.00    0.86038   0.85542   11.623
 4228.00    0.85608   0.86405   11.681
 4229.00    0.85715   0.87724   11.667
 4230.00    0.86344   0.88957   11.582
 4231.00    0.87385   0.89781   11.444
 4232.00    0.88668   0.90082   11.278
 4233.00    0.89977   0.89976   11.114
 4234.00    0.91093   0.89711   10.978
 4235.00    0.91834   0.89425   10.889
 4236.00    0.92066   0.89198   10.862
 4237.00    0.91786   0.89169   10.895
 4238.00    0.91227   0.89358   10.962
 4239.00    0.90847   0.89687   11.007
 4240.00    0.91052   0.90109   10.983
 4241.00    0.91731   0.90582   10.901
 4242.00    0.92191   0.91032   10.847
 4243.00    0.91524   0.91413   10.926
 4244.00    0.89511   0.91650   11.172
 4245.00    0.86855   0.91591   11.513
 4246.00    0.84882   0.91182   11.781
 4247.00    0.84405   0.90557   11.848
 4248.00    0.85261   0.89914   11.729
 4249.00    0.86474   0.89371   11.564
 4250.00    0.87214   0.88972   11.466
 4251.00    0.87395   0.88761   11.442
 4252.00    0.87628   0.88686   11.412
 4253.00    0.88536   0.88630   11.295
 4254.00    0.90134   0.88652   11.095
 4255.00    0.91808   0.88869   10.892
 4256.00    0.92780   0.89204   10.778
 4257.00    0.92755   0.89436   10.781
 4258.00    0.91996   0.89405   10.870
 4259.00    0.91074   0.89201   10.980
 4260.00    0.90354   0.89083   11.068
 4261.00    0.89887   0.89282   11.125
 4262.00    0.89496   0.89822   11.174
 4263.00    0.89061   0.90444   11.228
 4264.00    0.88614   0.90818   11.285
 4265.00    0.88306   0.90766   11.324
 4266.00    0.88233   0.90271   11.334
 4267.00    0.88355   0.89500   11.318
 4268.00    0.88503   0.88730   11.299
 4269.00    0.88503   0.88008   11.299
 4270.00    0.88271   0.87242   11.329
 4271.00    0.87817   0.86495   11.387
 4272.00    0.87210   0.85978   11.467
 4273.00    0.86537   0.85824   11.556
 4274.00    0.85899   0.85997   11.642
 4275.00    0.85375   0.86491   11.713
 4276.00    0.84968   0.87284   11.769
 4277.00    0.84589   0.88186   11.822
 4278.00    0.84115   0.88933   11.888
 4279.00    0.83521   0.89319   11.973
 4280.00    0.82916   0.89324   12.060
 4281.00    0.82512   0.89117   12.119
 4282.00    0.82466   0.88836   12.126
 4283.00    0.82820   0.88547   12.074
 4284.00    0.83494   0.88260   11.977
 4285.00    0.84280   0.87928   11.865
 4286.00    0.84836   0.87552   11.787
 4287.00    0.84711   0.87119   11.805
 4288.00    0.83663   0.86606   11.953
 4289.00    0.81961   0.86133   12.201
 4290.00    0.80385   0.85943   12.440
 4291.00    0.79740   0.86161   12.541
 4292.00    0.80156   0.86648   12.476
 4293.00    0.80999   0.87093   12.346
 4294.00    0.81295   0.87242   12.301
 4295.00    0.80650   0.87065   12.399
 4296.00    0.79466   0.86581   12.584
 4297.00    0.78651   0.85790   12.714
 4298.00    0.78692   0.84791   12.708
 4299.00    0.79311   0.83757   12.609
 4300.00    0.79635   0.82923   12.557
 4301.00    0.79066   0.82422   12.648
 4302.00    0.77753   0.82179   12.823
 4303.00    0.76532   0.82094   12.823
 4304.00    0.76213   0.82103   12.823
 4305.00    0.77007   0.82074   12.823
 4306.00    0.78517   0.81918   12.736
 4307.00    0.80125   0.81682   12.481
 4308.00    0.81468   0.81555   12.275
 4309.00    0.82490   0.81760   12.123
 4310.00    0.83290   0.82363   12.006
 4311.00    0.83856   0.83270   11.925
 4312.00    0.84010   0.84365   11.903
 4313.00    0.83545   0.85589   11.970
 4314.00    0.82569   0.86927   12.111
 4315.00    0.81618   0.88352   12.252
 4316.00    0.81495   0.89713   12.271
 4317.00    0.82602   0.90742   12.106
 4318.00    0.84633   0.91278   11.816
 4319.00    0.86664   0.91305   11.539
 4320.00    0.87792   0.90879   11.391
 4321.00    0.87582   0.90060   11.418
 4322.00    0.86081   0.88900   11.617
 4323.00    0.83802   0.87496   11.933
 4324.00    0.81691   0.86135   12.241
 4325.00    0.81095   0.85223   12.331
 4326.00    0.83038   0.85078   12.043
 4327.00    0.87121   0.85688   11.478
 4328.00    0.91374   0.86640   10.944
 4329.00    0.93240   0.87436   -2.000
 4330.00    0.91853   0.87787   -2.000
 4331.00    0.88592   0.87655   -2.000
 4332.00    0.86317   0.87083   -2.000
 4333.00    0.86674   0.86027   -2.000
 4334.00    0.89071   0.84350   -2.000
 4335.00    0.91068   0.81849   -2.000
 4336.00    0.90673   0.78399   -2.000
 4337.00    0.87667   0.74201   -2.000
 4338.00    0.83503   0.69925   -2.000
 4339.00    0.79968   0.66446   -2.000
 4340.00    0.78021   0.64590   -2.000
 4341.00    0.77724   0.64931   -2.000
 4342.00    0.78557   0.67286   -2.000
 4343.00    0.79807   0.70767   -2.000
 4344.00    0.80633   0.74494   -2.000
 4345.00    0.80329   0.77918    0.000
 4346.00    0.78850   0.80726    0.000
 4347.00    0.76906   0.82816    0.000
 4348.00    0.75663   0.84236    0.000
 4349.00    0.75859   0.85037    0.000
 4350.00    0.77524   0.85310    0.000
 4351.00    0.80088   0.85318   12.486
 4352.00    0.82914   0.85504   12.061
 4353.00    0.85550   0.86148   11.689
 4354.00    0.87730   0.87148   11.399
 4355.00    0.89303   0.88250   11.198
 4356.00    0.90187   0.89244   11.088
 4357.00    0.90364   0.89980   11.066
 4358.00    0.89886   0.90419   11.125
 4359.00    0.88877   0.90703   11.252
 4360.00    0.87530   0.91036   11.425
 4361.00    0.86077   0.91476   11.618
 4362.00    0.84727   0.91932   11.803
 4363.00    0.83659   0.92280   11.953
 4364.00    0.83024   0.92430   12.045
 4365.00    0.82932   0.92318   12.058
 4366.00    0.83462   0.91926   11.982
 4367.00    0.84630   0.91398   11.816
 4368.00    0.86316   0.90950   11.585
 4369.00    0.88229   0.90657   11.334
 4370.00    0.89934   0.90435   11.119
 4371.00    0.91054   0.90180   10.982
 4372.00    0.91379   0.89838   10.943
 4373.00    0.90873   0.89436   11.004
 4374.00    0.89662   0.89114   11.153
 4375.00    0.88017   0.89073   11.361
 4376.00    0.86351   0.89398   11.581
 4377.00    0.85083   0.89919   11.753
 4378.00    0.84461   0.90307   11.840
 4379.00    0.84539   0.90270   11.829
 4380.00    0.85208   0.89673   11.736
 4381.00    0.86263   0.88531   11.592
 4382.00    0.87413   0.86996   11.440
 4383.00    0.88347   0.85425   11.319
 4384.00    0.88926   0.84301   11.245
 4385.00    0.89252   0.83871   11.204
 4386.00    0.89602   0.84004   11.160
 4387.00    0.90153   0.84432   11.092
 4388.00    0.90833   0.85091   11.009
 4389.00    0.91349   0.86006   10.947
 4390.00    0.91453   0.87045   10.935
 4391.00    0.91141   0.88051   10.972
 4392.00    0.90655   0.88915   11.031
 4393.00    0.90273   0.89534   11.078
 4394.00    0.90063   0.89927   11.103
 4395.00    0.89871   0.90260   11.127
 4396.00    0.89477   0.90668   11.176
 4397.00    0.88876   0.91065   11.252
 4398.00    0.88326   0.91243   11.322
 4399.00    0.88203   0.91124   11.337
 4400.00    0.88640   0.90783   11.282
 4401.00    0.89420   0.90357   11.183
 4402.00    0.90081   0.89888   11.101
 4403.00    0.90321   0.89297   11.072
 4404.00    0.90177   0.88644   11.089
 4405.00    0.89980   0.88215   11.114
 4406.00    0.90066   0.88209   11.103
 4407.00    0.90588   0.88569   11.039
 4408.00    0.91511   0.89190   10.928
 4409.00    0.92659   0.89998   10.792
 4410.00    0.93769   0.90810   10.665
 4411.00    0.94494   0.91348   10.583
 4412.00    0.94559   0.91423   10.575
 4413.00    0.93964   0.90990   10.642
 4414.00    0.93017   0.90188   10.751
 4415.00    0.92176   0.89447   10.849
 4416.00    0.91714   0.89210   10.903
 4417.00    0.91648   0.89579   10.911
 4418.00    0.91794   0.90371   10.894
 4419.00    0.91982   0.91257   10.872
 4420.00    0.92134   0.91900   10.854
 4421.00    0.92253   0.92159   10.840
 4422.00    0.92393   0.92113   10.823
 4423.00    0.92640   0.91956   10.794
 4424.00    0.93095   0.91816   10.742
 4425.00    0.93772   0.91699   10.664
 4426.00    0.94509   0.91590   10.581
 4427.00    0.94979   0.91508   10.529
 4428.00    0.94899   0.91458   10.537
 4429.00    0.94285   0.91382   10.606
 4430.00    0.93475   0.91220   10.698
 4431.00    0.92916   0.91003   10.762
 4432.00    0.92776   0.90724   10.779
 4433.00    0.92869   0.90350   10.768
 4434.00    0.92812   0.89985   10.774
 4435.00    0.92440   0.89846   10.818
 4436.00    0.91930   0.90099   10.878
 4437.00    0.91708   0.90699   10.904
 4438.00    0.92022   0.91391   10.867
 4439.00    0.92750   0.91857   10.782
 4440.00    0.93448   0.91890   10.701
 4441.00    0.93715   0.91552   10.671
 4442.00    0.93442   0.91134   10.702
 4443.00    0.92812   0.90950   10.774
 4444.00    0.92093   0.91152   10.859
 4445.00    0.91432   0.91638   10.937
 4446.00    0.90843   0.92144   11.008
 4447.00    0.90271   0.92490   11.078
 4448.00    0.89710   0.92668   11.147
 4449.00    0.89213   0.92679   11.209
 4450.00    0.88865   0.92497   11.253
 4451.00    0.88708   0.92143   11.273
 4452.00    0.88723   0.91627   11.271
 4453.00    0.88848   0.90959   11.255
 4454.00    0.89040   0.90232   11.231
 4455.00    0.89301   0.89610   11.198
 4456.00    0.89668   0.89236   11.152
 4457.00    0.90183   0.89089   11.089
 4458.00    0.90867   0.89053   11.005
 4459.00    0.91724   0.89067   10.902
 4460.00    0.92698   0.89145   10.788
 4461.00    0.93647   0.89315    0.000
 4462.00    0.94351   0.89620    0.000
 4463.00    0.94623   0.90047    0.000
 4464.00    0.94465   0.90407    0.000
 4465.00    0.94084   0.90498    0.000
 4466.00    0.93778   0.90236    0.000
 4467.00    0.93721   0.89616    0.000
 4468.00    0.93921   0.88719    0.000
 4469.00    0.94258   0.87764    0.000
 4470.00    0.94614   0.87083    0.000
 4471.00    0.94907   0.87017    0.000
 4472.00    0.95088   0.87798    0.000
 4473.00    0.95108   0.89284    0.000
 4474.00    0.94897   0.90974    0.000
 4475.00    0.94384   0.92411    0.000
 4476.00    0.93571   0.93350    0.000
 4477.00    0.92600   0.93671    0.000
 4478.00    0.91743   0.93357    0.000
 4479.00    0.91253   0.92563    0.000
 4480.00    0.91208   0.91648    0.000
 4481.00    0.91498   0.91081    0.000
 4482.00    0.91925   0.91170   10.878
 4483.00    0.92365   0.91876   10.827
 4484.00    0.92797   0.92844   10.776
 4485.00    0.93250   0.93673   10.724
 4486.00    0.93684   0.94088   10.674
 4487.00    0.93952   0.94019   10.644
 4488.00    0.93868   0.93610   10.653
 4489.00    0.93437   0.93144   10.702
 4490.00    0.92952   0.92857   10.758
 4491.00    0.92924   0.92798   10.762
 4492.00    0.93676   0.92834   10.675
 4493.00    0.95094   0.92803   10.516
 4494.00    0.96647   0.92679   10.347
 4495.00    0.97754   0.92604   10.230
 4496.00    0.98116   0.92718   10.192
 4497.00    0.97737   0.93051   10.232
 4498.00    0.96842   0.93521   10.326
 4499.00    0.95761   0.93999   10.443
 4500.00    0.94909   0.94422   10.536
 4501.00    0.94655   0.94839   10.565
 4502.00    0.95048   0.95347   10.521
 4503.00    0.95761   0.95927   10.443
 4504.00    0.96233   0.96409   10.391
 4505.00    0.96117   0.96659   10.404
 4506.00    0.95430   0.96662   10.479
 4507.00    0.94497   0.96494   10.582
 4508.00    0.93655   0.96261   10.678
 4509.00    0.93094   0.96016   10.742
 4510.00    0.92866   0.95726   10.768
 4511.00    0.92913   0.95339   10.763
 4512.00    0.93110   0.94855   10.740
 4513.00    0.93261   0.94363   10.723
 4514.00    0.93200   0.93962   10.730
 4515.00    0.92891   0.93735   10.765
 4516.00    0.92438   0.93701   10.818
 4517.00    0.92005   0.93793   10.869
 4518.00    0.91685   0.93958   10.907
 4519.00    0.91472   0.94156   10.932
 4520.00    0.91306   0.94281   10.952
 4521.00    0.91184   0.94213   10.967
 4522.00    0.91187   0.93876   10.966
 4523.00    0.91450   0.93307   10.935
 4524.00    0.92012   0.92599   10.868
 4525.00    0.92757   0.91785   10.781
 4526.00    0.93434   0.90919   10.703
 4527.00    0.93828   0.90114   10.658
 4528.00    0.93861   0.89503   10.654
 4529.00    0.93596   0.89193   10.684
 4530.00    0.93163   0.89194   10.734
 4531.00    0.92691   0.89380   10.789
 4532.00    0.92301   0.89599   10.834
 4533.00    0.92065   0.89763   10.862
 4534.00    0.91950   0.89954   10.876
 4535.00    0.91807   0.90349   10.892
 4536.00    0.91461   0.91013   10.934
 4537.00    0.90883   0.91789   11.003
 4538.00    0.90234   0.92378   11.082
 4539.00    0.89793   0.92613   11.137
 4540.00    0.89721   0.92549   11.146
 4541.00    0.89972   0.92381   11.115
 4542.00    0.90335   0.92304   11.070
 4543.00    0.90624   0.92343   11.035
 4544.00    0.90796   0.92401   11.014
 4545.00    0.90930   0.92412   10.998
 4546.00    0.91102   0.92357   10.977
 4547.00    0.91272   0.92208   10.956
 4548.00    0.91290   0.91955   10.954
 4549.00    0.91033   0.91657   10.985
 4550.00    0.90575   0.91416    0.000
 4551.00    0.90201   0.91250    0.000
 4552.00    0.90235   0.91118    0.000
 4553.00    0.90725   0.91095    0.000
 4554.00    0.91383   0.91298    0.000
 4555.00    0.91735   0.91780    0.000
 4556.00    0.91527   0.92528    0.000
 4557.00    0.90843   0.93419    0.000
 4558.00    0.90048   0.94240    0.000
 4559.00    0.89500   0.94827    0.000
 4560.00    0.89425   0.95103    0.000
 4561.00    0.89918   0.95067    0.000
 4562.00    0.90981   0.94776    0.000
 4563.00    0.92548   0.94341    0.000
 4564.00    0.94481   0.93945    0.000
 4565.00    0.96542   0.93752    0.000
 4566.00    0.98359   0.93801    0.000
 4567.00    0.99430   0.93995    0.000
 4568.00    0.99336   0.94182    0.000
 4569.00    0.98054   0.94257    0.000
 4570.00    0.96005   0.94200    0.000
 4571.00    0.93856   0.94080    0.000
 4572.00    0.92062   0.94059    0.000
 4573.00    0.90755   0.94202    0.000
 4574.00    0.89822   0.94394    0.000
 4575.00    0.89180   0.94521    0.000
 4576.00    0.88882   0.94521    0.000
 4577.00    0.89091   0.94330    0.000
 4578.00    0.89889   0.93940    0.000
 4579.00    0.91172   0.93434    0.000
 4580.00    0.92663   0.92955    0.000
 4581.00    0.94062   0.92635    0.000
 4582.00    0.95173   0.92514    0.000
 4583.00    0.95914   0.92547    0.000
 4584.00    0.96280   0.92689    0.000
 4585.00    0.96293   0.92922    0.000
 4586.00    0.96001   0.93220    0.000
 4587.00    0.95484   0.93546    0.000
 4588.00    0.94878   0.93807    0.000
 4589.00    0.94380   0.93893    0.000
 4590.00    0.94208   0.93755    0.000
 4591.00    0.94494   0.93461    0.000
 4592.00    0.95247   0.93143    0.000
 4593.00    0.96358   0.92898    0.000
 4594.00    0.97626   0.92753    0.000
 4595.00    0.98768   0.92706    0.000
 4596.00    0.99445   0.92761    0.000
 4597.00    0.99440   0.92886    0.000
 4598.00    0.98793   0.93007    0.000
 4599.00    0.97795   0.93055    0.000
 4600.00    0.96812   0.93013    0.000
 4601.00    0.96096   0.92951    0.000
 4602.00    0.95773   0.92966    0.000
 4603.00    0.95850   0.93091    0.000
 4604.00    0.96248   0.93318    0.000
 4605.00    0.96804   0.93631    0.000
 4606.00    0.97320   0.94027    0.000
 4607.00    0.97690   0.94484    0.000
 4608.00    0.97929   0.94934    0.000
 4609.00    0.98134   0.95271    0.000
 4610.00    0.98342   0.95425    0.000
 4611.00    0.98467   0.95423    0.000
 4612.00    0.98320   0.95342    0.000
 4613.00    0.97723   0.95259    0.000
 4614.00    0.96584   0.95228    0.000
 4615.00    0.94907   0.95227    0.000
 4616.00    0.92918   0.95188    0.000
 4617.00    0.91169   0.95106    0.000
 4618.00    0.90524   0.95008    0.000
 4619.00    0.91646   0.94964    0.000
 4620.00    0.94313   0.95056    0.000
 4621.00    0.97334   0.95265    0.000
 4622.00    0.99161   0.95482    0.000
 4623.00    0.99125   0.95634    0.000
 4624.00    0.97713   0.95675    0.000
 4625.00    0.96190   0.95597    0.000
 4626.00    0.95448   0.95436    0.000
 4627.00    0.95607   0.95240    0.000
 4628.00    0.96143   0.95026    0.000
 4629.00    0.96544   0.94817    0.000
 4630.00    0.96645   0.94660    0.000
 4631.00    0.96604   0.94566    0.000
 4632.00    0.96649   0.94472    0.000
 4633.00    0.96869   0.94320    0.000
 4634.00    0.97214   0.94109    0.000
 4635.00    0.97570   0.93838    0.000
 4636.00    0.97851   0.93495    0.000
 4637.00    0.98005   0.93091    0.000
 4638.00    0.98014   0.92701    0.000
 4639.00    0.97887   0.92433    0.000
 4640.00    0.97656   0.92350    0.000
 4641.00    0.97356   0.92422    0.000
 4642.00    0.96964   0.92518    0.000
 4643.00    0.96383   0.92460    0.000
 4644.00    0.95487   0.92118    0.000
 4645.00    0.94317   0.91477    0.000
 4646.00    0.93161   0.90666    0.000
 4647.00    0.92500   0.89947    0.000
 4648.00    0.92657   0.89567    0.000
 4649.00    0.93564   0.89610    0.000
 4650.00    0.94782   0.90012    0.000
 4651.00    0.95818   0.90630    0.000
 4652.00    0.96438   0.91288    0.000
 4653.00    0.96679   0.91843    0.000
 4654.00    0.96719   0.92262    0.000
 4655.00    0.96675   0.92669    0.000
 4656.00    0.96577   0.93197    0.000
 4657.00    0.96404   0.93868    0.000
 4658.00    0.96178   0.94579    0.000
 4659.00    0.95979   0.95127    0.000
 4660.00    0.95919   0.95329    0.000
 4661.00    0.96031   0.95124    0.000
 4662.00    0.96234   0.94593    0.000
 4663.00    0.96363   0.93862    0.000
 4664.00    0.96307   0.93025    0.000
 4665.00    0.96093   0.92154    0.000
 4666.00    0.95870   0.91349    0.000
 4667.00    0.95773   0.90790    0.000
 4668.00    0.95807   0.90659    0.000
 4669.00    0.95845   0.90988    0.000
 4670.00    0.95736   0.91620    0.000
 4671.00    0.95429   0.92311    0.000
 4672.00    0.94985   0.92861    0.000
 4673.00    0.94515   0.93205    0.000
 4674.00    0.94064   0.93401    0.000
 4675.00    0.93589   0.93517    0.000
 4676.00    0.93016   0.93568    0.000
 4677.00    0.92406   0.93517    0.000
 4678.00    0.91998   0.93336    0.000
 4679.00    0.92139   0.93052    0.000
 4680.00    0.92957   0.92736    0.000
 4681.00    0.94217   0.92449    0.000
 4682.00    0.95369   0.92224    0.000
 4683.00    0.95936   0.92059    0.000
 4684.00    0.95783   0.91929    0.000
 4685.00    0.95107   0.91850    0.000
 4686.00    0.94242   0.91899    0.000
 4687.00    0.93455   0.92103    0.000
 4688.00    0.92917   0.92409    0.000
 4689.00    0.92679   0.92744    0.000
 4690.00    0.92615   0.93056    0.000
 4691.00    0.92418   0.93343    0.000
 4692.00    0.91755   0.93642    0.000
 4693.00    0.90626   0.93943    0.000
 4694.00    0.89448   0.94179    0.000
 4695.00    0.88897   0.94252    0.000
 4696.00    0.89339   0.94081    0.000
 4697.00    0.90612   0.93647    0.000
 4698.00    0.92108   0.93037    0.000
 4699.00    0.93266   0.92418    0.000
 4700.00    0.93857   0.91929    0.000
 4701.00    0.93974   0.91596    0.000
 4702.00    0.93842   0.91394    0.000
 4703.00    0.93655   0.91315    0.000
 4704.00    0.93560   0.91341    0.000
 4705.00    0.93635   0.91413    0.000
 4706.00    0.93856   0.91468    0.000
 4707.00    0.94102   0.91491    0.000
 4708.00    0.94225   0.91504    0.000
 4709.00    0.94213   0.91537    0.000
 4710.00    0.94218   0.91592    0.000
 4711.00    0.94472   0.91639    0.000
 4712.00    0.95045   0.91646    0.000
 4713.00    0.95765   0.91692    0.000
 4714.00    0.96284   0.91926    0.000
 4715.00    0.96373   0.92424    0.000
 4716.00    0.96066   0.93134    0.000
 4717.00    0.95630   0.93927    0.000
 4718.00    0.95308   0.94652    0.000
 4719.00    0.95131   0.95208    0.000
 4720.00    0.94923   0.95554    0.000
 4721.00    0.94495   0.95708    0.000
 4722.00    0.93864   0.95718    0.000
 4723.00    0.93264   0.95623    0.000
 4724.00    0.92990   0.95406    0.000
 4725.00    0.93136   0.95006    0.000
 4726.00    0.93552   0.94398    0.000
 4727.00    0.93948   0.93663    0.000
 4728.00    0.94128   0.92979    0.000
 4729.00    0.94059   0.92522    0.000
 4730.00    0.93838   0.92361    0.000
 4731.00    0.93568   0.92468    0.000
 4732.00    0.93307   0.92753    0.000
 4733.00    0.93073   0.93093    0.000
 4734.00    0.92861   0.93389    0.000
 4735.00    0.92654   0.93603    0.000
 4736.00    0.92431   0.93735    0.000
 4737.00    0.92200   0.93834    0.000
 4738.00    0.92029   0.93943    0.000
 4739.00    0.92046   0.94041    0.000
 4740.00    0.92344   0.94114    0.000
 4741.00    0.92854   0.94187    0.000
 4742.00    0.93331   0.94296    0.000
 4743.00    0.93482   0.94453    0.000
 4744.00    0.93238   0.94637    0.000
 4745.00    0.92809   0.94826    0.000
 4746.00    0.92568   0.95005    0.000
 4747.00    0.92685   0.95141    0.000
 4748.00    0.93000   0.95198    0.000
 4749.00    0.93098   0.95162    0.000
 4750.00    0.92680   0.95026    0.000
 4751.00    0.91743   0.94789    0.000
 4752.00    0.90569   0.94481    0.000
 4753.00    0.89489   0.94156    0.000
 4754.00    0.88712   0.93874    0.000
 4755.00    0.88315   0.93677    0.000
 4756.00    0.88270   0.93576    0.000
 4757.00    0.88481   0.93546    0.000
 4758.00    0.88790   0.93528    0.000
 4759.00    0.89038   0.93444    0.000
 4760.00    0.89173   0.93226    0.000
 4761.00    0.89266   0.92845   11.202
 4762.00    0.89460   0.92355   11.178
 4763.00    0.89819   0.91875   11.133
 4764.00    0.90292   0.91521   11.075
 4765.00    0.90741   0.91372   11.020
 4766.00    0.91057   0.91460   10.982
 4767.00    0.91221   0.91757   10.962
 4768.00    0.91288   0.92169   10.954
 4769.00    0.91335   0.92582   10.949
 4770.00    0.91424   0.92914   10.938
 4771.00    0.91597   0.93149   10.917
 4772.00    0.91860   0.93348   10.886
 4773.00    0.92166   0.93575   10.850
 4774.00    0.92416   0.93830   10.821
 4775.00    0.92506   0.94053   10.810
 4776.00    0.92394   0.94180   10.823
 4777.00    0.92106   0.94184   10.857
 4778.00    0.91729   0.94058   10.902
 4779.00    0.91371   0.93823   10.944
 4780.00    0.91158   0.93524   10.970
 4781.00    0.91211   0.93207   10.964
 4782.00    0.91572   0.92894   10.920
 4783.00    0.92175   0.92610   10.849
 4784.00    0.92871   0.92381   10.768
 4785.00    0.93516   0.92210   10.693
 4786.00    0.94029   0.92086   10.635
 4787.00    0.94390   0.92042   10.594
 4788.00    0.94635   0.92107   10.567
 4789.00    0.94844   0.92295   10.544
 4790.00    0.95142   0.92630   10.511
 4791.00    0.95598   0.93103   10.460
 4792.00    0.96112   0.93659   10.404
 4793.00    0.96410   0.94215   10.372
 4794.00    0.96176   0.94656   10.398
 4795.00    0.95321   0.94872   10.491
 4796.00    0.94023   0.94825   10.636
 4797.00    0.92634   0.94571   10.795
 4798.00    0.91422   0.94239   10.938
 4799.00    0.90489   0.93968   11.051
 4800.00    0.89796   0.93852   11.136
 4801.00    0.89292   0.93881   11.199
 4802.00    0.88964   0.93962   11.241
 4803.00    0.88841   0.93982   11.256
 4804.00    0.88971   0.93886   11.240
 4805.00    0.89412   0.93696   11.184
 4806.00    0.90222   0.93494   11.084
 4807.00    0.91382   0.93345   10.943
 4808.00    0.92718   0.93288   10.785
 4809.00    0.93897   0.93325   10.650
 4810.00    0.94562   0.93420   10.575
 4811.00    0.94537   0.93533   10.578
 4812.00    0.93860   0.93650   10.654
 4813.00    0.92739   0.93786   10.783
 4814.00    0.91455   0.93963   10.934
 4815.00    0.90336   0.94181   11.070
 4816.00    0.89698   0.94412   11.148
 4817.00    0.89646   0.94602   11.155
 4818.00    0.89987   0.94690   11.113
 4819.00    0.90304   0.94630   11.074
 4820.00    0.90318   0.94409   11.072
 4821.00    0.90109   0.94055   11.098
 4822.00    0.90080   0.93632   11.101
 4823.00    0.90587   0.93237   11.039
 4824.00    0.91619   0.92975   10.915
 4825.00    0.92788   0.92875   10.777
 4826.00    0.93591   0.92866   10.685
 4827.00    0.93754   0.92849   10.666
 4828.00    0.93273   0.92775   10.721
 4829.00    0.92345   0.92661   10.829
 4830.00    0.91237   0.92557   10.960
 4831.00    0.90259   0.92502   11.079
 4832.00    0.89704   0.92524   11.148
 4833.00    0.89683   0.92630   11.150
 4834.00    0.90074   0.92771   11.102
 4835.00    0.90562   0.92864   11.042
 4836.00    0.90862   0.92843   11.006
 4837.00    0.90823   0.92688   11.010
 4838.00    0.90420   0.92418   11.059
 4839.00    0.89712   0.92098   11.147
 4840.00    0.88798   0.91810   11.262
 4841.00    0.87820   0.91618   11.387
 4842.00    0.86993   0.91534   11.495
 4843.00    0.86635   0.91535   11.543
 4844.00    0.87164   0.91579   11.473
 4845.00    0.88956   0.91592   11.242
 4846.00    0.92103   0.91498   10.857
 4847.00    0.96380   0.91265   10.376
 4848.00    1.01322   0.90917    0.000
 4849.00    1.06419   0.90499    0.000
 4850.00    1.11173   0.90007    0.000
 4851.00    1.15111   0.89366    0.000
 4852.00    1.17843   0.88479    0.000
 4853.00    1.19094   0.87276    0.000
 4854.00    1.18706   0.85716    0.000
 4855.00    1.16712   0.83789    0.000
 4856.00    1.13367   0.81483    0.000
 4857.00    1.09143   0.78775    0.000
 4858.00    1.04545   0.75728    0.000
 4859.00    0.99964   0.72647    0.000
 4860.00    0.95659   0.70098    0.000
 4861.00    0.91845   0.68733    0.000
 4862.00    0.88791   0.68984    0.000
 4863.00    0.86840   0.70776    0.000
 4864.00    0.86270   0.73582    0.000
 4865.00    0.87026   0.76733    0.000
 4866.00    0.88659   0.79662    0.000
 4867.00    0.90465   0.82017    0.000
 4868.00    0.91935   0.83689    0.000
 4869.00    0.92899   0.84751    0.000
 4870.00    0.93480   0.85386    0.000
 4871.00    0.93838   0.85837    0.000
 4872.00    0.94037   0.86336    0.000
 4873.00    0.94052   0.87004    0.000
 4874.00    0.93855   0.87815    0.000
 4875.00    0.93481   0.88683   10.697
 4876.00    0.93032   0.89525   10.749
 4877.00    0.92636   0.90273   10.795
 4878.00    0.92391   0.90872   10.824
 4879.00    0.92369   0.91287   10.826
 4880.00    0.92620   0.91491   10.797
 4881.00    0.93189   0.91486   10.731
 4882.00    0.94123   0.91329   10.624
 4883.00    0.95431   0.91081   10.479
 4884.00    0.96993   0.90784   10.310
 4885.00    0.98537   0.90474   10.149
 4886.00    0.99697   0.90185   10.030
 4887.00    1.00263   0.89933    9.974
 4888.00    1.00290   0.89730    9.971
 4889.00    1.00061   0.89620    9.994
 4890.00    0.99848   0.89709   10.015
 4891.00    0.99755   0.90126   10.025
 4892.00    0.99722   0.90941   10.028
 4893.00    0.99632   0.92064   10.037
 4894.00    0.99415   0.93270   10.059
 4895.00    0.99061   0.94307   10.095
 4896.00    0.98614   0.94988   10.141
 4897.00    0.98162   0.95246   10.187
 4898.00    0.97838   0.95132   10.221
 4899.00    0.97763   0.94778   10.229
 4900.00    0.97925   0.94344   10.212
 4901.00    0.98149   0.93968   10.189
 4902.00    0.98167   0.93725   10.187
 4903.00    0.97839   0.93635   10.221
 4904.00    0.97234   0.93671   10.284
 4905.00    0.96589   0.93752   10.353
 4906.00    0.96063   0.93765   10.410
 4907.00    0.95614   0.93623   10.459
 4908.00    0.95015   0.93335   10.525
 4909.00    0.94099   0.92997   10.627
 4910.00    0.92953   0.92751   10.758
 4911.00    0.91921   0.92707   10.879
 4912.00    0.91373   0.92870   10.944
 4913.00    0.91437   0.93125   10.937
 4914.00    0.91965   0.93278   10.874
 4915.00    0.92655   0.93116   10.793
 4916.00    0.93272   0.92479   10.721
 4917.00    0.93694   0.91341   10.673
 4918.00    0.93898   0.89854   10.650
 4919.00    0.93952   0.88325   10.644
 4920.00    0.94002   0.87114   10.638
 4921.00    0.94243   0.86506   10.611
 4922.00    0.94765   0.86621   10.552
 4923.00    0.95482   0.87384   10.473
 4924.00    0.96161   0.88601   10.399
 4925.00    0.96583   0.90046   10.354
 4926.00    0.96658   0.91516   10.346
 4927.00    0.96434   0.92829   10.370
 4928.00    0.96013   0.93844   10.415
 4929.00    0.95488   0.94470   10.473
 4930.00    0.94927   0.94666   10.534
 4931.00    0.94393   0.94467   10.594
 4932.00    0.93962   0.93983   10.643
 4933.00    0.93726   0.93363   10.669
 4934.00    0.93764   0.92751   10.665
 4935.00    0.94078   0.92223   10.630
 4936.00    0.94575   0.91784   10.574
 4937.00    0.95095   0.91443   10.516
 4938.00    0.95504   0.91263   10.471
 4939.00    0.95733   0.91332   10.446
 4940.00    0.95769   0.91688    0.000
 4941.00    0.95629   0.92273    0.000
 4942.00    0.95336   0.92955    0.000
 4943.00    0.94918   0.93600    0.000
 4944.00    0.94414   0.94129    0.000
 4945.00    0.93872   0.94528    0.000
 4946.00    0.93345   0.94838    0.000
 4947.00    0.92894   0.95110    0.000
 4948.00    0.92572   0.95355    0.000
 4949.00    0.92428   0.95542    0.000
 4950.00    0.92474   0.95610    0.000
 4951.00    0.92637   0.95493    0.000
 4952.00    0.92741   0.95132    0.000
 4953.00    0.92573   0.94500    0.000
 4954.00    0.92056   0.93623    0.000
 4955.00    0.91305   0.92607    0.000
 4956.00    0.90575   0.91652    0.000
 4957.00    0.90024   0.91001    0.000
 4958.00    0.89598   0.90837    0.000
 4959.00    0.89059   0.91166    0.000
 4960.00    0.88263   0.91795    0.000
 4961.00    0.87352   0.92445    0.000
 4962.00    0.86746   0.92881    0.000
 4963.00    0.86821   0.92999    0.000
 4964.00    0.87562   0.92834    0.000
 4965.00    0.88537   0.92511    0.000
 4966.00    0.89162   0.92184    0.000
 4967.00    0.89126   0.91975    0.000
 4968.00    0.88462   0.91950    0.000
 4969.00    0.87453   0.92117    0.000
 4970.00    0.86375   0.92441    0.000
 4971.00    0.85439   0.92855    0.000
 4972.00    0.84785   0.93274    0.000
 4973.00    0.84476   0.93609    0.000
 4974.00    0.84500   0.93780    0.000
 4975.00    0.84778   0.93732    0.000
 4976.00    0.85214   0.93444    0.000
 4977.00    0.85736   0.92928    0.000
 4978.00    0.86292   0.92217    0.000
 4979.00    0.86851   0.91363    0.000
 4980.00    0.87407   0.90444    0.000
 4981.00    0.87976   0.89571    0.000
 4982.00    0.88583   0.88894    0.000
 4983.00    0.89247   0.88557    0.000
 4984.00    0.89977   0.88635    0.000
 4985.00    0.90773   0.89081    0.000
 4986.00    0.91630   0.89742    0.000
 4987.00    0.92536   0.90418    0.000
 4988.00    0.93478   0.90949    0.000
 4989.00    0.94460   0.91269    0.000
 4990.00    0.95507   0.91410    0.000
 4991.00    0.96655   0.91462    0.000
 4992.00    0.97909   0.91508    0.000
 4993.00    0.99212   0.91588    0.000
 4994.00    1.00454   0.91684    0.000
 4995.00    1.01519   0.91733    0.000
 4996.00    1.02322   0.91654    0.000
 4997.00    1.02810   0.91384    0.000
 4998.00    1.02940   0.90917    0.000
 4999.00    1.02663   0.90318    0.000
 5000.00    1.01919   0.89698    0.000
 5001.00    1.00666   0.89156    0.000
 5002.00    0.98935   0.88740    0.000
 5003.00    0.96841   0.88444    0.000
 5004.00    0.94560   0.88250    0.000
 5005.00    0.92295   0.88168    0.000
 5006.00    0.90263   0.88231    0.000
 5007.00    0.88672   0.88434    0.000
 5008.00    0.87656   0.88689    0.000
 5009.00    0.87243   0.88837    0.000
 5010.00    0.87355   0.88724    0.000
 5011.00    0.87831   0.88291    0.000
 5012.00    0.88438   0.87610    0.000
 5013.00    0.88886   0.86862    0.000
 5014.00    0.88959   0.86259    0.000
 5015.00    0.88637   0.85966    0.000
 5016.00    0.88108   0.86045    0.000
 5017.00    0.87641   0.86442    0.000
 5018.00    0.87414   0.87030    0.000
 5019.00    0.87485   0.87669    0.000
 5020.00    0.87817   0.88249    0.000
 5021.00    0.88326   0.88722    0.000
 5022.00    0.88899   0.89092    0.000
 5023.00    0.89396   0.89386    0.000
 5024.00    0.89693   0.89624    0.000
 5025.00    0.89695   0.89817    0.000
 5026.00    0.89339   0.89988    0.000
 5027.00    0.88642   0.90185    0.000
 5028.00    0.87718   0.90459    0.000
 5029.00    0.86772   0.90831   11.524
 5030.00    0.85986   0.91255   11.630
 5031.00    0.85433   0.91633   11.705
 5032.00    0.85077   0.91842   11.754
 5033.00    0.84841   0.91780   11.787
 5034.00    0.84700   0.91408   11.806
 5035.00    0.84688   0.90763   11.808
 5036.00    0.84849   0.89930   11.786
 5037.00    0.85141   0.89008   11.745
 5038.00    0.85421   0.88093   11.707
 5039.00    0.85513   0.87309   11.694
 5040.00    0.85382   0.86828   11.712
 5041.00    0.85196   0.86813   11.738
 5042.00    0.85264   0.87320   11.728
 5043.00    0.85776   0.88219   11.658
 5044.00    0.86687   0.89231   11.536
 5045.00    0.87742   0.90055   11.397
 5046.00    0.88691   0.90490   11.275
 5047.00    0.89441   0.90503   11.181
 5048.00    0.90052   0.90230   11.105
 5049.00    0.90606   0.89890   11.037
 5050.00    0.91077   0.89682   10.980
 5051.00    0.91324   0.89715   10.950
 5052.00    0.91201   0.89991   10.965
 5053.00    0.90735   0.90439   11.021
 5054.00    0.90154   0.90952   11.092
 5055.00    0.89767   0.91445   11.140
 5056.00    0.89695   0.91879   11.149
 5057.00    0.89797   0.92249   11.136
 5058.00    0.89760   0.92548   11.141
 5059.00    0.89390   0.92744   11.187
 5060.00    0.88731   0.92783   11.270
 5061.00    0.88024   0.92608   11.361
 5062.00    0.87495   0.92194   11.429
 5063.00    0.87225   0.91587   11.465
 5064.00    0.87157   0.90907   11.474
 5065.00    0.87175   0.90312   11.471
 5066.00    0.87185   0.89917   11.470
 5067.00    0.87118   0.89742   11.479
 5068.00    0.86953   0.89735   11.501
 5069.00    0.86745   0.89814   11.528
 5070.00    0.86630   0.89906   11.543
 5071.00    0.86755   0.89964   11.527
 5072.00    0.87150   0.89984   11.474
 5073.00    0.87704   0.89978   11.402
 5074.00    0.88210   0.89931   11.337
 5075.00    0.88526   0.89794   11.296
 5076.00    0.88615   0.89515   11.285
 5077.00    0.88540   0.89074   11.294
 5078.00    0.88390   0.88515   11.314
 5079.00    0.88253   0.87953   11.331
 5080.00    0.88210   0.87550   11.337
 5081.00    0.88303   0.87424   11.325
 5082.00    0.88520   0.87594   11.297
 5083.00    0.88790   0.87998   11.262
 5084.00    0.89026   0.88542   11.233
 5085.00    0.89160   0.89125   11.216
 5086.00    0.89149   0.89664   11.217
 5087.00    0.88981   0.90119   11.238
 5088.00    0.88690   0.90491   11.275
 5089.00    0.88349   0.90801   11.319
 5090.00    0.88057   0.91063   11.356
 5091.00    0.87883   0.91276   11.379
 5092.00    0.87856   0.91403   11.382
 5093.00    0.87959   0.91380   11.369
 5094.00    0.88133   0.91145   11.346
 5095.00    0.88275   0.90689   11.328
 5096.00    0.88250   0.90079   11.331
 5097.00    0.87966   0.89449   11.368
 5098.00    0.87428   0.88948   11.438
 5099.00    0.86731   0.88688   11.530
 5100.00    0.86023   0.88690   11.625
 5101.00    0.85474   0.88869   11.699
 5102.00    0.85263   0.89075   11.728
 5103.00    0.85507   0.89180   11.695
 5104.00    0.86160   0.89125   11.606
 5105.00    0.86998   0.88926   11.495
 5106.00    0.87712   0.88651   11.401
 5107.00    0.88103   0.88392   11.350
 5108.00    0.88122   0.88243   11.348
 5109.00    0.87847   0.88261   11.383
 5110.00    0.87411   0.88458   11.440
 5111.00    0.86977   0.88815   11.497
 5112.00    0.86718   0.89281   11.532
 5113.00    0.86704   0.89792   11.533
 5114.00    0.86851   0.90297   11.514
 5115.00    0.86938   0.90749   11.502
 5116.00    0.86784   0.91092   11.523
 5117.00    0.86384   0.91263   11.576
 5118.00    0.85908   0.91199   11.640
 5119.00    0.85566   0.90866   11.687
 5120.00    0.85449   0.90285   11.703
 5121.00    0.85511   0.89531   11.694
 5122.00    0.85636   0.88717   11.677
 5123.00    0.85745   0.87960   11.662
 5124.00    0.85816   0.87362   11.653
 5125.00    0.85862   0.86975   11.647
 5126.00    0.85881   0.86788   11.644
 5127.00    0.85836   0.86771   11.650
 5128.00    0.85674   0.86895   11.672
 5129.00    0.85379   0.87141   11.713
 5130.00    0.84999   0.87488   11.765
 5131.00    0.84637   0.87904   11.815
 5132.00    0.84385   0.88332   11.850
 5133.00    0.84278   0.88702   11.866
 5134.00    0.84295   0.88951   11.863
 5135.00    0.84378   0.89025   11.851
 5136.00    0.84451   0.88892   11.841
 5137.00    0.84420   0.88590   11.846
 5138.00    0.84224   0.88210   11.873
 5139.00    0.83901   0.87843   11.919
 5140.00    0.83597   0.87556   11.962
 5141.00    0.83491   0.87354   11.977
 5142.00    0.83633   0.87207   11.957
 5143.00    0.83908   0.87117   11.918
 5144.00    0.84096   0.87079   11.891
 5145.00    0.84092   0.87064   11.892
 5146.00    0.83976   0.87057   11.908
 5147.00    0.83973   0.87056   11.909
 5148.00    0.84200   0.87047   11.876
 5149.00    0.84521   0.87010   11.831
 5150.00    0.84582   0.86932   11.823
 5151.00    0.84112   0.86848   11.889
 5152.00    0.83172   0.86841   12.023
 5153.00    0.82153   0.86991   12.172
 5154.00    0.81483   0.87347   12.273
 5155.00    0.81260   0.87902   12.306
 5156.00    0.81219   0.88584   12.312
 5157.00    0.80948   0.89265   12.354
 5158.00    0.80295   0.89811   12.454
 5159.00    0.79440   0.90110   12.588
 5160.00    0.78771   0.90095   12.695
 5161.00    0.78517   0.89716   12.736
 5162.00    0.78644   0.88930   12.715
 5163.00    0.78908   0.87738   12.673
 5164.00    0.79108   0.86182   12.641
 5165.00    0.79201   0.84384   12.626
 5166.00    0.79286   0.82570   12.613
 5167.00    0.79471   0.81009   12.583
 5168.00    0.79775   0.79897   12.535
 5169.00    0.80130   0.79272   12.480
 5170.00    0.80441   0.79032   12.431
 5171.00    0.80652   0.79077   12.399
 5172.00    0.80749   0.79437   12.384
 5173.00    0.80756   0.80234   12.383
 5174.00    0.80719   0.81473   12.389
 5175.00    0.80707   0.82942   12.391
 5176.00    0.80797   0.84324   12.377
 5177.00    0.81039   0.85330   12.340
 5178.00    0.81449   0.85756   12.278
 5179.00    0.82016   0.85518   12.193
 5180.00    0.82714   0.84691   12.090
 5181.00    0.83513   0.83508   11.974
 5182.00    0.84382   0.82324   11.851
 5183.00    0.85296   0.81550   11.724
 5184.00    0.86245   0.81519   11.595
 5185.00    0.87228   0.82280   11.464
 5186.00    0.88222   0.83552   11.335
 5187.00    0.89149   0.84913   11.217
 5188.00    0.89877   0.86018   11.126
 5189.00    0.90270   0.86683   11.078
 5190.00    0.90250   0.86896    0.000
 5191.00    0.89807   0.86771    0.000
 5192.00    0.88992   0.86535    0.000
 5193.00    0.87909   0.86428    0.000
 5194.00    0.86709   0.86563    0.000
 5195.00    0.85570   0.86930    0.000
 5196.00    0.84617   0.87470    0.000
 5197.00    0.83904   0.88075    0.000
 5198.00    0.83421   0.88606    0.000
 5199.00    0.83139   0.88942    0.000
 5200.00    0.83036   0.88985    0.000
 5201.00    0.83092   0.88680    0.000
 5202.00    0.83282   0.88036    0.000
 5203.00    0.83565   0.87123    0.000
 5204.00    0.83891   0.86062    0.000
 5205.00    0.84220   0.85034    0.000
 5206.00    0.84560   0.84245    0.000
 5207.00    0.84958   0.83840    0.000
 5208.00    0.85462   0.83882    0.000
 5209.00    0.86034   0.84388    0.000
 5210.00    0.86545   0.85284    0.000
 5211.00    0.86816   0.86395   11.519
 5212.00    0.86738   0.87511   11.529
 5213.00    0.86299   0.88444   11.588
 5214.00    0.85571   0.89094   11.686
 5215.00    0.84665   0.89495   11.811
 5216.00    0.83706   0.89781   11.947
 5217.00    0.82829   0.90086   12.073
 5218.00    0.82148   0.90451   12.173
 5219.00    0.81734   0.90798   12.235
 5220.00    0.81615   0.90989   12.253
 5221.00    0.81778   0.90885   12.228
 5222.00    0.82165   0.90401   12.171
 5223.00    0.82680   0.89557   12.095
 5224.00    0.83229   0.88512   12.015
 5225.00    0.83780   0.87520   11.936
 5226.00    0.84368   0.86853   11.853
 5227.00    0.85053   0.86698   11.757
 5228.00    0.85821   0.87072   11.652
 5229.00    0.86565   0.87764   11.552
 5230.00    0.87128   0.88488   11.477
 5231.00    0.87437   0.89048   11.437
 5232.00    0.87550   0.89382   11.422
 5233.00    0.87626   0.89580   11.412
 5234.00    0.87770   0.89816   11.393
 5235.00    0.87949   0.90195   11.370
 5236.00    0.88009   0.90716   11.363
 5237.00    0.87815   0.91284   11.388
 5238.00    0.87359   0.91787   11.447
 5239.00    0.86762   0.92155   11.526
 5240.00    0.86194   0.92379   11.602
 5241.00    0.85784   0.92471   11.657
 5242.00    0.85609   0.92440   11.681
 5243.00    0.85692   0.92278   11.670
 5244.00    0.85990   0.91977   11.629
 5245.00    0.86398   0.91514   11.574
 5246.00    0.86773   0.90903   11.524
 5247.00    0.87009   0.90250   11.493
 5248.00    0.87057   0.89700   11.487
 5249.00    0.86915   0.89318   11.505
 5250.00    0.86588   0.89117   11.549
 5251.00    0.86068   0.89120   11.619
 5252.00    0.85345   0.89309   11.717
 5253.00    0.84448   0.89631   11.842
 5254.00    0.83482   0.90045   11.979
 5255.00    0.82614   0.90531   12.104
 5256.00    0.81978   0.91049   12.198
 5257.00    0.81573   0.91471   12.259
 5258.00    0.81262   0.91611   12.306
 5259.00    0.80902   0.91325   12.361
 5260.00    0.80534   0.90562   12.417
 5261.00    0.80405   0.89391   12.437
 5262.00    0.80822   0.87979   12.373
 5263.00    0.81821   0.86548   12.222
 5264.00    0.83095   0.85299   12.034
 5265.00    0.84119   0.84343   11.888
 5266.00    0.84588   0.83710   11.822
 5267.00    0.84576   0.83368   11.824
 5268.00    0.84473   0.83232   11.838
 5269.00    0.84630   0.83285   11.816
 5270.00    0.85160   0.83654   11.743
 5271.00    0.85952   0.84406   11.634
 5272.00    0.86804   0.85414   11.520
 5273.00    0.87548   0.86508   11.422
 5274.00    0.88052   0.87591   11.357
 5275.00    0.88260   0.88608   11.330
 5276.00    0.88240   0.89542   11.333
 5277.00    0.88178   0.90353   11.341
 5278.00    0.88293   0.90927   11.326
 5279.00    0.88654   0.91175   11.280
 5280.00    0.89154   0.91122   11.217
 5281.00    0.89561   0.90898   11.166
 5282.00    0.89680   0.90699   11.151
 5283.00    0.89401   0.90702   11.186
 5284.00    0.88714   0.91014   11.272
 5285.00    0.87771   0.91622   11.393
 5286.00    0.86914   0.92370   11.506
 5287.00    0.86627   0.93068   11.544
 5288.00    0.87193   0.93597   11.469
 5289.00    0.88459   0.93925   11.305
 5290.00    0.89853   0.94048   11.129
 5291.00    0.90782   0.93958   11.015
 5292.00    0.91043   0.93646   10.984
 5293.00    0.90851   0.93118   11.007
 5294.00    0.90610   0.92401   11.036
 5295.00    0.90549   0.91540   11.044
 5296.00    0.90667   0.90635   11.029
 5297.00    0.90823   0.89857   11.010
 5298.00    0.90934   0.89397   10.997
 5299.00    0.91032   0.89356   10.985
 5300.00    0.91218   0.89681   10.963
 5301.00    0.91503   0.90253   10.929
 5302.00    0.91752   0.90984   10.899
 5303.00    0.91720   0.91777   10.903
 5304.00    0.91285   0.92521   10.955
 5305.00    0.90583   0.93117   11.040
 5306.00    0.89981   0.93530   11.113
 5307.00    0.89792   0.93792   11.137
 5308.00    0.90015   0.93968   11.109
 5309.00    0.90336   0.94086   11.070
 5310.00    0.90385   0.94131   11.064
 5311.00    0.90073   0.94079   11.102
 5312.00    0.89629   0.93928   11.157
 5313.00    0.89408   0.93688   11.185
 5314.00    0.89506   0.93393   11.172
 5315.00    0.89684   0.93082   11.150
 5316.00    0.89520   0.92792   11.171
 5317.00    0.88872   0.92566   11.252
 5318.00    0.88022   0.92404   11.361
 5319.00    0.87565   0.92242   11.420
 5320.00    0.87875   0.92008   11.380
 5321.00    0.88843   0.91653   11.256
 5322.00    0.89929   0.91136   11.120
 5323.00    0.90608   0.90436   11.037
 5324.00    0.90696   0.89578   11.026
 5325.00    0.90358   0.88647   11.067
 5326.00    0.89879   0.87727   11.126
 5327.00    0.89423   0.86934   11.183
 5328.00    0.89008   0.86492   11.235
 5329.00    0.88582   0.86627   11.289
 5330.00    0.88153   0.87319   11.344
 5331.00    0.87801   0.88332   11.389
 5332.00    0.87645   0.89406   11.410
 5333.00    0.87725   0.90368   11.399
 5334.00    0.87983   0.91115   11.366
 5335.00    0.88284   0.91563   11.327
 5336.00    0.88544   0.91684   11.294
 5337.00    0.88774   0.91528   11.265
 5338.00    0.89068   0.91191   11.227
 5339.00    0.89517   0.90774   11.171
 5340.00    0.90153   0.90407   11.092
 5341.00    0.90953   0.90232   10.995
 5342.00    0.91864   0.90281   10.886
 5343.00    0.92841   0.90450   10.771
 5344.00    0.93840   0.90623   10.656
 5345.00    0.94784   0.90726   10.550
 5346.00    0.95504   0.90775   10.471
 5347.00    0.95736   0.90827   10.445
 5348.00    0.95242   0.90933   10.500
 5349.00    0.94060   0.91165   10.631
 5350.00    0.92557   0.91590   10.804
 5351.00    0.91283   0.92186   10.955
 5352.00    0.90517   0.92862   11.048
 5353.00    0.90108   0.93535   11.098
 5354.00    0.89570   0.94161   11.164
 5355.00    0.88582   0.94685   11.289
 5356.00    0.87248   0.95050   11.462
 5357.00    0.86051   0.95228   11.621
 5358.00    0.85444   0.95209   11.704
 5359.00    0.85528   0.94990   11.692
 5360.00    0.86048   0.94586   11.621
 5361.00    0.86669   0.94045   11.538
 5362.00    0.87283   0.93445   11.457
 5363.00    0.88043   0.92861   11.358
 5364.00    0.89174   0.92316   11.214
 5365.00    0.90638   0.91800   11.033
 5366.00    0.92084   0.91296   10.860
 5367.00    0.92984   0.90769   10.755
 5368.00    0.93020   0.90216   10.750
 5369.00    0.92190   0.89692   10.847
 5370.00    0.90772   0.89324   11.017
 5371.00    0.89170   0.89282   11.215
 5372.00    0.87845   0.89673   11.384
 5373.00    0.87272   0.90421   11.458
 5374.00    0.87662   0.91317   11.407
 5375.00    0.88784   0.92153   11.263
 5376.00    0.89990   0.92794   11.112
 5377.00    0.90659   0.93190   11.030
 5378.00    0.90631   0.93365   11.034
 5379.00    0.90227   0.93354   11.083
 5380.00    0.89929   0.93210   11.120
 5381.00    0.89910   0.93013   11.122
 5382.00    0.89965   0.92832   11.115
 5383.00    0.89721   0.92705   11.146
 5384.00    0.89079   0.92647   11.226
 5385.00    0.88326   0.92627   11.322
 5386.00    0.87978   0.92569   11.366
 5387.00    0.88266   0.92415   11.329
 5388.00    0.88941   0.92143   11.243
 5389.00    0.89383   0.91760   11.188
 5390.00    0.89161   0.91313   11.216
 5391.00    0.88351   0.90855   11.319
 5392.00    0.87494   0.90411   11.429
 5393.00    0.87145   0.89982   11.475
 5394.00    0.87504   0.89581   11.428
 5395.00    0.88396   0.89234   11.313
 5396.00    0.89462   0.88972   11.178
 5397.00    0.90383   0.88869   11.064
 5398.00    0.90914   0.88990   10.999
 5399.00    0.90921   0.89233   10.999
 5400.00    0.90456   0.89415   11.055
 5401.00    0.89774   0.89422   11.139
 5402.00    0.89238   0.89197   11.206
 5403.00    0.89070   0.88724   11.227
 5404.00    0.89270   0.88098   11.202
 5405.00    0.89667   0.87507   11.152
 5406.00    0.90122   0.87123   11.096
 5407.00    0.90619   0.87006   11.035
 5408.00    0.91248   0.87099   10.959
 5409.00    0.92037   0.87338   10.865
 5410.00    0.92836   0.87743   10.772
 5411.00    0.93334   0.88359   10.714
 5412.00    0.93316   0.89137   10.716
 5413.00    0.92938   0.89966   10.760
 5414.00    0.92736   0.90749   10.783
 5415.00    0.93278   0.91430   10.721
 5416.00    0.94620   0.91983   10.569
 5417.00    0.96230   0.92363   10.392
 5418.00    0.97319   0.92545   10.275
 5419.00    0.97620   0.92563   10.244
 5420.00    0.97590   0.92472   10.247
 5421.00    0.98161   0.92341   10.187
 5422.00    0.99855   0.92206   10.014
 5423.00    1.02445   0.92056    9.761
 5424.00    1.05063   0.91903    9.518
 5425.00    1.06897   0.91773    9.355
 5426.00    1.07592   0.91611    9.294
 5427.00    1.07246   0.91316   -2.000
 5428.00    1.06173   0.90835   -2.000
 5429.00    1.04702   0.90230   -2.000
 5430.00    1.03151   0.89689   -2.000
 5431.00    1.01750   0.89312   -2.000
 5432.00    1.00531   0.89059   -2.000
 5433.00    0.99319   0.88946   -2.000
 5434.00    0.97866   0.89039   -2.000
 5435.00    0.96113   0.89389   -2.000
 5436.00    0.94248   0.90006   -2.000
 5437.00    0.92615   0.90822   -2.000
 5438.00    0.91467   0.91712   -2.000
 5439.00    0.90880   0.92515   -2.000
 5440.00    0.90772   0.93088   -2.000
 5441.00    0.90989   0.93340   -2.000
 5442.00    0.91345   0.93232   10.947
 5443.00    0.91639   0.92783   10.912
 5444.00    0.91745   0.92067   10.900
 5445.00    0.91689   0.91236   10.906
 5446.00    0.91633   0.90498   10.913
 5447.00    0.91735   0.90066   10.901
 5448.00    0.91991   0.90014   10.871
 5449.00    0.92219   0.90196   10.844
 5450.00    0.92198   0.90402   10.846
 5451.00    0.91890   0.90480   10.883
 5452.00    0.91475   0.90368   10.932
 5453.00    0.91250   0.90092   10.959
 5454.00    0.91368   0.89759   10.945
 5455.00    0.91772   0.89524   10.897
 5456.00    0.92243   0.89547   10.841
 5457.00    0.92600   0.89833   10.799
 5458.00    0.92783   0.90215   10.778
 5459.00    0.92834   0.90521   10.772
 5460.00    0.92775   0.90665   10.779
 5461.00    0.92537   0.90662   10.807
 5462.00    0.91967   0.90576   10.873
 5463.00    0.90991   0.90509   10.990
 5464.00    0.89763   0.90557   11.140
 5465.00    0.88662   0.90706   11.279
 5466.00    0.88095   0.90880   11.351
 5467.00    0.88206   0.91032   11.337
 5468.00    0.88845   0.91113   11.256
 5469.00    0.89687   0.91057   11.150
 5470.00    0.90485   0.90851   11.052
 5471.00    0.91127   0.90532   10.974
 5472.00    0.91605   0.90121   10.916
 5473.00    0.91925   0.89641   10.878
 5474.00    0.92078   0.89170   10.860
 5475.00    0.92047   0.88769   10.864
 5476.00    0.91880   0.88467   10.884
 5477.00    0.91717   0.88368   10.903
 5478.00    0.91774   0.88516   10.896
 5479.00    0.92163   0.88795   10.850
 5480.00    0.92746   0.89081   10.782
 5481.00    0.93150   0.89362   10.735
 5482.00    0.93041   0.89694   10.748
 5483.00    0.92444   0.90072   10.817
 5484.00    0.91768   0.90436   10.897
 5485.00    0.91532   0.90720   10.925
 5486.00    0.91873   0.90874   10.885
 5487.00    0.92462   0.90919   10.815
 5488.00    0.92715   0.90943   10.786
 5489.00    0.92340   0.90999   10.829
 5490.00    0.91498   0.91068   10.929
 5491.00    0.90694   0.91141   11.026
 5492.00    0.90343   0.91199   11.069
 5493.00    0.90572   0.91202   11.041
 5494.00    0.91236   0.91166   10.961
 5495.00    0.92055   0.91111   10.863
 5496.00    0.92701   0.91024   10.787
 5497.00    0.92821   0.90917   10.773
 5498.00    0.92212   0.90843   10.845
 5499.00    0.90996   0.90785   10.989
 5500.00    0.89624   0.90661   11.158
 5501.00    0.88632   0.90459   11.283
 5502.00    0.88286   0.90246   11.327
 5503.00    0.88529   0.90066   11.296
 5504.00    0.89086   0.89912   11.225
 5505.00    0.89694   0.89770   11.149
 5506.00    0.90159   0.89652   11.092
 5507.00    0.90374   0.89608   11.065
 5508.00    0.90400   0.89624   11.062
 5509.00    0.90489   0.89597   11.051
 5510.00    0.91019   0.89486   10.987
 5511.00    0.92137   0.89306   10.853
 5512.00    0.93562   0.89125   10.688
 5513.00    0.94629   0.89062   10.568
 5514.00    0.94794   0.89194   10.549
 5515.00    0.94048   0.89532   10.633
 5516.00    0.92917   0.90032   10.762
 5517.00    0.92078   0.90616   10.860
 5518.00    0.91873   0.91197   10.885
 5519.00    0.92260   0.91670   10.839
 5520.00    0.92935   0.91967   10.760
 5521.00    0.93574   0.92078   10.687
 5522.00    0.93877   0.92015   10.652
 5523.00    0.93626   0.91794   10.681
 5524.00    0.92861   0.91437   10.769
 5525.00    0.91926   0.90984   10.878
 5526.00    0.91349   0.90513   10.947
 5527.00    0.91323   0.90117   10.950
 5528.00    0.91453   0.89894   10.935
 5529.00    0.90923   0.89917   10.998
 5530.00    0.89665   0.90126   11.153
 5531.00    0.89182   0.90382   11.213
 5532.00    0.92447   0.90593   10.817
 5533.00    1.02211   0.90744    9.784
 5534.00    1.19234   0.90846    8.387
 5535.00    1.42160   0.90943   -1.000
 5536.00    1.68503   0.91093   -1.000
 5537.00    1.96192   0.91292   -1.000
 5538.00    2.23799   0.91509   -2.000
 5539.00    2.49728   0.91727   -2.000
 5540.00    2.70309   0.91907   -2.000
 5541.00    2.79327   0.91999   -2.000
 5542.00    2.69830   0.91987   -2.000
 5543.00    2.40648   0.91921   -2.000
 5544.00    1.98951   0.91883   -2.000
 5545.00    1.58623   0.91916   -2.000
 5546.00    1.30807   0.92026   -2.000
 5547.00    1.18316   0.92213   -2.000
 5548.00    1.16026   0.92438   -2.000
 5549.00    1.16634   0.92616   -2.000
 5550.00    1.15745   0.92697   -2.000
 5551.00    1.12184   0.92665   -2.000
 5552.00    1.06752   0.92528   -2.000
 5553.00    1.00598   0.92321   -2.000
 5554.00    0.94990   0.92108   -2.000
 5555.00    0.91047   0.91943   -2.000
 5556.00    0.89197   0.91829   -2.000
 5557.00    0.89063   0.91737   -2.000
 5558.00    0.89714   0.91654   -2.000
 5559.00    0.90389   0.91565   -2.000
 5560.00    0.90743   0.91432   -2.000
 5561.00    0.90794   0.91240   -2.000
 5562.00    0.90686   0.90992   11.027
 5563.00    0.90569   0.90726   11.041
 5564.00    0.90587   0.90485   11.039
 5565.00    0.90792   0.90273   11.014
 5566.00    0.91089   0.90105   10.978
 5567.00    0.91240   0.90003   10.960
 5568.00    0.91026   0.89953   10.986
 5569.00    0.90419   0.89935   11.060
 5570.00    0.89599   0.89969   11.161
 5571.00    0.88835   0.90049   11.257
 5572.00    0.88286   0.90124   11.327
 5573.00    0.87977   0.90233   11.367
 5574.00    0.87825   0.90426   11.386
 5575.00    0.87741   0.90634   11.397
 5576.00    0.87649   0.90814   11.409
 5577.00    0.87495   0.90982   11.429
 5578.00    0.87288   0.91101   11.456
 5579.00    0.87112   0.91149   11.480
 5580.00    0.87106   0.91115   11.480
 5581.00    0.87365   0.90954   11.446
 5582.00    0.87867   0.90655   11.381
 5583.00    0.88482   0.90233   11.302
 5584.00    0.89058   0.89674   11.229
 5585.00    0.89506   0.88994   11.172
 5586.00    0.89801   0.88267   11.136
 5587.00    0.89966   0.87613   11.115
 5588.00    0.90041   0.87160   11.106
 5589.00    0.90079   0.86972   11.101
 5590.00    0.90135   0.87048   11.094
 5591.00    0.90246   0.87312   11.081
 5592.00    0.90422   0.87674   11.059
 5593.00    0.90652   0.88070   11.031
 5594.00    0.90909   0.88451   11.000
 5595.00    0.91150   0.88775   10.971
 5596.00    0.91324   0.88978   10.950
 5597.00    0.91421   0.88967   10.938
 5598.00    0.91487   0.88777   10.931
 5599.00    0.91616   0.88556   10.915
 5600.00    0.91862   0.88399   10.886
 5601.00    0.92165   0.88365   10.850
 5602.00    0.92353   0.88537   10.828
 5603.00    0.92260   0.88966   10.839
 5604.00    0.91850   0.89628   10.887
 5605.00    0.91238   0.90388   10.960
 5606.00    0.90604   0.91106   11.037
 5607.00    0.90062   0.91685   11.104
 5608.00    0.89632   0.92073   11.157
 5609.00    0.89278   0.92248   11.201
 5610.00    0.88997   0.92212   11.236
 5611.00    0.88849   0.91975   11.255
 5612.00    0.88926   0.91552   11.245
 5613.00    0.89233   0.90971   11.207
 5614.00    0.89633   0.90286   11.157
 5615.00    0.89881   0.89648   11.126
 5616.00    0.89847   0.89268   11.130
 5617.00    0.89663   0.89188   11.153
 5618.00    0.89703   0.89274   11.148
 5619.00    0.90274   0.89422   11.077
 5620.00    0.91312   0.89582   10.951
 5621.00    0.92369   0.89707   10.826
 5622.00    0.92925   0.89742   10.761
 5623.00    0.92847   0.89669   10.770
 5624.00    0.92447   0.89563   10.817
 5625.00    0.92246   0.89569   10.841
 5626.00    0.92433   0.89764   10.819
 5627.00    0.92739   0.90086   10.783
 5628.00    0.92614   0.90461   10.797
 5629.00    0.91834   0.90841   10.889
 5630.00    0.90718   0.91149   11.023
 5631.00    0.90014   0.91327   11.109
 5632.00    0.90253   0.91357   11.080
 5633.00    0.91386   0.91251   10.943
 5634.00    0.92830   0.91037   10.772
 5635.00    0.93977   0.90753   10.641
 5636.00    0.94618   0.90440   10.569
 5637.00    0.94953   0.90151   10.532
 5638.00    0.95317   0.89931   10.491
 5639.00    0.95829   0.89787   10.435
 5640.00    0.96362   0.89697   10.378
 5641.00    0.96671   0.89667   10.344
 5642.00    0.96656   0.89732   10.346
 5643.00    0.96404   0.89862   10.373
 5644.00    0.96117   0.90012   10.404
 5645.00    0.95897   0.90172   10.428
 5646.00    0.95676   0.90333   10.452
 5647.00    0.95267   0.90489   10.497
 5648.00    0.94542   0.90630   10.577
 5649.00    0.93534   0.90749   10.691
 5650.00    0.92414   0.90850   10.821
 5651.00    0.91395   0.90916   10.941
 5652.00    0.90657   0.90898   11.031
 5653.00    0.90341   0.90736   11.069
 5654.00    0.90500   0.90410   11.050
 5655.00    0.91052   0.89975   10.983
 5656.00    0.91782   0.89498   10.895
 5657.00    0.92443   0.88985   10.817
 5658.00    0.92921   0.88512   10.762
 5659.00    0.93262   0.88264   10.723
 5660.00    0.93591   0.88274   10.685
 5661.00    0.93929   0.88395   10.646
 5662.00    0.94138   0.88567   10.623
 5663.00    0.93992   0.88823   10.639
 5664.00    0.93390   0.89136   10.708
 5665.00    0.92450   0.89416   10.817
 5666.00    0.91463   0.89619   10.933
 5667.00    0.90683   0.89769   11.027
 5668.00    0.90189   0.89928   11.088
 5669.00    0.89892   0.90136   11.124
 5670.00    0.89654   0.90385   11.154
 5671.00    0.89379   0.90664   11.188
 5672.00    0.89028   0.90963   11.232
 5673.00    0.88614   0.91239   11.285
 5674.00    0.88199   0.91430   11.338
 5675.00    0.87898   0.91516   11.377
 5676.00    0.87833   0.91531   11.385
 5677.00    0.88049   0.91470   11.357
 5678.00    0.88503   0.91304   11.299
 5679.00    0.89080   0.91057   11.226
 5680.00    0.89661   0.90786   11.153
 5681.00    0.90147   0.90499   11.093
 5682.00    0.90465   0.90199   11.054
 5683.00    0.90614   0.89945   11.036
 5684.00    0.90687   0.89786   11.027
 5685.00    0.90852   0.89693   11.007
 5686.00    0.91199   0.89640   10.965
 5687.00    0.91634   0.89652   10.913
 5688.00    0.91878   0.89778   10.884
 5689.00    0.91669   0.90030   10.909
 5690.00    0.90970   0.90367   10.993
 5691.00    0.89988   0.90715   11.113
 5692.00    0.89032   0.91007   11.232
 5693.00    0.88282   0.91181   11.327
 5694.00    0.87748   0.91203   11.396
 5695.00    0.87325   0.91088   11.452
 5696.00    0.86926   0.90873   11.504
 5697.00    0.86521   0.90574   11.558
 5698.00    0.86128   0.90222   11.611
 5699.00    0.85784   0.89882   11.657
 5700.00    0.85537   0.89572   11.691
 5701.00    0.85441   0.89292   11.704
 5702.00    0.85539   0.89076   11.691
 5703.00    0.85856   0.88917   11.647
 5704.00    0.86395   0.88747   11.575
 5705.00    0.87155   0.88495   11.474
 5706.00    0.88144   0.88161   11.345
 5707.00    0.89372   0.87813   11.189
 5708.00    0.90806   0.87509   11.012
 5709.00    0.92298   0.87336   10.834
 5710.00    0.93577   0.87384   10.686
 5711.00    0.94347   0.87639   10.599
 5712.00    0.94498   0.88081   10.582
 5713.00    0.94144   0.88692   10.622
 5714.00    0.93573   0.89346   10.687
 5715.00    0.93050   0.89950   10.747
 5716.00    0.92758   0.90482   10.781
 5717.00    0.92789   0.90930   10.777
 5718.00    0.93110   0.91302   10.740
 5719.00    0.93552   0.91622   10.689
 5720.00    0.93830   0.91878   10.658
 5721.00    0.93750   0.92059   10.667
 5722.00    0.93370   0.92162   10.710
 5723.00    0.92991   0.92172   10.754
 5724.00    0.92968   0.92085   10.756
 5725.00    0.93468   0.91922   10.699
 5726.00    0.94453   0.91698   10.587
 5727.00    0.95735   0.91476   10.445
 5728.00    0.97087   0.91342   10.300
 5729.00    0.98260   0.91299   10.177
 5730.00    0.99016   0.91283   10.099
 5731.00    0.99233   0.91288   10.077
 5732.00    0.98920   0.91365   10.109
 5733.00    0.98205   0.91506   10.183
 5734.00    0.97229   0.91642   10.285
 5735.00    0.96111   0.91728   10.405
 5736.00    0.94948   0.91747   10.532
 5737.00    0.93854   0.91714   10.655
 5738.00    0.92985   0.91653   10.754
 5739.00    0.92530   0.91588   10.807
 5740.00    0.92590   0.91553    0.000
 5741.00    0.93064   0.91555    0.000
 5742.00    0.93644   0.91584    0.000
 5743.00    0.94021   0.91624    0.000
 5744.00    0.94187   0.91686    0.000
 5745.00    0.94473   0.91739    0.000
 5746.00    0.95340   0.91726    0.000
 5747.00    0.96927   0.91620    0.000
 5748.00    0.98935   0.91468    0.000
 5749.00    1.00770   0.91343    0.000
 5750.00    1.02005   0.91226    0.000
 5751.00    1.02562   0.91068    0.000
 5752.00    1.02648   0.90881    0.000
 5753.00    1.02444   0.90740    0.000
 5754.00    1.01927   0.90732    0.000
 5755.00    1.00890   0.90880    0.000
 5756.00    0.99218   0.91098    0.000
 5757.00    0.97101   0.91266    0.000
 5758.00    0.95040   0.91326    0.000
 5759.00    0.93557   0.91252    0.000
 5760.00    0.92837   0.91079    0.000
 5761.00    0.92699   0.90890    0.000
 5762.00    0.92764   0.90780    0.000
 5763.00    0.92796   0.90834    0.000
 5764.00    0.92761   0.91069    0.000
 5765.00    0.92764   0.91382    0.000
 5766.00    0.92866   0.91675    0.000
 5767.00    0.93028   0.91908    0.000
 5768.00    0.93133   0.92050    0.000
 5769.00    0.93091   0.92086    0.000
 5770.00    0.92896   0.92038    0.000
 5771.00    0.92611   0.91925    0.000
 5772.00    0.92309   0.91774    0.000
 5773.00    0.92028   0.91618    0.000
 5774.00    0.91769   0.91451    0.000
 5775.00    0.91525   0.91265    0.000
 5776.00    0.91306   0.91049    0.000
 5777.00    0.91142   0.90759    0.000
 5778.00    0.91081   0.90365    0.000
 5779.00    0.91185   0.89868    0.000
 5780.00    0.91527   0.89298    0.000
 5781.00    0.92158   0.88758    0.000
 5782.00    0.93028   0.88383    0.000
 5783.00    0.93963   0.88207    0.000
 5784.00    0.94715   0.88185    0.000
 5785.00    0.95126   0.88309    0.000
 5786.00    0.95188   0.88602    0.000
 5787.00    0.95029   0.89006    0.000
 5788.00    0.94796   0.89416    0.000
 5789.00    0.94580   0.89789    0.000
 5790.00    0.94420   0.90091    0.000
 5791.00    0.94323   0.90350    0.000
 5792.00    0.94287   0.90625    0.000
 5793.00    0.94296   0.90894    0.000
 5794.00    0.94333   0.91122    0.000
 5795.00    0.94386   0.91296    0.000
 5796.00    0.94449   0.91400    0.000
 5797.00    0.94504   0.91450    0.000
 5798.00    0.94502   0.91538    0.000
 5799.00    0.94353   0.91713    0.000
 5800.00    0.93968   0.91899    0.000
 5801.00    0.93391   0.92033    0.000
 5802.00    0.92837   0.92108    0.000
 5803.00    0.92642   0.92103    0.000
 5804.00    0.93007   0.92020    0.000
 5805.00    0.93870   0.91928    0.000
 5806.00    0.94934   0.91879    0.000
 5807.00    0.95885   0.91872    0.000
 5808.00    0.96557   0.91892    0.000
 5809.00    0.96940   0.91918    0.000
 5810.00    0.97116   0.91936    0.000
 5811.00    0.97200   0.91920    0.000
 5812.00    0.97329   0.91866    0.000
 5813.00    0.97606   0.91792    0.000
 5814.00    0.98017   0.91715    0.000
 5815.00    0.98416   0.91649    0.000
 5816.00    0.98589   0.91652    0.000
 5817.00    0.98418   0.91775    0.000
 5818.00    0.97928   0.91987    0.000
 5819.00    0.97255   0.92207    0.000
 5820.00    0.96528   0.92393    0.000
 5821.00    0.95824   0.92534    0.000
 5822.00    0.95174   0.92618    0.000
 5823.00    0.94641   0.92657    0.000
 5824.00    0.94360   0.92685    0.000
 5825.00    0.94527   0.92719    0.000
 5826.00    0.95247   0.92745    0.000
 5827.00    0.96387   0.92760    0.000
 5828.00    0.97579   0.92768    0.000
 5829.00    0.98390   0.92763    0.000
 5830.00    0.98570   0.92731    0.000
 5831.00    0.98091   0.92663    0.000
 5832.00    0.97093   0.92579    0.000
 5833.00    0.95794   0.92484    0.000
 5834.00    0.94469   0.92381    0.000
 5835.00    0.93403   0.92307    0.000
 5836.00    0.92765   0.92293    0.000
 5837.00    0.92558   0.92309    0.000
 5838.00    0.92645   0.92336    0.000
 5839.00    0.92866   0.92407    0.000
 5840.00    0.93098   0.92516    0.000
 5841.00    0.93263   0.92606    0.000
 5842.00    0.93316   0.92628    0.000
 5843.00    0.93251   0.92569    0.000
 5844.00    0.93099   0.92427    0.000
 5845.00    0.92955   0.92217    0.000
 5846.00    0.93007   0.91959    0.000
 5847.00    0.93538   0.91676    0.000
 5848.00    0.94792   0.91401    0.000
 5849.00    0.96751   0.91136    0.000
 5850.00    0.99086   0.90850    0.000
 5851.00    1.01310   0.90518    0.000
 5852.00    1.03151   0.90136    0.000
 5853.00    1.04668   0.89747    0.000
 5854.00    1.06130   0.89429    0.000
 5855.00    1.07523   0.89183   -2.000
 5856.00    1.08340   0.88954   -2.000
 5857.00    1.07704   0.88766   -2.000
 5858.00    1.05275   0.88724   -2.000
 5859.00    1.01853   0.88860   -2.000
 5860.00    0.99280   0.89095   -2.000
 5861.00    0.99117   0.89345   -2.000
 5862.00    1.01322   0.89550   -2.000
 5863.00    1.04191   0.89730   -2.000
 5864.00    1.05577   0.89906   -2.000
 5865.00    1.04706   0.90043   -2.000
 5866.00    1.02428   0.90128   -2.000
 5867.00    1.00465   0.90219   -2.000
 5868.00    0.99731   0.90347   -2.000
 5869.00    0.99927   0.90441   -2.000
 5870.00    0.99915   0.90429   -2.000
 5871.00    0.98984   0.90278   -2.000
 5872.00    0.97322   0.89983   -2.000
 5873.00    0.95841   0.89588   -2.000
 5874.00    0.95209   0.89117    0.000
 5875.00    0.95307   0.88669    0.000
 5876.00    0.95293   0.88385    0.000
 5877.00    0.94379   0.88310    0.000
 5878.00    0.92472   0.88379    0.000
 5879.00    0.90189   0.88433    0.000
 5880.00    0.88330   0.88470    0.000
 5881.00    0.87229   0.88476    0.000
 5882.00    0.86679   0.88359    0.000
 5883.00    0.86224   0.87986    0.000
 5884.00    0.85696   0.87303    0.000
 5885.00    0.85319   0.86317    0.000
 5886.00    0.85549   0.85034    0.000
 5887.00    0.86629   0.83487    0.000
 5888.00    0.88446   0.81748    0.000
 5889.00    0.90597   0.80001    0.000
 5890.00    0.92680   0.78667    0.000
 5891.00    0.94437   0.78056    0.000
 5892.00    0.95743   0.77974    0.000
 5893.00    0.96568   0.78109    0.000
 5894.00    0.96940   0.78352    0.000
 5895.00    0.96940   0.78648    0.000
 5896.00    0.96677   0.79213    0.000
 5897.00    0.96254   0.80265    0.000
 5898.00    0.95766   0.81591    0.000
 5899.00    0.95294   0.82932    0.000
 5900.00    0.94900   0.84253    0.000
 5901.00    0.94619   0.85495   10.569
 5902.00    0.94474   0.86556   10.585
 5903.00    0.94484   0.87403   10.584
 5904.00    0.94673   0.88033   10.563
 5905.00    0.95047   0.88468   10.521
 5906.00    0.95532   0.88778   10.468
 5907.00    0.95948   0.89018   10.422
 5908.00    0.96042   0.89184   10.412
 5909.00    0.95705   0.89253   10.449
 5910.00    0.95098   0.89245   10.515
 5911.00    0.94626   0.89181   10.568
 5912.00    0.94643   0.89040   10.566
 5913.00    0.95193   0.88831   10.505
 5914.00    0.96001   0.88626   10.417
 5915.00    0.96689   0.88520   10.342
 5916.00    0.97065   0.88528   10.302
 5917.00    0.97155   0.88634   10.293
 5918.00    0.97118   0.88790   10.297
 5919.00    0.97077   0.88959   10.301
 5920.00    0.97084   0.89134   10.300
 5921.00    0.97131   0.89275   10.295
 5922.00    0.97172   0.89372   10.291
 5923.00    0.97140   0.89454   10.294
 5924.00    0.96954   0.89514   10.314
 5925.00    0.96561   0.89539   10.356
 5926.00    0.95960   0.89534   10.421
 5927.00    0.95202   0.89482   10.504
 5928.00    0.94388   0.89391   10.595
 5929.00    0.93664   0.89286   10.676
 5930.00    0.93217   0.89212   10.728
 5931.00    0.93181   0.89217   10.732
 5932.00    0.93530   0.89268   10.692
 5933.00    0.94070   0.89295   10.630
 5934.00    0.94552   0.89296   10.576
 5935.00    0.94842   0.89327   10.544
 5936.00    0.94956   0.89408   10.531
 5937.00    0.95008   0.89477   10.525
 5938.00    0.95088   0.89498   10.517
 5939.00    0.95224   0.89478   10.502
 5940.00    0.95397   0.89407   10.483
 5941.00    0.95570   0.89328   10.464
 5942.00    0.95711   0.89317   10.448
 5943.00    0.95793   0.89365   10.439
 5944.00    0.95816   0.89429   10.437
 5945.00    0.95822   0.89489   10.436
 5946.00    0.95888   0.89505   10.429
 5947.00    0.96073   0.89440   10.409
 5948.00    0.96363   0.89304   10.377
 5949.00    0.96671   0.89164   10.344
 5950.00    0.96915   0.89075   10.318
 5951.00    0.97124   0.88997   10.296
 5952.00    0.97452   0.88881   10.261
 5953.00    0.98070   0.88791   10.197
 5954.00    0.98936   0.88791   10.108
 5955.00    0.99747   0.88837   10.025
 5956.00    1.00072   0.88880    9.993
 5957.00    0.99775   0.88972   10.023
 5958.00    0.99163   0.89157   10.084
 5959.00    0.98867   0.89407   10.115
 5960.00    0.99241   0.89670   10.076
 5961.00    1.00041   0.89895    9.996
 5962.00    1.00495   0.90059    9.951
 5963.00    0.99986   0.90164   10.001
 5964.00    0.98588   0.90223   10.143
 5965.00    0.97059   0.90245   10.303
 5966.00    0.96255   0.90272   10.389
 5967.00    0.96429   0.90350   10.370
 5968.00    0.97171   0.90450   10.291
 5969.00    0.97765   0.90538   10.229
 5970.00    0.97833   0.90594   10.221
 5971.00    0.97453   0.90588   10.261
 5972.00    0.96999   0.90495   10.309
 5973.00    0.96727   0.90320   10.338
 5974.00    0.96654   0.90069   10.346
 5975.00    0.96608   0.89763   10.351
 5976.00    0.96443   0.89465   10.369
 5977.00    0.96132   0.89227   10.402
 5978.00    0.95752   0.89063   10.444
 5979.00    0.95363   0.88980   10.486
 5980.00    0.94925   0.88948   10.535
 5981.00    0.94309   0.88909   10.603
 5982.00    0.93428   0.88834   10.703
 5983.00    0.92381   0.88726   10.825
 5984.00    0.91451   0.88641   10.935
 5985.00    0.90937   0.88671   10.997
 5986.00    0.90898   0.88802   11.001
 5987.00    0.91120   0.88966   10.975
 5988.00    0.91235   0.89149   10.961
 5989.00    0.90994   0.89363   10.990
 5990.00    0.90331   0.89569   11.070
 5991.00    0.89345   0.89733   11.193
 5992.00    0.88220   0.89875   11.335
 5993.00    0.87203   0.90006   11.468
 5994.00    0.86565   0.90079   11.552
 5995.00    0.86431   0.90054   11.570
 5996.00    0.86679   0.89944   11.537
 5997.00    0.86964   0.89789   11.499
 5998.00    0.86962   0.89642   11.499
 5999.00    0.86580   0.89528   11.550
 6000.00    0.85957   0.89429   11.634
 6001.00    0.85320   0.89315   11.721
 6002.00    0.84796   0.89156   11.793
 6003.00    0.84393   0.88999   11.849
 6004.00    0.84054   0.88903   11.897
 6005.00    0.83761   0.88818   11.939
 6006.00    0.83556   0.88704   11.968
 6007.00    0.83497   0.88586   11.976
 6008.00    0.83545   0.88524   11.970
 6009.00    0.83527   0.88586   11.972
 6010.00    0.83212   0.88719   12.018
 6011.00    0.82648   0.88796   12.099
 6012.00    0.82323   0.88789   12.147
 6013.00    0.83066   0.88745   12.039
 6014.00    0.85346   0.88721   11.717
 6015.00    0.88772   0.88684   11.265
 6016.00    0.92136   0.88583   10.854
 6017.00    0.94224   0.88477   10.613
 6018.00    0.94674   0.88415   10.563
 6019.00    0.94036   0.88367   10.634
 6020.00    0.93266   0.88338   10.722
 6021.00    0.92925   0.88374   10.761
 6022.00    0.93056   0.88491   10.746
 6023.00    0.93356   0.88665   10.712
 6024.00    0.93594   0.88882   10.684
 6025.00    0.93719   0.89157   10.670
 6026.00    0.93812   0.89445   10.660
 6027.00    0.93920   0.89711   10.647
 6028.00    0.93990   0.89987   10.639
 6029.00    0.93895   0.90248   10.650
 6030.00    0.93586   0.90452   10.685
 6031.00    0.93191   0.90608   10.731
 6032.00    0.92988   0.90746   10.754
 6033.00    0.93201   0.90859   10.729
 6034.00    0.93811   0.90926   10.660
 6035.00    0.94547   0.90948   10.577
 6036.00    0.95067   0.90935   10.519
 6037.00    0.95185   0.90900   10.506
 6038.00    0.94899   0.90855   10.538
 6039.00    0.94350   0.90799   10.599
 6040.00    0.93735   0.90764   10.668
 6041.00    0.93281   0.90783   10.720
 6042.00    0.93201   0.90844   10.730
 6043.00    0.93514   0.90953   10.694
 6044.00    0.94000   0.91082   10.638
 6045.00    0.94259   0.91198   10.609
 6046.00    0.94029   0.91295   10.635
 6047.00    0.93345   0.91361   10.713
 6048.00    0.92508   0.91372   10.810
 6049.00    0.91852   0.91334   10.887
 6050.00    0.91564   0.91267   10.921
 6051.00    0.91677   0.91153   10.908
 6052.00    0.92125   0.90985   10.855
 6053.00    0.92804   0.90788   10.775
 6054.00    0.93583   0.90602   10.686
 6055.00    0.94328   0.90443   10.601
 6056.00    0.94958   0.90320   10.531
 6057.00    0.95452   0.90254   10.477
 6058.00    0.95829   0.90235   10.435
 6059.00    0.96104   0.90228   10.405
 6060.00    0.96267   0.90188   10.388
 6061.00    0.96300   0.90105   10.384
 6062.00    0.96208   0.89982   10.394
 6063.00    0.96030   0.89847   10.413
 6064.00    0.95836   0.89739   10.434
 6065.00    0.95661   0.89704   10.454
 6066.00    0.95465   0.89860   10.475
 6067.00    0.95147   0.90193   10.510
 6068.00    0.94620   0.90568   10.569
 6069.00    0.93906   0.90920   10.649
 6070.00    0.93127   0.91224   10.738
 6071.00    0.92444   0.91464   10.817
 6072.00    0.91950   0.91610   10.875
 6073.00    0.91664   0.91625   10.909
 6074.00    0.91545   0.91522   10.924
 6075.00    0.91540   0.91329   10.924
 6076.00    0.91589   0.91054   10.918
 6077.00    0.91637   0.90716   10.913
 6078.00    0.91661   0.90355   10.910
 6079.00    0.91677   0.90042   10.908
 6080.00    0.91735   0.89800   10.901
 6081.00    0.91863   0.89579   10.886
 6082.00    0.92047   0.89404   10.864
 6083.00    0.92231   0.89336   10.842
 6084.00    0.92359   0.89333   10.827
 6085.00    0.92404   0.89321   10.822
 6086.00    0.92371   0.89319   10.826
 6087.00    0.92288   0.89337   10.836
 6088.00    0.92183   0.89344   10.848
 6089.00    0.92093   0.89303   10.859
 6090.00    0.92037   0.89247   10.865
 6091.00    0.91997   0.89257   10.870
 6092.00    0.91905   0.89336   10.881
 6093.00    0.91690   0.89449   10.906
 6094.00    0.91387   0.89613   10.943
 6095.00    0.91166   0.89782   10.969
 6096.00    0.91281   0.89850   10.955
 6097.00    0.91842   0.89785   10.888
 6098.00    0.92713   0.89633   10.786
 6099.00    0.93550   0.89423   10.690
 6100.00    0.94052   0.89141   10.632
 6101.00    0.94134   0.88762   10.623
 6102.00    0.93918   0.88328   10.648
 6103.00    0.93590   0.88087   10.685
 6104.00    0.93242   0.88174   10.725
 6105.00    0.92869   0.88415   10.768
 6106.00    0.92427   0.88660   10.819
 6107.00    0.91924   0.88900   10.879
 6108.00    0.91431   0.89176   10.937
 6109.00    0.91054   0.89493   10.982
 6110.00    0.90862   0.89741   11.006
 6111.00    0.90864   0.89863   11.005
 6112.00    0.91029   0.89951   10.985
 6113.00    0.91310   0.90046   10.952
 6114.00    0.91658   0.90078   10.910
 6115.00    0.92026   0.89978   10.866
 6116.00    0.92360   0.89738   10.827
 6117.00    0.92598   0.89431   10.799
 6118.00    0.92674   0.89092   10.791
 6119.00    0.92555   0.88678   10.804
 6120.00    0.92275   0.88226   10.837
 6121.00    0.91930   0.87812   10.878
 6122.00    0.91619   0.87525   10.915
 6123.00    0.91363   0.87504   10.945
 6124.00    0.91097   0.87684   10.977
 6125.00    0.90736   0.87905   11.021
 6126.00    0.90290   0.88152   11.075
 6127.00    0.89890   0.88437   11.125
 6128.00    0.89728   0.88731   11.145
 6129.00    0.89900   0.88989   11.123
 6130.00    0.90356   0.89145   11.067
 6131.00    0.90926   0.89112   10.998
 6132.00    0.91442   0.88868   10.936
 6133.00    0.91793   0.88477   10.894
 6134.00    0.91934   0.87977   10.877
 6135.00    0.91888   0.87389   10.883
 6136.00    0.91758   0.86790   10.898
 6137.00    0.91714   0.86383   10.904
 6138.00    0.91891   0.86399   10.882
 6139.00    0.92277   0.86755   10.837
 6140.00    0.92706   0.87171   10.787
 6141.00    0.92961   0.87545   10.757
 6142.00    0.92933   0.87984   10.760
 6143.00    0.92650   0.88517   10.793
 6144.00    0.92228   0.88974   10.843
 6145.00    0.91763   0.89227   10.898
 6146.00    0.91306   0.89315   10.952
 6147.00    0.90868   0.89320   11.005
 6148.00    0.90438   0.89256   11.057
 6149.00    0.90002   0.89132   11.111
 6150.00    0.89532   0.88989   11.169
 6151.00    0.88994   0.88892   11.237
 6152.00    0.88346   0.88842   11.319
 6153.00    0.87546   0.88773   11.423
 6154.00    0.86623   0.88604   11.544
 6155.00    0.85743   0.88332   11.663
 6156.00    0.85205   0.87955   11.736
 6157.00    0.85252   0.87413   11.730
 6158.00    0.85834   0.86724   11.650
 6159.00    0.86573   0.85945   11.551
 6160.00    0.86980   0.85087   11.497
 6161.00    0.86863   0.84211   11.512
 6162.00    0.86419   0.83531   11.571
 6163.00    0.86092   0.83209   11.616
 6164.00    0.86143   0.83176   11.609
 6165.00    0.86518   0.83294   11.558
 6166.00    0.86911   0.83504   11.506
 6167.00    0.87110   0.83794   11.480
 6168.00    0.87172   0.84055   11.472
 6169.00    0.87386   0.84218   11.443
 6170.00    0.87986   0.84450   11.365
 6171.00    0.88932   0.84848   11.245
 6172.00    0.89915   0.85277   11.122
 6173.00    0.90576   0.85635   11.040
 6174.00    0.90747   0.85987   11.020
 6175.00    0.90478   0.86358   11.052
 6176.00    0.89937   0.86698   11.119
 6177.00    0.89256   0.86988   11.204
 6178.00    0.88498   0.87257   11.300
 6179.00    0.87696   0.87473   11.403
 6180.00    0.86925   0.87612   11.504
 6181.00    0.86333   0.87711   11.583
 6182.00    0.86094   0.87746   11.615
 6183.00    0.86251   0.87673   11.594
 6184.00    0.86654   0.87494   11.540
 6185.00    0.86998   0.87197   11.494
 6186.00    0.87116   0.86766   11.479
 6187.00    0.87155   0.86289   11.474
 6188.00    0.87552   0.85866   11.422
 6189.00    0.88707   0.85519   11.273
 6190.00    0.90662   0.85226   11.030
 6191.00    0.93090   0.85022   10.742
 6192.00    0.95477   0.85087   10.474
 6193.00    0.97375   0.85411   10.270
 6194.00    0.98441   0.85761   10.158
 6195.00    0.98485   0.86047   10.154
 6196.00    0.97566   0.86302   10.249
 6197.00    0.96014   0.86524   10.415
 6198.00    0.94338   0.86647   10.600
 6199.00    0.92935   0.86647   10.760
 6200.00    0.91986   0.86665   10.871
 6201.00    0.91469   0.86812   10.933
 6202.00    0.91245   0.87029   10.959
 6203.00    0.91100   0.87234   10.977
 6204.00    0.90769   0.87406   11.017
 6205.00    0.90116   0.87557   11.097
 6206.00    0.89277   0.87668   11.201
 6207.00    0.88647   0.87673   11.281
 6208.00    0.88574   0.87527   11.290
 6209.00    0.88992   0.87241   11.237
 6210.00    0.89394   0.86833   11.186
 6211.00    0.89178   0.86349   11.214
 6212.00    0.88264   0.85836   11.330
 6213.00    0.87205   0.85290   11.467
 6214.00    0.86870   0.84795   11.511
 6215.00    0.87596   0.84440   11.416
 6216.00    0.88938   0.84242   11.244
 6217.00    0.89900   0.84195   11.124
 6218.00    0.89880   0.84199   11.126
 6219.00    0.89098   0.84194   11.224
 6220.00    0.88469   0.84256   11.303
 6221.00    0.88702   0.84401   11.274
 6222.00    0.89702   0.84571   11.148
 6223.00    0.90600   0.84691   11.037
 6224.00    0.90508   0.84718   11.049
 6225.00    0.89269   0.84685   11.202
 6226.00    0.87497   0.84590   11.429
 6227.00    0.86080   0.84416   11.617
 6228.00    0.85424   0.84184   11.706
 6229.00    0.85349   0.83912   11.717
 6230.00    0.85333   0.83666   11.719
 6231.00    0.85059   0.83593   11.756
 6232.00    0.84558   0.83730   11.826
 6233.00    0.84101   0.83981   11.890
 6234.00    0.83883   0.84285   11.921
 6235.00    0.83892   0.84548   11.920
 6236.00    0.83950   0.84708   11.912
 6237.00    0.83939   0.84727   11.913
 6238.00    0.83925   0.84584   11.915
 6239.00    0.84135   0.84331   11.886
 6240.00    0.84733   0.84047   11.802
 6241.00    0.85626   0.83813   11.679
 6242.00    0.86467   0.83611   11.565
 6243.00    0.86905   0.83453   11.507
 6244.00    0.86894   0.83454   11.508
 6245.00    0.86729   0.83583   11.530
 6246.00    0.86849   0.83748   11.514
 6247.00    0.87463   0.83932   11.433
 6248.00    0.88484   0.84095   11.301
 6249.00    0.89629   0.84167   11.157
 6250.00    0.90718   0.84096   11.023
 6251.00    0.91767   0.83851   10.897
 6252.00    0.92958   0.83464   10.758
 6253.00    0.94502   0.83060   10.582
 6254.00    0.96571   0.82716   10.355
 6255.00    0.99268   0.82448   10.074
 6256.00    1.02402   0.82239    9.765
 6257.00    1.05339   0.82137    9.493
 6258.00    1.07037   0.82225    9.343
 6259.00    1.06683   0.82529    9.374
 6260.00    1.04357   0.82967    9.583
 6261.00    1.01070   0.83411    9.894
 6262.00    0.98143   0.83883   10.189
 6263.00    0.96219   0.84350   -2.000
 6264.00    0.95104   0.84678   -2.000
 6265.00    0.94095   0.84864   -2.000
 6266.00    0.92743   0.85033   -2.000
 6267.00    0.91052   0.85211   -2.000
 6268.00    0.89374   0.85322   -2.000
 6269.00    0.88035   0.85375   -2.000
 6270.00    0.87185   0.85453   -2.000
 6271.00    0.86801   0.85576   -2.000
 6272.00    0.86754   0.85696   -2.000
 6273.00    0.86839   0.85769   -2.000
 6274.00    0.86798   0.85778   -2.000
 6275.00    0.86473   0.85747   11.564
 6276.00    0.85946   0.85676   11.635
 6277.00    0.85541   0.85572   11.690
 6278.00    0.85592   0.85457   11.683
 6279.00    0.86151   0.85337   11.608
 6280.00    0.86949   0.85231    0.000
 6281.00    0.87582   0.85229    0.000
 6282.00    0.87876   0.85363    0.000
 6283.00    0.87968   0.85589    0.000
 6284.00    0.88202   0.85852    0.000
 6285.00    0.88820   0.86100    0.000
 6286.00    0.89865   0.86361    0.000
 6287.00    0.91201   0.86609    0.000
 6288.00    0.92642   0.86772    0.000
 6289.00    0.94017   0.86827    0.000
 6290.00    0.95171   0.86756    0.000
 6291.00    0.95975   0.86590    0.000
 6292.00    0.96328   0.86374    0.000
 6293.00    0.96165   0.86138    0.000
 6294.00    0.95480   0.85919    0.000
 6295.00    0.94359   0.85679    0.000
 6296.00    0.92983   0.85391    0.000
 6297.00    0.91583   0.85146    0.000
 6298.00    0.90372   0.85032    0.000
 6299.00    0.89531   0.85015    0.000
 6300.00    0.89177   0.84999    0.000
 6301.00    0.89285   0.84985    0.000
 6302.00    0.89665   0.85092    0.000
 6303.00    0.90016   0.85353    0.000
 6304.00    0.90124   0.85662    0.000
 6305.00    0.89944   0.85922    0.000
 6306.00    0.89586   0.86165    0.000
 6307.00    0.89194   0.86431    0.000
 6308.00    0.88867   0.86631    0.000
 6309.00    0.88663   0.86680    0.000
 6310.00    0.88627   0.86587    0.000
 6311.00    0.88821   0.86425    0.000
 6312.00    0.89323   0.86246    0.000
 6313.00    0.90162   0.86035    0.000
 6314.00    0.91219   0.85762    0.000
 6315.00    0.92223   0.85513    0.000
 6316.00    0.92860   0.85402    0.000
 6317.00    0.93011   0.85353    0.000
 6318.00    0.92808   0.85317    0.000
 6319.00    0.92550   0.85438    0.000
 6320.00    0.92438   0.85722    0.000
 6321.00    0.92479   0.86034   10.813
 6322.00    0.92521   0.86313   10.808
 6323.00    0.92437   0.86615   10.818
 6324.00    0.92222   0.86943   10.843
 6325.00    0.91980   0.87200   10.872
 6326.00    0.91797   0.87368   10.894
 6327.00    0.91640   0.87481   10.912
 6328.00    0.91363   0.87593   10.945
 6329.00    0.90832   0.87658   11.009
 6330.00    0.90085   0.87594   11.101
 6331.00    0.89345   0.87472   11.193
 6332.00    0.88884   0.87349   11.251
 6333.00    0.88788   0.87195   11.263
 6334.00    0.88917   0.86940   11.246
 6335.00    0.88994   0.86624   11.237
 6336.00    0.88864   0.86423   11.253
 6337.00    0.88569   0.86403   11.291
 6338.00    0.88295   0.86435   11.326
 6339.00    0.88170   0.86448   11.342
 6340.00    0.88166   0.86513   11.342
 6341.00    0.88123   0.86610   11.348
 6342.00    0.87916   0.86645   11.374
 6343.00    0.87558   0.86598   11.421
 6344.00    0.87197   0.86567   11.468
 6345.00    0.87010   0.86644   11.493
 6346.00    0.87086   0.86770   11.483
 6347.00    0.87420   0.86913   11.439
 6348.00    0.87936   0.87093   11.372
 6349.00    0.88520   0.87282   11.297
 6350.00    0.89029   0.87387   11.232
 6351.00    0.89332   0.87398   11.194
 6352.00    0.89404   0.87320   11.185
 6353.00    0.89354   0.87109   11.191
 6354.00    0.89368   0.86759   11.190
 6355.00    0.89541   0.86368   11.168
 6356.00    0.89814   0.86019   11.134
 6357.00    0.90005   0.85642   11.111
 6358.00    0.90004   0.85206   11.111
 6359.00    0.89886   0.84858   11.125
 6360.00    0.89888   0.84678   11.125
 6361.00    0.90191   0.84591   11.088
 6362.00    0.90739   0.84573   11.021
 6363.00    0.91236   0.84716   10.961
 6364.00    0.91349   0.85029   10.947
 6365.00    0.90962   0.85412   10.994
 6366.00    0.90205   0.85811   11.086
 6367.00    0.89350   0.86242   11.192
 6368.00    0.88622   0.86684   11.284
 6369.00    0.88155   0.87048   11.344
 6370.00    0.87998   0.87313   11.364
 6371.00    0.88124   0.87550   11.348
 6372.00    0.88430   0.87777   11.308
 6373.00    0.88763   0.87930   11.266
 6374.00    0.89029   0.87965   11.232
 6375.00    0.89248   0.87921   11.205
 6376.00    0.89533   0.87851   11.169
 6377.00    0.89946   0.87733   11.118
 6378.00    0.90399   0.87551   11.062
 6379.00    0.90658   0.87368   11.030
 6380.00    0.90502   0.87242   11.050
 6381.00    0.89891   0.87177   11.125
 6382.00    0.88978   0.87178   11.239
 6383.00    0.88013   0.87210   11.362
 6384.00    0.87195   0.87238   11.469
 6385.00    0.86642   0.87285   11.542
 6386.00    0.86384   0.87348   11.576
 6387.00    0.86333   0.87354   11.583
 6388.00    0.86277   0.87247   11.591
 6389.00    0.85938   0.87071   11.636
 6390.00    0.85176   0.86896   11.740
 6391.00    0.84079   0.86723   11.894
 6392.00    0.82926   0.86509   12.059
 6393.00    0.81982   0.86295   12.198
 6394.00    0.81382   0.86215   12.288
 6395.00    0.81130   0.86246   12.326
 6396.00    0.81171   0.86283   12.320
 6397.00    0.81450   0.86337   12.278
 6398.00    0.81920   0.86399   12.207
 6399.00    0.82497   0.86398   12.122
 6400.00    0.83009   0.86415   12.047
 6401.00    0.83192   0.86624   12.020
 6402.00    0.82829   0.86903   12.073
 6403.00    0.82032   0.87079   12.190
 6404.00    0.81300   0.87204   12.300
 6405.00    0.81306   0.87330   12.299
 6406.00    0.82256   0.87369   12.157
 6407.00    0.83678   0.87261   11.951
 6408.00    0.84605   0.87120   11.820
 6409.00    0.84484   0.87072   11.837
 6410.00    0.83625   0.87020   11.958
 6411.00    0.83098   0.86896   12.034
 6412.00    0.83772   0.86851   11.937
 6413.00    0.85600   0.86924   11.682
 6414.00    0.87629   0.86994   11.412
 6415.00    0.88774   0.87006   11.265
 6416.00    0.88681   0.86991   11.276
 6417.00    0.87799   0.86964   11.390
 6418.00    0.86963   0.86936   11.499
 6419.00    0.86680   0.86905   11.537
 6420.00    0.87007   0.86868   11.493
 6421.00    0.87667   0.86916   11.407
 6422.00    0.88348   0.87135   11.319
 6423.00    0.88781   0.87438   11.264
 6424.00    0.88778   0.87665   11.264
 6425.00    0.88353   0.87799   11.318
 6426.00    0.87782   0.87877   11.392
 6427.00    0.87537   0.87887   11.424
 6428.00    0.87921   0.87797   11.374
 6429.00    0.88826   0.87599   11.258
 6430.00    0.89759   0.87338   11.141
 6431.00    0.90207   0.87160   11.086
 6432.00    0.89983   0.87154   11.113
 6433.00    0.89247   0.87198   11.205
 6434.00    0.88332   0.87192   11.321
 6435.00    0.87505   0.87200   11.428
 6436.00    0.86928   0.87278   11.504
 6437.00    0.86657   0.87342   11.540
 6438.00    0.86621   0.87314   11.545
 6439.00    0.86622   0.87341   11.544
 6440.00    0.86399   0.87568   11.574
 6441.00    0.85823   0.87880   11.652
 6442.00    0.84977   0.88126   11.768
 6443.00    0.84112   0.88316   11.889
 6444.00    0.83475   0.88411   11.980
 6445.00    0.83208   0.88339   12.018
 6446.00    0.83346   0.88111   11.998
 6447.00    0.83828   0.87791   11.929
 6448.00    0.84500   0.87377   11.834
 6449.00    0.85126   0.86891   11.747
 6450.00    0.85532   0.86532   11.692
 6451.00    0.85774   0.86460   11.659
 6452.00    0.86151   0.86562   11.608
 6453.00    0.87019   0.86734   11.492
 6454.00    0.88456   0.86955   11.305
 6455.00    0.90203   0.87186   11.086
 6456.00    0.91777   0.87413   10.896
 6457.00    0.92767   0.87603   10.780
 6458.00    0.92924   0.87664   10.762
 6459.00    0.92179   0.87609   10.848
 6460.00    0.90711   0.87507   11.024
 6461.00    0.88973   0.87324   11.239
 6462.00    0.87630   0.87057   11.412
 6463.00    0.87122   0.86934   11.478
 6464.00    0.87368   0.87043   11.446
 6465.00    0.87793   0.87196   11.390
 6466.00    0.87795   0.87330   11.390
 6467.00    0.87215   0.87498   11.466
 6468.00    0.86366   0.87674   11.579
 6469.00    0.85742   0.87771   11.663
 6470.00    0.85580   0.87769   11.685
 6471.00    0.85803   0.87699   11.655
 6472.00    0.86138   0.87658   11.609
 6473.00    0.86396   0.87678   11.575
 6474.00    0.86543   0.87658   11.555
 6475.00    0.86662   0.87605   11.539
 6476.00    0.86820   0.87605   11.518
 6477.00    0.87025   0.87611   11.491
 6478.00    0.87228   0.87515   11.464
 6479.00    0.87369   0.87374   11.446
 6480.00    0.87392   0.87241   11.443
 6481.00    0.87256   0.87065   11.461
 6482.00    0.86943   0.86881   11.502
 6483.00    0.86472   0.86823   11.564
 6484.00    0.85902   0.86887   11.641
 6485.00    0.85310   0.86942   11.722
 6486.00    0.84776   0.86929   11.796
 6487.00    0.84375   0.86870   11.852
 6488.00    0.84169   0.86712   11.881
 6489.00    0.84172   0.86325   11.880
 6490.00    0.84350   0.85690   11.855
 6491.00    0.84640   0.84931   11.815
 6492.00    0.85001   0.84134   11.765
 6493.00    0.85439   0.83276   11.704
 6494.00    0.85981   0.82446   11.630
 6495.00    0.86600   0.81883   11.547
 6496.00    0.87172   0.81691   11.472
 6497.00    0.87497   0.81805   11.429
 6498.00    0.87449   0.82172   11.435
 6499.00    0.87084   0.82732   11.483
 6500.00    0.86636   0.83474   11.543
 6501.00    0.86372   0.84287   11.578
 6502.00    0.86448   0.85043   11.568
 6503.00    0.86891   0.85688   11.509
 6504.00    0.87613   0.86216   11.414
 6505.00    0.88425   0.86639   11.309
 6506.00    0.89044   0.86946   11.230
 6507.00    0.89183   0.87130   11.213
 6508.00    0.88768   0.87218   11.265
 6509.00    0.87987   0.87274   11.365
 6510.00    0.87210   0.87308   11.467
 6511.00    0.86650   0.87279   11.541
 6512.00    0.86235   0.87189   11.596
 6513.00    0.85671   0.87076   11.673
 6514.00    0.84831   0.86931   11.788
 6515.00    0.83981   0.86764   11.907
 6516.00    0.83742   0.86636   11.941
 6517.00    0.84547   0.86575   11.828
 6518.00    0.86164   0.86552   11.606
 6519.00    0.87692   0.86605   11.404
 6520.00    0.88179   0.86762   11.341
 6521.00    0.87445   0.86939   11.436
 6522.00    0.86177   0.87056   11.604
 6523.00    0.85428   0.87129   11.706
 6524.00    0.85608   0.87205   11.681
 6525.00    0.86269   0.87243   11.592
 6526.00    0.86439   0.87188   11.569
 6527.00    0.85622   0.87098   11.679
 6528.00    0.84130   0.87059    0.000
 6529.00    0.82926   0.87052    0.000
 6530.00    0.82834   0.87033    0.000
 6531.00    0.84138   0.87008    0.000
 6532.00    0.86613   0.87007    0.000
 6533.00    0.89814   0.87040    0.000
 6534.00    0.93305   0.87118    0.000
 6535.00    0.96670   0.87226    0.000
 6536.00    0.99553   0.87311    0.000
 6537.00    1.01688   0.87345    0.000
 6538.00    1.02914   0.87351    0.000
 6539.00    1.03179   0.87331    0.000
 6540.00    1.02573   0.87229    0.000
 6541.00    1.01326   0.86988    0.000
 6542.00    0.99889   0.86647    0.000
 6543.00    0.99114   0.86301    0.000
 6544.00    1.00312   0.85971    0.000
 6545.00    1.05083   0.85598    0.000
 6546.00    1.14686   0.85209    0.000
 6547.00    1.29761   0.84930    0.000
 6548.00    1.50279   0.84741    0.000
 6549.00    1.75218   0.84511    0.000
 6550.00    2.02364   0.84183    0.000
 6551.00    2.28401   0.83795    0.000
 6552.00    2.49942   0.83358    0.000
 6553.00    2.64510   0.82796    0.000
 6554.00    2.70623   0.82029    0.000
 6555.00    2.67743   0.81078    0.000
 6556.00    2.56218   0.79988    0.000
 6557.00    2.37265   0.78647    0.000
 6558.00    2.12845   0.76931    0.000
 6559.00    1.85388   0.75103    0.000
 6560.00    1.57729   0.73536    0.000
 6561.00    1.32821   0.72158    0.000
 6562.00    1.12800   0.70939    0.000
 6563.00    0.98657   0.70535    0.000
 6564.00    0.90341   0.71341    0.000
 6565.00    0.87297   0.72744    0.000
 6566.00    0.88763   0.74253    0.000
 6567.00    0.93790   0.75966    0.000
 6568.00    1.01392   0.77755    0.000
 6569.00    1.10658   0.79227    0.000
 6570.00    1.20759   0.80324    0.000
 6571.00    1.30883   0.81158    0.000
 6572.00    1.40164   0.81756    0.000
 6573.00    1.47683   0.82180    0.000
 6574.00    1.52580   0.82571    0.000
 6575.00    1.54281   0.82987    0.000
 6576.00    1.52531   0.83409    0.000
 6577.00    1.47425   0.83792    0.000
 6578.00    1.39473   0.84145    0.000
 6579.00    1.29621   0.84473    0.000
 6580.00    1.19137   0.84743    0.000
 6581.00    1.09152   0.84938    0.000
 6582.00    1.00448   0.85119    0.000
 6583.00    0.93459   0.85326    0.000
 6584.00    0.88334   0.85502    0.000
 6585.00    0.84967   0.85631    0.000
 6586.00    0.83021   0.85721    0.000
 6587.00    0.82067   0.85798    0.000
 6588.00    0.81742   0.85771    0.000
 6589.00    0.81756   0.85601    0.000
 6590.00    0.81902   0.85393    0.000
 6591.00    0.82060   0.85182    0.000
 6592.00    0.82197   0.84902    0.000
 6593.00    0.82342   0.84631    0.000
 6594.00    0.82529   0.84567    0.000
 6595.00    0.82778   0.84687    0.000
 6596.00    0.83097   0.84855    0.000
 6597.00    0.83458   0.85047    0.000
 6598.00    0.83797   0.85298    0.000
 6599.00    0.84020   0.85582    0.000
 6600.00    0.84056   0.85833    0.000
 6601.00    0.83878   0.85982    0.000
 6602.00    0.83514   0.86024    0.000
 6603.00    0.83039   0.85990    0.000
 6604.00    0.82580   0.85871    0.000
 6605.00    0.82311   0.85691    0.000
 6606.00    0.82362   0.85539    0.000
 6607.00    0.82712   0.85443    0.000
 6608.00    0.83176   0.85359    0.000
 6609.00    0.83497   0.85327   11.977
 6610.00    0.83525   0.85460   11.972
 6611.00    0.83254   0.85716   12.011
 6612.00    0.82782   0.85938   12.080
 6613.00    0.82225   0.86114   12.162
 6614.00    0.81682   0.86329   12.243
 6615.00    0.81235   0.86581   12.310
 6616.00    0.80953   0.86746   12.353
 6617.00    0.80887   0.86815   12.363
 6618.00    0.81070   0.86852   12.335
 6619.00    0.81490   0.86861   12.271
 6620.00    0.82073   0.86787   12.184
 6621.00    0.82688   0.86646   12.094
 6622.00    0.83194   0.86486   12.020
 6623.00    0.83499   0.86298   11.976
 6624.00    0.83565   0.86078   11.967
 6625.00    0.83419   0.85897   11.988
 6626.00    0.83180   0.85792   12.022
 6627.00    0.83057   0.85693   12.040
 6628.00    0.83271   0.85568   12.009
 6629.00    0.83855   0.85440   11.925
 6630.00    0.84614   0.85329   11.818
 6631.00    0.85196   0.85237   11.738
 6632.00    0.85407   0.85150   11.709
 6633.00    0.85327   0.85072   11.720
 6634.00    0.85265   0.85062   11.728
 6635.00    0.85471   0.85145   11.700
 6636.00    0.85958   0.85262   11.634
 6637.00    0.86516   0.85384   11.559
 6638.00    0.86899   0.85481   11.508
 6639.00    0.86992   0.85501   11.495
 6640.00    0.86825   0.85494   11.517
 6641.00    0.86509   0.85525   11.560
 6642.00    0.86168   0.85504   11.605
 6643.00    0.85923   0.85378   11.638
 6644.00    0.85872   0.85329   11.645
 6645.00    0.86047   0.85423   11.621
 6646.00    0.86401   0.85499   11.574
 6647.00    0.86828   0.85504   11.517
 6648.00    0.87220   0.85553   11.465
 6649.00    0.87484   0.85655   11.431
 6650.00    0.87554   0.85703   11.421
 6651.00    0.87441   0.85690   11.436
 6652.00    0.87257   0.85670   11.460
 6653.00    0.87201   0.85658   11.468
 6654.00    0.87410   0.85631   11.440
 6655.00    0.87857   0.85579   11.382
 6656.00    0.88348   0.85498   11.319
 6657.00    0.88677   0.85404   11.277
 6658.00    0.88789   0.85282   11.263
 6659.00    0.88794   0.85092   11.262
 6660.00    0.88870   0.84885   11.252
 6661.00    0.89091   0.84709   11.224
 6662.00    0.89397   0.84526   11.186
 6663.00    0.89650   0.84332   11.154
 6664.00    0.89766   0.84264   11.140
 6665.00    0.89751   0.84332   11.142
 6666.00    0.89683   0.84429   11.150
 6667.00    0.89611   0.84552   11.159
 6668.00    0.89523   0.84751   11.170
 6669.00    0.89346   0.84978   11.192
 6670.00    0.89006   0.85138   11.235
 6671.00    0.88451   0.85212   11.306
 6672.00    0.87669   0.85177   11.407
 6673.00    0.86729   0.84980   11.530
 6674.00    0.85839   0.84655   11.650
 6675.00    0.85333   0.84324   11.719
 6676.00    0.85479   0.83987   11.699
 6677.00    0.86198   0.83570   11.601
 6678.00    0.87030   0.83258   11.490
 6679.00    0.87373   0.83251   11.445
 6680.00    0.86993   0.83432   11.495
 6681.00    0.86137   0.83600   11.609
 6682.00    0.85375   0.83827   11.713
 6683.00    0.85063   0.84172   11.756
 6684.00    0.85161   0.84496   11.742
 6685.00    0.85307   0.84714   11.722
 6686.00    0.85230   0.84873   11.733
 6687.00    0.84970   0.84992   11.769
 6688.00    0.84847   0.85056   11.786
 6689.00    0.85133   0.85100   11.746
 6690.00    0.85784   0.85117   11.657
 6691.00    0.86447   0.85079   11.568
 6692.00    0.86716   0.84996   11.532
 6693.00    0.86452   0.84916   11.567
 6694.00    0.85814   0.84834   11.653
 6695.00    0.85148   0.84727   11.744
 6696.00    0.84793   0.84627    0.000
 6697.00    0.85039   0.84598    0.000
 6698.00    0.86139   0.84615    0.000
 6699.00    0.88315   0.84636    0.000
 6700.00    0.91772   0.84671    0.000
 6701.00    0.96642   0.84724    0.000
 6702.00    1.02793   0.84762    0.000
 6703.00    1.09738   0.84763    0.000
 6704.00    1.16681   0.84757    0.000
 6705.00    1.22844   0.84771    0.000
 6706.00    1.27691   0.84771    0.000
 6707.00    1.30921   0.84747    0.000
 6708.00    1.32348   0.84713    0.000
 6709.00    1.31775   0.84643    0.000
 6710.00    1.28987   0.84504    0.000
 6711.00    1.24010   0.84335    0.000
 6712.00    1.17478   0.84128    0.000
 6713.00    1.10688   0.83836    0.000
 6714.00    1.05236   0.83535    0.000
 6715.00    1.02189   0.83306    0.000
 6716.00    1.01888   0.83110    0.000
 6717.00    1.04026   0.82927    0.000
 6718.00    1.07927   0.82878    0.000
 6719.00    1.12647   0.83005    0.000
 6720.00    1.17050   0.83168    0.000
 6721.00    1.20195   0.83305    0.000
 6722.00    1.21552   0.83480    0.000
 6723.00    1.20999   0.83711    0.000
 6724.00    1.18674   0.83903    0.000
 6725.00    1.14861   0.84009    0.000
 6726.00    1.09972   0.84095    0.000
 6727.00    1.04512   0.84208    0.000
 6728.00    0.99026   0.84311    0.000
 6729.00    0.94090   0.84366    0.000
 6730.00    0.90198   0.84412    0.000
 6731.00    0.87548   0.84453    0.000
 6732.00    0.86001   0.84470    0.000
 6733.00    0.85178   0.84448    0.000
 6734.00    0.84741   0.84401    0.000
 6735.00    0.84485   0.84332    0.000
 6736.00    0.84320   0.84257    0.000
 6737.00    0.84201   0.84164    0.000
 6738.00    0.84093   0.84033    0.000
 6739.00    0.83971   0.83893    0.000
 6740.00    0.83800   0.83808    0.000
 6741.00    0.83528   0.83752    0.000
 6742.00    0.83087   0.83646    0.000
 6743.00    0.82459   0.83540    0.000
 6744.00    0.81749   0.83507    0.000
 6745.00    0.81183   0.83470    0.000
 6746.00    0.80992   0.83373    0.000
 6747.00    0.81228   0.83299    0.000
 6748.00    0.81735   0.83257    0.000
 6749.00    0.82226   0.83190    0.000
 6750.00    0.82480   0.83153    0.000
 6751.00    0.82386   0.83219    0.000
 6752.00    0.81941   0.83310    0.000
 6753.00    0.81227   0.83413   12.311
 6754.00    0.80400   0.83625   12.438
 6755.00    0.79672   0.83884   12.551
 6756.00    0.79201   0.84116   12.626
 6757.00    0.79025   0.84334   12.654
 6758.00    0.79065   0.84533   12.648
 6759.00    0.79193   0.84672   12.627
 6760.00    0.79291   0.84748   12.612
 6761.00    0.79254   0.84756   12.618
 6762.00    0.79029   0.84675   12.654
 6763.00    0.78649   0.84550   12.715
 6764.00    0.78240   0.84407   12.781
 6765.00    0.77970   0.84246   12.823
 6766.00    0.77947   0.84054   12.823
 6767.00    0.78192   0.83873   12.789
 6768.00    0.78651   0.83788   12.714
 6769.00    0.79224   0.83798   12.622
 6770.00    0.79771   0.83832   12.536
 6771.00    0.80133   0.83909   12.479
 6772.00    0.80229   0.84094   12.464
 6773.00    0.80095   0.84326   12.485
 6774.00    0.79889   0.84539   12.517
 6775.00    0.79810   0.84727   12.530
 6776.00    0.80060   0.84882   12.491
 6777.00    0.80821   0.84959   12.373
 6778.00    0.82165   0.84947   12.171
 6779.00    0.83932   0.84845   11.914
 6780.00    0.85729   0.84653   11.665
 6781.00    0.87090   0.84411   11.482
 6782.00    0.87751   0.84140   11.396
 6783.00    0.87695   0.83867   11.403
 6784.00    0.87104   0.83656   11.481
 6785.00    0.86230   0.83537   11.597
 6786.00    0.85359   0.83475   11.715
 6787.00    0.84778   0.83487   11.795
 6788.00    0.84640   0.83564   11.815
 6789.00    0.84907   0.83631   11.778
 6790.00    0.85374   0.83680   11.713
 6791.00    0.85806   0.83752   11.654
 6792.00    0.86036   0.83805   11.623
 6793.00    0.85966   0.83807   11.633
 6794.00    0.85599   0.83824   11.682
 6795.00    0.85065   0.83877   11.756
 6796.00    0.84617   0.83925   11.818
 6797.00    0.84483   0.83986   11.837
 6798.00    0.84654   0.84063   11.813
 6799.00    0.84865   0.84138   11.783
 6800.00    0.84746   0.84204   11.800
 6801.00    0.84171   0.84265   11.881
 6802.00    0.83332   0.84302   12.000
 6803.00    0.82632   0.84296   12.102
 6804.00    0.82328   0.84277   12.146
 6805.00    0.82406   0.84273   12.135
 6806.00    0.82629   0.84234   12.102
 6807.00    0.82801   0.84174   12.077
 6808.00    0.82908   0.84163   12.062
 6809.00    0.83106   0.84154   12.033
 6810.00    0.83568   0.84106   11.966
 6811.00    0.84369   0.84080   11.853
 6812.00    0.85475   0.84092   11.699
 6813.00    0.86756   0.84103   11.527
 6814.00    0.88002   0.84091   11.363
 6815.00    0.88925   0.84087   11.245
 6816.00    0.89213   0.84130   11.209
 6817.00    0.88618   0.84193   11.284
 6818.00    0.86981   0.84242   11.497
 6819.00    0.84279   0.84283   11.865
 6820.00    0.80768   0.84337   12.381
 6821.00    0.77027   0.84411   12.823
 6822.00    0.73843   0.84483   12.823
 6823.00    0.71744   0.84515   12.823
 6824.00    0.70781   0.84504   12.823
 6825.00    0.70581   0.84482   12.823
 6826.00    0.70669   0.84459   12.823
 6827.00    0.70704   0.84402   12.823
 6828.00    0.70484   0.84314   12.823
 6829.00    0.69950   0.84266   12.823
 6830.00    0.69189   0.84278   12.823
 6831.00    0.68425   0.84297   12.823
 6832.00    0.67912   0.84279   12.823
 6833.00    0.67776   0.84258   12.823
 6834.00    0.67981   0.84250   12.823
 6835.00    0.68401   0.84183   12.823
 6836.00    0.68944   0.84029   12.823
 6837.00    0.69594   0.83832   12.823
 6838.00    0.70382   0.83622   12.823
 6839.00    0.71299   0.83407   12.823
 6840.00    0.72265   0.83227   12.823
 6841.00    0.73137   0.83108   12.823
 6842.00    0.73769   0.83074   12.823
 6843.00    0.74046   0.83138   12.823
 6844.00    0.73888   0.83283   12.823
 6845.00    0.73325   0.83456   12.823
 6846.00    0.72551   0.83614   12.823
 6847.00    0.71913   0.83757   12.823
 6848.00    0.71730   0.83877   12.823
 6849.00    0.72045   0.83931   12.823
 6850.00    0.72603   0.83909   12.823
 6851.00    0.73023   0.83826   12.823
 6852.00    0.73117   0.83722   12.823
 6853.00    0.72956   0.83602   12.823
 6854.00    0.72791   0.83418   12.823
 6855.00    0.72822   0.83229   12.823
 6856.00    0.73128   0.83126   12.823
 6857.00    0.73676   0.83043   12.823
 6858.00    0.74375   0.82958   12.823
 6859.00    0.75110   0.82960   12.823
 6860.00    0.75749   0.83018   12.823
 6861.00    0.76250   0.83048   12.823
 6862.00    0.76739   0.83113   12.823
 6863.00    0.77492   0.83240   12.823
 6864.00    0.78723   0.83325   12.703
 6865.00    0.80357   0.83344   12.444
 6866.00    0.82013   0.83359   12.193
 6867.00    0.83239   0.83347   12.014
 6868.00    0.83885   0.83274   11.921
 6869.00    0.84163   0.83239   11.882
 6870.00    0.84496   0.83259   11.835
 6871.00    0.85174   0.83243   11.741
 6872.00    0.86255   0.83239   11.593
 6873.00    0.87605   0.83341   11.415
 6874.00    0.89013   0.83481   11.234
 6875.00    0.90253   0.83573   11.080
 6876.00    0.91097   0.83677   10.977
 6877.00    0.91461   0.83801   10.934
 6878.00    0.91487   0.83862   10.931
 6879.00    0.91520   0.83843   10.927
 6880.00    0.91863   0.83815   10.886
 6881.00    0.92549   0.83773   10.805
 6882.00    0.93338   0.83687   10.714
 6883.00    0.93901   0.83645   10.650
 6884.00    0.94067   0.83705   10.631
 6885.00    0.93858   0.83800   10.654
 6886.00    0.93417   0.83883   10.705
 6887.00    0.92863   0.84046   10.768
 6888.00    0.92264   0.84255   10.839
 6889.00    0.91638   0.84400   10.913
 6890.00    0.90983   0.84511   10.991
 6891.00    0.90281   0.84629   11.077
 6892.00    0.89506   0.84681   11.172
 6893.00    0.88658   0.84678   11.279
 6894.00    0.87783   0.84682   11.392
 6895.00    0.86966   0.84668   11.499
 6896.00    0.86313   0.84622   11.586
 6897.00    0.85927   0.84602   11.638
 6898.00    0.85904   0.84629   11.641
 6899.00    0.86266   0.84648   11.592
 6900.00    0.86884   0.84652   11.510
 6901.00    0.87474   0.84708   11.432
 6902.00    0.87724   0.84811   11.399
 6903.00    0.87497   0.84892   11.429
 6904.00    0.86873   0.84959   11.511
 6905.00    0.86078   0.85039   11.617
 6906.00    0.85320   0.85116   11.721
 6907.00    0.84738   0.85150   11.801
 6908.00    0.84399   0.85135   11.848
 6909.00    0.84275   0.85086   11.866
 6910.00    0.84233   0.84978   11.872
 6911.00    0.84063   0.84828   11.896
 6912.00    0.83626   0.84694   11.958
 6913.00    0.82959   0.84544   12.054
 6914.00    0.82259   0.84395   12.157
 6915.00    0.81734   0.84353   12.235
 6916.00    0.81460   0.84359   12.276
 6917.00    0.81369   0.84357   12.290
 6918.00    0.81336   0.84422   12.295
 6919.00    0.81303   0.84510   12.300
 6920.00    0.81299   0.84547   12.300
 6921.00    0.81385   0.84557   12.287
 6922.00    0.81556   0.84560   12.262
 6923.00    0.81720   0.84534   12.237
 6924.00    0.81736   0.84478   12.235
 6925.00    0.81562   0.84449   12.261
 6926.00    0.81305   0.84459   12.299
 6927.00    0.81183   0.84514   12.318
 6928.00    0.81335   0.84580   12.295
 6929.00    0.81720   0.84633   12.237
 6930.00    0.82133   0.84698   12.175
 6931.00    0.82376   0.84771   12.139
 6932.00    0.82396   0.84817   12.136
 6933.00    0.82289   0.84827   12.152
 6934.00    0.82195   0.84877   12.166
 6935.00    0.82187   0.84955   12.167
 6936.00    0.82253   0.84995   12.158
 6937.00    0.82317   0.85027   12.148
 6938.00    0.82283   0.85062   12.153
 6939.00    0.82041   0.85081   12.189
 6940.00    0.81501   0.85058   12.270
 6941.00    0.80687   0.84993   12.394
 6942.00    0.79762   0.84916   12.537
 6943.00    0.78991   0.84845   12.660
 6944.00    0.78577   0.84762   12.726
 6945.00    0.78583   0.84689   12.725
 6946.00    0.78944   0.84700   12.667
 6947.00    0.79505   0.84734   12.578
 6948.00    0.80058   0.84743   12.491
 6949.00    0.80355   0.84778   12.445
 6950.00    0.80231   0.84805   12.464
 6951.00    0.79735   0.84785   12.542
 6952.00    0.79132   0.84796   12.637
 6953.00    0.78751   0.84839   12.698
 6954.00    0.78753   0.84866   12.698
 6955.00    0.79094   0.84930   12.643
 6956.00    0.79591   0.85055   12.564
 6957.00    0.80076   0.85179   12.488
 6958.00    0.80428   0.85279   12.433
 6959.00    0.80577   0.85387   -2.000
 6960.00    0.00000   0.85489   -2.000
 6961.00    0.00000   0.85566   -2.000
 6962.00    0.00000   0.85615   -2.000
 6963.00    0.00000   0.85657   -2.000
 6964.00    0.00000   0.85704   -2.000
 6965.00    0.00000   0.85727   -2.000
 6966.00    0.00000   0.85736   -2.000
 6967.00    0.00000   0.85750   -2.000
 6968.00    0.00000   0.85757   -2.000
 6969.00    0.00000   0.85727   -2.000
 6970.00    0.00000   0.85644   -2.000
 6971.00    0.00000   0.85492   -2.000
 6972.00    0.00000   0.85306   -2.000
 6973.00    0.00000   0.85083   -2.000
 6974.00    0.00000   0.84763   -2.000
 6975.00    0.00000   0.84394   -2.000
 6976.00    0.00000   0.84105   -2.000
 6977.00    0.00000   0.83888   -2.000
 6978.00    0.00000   0.83698   -2.000
 6979.00    0.00000   0.83674   -2.000
 6980.00    0.00000   0.83885   -2.000
 6981.00    0.00000   0.84159   -2.000
 6982.00    0.00000   0.84448   -2.000
 6983.00    0.00000   0.84797   -2.000
 6984.00    0.00000   0.85116   -2.000
 6985.00    0.00000   0.85325   -2.000
 6986.00    0.00000   0.85466   -2.000
 6987.00    0.00000   0.85557   -2.000
 6988.00    0.00000   0.85583   -2.000
 6989.00    0.00000   0.85570   -2.000
 6990.00    0.00000   0.85562   -2.000
 6991.00    0.00000   0.85570   -2.000
 6992.00    0.00000   0.85578   -2.000
 6993.00    0.00000   0.85570   -2.000
 6994.00    0.00000   0.85539   -2.000
 6995.00    0.00000   0.85502   -2.000
 6996.00    0.00000   0.85437   -2.000
 6997.00    0.00000   0.85343   -2.000
 6998.00    0.00000   0.85253   -2.000
 6999.00    0.00000   0.85143   -2.000
 7000.00    0.00000   0.85021   -2.000
 7001.00    0.00000   0.84952   -2.000
 7002.00    0.00000   0.84929   -2.000
 7003.00    0.00000   0.84893   -2.000
 7004.00    0.00000   0.84848   -2.000
 7005.00    0.00000   0.84871   -2.000
 7006.00    0.00000   0.84931   -2.000
 7007.00    0.00000   0.84964   -2.000
 7008.00    0.00000   0.84995   -2.000
 7009.00    0.00000   0.85039   -2.000
 7010.00    0.00000   0.85047   -2.000
 7011.00    0.00000   0.84983   -2.000
 7012.00    0.00000   0.84875   -2.000
 7013.00    0.00000   0.84765   -2.000
 7014.00    0.00000   0.84673   -2.000
 7015.00    0.00000   0.84567   -2.000
 7016.00    0.00000   0.84462   -2.000
 7017.00    0.00000   0.84494   -2.000
 7018.00    0.00000   0.84637   -2.000
 7019.00    0.00000   0.84731   -2.000
 7020.00    0.00000   0.84804   -2.000
 7021.00    0.00000   0.84915   -2.000
 7022.00    0.00000   0.84987   -2.000
 7023.00    0.00000   0.84979   -2.000
 7024.00    0.00000   0.84974   -2.000
 7025.00    0.00000   0.85032   -2.000
 7026.00    0.00000   0.85117   -2.000
 7027.00    0.00000   0.85196   -2.000
 7028.00    0.00000   0.85309   -2.000
 7029.00    0.00000   0.85454   -2.000
 7030.00    0.00000   0.85580   -2.000
 7031.00    0.00000   0.85665   -2.000
 7032.00    0.00000   0.85736   -2.000
 7033.00    0.00000   0.85797   -2.000
 7034.00    0.00000   0.85808   -2.000
 7035.00    0.00000   0.85814   -2.000
 7036.00    0.00000   0.85906   -2.000
 7037.00    0.00000   0.86019   -2.000
 7038.00    0.00000   0.86110   -2.000
 7039.00    0.00000   0.86325   -2.000
 7040.00    0.00000   0.86658   -2.000
 7041.00    0.00000   0.86937   -2.000
 7042.00    0.00000   0.87189   -2.000
 7043.00    0.00000   0.87462   -2.000
 7044.00    0.00000   0.87659   -2.000
 7045.00    0.00000   0.87744   -2.000
 7046.00    0.00000   0.87787   -2.000
 7047.00    0.00000   0.87771   -2.000
 7048.00    0.00000   0.87636   -2.000
 7049.00    0.00000   0.87391   -2.000
 7050.00    0.00000   0.87078   -2.000
 7051.00    0.00000   0.86718   -2.000
 7052.00    0.00000   0.86289   -2.000
 7053.00    0.00000   0.85861   -2.000
 7054.00    0.00000   0.85507   -2.000
 7055.00    0.00000   0.85190   -2.000
 7056.00    0.00000   0.84924   -2.000
 7057.00    0.00000   0.84735   -2.000
 7058.00    0.00000   0.84590   -2.000
 7059.00    0.00000   0.84439   -2.000
 7060.00    0.00000   0.84308   -2.000
 7061.00    0.00000   0.84230   -2.000
 7062.00    0.00000   0.84145   -2.000
 7063.00    0.00000   0.84038   -2.000
 7064.00    0.00000   0.83981   -2.000
 7065.00    0.00000   0.83928   -2.000
 7066.00    0.00000   0.83874   -2.000
 7067.00    0.00000   0.83902   -2.000
 7068.00    0.00000   0.83967   -2.000
 7069.00    0.00000   0.84084   -2.000
 7070.00    0.00000   0.84309   -2.000
 7071.00    0.00000   0.84554   -2.000
 7072.00    0.00000   0.84766   -2.000
 7073.00    0.00000   0.84994   -2.000
 7074.00    0.00000   0.85202   -2.000
 7075.00    0.00000   0.85323   -2.000
 7076.00    0.00000   0.85381   -2.000
 7077.00    0.00000   0.85390   -2.000
 7078.00    0.00000   0.85322   -2.000
 7079.00    0.00000   0.85161   -2.000
 7080.00    0.00000   0.84913   -2.000
 7081.00    0.00000   0.84578   -2.000
 7082.00    0.00000   0.84182   -2.000
 7083.00    0.00000   0.83733   -2.000
 7084.00    0.00000   0.83213   -2.000
 7085.00    0.00000   0.82734   -2.000
 7086.00    0.00000   0.82350   -2.000
 7087.00    0.00000   0.81959   -2.000
 7088.00    0.00000   0.81627   -2.000
 7089.00    0.00000   0.81425   -2.000
 7090.00    0.00000   0.81259   -2.000
 7091.00    0.00000   0.81153   -2.000
 7092.00    0.00000   0.81146   -2.000
 7093.00    0.00000   0.81163   -2.000
 7094.00    0.00000   0.81228   -2.000
 7095.00    0.00000   0.81351   -2.000
 7096.00    0.00000   0.81516   -2.000
 7097.00    0.00000   0.81686   -2.000
 7098.00    0.00000   0.81864   -2.000
 7099.00    0.00000   0.82091   -2.000
 7100.00    0.00000   0.82260   -2.000
 7101.00    0.00000   0.82403   -2.000
 7102.00    0.00000   0.82536   -2.000
 7103.00    0.00000   0.82614   -2.000
 7104.00    0.00000   0.82675   -2.000
 7105.00    0.00000   0.82740   -2.000
 7106.00    0.00000   0.82744   -2.000
 7107.00    0.00000   0.82702   -2.000
 7108.00    0.00000   0.82684   -2.000
 7109.00    0.00000   0.82678   -2.000
 7110.00    0.00000   0.82651   -2.000
 7111.00    0.00000   0.82635   -2.000
 7112.00    0.00000   0.82686   -2.000
 7113.00    0.00000   0.82795   -2.000
 7114.00    0.00000   0.82897   -2.000
 7115.00    0.00000   0.82991   -2.000
 7116.00    0.00000   0.83113   -2.000
 7117.00    0.00000   0.83205   -2.000
 7118.00    0.00000   0.83228   -2.000
 7119.00    0.00000   0.83206   -2.000
 7120.00    0.00000   0.83168   -2.000
 7121.00    0.00000   0.83076   -2.000
 7122.00    0.00000   0.82884   -2.000
 7123.00    0.00000   0.82698   -2.000
 7124.00    0.00000   0.82515   -2.000
 7125.00    0.00000   0.82243   -2.000
 7126.00    0.00000   0.81949   -2.000
 7127.00    0.00000   0.81709   -2.000
 7128.00    0.00000   0.81510   -2.000
 7129.00    0.00000   0.81342   -2.000
 7130.00    0.00000   0.81226   -2.000
 7131.00    0.00000   0.81215   -2.000
 7132.00    0.00000   0.81304   -2.000
 7133.00    0.00000   0.81429   -2.000
 7134.00    0.00000   0.81604   -2.000
 7135.00    0.00000   0.81787   -2.000
 7136.00    0.00000   0.81939   -2.000
 7137.00    0.00000   0.82112   -2.000
 7138.00    0.00000   0.82232   -2.000
 7139.00    0.00000   0.82281   -2.000
 7140.00    0.00000   0.82355   -2.000
 7141.00    0.00000   0.82410   -2.000
 7142.00    0.00000   0.82385   -2.000
 7143.00    0.00000   0.82356   -2.000
 7144.00    0.00000   0.82298   -2.000
 7145.00    0.00000   0.82182   -2.000
 7146.00    0.00000   0.82125   -2.000
 7147.00    0.00000   0.82071   -2.000
 7148.00    0.00000   0.81989   -2.000
 7149.00    0.00000   0.82072   -2.000
 7150.00    0.00000   0.82256   -2.000
 7151.00    0.00000   0.82405   -2.000
 7152.00    0.00000   0.82629   -2.000
 7153.00    0.00000   0.82928   -2.000
 7154.00    0.00000   0.83155   -2.000
 7155.00    0.00000   0.83299   -2.000
 7156.00    0.00000   0.83439   -2.000
 7157.00    0.00000   0.83527   -2.000
 7158.00    0.00000   0.83495   -2.000
 7159.00    0.00000   0.83406   -2.000
 7160.00    0.00000   0.83277   -2.000
 7161.00    0.00000   0.83105   -2.000
 7162.00    0.00000   0.82951   -2.000
 7163.00    0.00000   0.82817   -2.000
 7164.00    0.00000   0.82699   -2.000
 7165.00    0.00000   0.82666   -2.000
 7166.00    0.00000   0.82757   -2.000
 7167.00    0.00000   0.82910   -2.000
 7168.00    0.00000   0.83092   -2.000
 7169.00    0.00000   0.83305   -2.000
 7170.00    0.00000   0.83519   -2.000
 7171.00    0.00000   0.83701   -2.000
 7172.00    0.00000   0.83827   -2.000
 7173.00    0.00000   0.83879   -2.000
 7174.00    0.00000   0.83880   -2.000
 7175.00    0.00000   0.83825   -2.000
 7176.00    0.00000   0.83692   -2.000
 7177.00    0.00000   0.83559   -2.000
 7178.00    0.00000   0.83446   -2.000
 7179.00    0.00000   0.83308   -2.000
 7180.00    0.00000   0.83183   -2.000
 7181.00    0.00000   0.83088   -2.000
 7182.00    0.00000   0.83025   -2.000
 7183.00    0.00000   0.82993   -2.000
 7184.00    0.00000   0.82898   -2.000
 7185.00    0.00000   0.82788   -2.000
 7186.00    0.00000   0.82704   -2.000
 7187.00    0.00000   0.82569   -2.000
 7188.00    0.00000   0.82478   -2.000
 7189.00    0.00000   0.82460   -2.000
 7190.00    0.00000   0.82474   -2.000
 7191.00    0.00000   0.82580   -2.000
 7192.00    0.00000   0.82712   -2.000
 7193.00    0.00000   0.82828   -2.000
 7194.00    0.00000   0.82966   -2.000
 7195.00    0.00000   0.83115   -2.000
 7196.00    0.00000   0.83200   -2.000
 7197.00    0.00000   0.83230   -2.000
 7198.00    0.00000   0.83275   -2.000
 7199.00    0.00000   0.83298   -2.000
 7200.00    0.00000   0.83283   -2.000
 7201.00    0.00000   0.83238   -2.000
 7202.00    0.00000   0.83166   -2.000
 7203.00    0.00000   0.83090   -2.000
 7204.00    0.00000   0.82984   -2.000
 7205.00    0.00000   0.82883   -2.000
 7206.00    0.00000   0.82778   -2.000
 7207.00    0.00000   0.82670   -2.000
 7208.00    0.00000   0.82691   -2.000
 7209.00    0.00000   0.82763   -2.000
 7210.00    0.00000   0.82848   -2.000
 7211.00    0.00000   0.83043   -2.000
 7212.00    0.00000   0.83238   -2.000
 7213.00    0.00000   0.83394   -2.000
 7214.00    0.00000   0.83595   -2.000
 7215.00    0.00000   0.83791   -2.000
 7216.00    0.00000   0.83925   -2.000
 7217.00    0.00000   0.84073   -2.000
 7218.00    0.00000   0.84238   -2.000
