###################################################################
## OUTPUT of StarlightChains_v04.for    [Cid@UFSC - 01/Apr/2007] ##
###################################################################

## Some input info
2009gf.txt                               [arq_obs]
Base.CB07.vall.4m                        [arq_base]
Masks.EmLines.NEW.gm                     [arq_masks]
StCv04.C11.config                        [arq_config]
   66                                    [N_base]
    0                                    [N_YAV_components = # of components with extra extinction!]
    0                                    [i_FitPowerLaw (1/0 = Yes/No)]
-9.99                                    [alpha_PowerLaw]
CCM                                      [red_law_option]
 1.458241                                [q_norm = A(l_norm)/A(V)]

## (Re)Sampling Parameters
 3741.00                                 [l_ini (A)]
 7218.00                                 [l_fin (A)]
    1.00                                 [dl    (A)]     (OBS: dl_cushion =    50.00 A)

## Normalization info
 4020.00                                 [l_norm (A) - for base]
 4010.00                                 [llow_norm (A) - window for f_obs]
 4060.00                                 [lupp_norm (A) - window for f_obs]
1.214434E-15                             [fobs_norm (in input units)]

## S/N
 3691.00                                 [llow_SN (A) - window for S/N]
 7268.00                                 [lupp_SN (A) - window for S/N]
   8.773                                 [S/N in S/N window]
  10.337                                 [S/N in norm. window]
  21.662                                 [S/N_err in S/N window]
  25.522                                 [S/N_err in norm. window]
  1.0000                                 [fscale_chi2]

## etc...
    -2007358                             [idum_orig]
  2393                                   [NOl_eff]
  2393                                   [Nl_eff]
     0    NSIGMA                         [Ntot_cliped & clip_method]
  1917720                                [Nglobal_steps]
   7                                     [N_chains]
  30                                     [NEX0s_base = N_base in EX0s-fits]
 0   0   1       10   2.0   4.381E+01    [Clip-Bug, RC-Crash & Burn-In warning-flags, n_censored_weights, wei_nsig_threshold & wei_limit]
    16     16.223     15.714      0.509  [idt_all, wdt_TotTime, wdt_UsrTime & wdt_SysTime (sec)]

## Synthesis Results - Best model ##

 2.07860E-01                             [chi2/Nl_eff]
     1.51515                             [adev (%)]

   106.79491                             [sum-of-x (%)]
 2.27014E-15                             [Flux_tot (units of input spectrum!)]
 1.12283E-11                             [Mini_tot (???)]
 6.30396E-12                             [Mcor_tot (???)]

  84.20                                  [v0_min  (km/s)]
 187.28                                  [vd_min  (km/s)]
 0.4168                                  [AV_min  (mag)]
 0.0000                                  [YAV_min (mag)]

# j     x_j(%)      Mini_j(%)     Mcor_j(%)     age_j(yr)     Z_j      (L/M)_j    YAV?  Mstars   component_j        a/Fe...       SSP_chi2r SSP_adev(%)   SSP_AV   SSP_x(%)
  1      0.0000     0.0000E+00    0.0000E+00    1.000000E+06  0.00400  1.094E-02    0   1.0000   age020_m42            0.0000     2.0233E+00     5.3187   2.6215    92.2509
  2      0.0000     0.0000E+00    0.0000E+00    3.160000E+06  0.00400  4.007E-02    0   0.9999   age045_m42            0.0000     1.1302E+00     3.5587   1.9284    97.0430
  3      0.0000     0.0000E+00    0.0000E+00    5.010000E+06  0.00400  2.539E-02    0   0.9488   age055_m42            0.0000     1.4428E+00     4.2456   2.2336    95.3402
  4      0.0556     4.0189E-04    6.5999E-04    6.610000E+06  0.00400  2.620E-02    0   0.9220   age061_m42            0.0000     1.0303E+00     3.3125   1.8544    97.2600
  5      0.0000     0.0000E+00    0.0000E+00    1.000000E+07  0.00400  1.322E-02    0   0.8862   age070_m42            0.0000     8.9649E-01     3.0611   1.5580    99.8941
  6      0.0000     0.0000E+00    0.0000E+00    1.445000E+07  0.00400  7.883E-03    0   0.8571   age078_m42            0.0000     1.0963E+00     3.4756   1.8796    97.6524
  7      0.0000     0.0000E+00    0.0000E+00    2.512000E+07  0.00400  5.251E-03    0   0.8174   age090_m42            0.0000     8.9669E-01     3.0479   1.4287   100.3876
  8      0.2989     1.5507E-02    2.1685E-02    4.000000E+07  0.00400  3.649E-03    0   0.7851   age104_m42            0.0000     7.4351E-01     2.7605   1.2063   100.9935
  9      0.0000     0.0000E+00    0.0000E+00    5.500000E+07  0.00400  3.098E-03    0   0.7629   age110_m42            0.0000     6.9904E-01     2.5340   1.3725   100.4412
 10      0.2537     2.1557E-02    2.7672E-02    1.015200E+08  0.00400  2.228E-03    0   0.7207   age116_m42            0.0000     7.2292E-01     2.6148   1.4019   100.2326
 11      0.0000     0.0000E+00    0.0000E+00    2.861200E+08  0.00400  1.093E-03    0   0.6648   age125_m42            0.0000     6.4349E-01     2.7053   0.8353   103.1448
 12      0.0000     0.0000E+00    0.0000E+00    5.088000E+08  0.00400  6.597E-04    0   0.6365   age130_m42            0.0000     6.1816E-01     2.8236   0.8367   103.4918
 13      0.0044     3.8983E-03    4.0258E-03    1.434000E+09  0.00400  2.132E-04    0   0.5798   age139_m42            0.0000     4.2942E-01     2.4188  -0.1291   105.2327
 14      0.0000     0.0000E+00    0.0000E+00    4.250000E+09  0.00400  5.895E-05    0   0.5377   age158_m42            0.0000     9.3465E-01     3.2295  -0.5769   101.6911
 15      0.0000     0.0000E+00    0.0000E+00    7.500000E+09  0.00400  3.510E-05    0   0.5212   age171_m42            0.0000     1.3563E+00     3.8261  -0.7604   100.8901
 16      0.6426     6.0674E+00    5.4403E+00    1.300000E+10  0.00400  2.005E-05    0   0.5034   age193_m42            0.0000     1.8437E+00     4.4016  -0.9218   100.2653
 17      0.0000     0.0000E+00    0.0000E+00    1.800000E+10  0.00400  1.525E-05    0   0.4967   age213_m42            0.0000     1.7844E+00     4.3377  -0.9469    99.8946
 18      0.0000     0.0000E+00    0.0000E+00    1.000000E+06  0.00800  1.238E-02    0   1.0000   age020_m52            0.0000     2.0269E+00     5.3345   2.6173    92.4507
 19      0.0000     0.0000E+00    0.0000E+00    3.160000E+06  0.00800  3.074E-02    0   0.9966   age045_m52            0.0000     1.9624E+00     5.2390   2.5433    93.1504
 20      0.0000     0.0000E+00    0.0000E+00    5.010000E+06  0.00800  2.668E-02    0   0.9443   age055_m52            0.0000     1.5259E+00     4.4515   2.3104    94.7360
 21      0.0043     3.8201E-05    6.2443E-05    6.610000E+06  0.00800  2.136E-02    0   0.9177   age061_m52            0.0000     6.6308E-01     2.9467   1.0493   101.4934
 22      0.0000     0.0000E+00    0.0000E+00    1.000000E+07  0.00800  1.215E-02    0   0.8827   age070_m52            0.0000     1.0226E+00     3.3626   1.7311    99.9725
 23      2.3474     5.0980E-02    7.7655E-02    1.445000E+07  0.00800  8.717E-03    0   0.8552   age078_m52            0.0000     9.9360E-01     3.2695   1.8471    98.8971
 24      1.9834     6.7148E-02    9.7618E-02    2.512000E+07  0.00800  5.592E-03    0   0.8162   age090_m52            0.0000     8.3666E-01     2.9424   1.4950   101.4527
 25      4.9304     2.3958E-01    3.3460E-01    4.000000E+07  0.00800  3.896E-03    0   0.7841   age104_m52            0.0000     6.9697E-01     2.6229   1.4169   101.8156
 26      0.2722     2.3994E-02    3.0882E-02    1.015200E+08  0.00800  2.148E-03    0   0.7226   age116_m52            0.0000     5.9590E-01     2.4043   1.3657   101.2174
 27      0.0518     9.8784E-03    1.1759E-02    2.861200E+08  0.00800  9.925E-04    0   0.6683   age125_m52            0.0000     5.3200E-01     2.6233   0.9030   104.3729
 28      8.6677     5.2243E+00    5.7115E+00    9.047900E+08  0.00800  3.141E-04    0   0.6138   age135_m52            0.0000     6.3627E-01     2.9529   0.1250   107.7451
 29      0.0000     0.0000E+00    0.0000E+00    1.434000E+09  0.00800  1.719E-04    0   0.5853   age139_m52            0.0000     7.3752E-01     3.0363  -0.4652   106.1260
 30      0.0000     0.0000E+00    0.0000E+00    2.500000E+09  0.00800  7.872E-05    0   0.5600   age150_m52            0.0000     1.3887E+00     4.0061  -0.7302   103.2444
 31      1.3286     5.8007E+00    5.6062E+00    4.250000E+09  0.00800  4.336E-05    0   0.5426   age158_m52            0.0000     1.5526E+00     4.1147  -0.7477   102.3949
 32      0.0000     0.0000E+00    0.0000E+00    6.250000E+09  0.00800  3.159E-05    0   0.5319   age166_m52            0.0000     2.2580E+00     4.9684  -0.9416   102.0845
 33      3.1547     4.3882E+01    3.9651E+01    1.300000E+10  0.00800  1.361E-05    0   0.5073   age193_m52            0.0000     6.9593E+00     8.7107  -1.0000    86.3099
 34      0.0000     0.0000E+00    0.0000E+00    1.800000E+10  0.00800  9.886E-06    0   0.4990   age213_m52            0.0000     9.6335E+00    10.2813  -1.0000    82.1179
 35      0.7377     9.0457E-03    1.6112E-02    1.000000E+06  0.02000  1.544E-02    0   1.0000   age020_m62            0.0000     2.0575E+00     5.3875   2.6127    92.6987
 36      6.2444     3.1424E-02    5.5176E-02    3.160000E+06  0.02000  3.762E-02    0   0.9858   age045_m62            0.0000     2.0403E+00     5.3861   2.5515    93.5308
 37      0.0121     6.9680E-05    1.1594E-04    5.010000E+06  0.02000  3.296E-02    0   0.9342   age055_m62            0.0000     1.3167E+00     3.9730   2.1989    96.2792
 38     13.0469     2.1404E-01    3.3781E-01    8.710000E+06  0.02000  1.154E-02    0   0.8861   age067_m62            0.0000     2.6128E+00     6.2774   1.1450   104.3778
 39      3.3681     8.3209E-02    1.2556E-01    1.445000E+07  0.02000  7.663E-03    0   0.8472   age078_m62            0.0000     1.1884E+00     3.8948   1.3689   102.6444
 40      0.0000     0.0000E+00    0.0000E+00    2.512000E+07  0.02000  4.532E-03    0   0.8099   age090_m62            0.0000     1.3374E+00     4.0900   1.3638   102.2239
 41      0.0000     0.0000E+00    0.0000E+00    5.500000E+07  0.02000  2.733E-03    0   0.7595   age110_m62            0.0000     7.2938E-01     2.6733   1.3945   101.3274
 42      0.0000     0.0000E+00    0.0000E+00    1.609000E+08  0.02000  1.369E-03    0   0.6985   age120_m62            0.0000     6.2079E-01     2.5248   1.2556   103.0786
 43      0.0000     0.0000E+00    0.0000E+00    2.861200E+08  0.02000  9.013E-04    0   0.6714   age125_m62            0.0000     6.4843E-01     2.8166   1.0177   105.4094
 44      0.8018     3.0191E-01    3.4679E-01    5.088000E+08  0.02000  5.028E-04    0   0.6449   age130_m62            0.0000     7.5477E-01     3.2362   0.6589   107.3624
 45     10.8966     8.4963E+00    9.3508E+00    9.047900E+08  0.02000  2.428E-04    0   0.6179   age135_m62            0.0000     8.0818E-01     3.2468   0.0718   106.8805
 46      0.7371     1.1048E+00    1.1626E+00    1.434000E+09  0.02000  1.263E-04    0   0.5908   age139_m62            0.0000     1.1813E+00     3.6659  -0.3774   105.6147
 47      0.0000     0.0000E+00    0.0000E+00    2.500000E+09  0.02000  5.985E-05    0   0.5673   age150_m62            0.0000     2.0840E+00     4.8381  -0.7395   104.1108
 48      0.0000     0.0000E+00    0.0000E+00    4.250000E+09  0.02000  3.271E-05    0   0.5468   age158_m62            0.0000     3.3835E+00     6.2879  -1.0000   101.4880
 49      0.0000     0.0000E+00    0.0000E+00    1.000000E+10  0.02000  1.360E-05    0   0.5167   age181_m62            0.0000     7.9541E+00     9.2976  -1.0000    88.1221
 50      0.0000     0.0000E+00    0.0000E+00    1.800000E+10  0.02000  7.124E-06    0   0.5013   age213_m62            0.0000     1.2918E+01    11.8805  -1.0000    80.0837
 51      0.0000     0.0000E+00    0.0000E+00    1.000000E+06  0.05000  2.592E-02    0   0.9998   age020_m72            0.0000     2.1641E+00     5.5418   2.6009    92.8694
 52      0.5619     2.1958E-03    3.7455E-03    3.160000E+06  0.05000  4.845E-02    0   0.9577   age045_m72            0.0000     1.8099E+00     4.9385   2.4456    94.2773
 53      2.0602     1.2696E-02    2.0685E-02    5.010000E+06  0.05000  3.072E-02    0   0.9147   age055_m72            0.0000     1.3133E+00     4.1113   1.9609    98.7391
 54      0.4324     5.6268E-03    8.8967E-03    6.610000E+06  0.05000  1.455E-02    0   0.8877   age061_m72            0.0000     5.0133E+00     8.8633   1.1958   105.6485
 55      0.0000     0.0000E+00    0.0000E+00    1.000000E+07  0.05000  9.074E-03    0   0.8524   age070_m72            0.0000     1.7827E+00     4.9322   2.1596    98.1356
 56      0.0042     1.8851E-04    2.6532E-04    2.512000E+07  0.05000  4.250E-03    0   0.7902   age090_m72            0.0000     1.2934E+00     3.8912   1.8618    99.5122
 57      0.0079     4.8749E-04    6.6146E-04    4.000000E+07  0.05000  3.087E-03    0   0.7618   age104_m72            0.0000     1.2985E+00     3.8086   1.6365   100.9660
 58      0.0000     0.0000E+00    0.0000E+00    1.015200E+08  0.05000  1.700E-03    0   0.7096   age116_m72            0.0000     7.2732E-01     2.6883   1.3940   102.8504
 59      0.0000     0.0000E+00    0.0000E+00    2.861200E+08  0.05000  7.384E-04    0   0.6633   age125_m72            0.0000     6.4199E-01     2.9394   0.8957   106.3634
 60     35.0741     1.7387E+01    1.9733E+01    5.088000E+08  0.05000  3.819E-04    0   0.6372   age130_m72            0.0000     7.3654E-01     3.2691   0.4110   107.7701
 61      7.8379     8.8535E+00    9.6351E+00    9.047900E+08  0.05000  1.676E-04    0   0.6110   age135_m72            0.0000     1.7288E+00     4.7251  -0.2834   106.0387
 62      0.9757     2.0903E+00    2.1870E+00    1.434000E+09  0.05000  8.837E-05    0   0.5874   age139_m72            0.0000     2.3421E+00     5.1242  -0.7364   105.4358
 63      0.0000     0.0000E+00    0.0000E+00    2.500000E+09  0.05000  4.233E-05    0   0.5598   age150_m72            0.0000     3.8048E+00     6.7060  -1.0000   102.3409
 64      0.0000     0.0000E+00    0.0000E+00    6.250000E+09  0.05000  1.435E-05    0   0.5249   age166_m72            0.0000     9.9626E+00    10.4589  -1.0000    84.3161
 65      0.0000     0.0000E+00    0.0000E+00    1.300000E+10  0.05000  6.513E-06    0   0.5036   age193_m72            0.0000     1.7636E+01    13.8585  -1.0000    75.4765
 66      0.0000     0.0000E+00    0.0000E+00    1.800000E+10  0.05000  4.527E-06    0   0.4945   age213_m72            0.0000     2.2932E+01    15.7564  -1.0000    70.1173


## Synthesis Results - Average & Chains ##

# j      x_j: min, <> & last-chain-values for 1 ...  7 chains
  1      0.0000      0.5734      0.0000      1.0227      0.0815      0.3568      0.2841      0.8278      0.4823
  2      0.0000      0.8060      0.0163      0.5751      0.0000      0.9629      0.1511      0.0000      0.4632
  3      0.0000      0.3745      1.1234      0.0000      0.0000      0.0000      0.0000      0.5632      1.0855
  4      0.0556      0.4961      1.0855      0.3073      1.7669      0.0000      0.0000      0.0000      0.7950
  5      0.0000      0.5453      1.4442      0.0000      0.3136      0.6387      0.0000      0.0000      1.4874
  6      0.0000      1.0589      2.1042      1.8723      0.1718      0.0000      0.4556      1.4472      1.6082
  7      0.0000      0.3288      1.8449      0.0000      0.2955      0.0000      0.0000      0.0000      0.1925
  8      0.2989      0.8483      0.0000      0.5150      0.9474      1.1543      0.4880      1.0738      0.0000
  9      0.0000      0.4364      0.0000      0.0529      0.0973      0.8638      0.0000      0.6428      0.0000
 10      0.2537      0.5296      0.8778      1.3181      0.9041      0.8925      1.5993      0.6462      0.0000
 11      0.0000      0.8170      0.0000      0.0000      0.0244      0.1921      0.0000      0.1378      0.3519
 12      0.0000      0.6843      0.0000      0.0000      0.0000      0.0000      0.8198      0.0000      0.0000
 13      0.0044      2.0875      0.8095      1.8221      2.2273      0.3162      1.3251      2.1469      1.7263
 14      0.0000      0.2447      0.0519      0.0000      0.0000      0.0000      0.0000      0.0000      0.0000
 15      0.0000      0.2263      0.0000      0.0813      0.0000      0.0000      0.1407      0.4763      0.0000
 16      0.6426      0.1532      0.0916      0.0000      0.8485      0.0000      0.1860      0.0000      0.0000
 17      0.0000      0.1821      0.7833      0.3194      0.0000      0.0571      0.0000      0.0000      0.0913
 18      0.0000      0.4032      0.0000      0.0000      0.0000      0.0000      1.2643      0.9763      0.0000
 19      0.0000      0.1401      0.5965      0.0162      0.0000      0.0011      0.0295      0.0000      0.0000
 20      0.0000      0.2324      1.1854      0.0000      0.1598      0.7232      1.7614      0.0000      0.0000
 21      0.0043      1.0667      1.3022      0.7651      0.6616      1.0814      0.4692      0.7053      2.2631
 22      0.0000      0.6012      0.8001      0.3890      0.0817      2.1476      0.9918      0.1628      0.0000
 23      2.3474      0.8489      0.4554      0.7901      0.7662      1.2677      0.9230      0.9653      1.5798
 24      1.9834      2.1661      2.2177      1.0882      1.7148      2.5032      0.0000      0.9363      1.8170
 25      4.9304      1.6326      2.0539      3.6663      1.9175      1.5499      2.0486      3.2291      0.6256
 26      0.2722      1.1512      1.6051      0.9838      2.1848      1.6308      0.5350      0.1138      2.3908
 27      0.0518      0.8808      0.5104      0.2554      1.1043      0.0000      0.8521      0.0000      0.0000
 28      8.6677      5.7934      6.6205      7.2902      5.9792      7.3646      8.3829      6.7182      7.2091
 29      0.0000      1.2524      1.0548      0.8070      0.0000      0.4301      0.0000      0.8821      0.3956
 30      0.0000      0.3159      0.7083      0.0000      0.0000      0.2247      0.0000      0.7427      0.4736
 31      1.3286      1.8353      1.9673      1.8875      1.8077      2.2232      2.0859      1.6464      3.5026
 32      0.0000      0.1052      0.0905      0.4610      0.0000      0.0000      0.0929      0.0000      0.0000
 33      3.1547      1.5030      1.9097      1.4044      1.7504      1.7779      1.8396      1.6764      1.6985
 34      0.0000      0.0483      0.0000      0.1173      0.0366      0.1432      0.3258      0.0000      0.3140
 35      0.7377      1.1465      0.0000      1.3819      1.3555      1.8887      0.7526      1.1677      0.1349
 36      6.2444      4.0272      4.3164      5.0974      5.0509      4.8738      4.0868      4.1662      4.1230
 37      0.0121      0.6411      1.2204      0.0000      0.5651      0.0000      0.3882      0.8101      0.7661
 38     13.0469      5.0356      5.5444      5.9164      6.7552      4.7513      5.0837      5.2933      7.2557
 39      3.3681      2.3234      2.1285      2.8880      2.9332      3.8480      4.5132      3.7172      1.5159
 40      0.0000      0.6048      0.9950      0.4819      0.0056      0.9656      1.9184      0.0000      0.0000
 41      0.0000      1.3805      1.1243      0.6678      0.1780      1.7003      2.0060      1.2643      1.1216
 42      0.0000      0.5663      0.0000      0.8738      0.0000      0.0000      0.0000      0.2201      0.1964
 43      0.0000      0.6605      0.8925      0.0000      0.0000      0.0000      0.0544      0.3485      0.0000
 44      0.8018      0.9174      0.0000      0.0000      0.6594      1.2238      0.0349      0.5812      0.0000
 45     10.8966      8.9488      9.6245      9.5719     10.0190      8.4806      9.7409      8.4966     10.7089
 46      0.7371      1.7767      2.0346      2.4489      1.9399      3.6746      2.3045      2.2363      1.8009
 47      0.0000      0.3040      0.0000      0.0000      0.0911      0.3967      0.4758      0.0000      0.0000
 48      0.0000      0.2218      0.0000      0.0000      0.0000      0.0000      0.0000      0.0000      0.0000
 49      0.0000      0.0355      0.0000      0.0000      0.0000      0.0000      0.0000      0.0278      0.0000
 50      0.0000      0.1045      0.1864      0.0000      0.0541      0.2688      0.0000      0.0852      0.0000
 51      0.0000      0.3016      0.2111      0.1544      0.0000      0.0000      0.2662      1.0982      0.0000
 52      0.5619      1.9386      1.2992      1.9845      1.7589      1.8501      1.4635      1.2140      2.8418
 53      2.0602      1.9058      2.1044      1.8233      3.8234      1.2678      1.5719      2.9414      1.7297
 54      0.4324      1.0740      0.5816      0.9104      1.4573      0.4364      1.0723      1.7083      1.3703
 55      0.0000      0.6835      0.0000      0.9595      0.0000      0.9694      0.6510      0.0000      0.3543
 56      0.0042      0.3661      0.0000      0.1711      0.7701      0.0000      0.9895      0.0000      0.9667
 57      0.0079      0.3268      0.0000      1.2118      1.0585      0.0000      0.0000      0.3770      0.0000
 58      0.0000      0.4159      0.0000      0.3555      0.0000      0.0197      0.6103      0.0000      1.8341
 59      0.0000      1.0407      1.2934      0.3928      0.0000      1.6831      2.3246      1.8844      0.6074
 60     35.0741     30.1251     31.1650     31.3819     31.0800     31.8022     29.9217     32.6401     30.9173
 61      7.8379      6.8271      6.4864      7.8726      7.6370      5.9100      6.9398      7.2840      6.0164
 62      0.9757      1.8967      1.7458      1.8250      2.9651      1.5079      2.1300      1.9867      1.6199
 63      0.0000      0.2144      0.0000      0.0000      0.0000      0.0000      0.0000      0.1442      0.0000
 64      0.0000      0.0380      0.0000      0.3391      0.1185      0.2265      0.0000      0.0000      0.0000
 65      0.0000      0.0489      0.0000      0.0000      0.2485      0.1743      0.0000      0.0000      0.0000
 66      0.0000      0.0348      0.0000      0.0000      0.0000      0.0000      0.0000      0.0000      0.0000

# j      m_j: min, <> & last-chain-values for 1 ...  7 chains
  1  0.0000E+00  1.8951E-02  0.0000E+00  3.4646E-02  2.5117E-03  1.0988E-02  9.3850E-03  2.9192E-02  1.6060E-02
  2  0.0000E+00  7.2725E-03  1.4025E-04  5.3185E-03  0.0000E+00  8.0944E-03  1.3628E-03  0.0000E+00  4.2106E-03
  3  0.0000E+00  5.0596E-03  1.4484E-02  0.0000E+00  0.0000E+00  0.0000E+00  0.0000E+00  8.1194E-03  1.4777E-02
  4  6.5999E-04  6.3117E-03  1.3181E-02  4.0079E-03  2.0972E-02  0.0000E+00  0.0000E+00  0.0000E+00  1.0191E-02
  5  0.0000E+00  1.3217E-02  3.3403E-02  0.0000E+00  7.0907E-03  1.4423E-02  0.0000E+00  0.0000E+00  3.6321E-02
  6  0.0000E+00  4.1627E-02  7.8937E-02  7.5446E-02  6.3007E-03  0.0000E+00  1.7905E-02  6.0706E-02  6.3698E-02
  7  0.0000E+00  1.8505E-02  9.9089E-02  0.0000E+00  1.5514E-02  0.0000E+00  0.0000E+00  0.0000E+00  1.0918E-02
  8  2.1685E-02  6.5991E-02  0.0000E+00  4.1066E-02  6.8747E-02  8.3667E-02  3.7945E-02  8.9138E-02  0.0000E+00
  9  0.0000E+00  3.8856E-02  0.0000E+00  4.8321E-03  8.0850E-03  7.1660E-02  0.0000E+00  6.1068E-02  0.0000E+00
 10  2.7672E-02  6.1939E-02  9.7971E-02  1.5802E-01  9.8635E-02  9.7254E-02  1.8698E-01  8.0642E-02  0.0000E+00
 11  0.0000E+00  1.7968E-01  0.0000E+00  0.0000E+00  5.0086E-03  3.9370E-02  0.0000E+00  3.2332E-02  7.7978E-02
 12  0.0000E+00  2.3874E-01  0.0000E+00  0.0000E+00  0.0000E+00  0.0000E+00  2.8589E-01  0.0000E+00  0.0000E+00
 13  4.0258E-03  2.0526E+00  7.5958E-01  1.8364E+00  2.0429E+00  2.8967E-01  1.3025E+00  2.2526E+00  1.7103E+00
 14  0.0000E+00  8.0710E-01  1.6342E-01  0.0000E+00  0.0000E+00  0.0000E+00  0.0000E+00  0.0000E+00  0.0000E+00
 15  0.0000E+00  1.2151E+00  0.0000E+00  4.4765E-01  0.0000E+00  0.0000E+00  7.5521E-01  2.7287E+00  0.0000E+00
 16  5.4403E+00  1.3908E+00  7.9349E-01  0.0000E+00  7.1849E+00  0.0000E+00  1.6876E+00  0.0000E+00  0.0000E+00
 17  0.0000E+00  2.1441E+00  8.8024E+00  3.8550E+00  0.0000E+00  6.2656E-01  0.0000E+00  0.0000E+00  1.0839E+00
 18  0.0000E+00  1.1776E-02  0.0000E+00  0.0000E+00  0.0000E+00  0.0000E+00  3.6912E-02  3.0426E-02  0.0000E+00
 19  0.0000E+00  1.6417E-03  6.6728E-03  1.9508E-04  0.0000E+00  1.2316E-05  3.4610E-04  0.0000E+00  0.0000E+00
 20  0.0000E+00  2.9744E-03  1.4476E-02  0.0000E+00  1.9073E-03  8.6229E-03  2.2533E-02  0.0000E+00  0.0000E+00
 21  6.2443E-05  1.6571E-02  1.9304E-02  1.2182E-02  9.5872E-03  1.5652E-02  7.2858E-03  1.1691E-02  3.5420E-02
 22  0.0000E+00  1.5791E-02  2.0057E-02  1.0475E-02  2.0020E-03  5.2560E-02  2.6042E-02  4.5640E-03  0.0000E+00
 23  7.7655E-02  3.0114E-02  1.5414E-02  2.8728E-02  2.5352E-02  4.1898E-02  3.2729E-02  3.6536E-02  5.6462E-02
 24  9.7618E-02  1.1431E-01  1.1168E-01  5.8868E-02  8.4418E-02  1.2308E-01  0.0000E+00  5.2725E-02  9.6609E-02
 25  3.3460E-01  1.1880E-01  1.4262E-01  2.7347E-01  1.3016E-01  1.0508E-01  1.4902E-01  2.5073E-01  4.5865E-02
 26  3.0882E-02  1.4003E-01  1.8631E-01  1.2266E-01  2.4790E-01  1.8481E-01  6.5047E-02  1.4770E-02  2.9299E-01
 27  1.1759E-02  2.1444E-01  1.1859E-01  6.3745E-02  2.5080E-01  0.0000E+00  2.0737E-01  0.0000E+00  0.0000E+00
 28  5.7115E+00  4.0934E+00  4.4638E+00  5.2799E+00  3.9408E+00  4.8482E+00  5.9208E+00  5.0651E+00  5.1320E+00
 29  0.0000E+00  1.5419E+00  1.2392E+00  1.0184E+00  0.0000E+00  4.9332E-01  0.0000E+00  1.1588E+00  4.9068E-01
 30  0.0000E+00  8.1255E-01  1.7386E+00  0.0000E+00  0.0000E+00  5.3855E-01  0.0000E+00  2.0385E+00  1.2274E+00
 31  5.6062E+00  8.3041E+00  8.4943E+00  8.7537E+00  7.6294E+00  9.3720E+00  9.4343E+00  7.9487E+00  1.5967E+01
 32  0.0000E+00  6.4025E-01  5.2603E-01  2.8767E+00  0.0000E+00  0.0000E+00  5.6515E-01  0.0000E+00  0.0000E+00
 33  3.9651E+01  2.0257E+01  2.4560E+01  1.9401E+01  2.2006E+01  2.2325E+01  2.4783E+01  2.4108E+01  2.3064E+01
 34  0.0000E+00  8.8113E-01  0.0000E+00  2.1943E+00  6.2384E-01  2.4346E+00  5.9444E+00  0.0000E+00  5.7733E+00
 35  1.6112E-02  2.6848E-02  0.0000E+00  3.3171E-02  2.9610E-02  4.1209E-02  1.7618E-02  2.9178E-02  3.1827E-03
 36  5.5176E-02  3.8156E-02  3.9026E-02  4.9504E-02  4.4639E-02  4.3024E-02  3.8706E-02  4.2119E-02  3.9358E-02
 37  1.1594E-04  6.5704E-03  1.1935E-02  0.0000E+00  5.4023E-03  0.0000E+00  3.9767E-03  8.8589E-03  7.9097E-03
 38  3.3781E-01  1.3981E-01  1.4689E-01  1.6837E-01  1.7494E-01  1.2290E-01  1.4109E-01  1.5681E-01  2.0296E-01
 39  1.2556E-01  9.2875E-02  8.1192E-02  1.1833E-01  1.0937E-01  1.4332E-01  1.8034E-01  1.5855E-01  6.1051E-02
 40  0.0000E+00  3.9082E-02  6.1351E-02  3.1914E-02  3.3755E-04  5.8134E-02  1.2391E-01  0.0000E+00  0.0000E+00
 41  0.0000E+00  1.3871E-01  1.0780E-01  6.8782E-02  1.6685E-02  1.5918E-01  2.0149E-01  1.3555E-01  1.1355E-01
 42  0.0000E+00  1.0447E-01  0.0000E+00  1.6522E-01  0.0000E+00  0.0000E+00  0.0000E+00  4.3320E-02  3.6504E-02
 43  0.0000E+00  1.7791E-01  2.2939E-01  0.0000E+00  0.0000E+00  0.0000E+00  1.4653E-02  1.0016E-01  0.0000E+00
 44  3.4679E-01  4.2546E-01  0.0000E+00  0.0000E+00  2.8523E-01  5.2877E-01  1.6161E-02  2.8761E-01  0.0000E+00
 45  9.3508E+00  8.2343E+00  8.4510E+00  9.0279E+00  8.5996E+00  7.2706E+00  8.9598E+00  8.3423E+00  9.9279E+00
 46  1.1626E+00  3.0050E+00  3.2837E+00  4.2456E+00  3.0605E+00  5.7905E+00  3.8963E+00  4.0359E+00  3.0688E+00
 47  0.0000E+00  1.0418E+00  0.0000E+00  0.0000E+00  2.9129E-01  1.2666E+00  1.6302E+00  0.0000E+00  0.0000E+00
 48  0.0000E+00  1.3404E+00  0.0000E+00  0.0000E+00  0.0000E+00  0.0000E+00  0.0000E+00  0.0000E+00  0.0000E+00
 49  0.0000E+00  4.8797E-01  0.0000E+00  0.0000E+00  0.0000E+00  0.0000E+00  0.0000E+00  4.0795E-01  0.0000E+00
 50  0.0000E+00  2.6589E+00  4.5247E+00  0.0000E+00  1.2833E+00  6.3717E+00  0.0000E+00  2.3137E+00  0.0000E+00
 51  0.0000E+00  4.2063E-03  2.8096E-03  2.2079E-03  0.0000E+00  0.0000E+00  3.7114E-03  1.6342E-02  0.0000E+00
 52  3.7455E-03  1.3855E-02  8.8605E-03  1.4538E-02  1.1726E-02  1.2320E-02  1.0456E-02  9.2583E-03  2.0463E-02
 53  2.0685E-02  2.0517E-02  2.1619E-02  2.0121E-02  3.8397E-02  1.2717E-02  1.6916E-02  3.3789E-02  1.8761E-02
 54  8.8967E-03  2.3693E-02  1.2242E-02  2.0586E-02  2.9987E-02  8.9684E-03  2.3646E-02  4.0210E-02  3.0455E-02
 55  0.0000E+00  2.3217E-02  0.0000E+00  3.3406E-02  0.0000E+00  3.0678E-02  2.2102E-02  0.0000E+00  1.2124E-02
 56  2.6532E-04  2.4614E-02  0.0000E+00  1.1787E-02  4.8290E-02  0.0000E+00  6.6496E-02  0.0000E+00  6.5474E-02
 57  6.6146E-04  2.9156E-02  0.0000E+00  1.1083E-01  8.8099E-02  0.0000E+00  0.0000E+00  3.5893E-02  0.0000E+00
 58  0.0000E+00  6.2773E-02  0.0000E+00  5.5002E-02  0.0000E+00  2.7719E-03  9.2073E-02  0.0000E+00  2.7889E-01
 59  0.0000E+00  3.3801E-01  4.0086E-01  1.3077E-01  0.0000E+00  5.0932E-01  7.5474E-01  6.5307E-01  1.9877E-01
 60  1.9733E+01  1.8174E+01  1.7941E+01  1.9406E+01  1.7490E+01  1.7875E+01  1.8044E+01  2.1011E+01  1.8792E+01
 61  9.6351E+00  8.9990E+00  8.1588E+00  1.0637E+01  9.3902E+00  7.2582E+00  9.1441E+00  1.0245E+01  7.9901E+00
 62  2.1870E+00  4.5585E+00  4.0038E+00  4.4958E+00  6.6474E+00  3.3765E+00  5.1172E+00  5.0949E+00  3.9226E+00
 63  0.0000E+00  1.0252E+00  0.0000E+00  0.0000E+00  0.0000E+00  0.0000E+00  0.0000E+00  7.3571E-01  0.0000E+00
 64  0.0000E+00  5.0228E-01  0.0000E+00  4.5975E+00  1.4619E+00  2.7906E+00  0.0000E+00  0.0000E+00  0.0000E+00
 65  0.0000E+00  1.3677E+00  0.0000E+00  0.0000E+00  6.4802E+00  4.5413E+00  0.0000E+00  0.0000E+00  0.0000E+00
 66  0.0000E+00  1.3726E+00  0.0000E+00  0.0000E+00  0.0000E+00  0.0000E+00  0.0000E+00  0.0000E+00  0.0000E+00

# AV, chi2 & Mass for <> & i_chain = 1 ...  7 solutions
AV       0.4168      0.4447      0.4469      0.4389      0.4222      0.4492      0.4415      0.4440      0.4413
chi2 2.0786E-01  2.1420E-01  2.1302E-01  2.1270E-01  2.1188E-01  2.1285E-01  2.1276E-01  2.1254E-01  2.1282E-01
Mass 6.3040E-12  6.1031E-12  6.4149E-12  5.9081E-12  6.3485E-12  6.5906E-12  6.0798E-12  5.7145E-12  6.0300E-12
  84.20                                  [v0_min (km/s) before EX0s...]
 187.28                                  [vd_min (km/s) before EX0s...]


## Synthetic spectrum (Best Model) ##l_obs f_obs f_syn wei
 3478    [Nl_obs]
 3741.00    0.65658   0.68233    0.000
 3742.00    0.68232   0.69803    0.000
 3743.00    0.69002   0.70064    0.000
 3744.00    0.67890   0.69110    0.000
 3745.00    0.65289   0.67165   10.824
 3746.00    0.62063   0.64481   11.008
 3747.00    0.59043   0.61340   10.631
 3748.00    0.56721   0.58143   10.357
 3749.00    0.55355   0.55440   10.481
 3750.00    0.55075   0.53838   10.516
 3751.00    0.56084   0.53853   10.222
 3752.00    0.58633   0.55649   10.115
 3753.00    0.62180   0.58870   10.460
 3754.00    0.65163   0.62752   10.864
 3755.00    0.66735   0.66460   10.922
 3756.00    0.67531   0.69368   10.774
 3757.00    0.68173   0.71198   10.760
 3758.00    0.68524   0.72043   11.127
 3759.00    0.68580   0.72280   11.708
 3760.00    0.68838   0.72360   11.733
 3761.00    0.69441   0.72544   11.125
 3762.00    0.69858   0.72784   10.847
 3763.00    0.69665   0.72846   11.276
 3764.00    0.68886   0.72463   11.886
 3765.00    0.67531   0.71424   12.045
 3766.00    0.65438   0.69644   11.724
 3767.00    0.62678   0.67190   11.340
 3768.00    0.59699   0.64301   11.355
 3769.00    0.56998   0.61428   11.794
 3770.00    0.54967   0.59146   12.149
 3771.00    0.53923   0.57965   12.180
 3772.00    0.54109   0.58216   12.298
 3773.00    0.55639   0.59938   12.648
 3774.00    0.58433   0.62798   12.805
 3775.00    0.62081   0.66246   12.553
 3776.00    0.65913   0.69825   12.224
 3777.00    0.69527   0.73278   12.138
 3778.00    0.72947   0.76488   12.400
 3779.00    0.76309   0.79374   12.812
 3780.00    0.79676   0.81858   12.898
 3781.00    0.82839   0.83855   12.638
 3782.00    0.85328   0.85273   12.551
 3783.00    0.86777   0.86023   12.755
 3784.00    0.87060   0.86066   12.855
 3785.00    0.86270   0.85431   12.773
 3786.00    0.84666   0.84210   12.898
 3787.00    0.82552   0.82565   13.288
 3788.00    0.80238   0.80737   13.509
 3789.00    0.78061   0.78956   13.334
 3790.00    0.76289   0.77272   13.009
 3791.00    0.74747   0.75541   12.895
 3792.00    0.72903   0.73526   13.230
 3793.00    0.70570   0.71002   13.741
 3794.00    0.67965   0.67858   13.708
 3795.00    0.65076   0.64209   13.309
 3796.00    0.61717   0.60440   13.479
 3797.00    0.58352   0.57147   14.265
 3798.00    0.56003   0.54994   14.696
 3799.00    0.55135   0.54517   14.463
 3800.00    0.55567   0.55949   14.339
 3801.00    0.57276   0.59077   14.680
 3802.00    0.60395   0.63261   15.196
 3803.00    0.64483   0.67700   15.315
 3804.00    0.68599   0.71735   14.643
 3805.00    0.72101   0.75029   13.717
 3806.00    0.74830   0.77577   13.344
 3807.00    0.76912   0.79621   13.571
 3808.00    0.78647   0.81461   13.921
 3809.00    0.80351   0.83253   14.097
 3810.00    0.82220   0.84890   14.145
 3811.00    0.84113   0.86066   14.213
 3812.00    0.85653   0.86506   14.407
 3813.00    0.86639   0.86172   14.658
 3814.00    0.87111   0.85298   14.785
 3815.00    0.87250   0.84253   14.798
 3816.00    0.87229   0.83347   14.858
 3817.00    0.86943   0.82669   14.937
 3818.00    0.86138   0.82108   14.892
 3819.00    0.84842   0.81526   14.812
 3820.00    0.83351   0.80893   14.928
 3821.00    0.81941   0.80293   15.225
 3822.00    0.80819   0.79809   15.483
 3823.00    0.80134   0.79384   15.589
 3824.00    0.79863   0.78802   15.585
 3825.00    0.79556   0.77847   15.572
 3826.00    0.78617   0.76473   15.642
 3827.00    0.76995   0.74795   15.820
 3828.00    0.74987   0.72916   16.056
 3829.00    0.72564   0.70802   16.246
 3830.00    0.69550   0.68318   16.323
 3831.00    0.66226   0.65344   16.462
 3832.00    0.63167   0.61893   16.897
 3833.00    0.60710   0.58193   17.485
 3834.00    0.58870   0.54688   17.824
 3835.00    0.57392   0.51956   17.842
 3836.00    0.56018   0.50516   17.778
 3837.00    0.54941   0.50642   17.796
 3838.00    0.54678   0.52301   17.915
 3839.00    0.55711   0.55199   18.035
 3840.00    0.58299   0.58905   18.027
 3841.00    0.62272   0.62997   17.902
 3842.00    0.67078   0.67137   17.750
 3843.00    0.71926   0.71055   17.589
 3844.00    0.76105   0.74556   17.430
 3845.00    0.79433   0.77525   17.387
 3846.00    0.82032   0.79932   17.565
 3847.00    0.83869   0.81833    0.000
 3848.00    0.84889   0.83324    0.000
 3849.00    0.85331   0.84515    0.000
 3850.00    0.85576   0.85524    0.000
 3851.00    0.85859   0.86429    0.000
 3852.00    0.86267   0.87255    0.000
 3853.00    0.86800   0.87954    0.000
 3854.00    0.87394   0.88428    0.000
 3855.00    0.87937   0.88603    0.000
 3856.00    0.88279   0.88513    0.000
 3857.00    0.88256   0.88300    0.000
 3858.00    0.87859   0.88132    0.000
 3859.00    0.87439   0.88144    0.000
 3860.00    0.87435   0.88421    0.000
 3861.00    0.87981   0.88956    0.000
 3862.00    0.89022   0.89666    0.000
 3863.00    0.90504   0.90412    0.000
 3864.00    0.92235   0.91029    0.000
 3865.00    0.93729   0.91405    0.000
 3866.00    0.94554   0.91537    0.000
 3867.00    0.94756   0.91483    0.000
 3868.00    0.94515   0.91269    0.000
 3869.00    0.93726   0.90844    0.000
 3870.00    0.92310   0.90131    0.000
 3871.00    0.90589   0.89121    0.000
 3872.00    0.88992   0.87943    0.000
 3873.00    0.87688   0.86823    0.000
 3874.00    0.86686   0.85944    0.000
 3875.00    0.85965   0.85311    0.000
 3876.00    0.85373   0.84743    0.000
 3877.00    0.84549   0.84011    0.000
 3878.00    0.83247   0.82994    0.000
 3879.00    0.81643   0.81724    0.000
 3880.00    0.79935   0.80300    0.000
 3881.00    0.77957   0.78735   18.992
 3882.00    0.75583   0.76917   18.650
 3883.00    0.73096   0.74664   18.694
 3884.00    0.70723   0.71825   18.953
 3885.00    0.68236   0.68372   19.188
 3886.00    0.65614   0.64487   19.231
 3887.00    0.63568   0.60562   19.138
 3888.00    0.62687   0.57162   19.070
 3889.00    0.62701   0.54912   19.173
 3890.00    0.63039   0.54293   19.493
 3891.00    0.63369   0.55443   19.901
 3892.00    0.63733   0.58078   20.173
 3893.00    0.64578   0.61624   20.116
 3894.00    0.66256   0.65446   19.888
 3895.00    0.68648   0.69052   20.071
 3896.00    0.71349   0.72196   20.816
 3897.00    0.73880   0.74847   21.205
 3898.00    0.75947   0.77088   20.721
 3899.00    0.77608   0.79034   20.427
 3900.00    0.79042   0.80780   20.993
 3901.00    0.80355   0.82362   21.627
 3902.00    0.81509   0.83743   21.538
 3903.00    0.82306   0.84858   21.250
 3904.00    0.82628   0.85698   21.388
 3905.00    0.82592   0.86366   21.852
 3906.00    0.82421   0.87067   22.266
 3907.00    0.82362   0.88009   22.318
 3908.00    0.82754   0.89287   22.007
 3909.00    0.84001   0.90809   21.693
 3910.00    0.86107   0.92326   21.657
 3911.00    0.88463   0.93557   21.881
 3912.00    0.90462   0.94310   22.074
 3913.00    0.91871   0.94532   21.772
 3914.00    0.92708   0.94305   21.004
 3915.00    0.93129   0.93769   20.417
 3916.00    0.93242   0.93050   20.316
 3917.00    0.93039   0.92236   20.419
 3918.00    0.92570   0.91395   20.458
 3919.00    0.92014   0.90615   20.488
 3920.00    0.91547   0.90006   20.652
 3921.00    0.91250   0.89654   21.019
 3922.00    0.91087   0.89554   21.401
 3923.00    0.90894   0.89566   21.341
 3924.00    0.90394   0.89435   20.875
 3925.00    0.89259   0.88884   20.669
 3926.00    0.87385   0.87703   20.987
 3927.00    0.84968   0.85802   21.405
 3928.00    0.82158   0.83194   21.572
 3929.00    0.78927   0.79963   21.620
 3930.00    0.75315   0.76240   21.782
 3931.00    0.71532   0.72250   22.191
 3932.00    0.67916   0.68366   22.879
 3933.00    0.64896   0.65123   23.745
 3934.00    0.62959   0.63121   24.374
 3935.00    0.62570   0.62824   24.165
 3936.00    0.63932   0.64357   23.441
 3937.00    0.66856   0.67429   23.307
 3938.00    0.70686   0.71424   23.868
 3939.00    0.74439   0.75618   24.010
 3940.00    0.77447   0.79396   23.463
 3941.00    0.79594   0.82385   23.293
 3942.00    0.81094   0.84497   23.894
 3943.00    0.82337   0.85876   24.568
 3944.00    0.83625   0.86794   24.550
 3945.00    0.85070   0.87511   23.715
 3946.00    0.86638   0.88170   22.703
 3947.00    0.88175   0.88772   22.344
 3948.00    0.89488   0.89243   22.652
 3949.00    0.90411   0.89529   22.882
 3950.00    0.90957   0.89640   22.634
 3951.00    0.91274   0.89628   22.206
 3952.00    0.91327   0.89529   21.998
 3953.00    0.90893   0.89335   22.230
 3954.00    0.89938   0.89000   22.683
 3955.00    0.88666   0.88474   22.800
 3956.00    0.87243   0.87734   22.571
 3957.00    0.85706   0.86784   22.552
 3958.00    0.83998   0.85622   22.860
 3959.00    0.81982   0.84181   23.121
 3960.00    0.79466   0.82331    0.000
 3961.00    0.76261   0.79931    0.000
 3962.00    0.72375   0.76912    0.000
 3963.00    0.68027   0.73293    0.000
 3964.00    0.63541   0.69151    0.000
 3965.00    0.59316   0.64572    0.000
 3966.00    0.55825   0.59685    0.000
 3967.00    0.53530   0.54747    0.000
 3968.00    0.52640   0.50196    0.000
 3969.00    0.53059   0.46629    0.000
 3970.00    0.54429   0.44633    0.000
 3971.00    0.56245   0.44594    0.000
 3972.00    0.58107   0.46536    0.000
 3973.00    0.59863   0.50122    0.000
 3974.00    0.61810   0.54786    0.000
 3975.00    0.64454   0.59920    0.000
 3976.00    0.67833   0.65034    0.000
 3977.00    0.71521   0.69805    0.000
 3978.00    0.75061   0.74058    0.000
 3979.00    0.78141   0.77703    0.000
 3980.00    0.80732   0.80697    0.000
 3981.00    0.82995   0.83046   23.128
 3982.00    0.84977   0.84840   22.978
 3983.00    0.86623   0.86250   22.843
 3984.00    0.87937   0.87483   22.647
 3985.00    0.89007   0.88701   22.381
 3986.00    0.89956   0.89970   22.246
 3987.00    0.90867   0.91261   22.455
 3988.00    0.91643   0.92500   22.818
 3989.00    0.92153   0.93627   22.927
 3990.00    0.92558   0.94619   22.826
 3991.00    0.93188   0.95475   22.836
 3992.00    0.94148   0.96178   22.896
 3993.00    0.95294   0.96678   22.726
 3994.00    0.96357   0.96909   22.389
 3995.00    0.97053   0.96859   22.169
 3996.00    0.97256   0.96625   22.200
 3997.00    0.97036   0.96407   22.463
 3998.00    0.96657   0.96425   22.859
 3999.00    0.96421   0.96800   23.254
 4000.00    0.96396   0.97471   23.554
 4001.00    0.96472   0.98217   23.687
 4002.00    0.96545   0.98752   23.540
 4003.00    0.96551   0.98872   23.160
 4004.00    0.96484   0.98556   23.043
 4005.00    0.96399   0.97983   23.603
 4006.00    0.96412   0.97453   24.331
 4007.00    0.96625   0.97242   24.326
 4008.00    0.97024   0.97480   23.787
 4009.00    0.97483   0.98109   23.432
 4010.00    0.97827   0.98952   23.256
 4011.00    0.97990   0.99817   22.944
 4012.00    0.98234   1.00583   22.585
 4013.00    0.98875   1.01212   22.386
 4014.00    0.99854   1.01720   22.207
 4015.00    1.00943   1.02148   21.872
 4016.00    1.02110   1.02539   21.625
 4017.00    1.03490   1.02920   21.740
 4018.00    1.05266   1.03291   21.970
 4019.00    1.07360   1.03604   21.436
 4020.00    1.09098   1.03752   19.122
 4021.00    1.09683   1.03609   16.165
 4022.00    1.08863   1.03099   15.121
 4023.00    1.06937   1.02264   17.216
 4024.00    1.04622   1.01282   21.565
 4025.00    1.02671   1.00396   23.481
 4026.00    1.01430   0.99795   22.598
 4027.00    1.00843   0.99499   22.759
 4028.00    1.00549   0.99344   23.715
 4029.00    1.00170   0.99085   23.634
 4030.00    0.99624   0.98566   23.127
 4031.00    0.99044   0.97842   23.434
 4032.00    0.98638   0.97172   23.979
 4033.00    0.98609   0.96888   23.770
 4034.00    0.99078   0.97228   23.343
 4035.00    1.00018   0.98229   23.454
 4036.00    1.01199   0.99721   23.667
 4037.00    1.02357   1.01385   23.303
 4038.00    1.03371   1.02865   22.591
 4039.00    1.04125   1.03880   22.123
 4040.00    1.04381   1.04283   22.255
 4041.00    1.03961   1.04066   22.919
 4042.00    1.02934   1.03317   23.374
 4043.00    1.01517   1.02175   23.110
 4044.00    0.99949   1.00842   22.859
 4045.00    0.98504   0.99601   23.315
 4046.00    0.97495   0.98771   24.101
 4047.00    0.97170   0.98588   24.524
 4048.00    0.97608   0.99069   24.500
 4049.00    0.98606   0.99980   24.148
 4050.00    0.99630   1.00939   23.327
 4051.00    1.00162   1.01594   22.317
 4052.00    1.00000   1.01754   22.039
 4053.00    0.99281   1.01433   22.841
 4054.00    0.98435   1.00793   23.745
 4055.00    0.97889   1.00061   23.785
 4056.00    0.97834   0.99437   23.602
 4057.00    0.98197   0.99045   23.934
 4058.00    0.98671   0.98901   24.406
 4059.00    0.98935   0.98920   24.495
 4060.00    0.98830   0.98938   24.381
 4061.00    0.98319   0.98786   24.378
 4062.00    0.97464   0.98377   24.471
 4063.00    0.96418   0.97776   24.678
 4064.00    0.95423   0.97174   25.236
 4065.00    0.94764   0.96783   25.752
 4066.00    0.94720   0.96706   24.926
 4067.00    0.95357   0.96892   23.716
 4068.00    0.96416   0.97174   25.570
 4069.00    0.97396   0.97366   29.454
 4070.00    0.97695   0.97341   22.905
 4071.00    0.97070   0.97065   13.724
 4072.00    0.95862   0.96582    9.948
 4073.00    0.94514   0.95944    9.404
 4074.00    0.93274   0.95159   11.394
 4075.00    0.92262   0.94214   17.460
 4076.00    0.91532   0.93169   27.429
 4077.00    0.91133   0.92222   28.936
 4078.00    0.91141   0.91668   25.331
 4079.00    0.91646   0.91727   24.745
 4080.00    0.92702   0.92389   25.350
 4081.00    0.94102   0.93382   24.969
 4082.00    0.95333   0.94311   24.404
 4083.00    0.96036   0.94864   24.514
 4084.00    0.96219   0.94954   24.905
 4085.00    0.96016   0.94718   25.163
 4086.00    0.95559   0.94387   25.439
 4087.00    0.95015   0.94132   25.790
 4088.00    0.94552   0.93975   25.892
 4089.00    0.94099   0.93799   25.661
 4090.00    0.93308   0.93428   25.476
 4091.00    0.91966   0.92713   25.609
 4092.00    0.90153   0.91562    0.000
 4093.00    0.87991   0.89937    0.000
 4094.00    0.85535   0.87818    0.000
 4095.00    0.82832   0.85196    0.000
 4096.00    0.79985   0.82077    0.000
 4097.00    0.77288   0.78500    0.000
 4098.00    0.75236   0.74566    0.000
 4099.00    0.74272   0.70464    0.000
 4100.00    0.74605   0.66522    0.000
 4101.00    0.75936   0.63216    0.000
 4102.00    0.77465   0.61082    0.000
 4103.00    0.78371   0.60543    0.000
 4104.00    0.78143   0.61714    0.000
 4105.00    0.77034   0.64335    0.000
 4106.00    0.76013   0.67851    0.000
 4107.00    0.75887   0.71630    0.000
 4108.00    0.76938   0.75172    0.000
 4109.00    0.78877   0.78222    0.000
 4110.00    0.81025   0.80770    0.000
 4111.00    0.83018   0.82958    0.000
 4112.00    0.84941   0.84959    0.000
 4113.00    0.86886   0.86874   26.743
 4114.00    0.88825   0.88687   26.933
 4115.00    0.90725   0.90287   27.076
 4116.00    0.92536   0.91525   26.936
 4117.00    0.94026   0.92301   26.605
 4118.00    0.94855   0.92618   26.452
 4119.00    0.94966   0.92614   26.498
 4120.00    0.94635   0.92505   26.435
 4121.00    0.94163   0.92507   26.274
 4122.00    0.93780   0.92750   26.341
 4123.00    0.93648   0.93239   26.655
 4124.00    0.93830   0.93859   26.907
 4125.00    0.94179   0.94426   27.003
 4126.00    0.94405   0.94759   27.084
 4127.00    0.94328   0.94755   27.029
 4128.00    0.93952   0.94424   26.574
 4129.00    0.93450   0.93879   26.025
 4130.00    0.93079   0.93289   25.988
 4131.00    0.92977   0.92828   26.401
 4132.00    0.93140   0.92658   26.647
 4133.00    0.93543   0.92904   26.537
 4134.00    0.94183   0.93622   26.371
 4135.00    0.95119   0.94771   26.236
 4136.00    0.96390   0.96201   25.987
 4137.00    0.97799   0.97678   25.643
 4138.00    0.98959   0.98940   25.372
 4139.00    0.99524   0.99741   25.253
 4140.00    0.99298   0.99905   25.256
 4141.00    0.98339   0.99382   25.314
 4142.00    0.96961   0.98307   25.363
 4143.00    0.95667   0.97006   25.421
 4144.00    0.94965   0.95904   25.535
 4145.00    0.94993   0.95345   25.644
 4146.00    0.95556   0.95431   25.657
 4147.00    0.96368   0.95999   25.702
 4148.00    0.97155   0.96732   25.968
 4149.00    0.97733   0.97332   26.265
 4150.00    0.98028   0.97635   26.245
 4151.00    0.98072   0.97626   26.132
 4152.00    0.97951   0.97381   26.390
 4153.00    0.97719   0.97008   26.797
 4154.00    0.97393   0.96618   26.779
 4155.00    0.97015   0.96329   26.518
 4156.00    0.96677   0.96244   26.585
 4157.00    0.96574   0.96429   26.859
 4158.00    0.96880   0.96879   26.856
 4159.00    0.97536   0.97527   26.697
 4160.00    0.98308   0.98266   26.821
 4161.00    0.98969   0.98990   27.173
 4162.00    0.99381   0.99627   27.372
 4163.00    0.99576   1.00127   27.289
 4164.00    0.99655   1.00456   27.076
 4165.00    0.99594   1.00588   26.962
 4166.00    0.99331   1.00514   27.096
 4167.00    0.98947   1.00235   27.360
 4168.00    0.98548   0.99748   27.497
 4169.00    0.98044   0.99034   27.401
 4170.00    0.97281   0.98075   27.200
 4171.00    0.96300   0.96904   27.268
 4172.00    0.95299   0.95635   27.861
 4173.00    0.94502   0.94465   28.560
 4174.00    0.94088   0.93587   28.682
 4175.00    0.94094   0.93111   28.271
 4176.00    0.94411   0.93022   27.842
 4177.00    0.94782   0.93225   27.716
 4178.00    0.94981   0.93613   27.905
 4179.00    0.95037   0.94111   28.048
 4180.00    0.95130   0.94676   27.825
 4181.00    0.95394   0.95267   27.526
 4182.00    0.95857   0.95825   27.545
 4183.00    0.96401   0.96291   27.712
 4184.00    0.96861   0.96619   27.708
 4185.00    0.97160   0.96802   27.661
 4186.00    0.97285   0.96875   27.849
 4187.00    0.97233   0.96905   28.229
 4188.00    0.97086   0.96986   28.510
 4189.00    0.97092   0.97220   28.350
 4190.00    0.97458   0.97662   27.754
 4191.00    0.98129   0.98274   27.366
 4192.00    0.98895   0.98915   27.651
 4193.00    0.99560   0.99393   28.154
 4194.00    0.99948   0.99522   28.257
 4195.00    0.99899   0.99183   28.191
 4196.00    0.99371   0.98386   28.360
 4197.00    0.98529   0.97289   28.509
 4198.00    0.97587   0.96134   28.345
 4199.00    0.96634   0.95151   28.259
 4200.00    0.95761   0.94496   28.634
 4201.00    0.95169   0.94223   29.153
 4202.00    0.94983   0.94298   29.329
 4203.00    0.95065   0.94655   29.175
 4204.00    0.95280   0.95238   28.911
 4205.00    0.95734   0.95993   28.594
 4206.00    0.96500   0.96852   28.313
 4207.00    0.97362   0.97727   28.350
 4208.00    0.98118   0.98532   28.799
 4209.00    0.98836   0.99205   29.233
 4210.00    0.99529   0.99707   29.224
 4211.00    0.99883   1.00010   28.904
 4212.00    0.99689   1.00080   28.617
 4213.00    0.99191   0.99894   28.556
 4214.00    0.98696   0.99505   28.749
 4215.00    0.98262   0.99053   29.076
 4216.00    0.97961   0.98725   29.381
 4217.00    0.98073   0.98684   29.549
 4218.00    0.98710   0.98979   29.390
 4219.00    0.99547   0.99480   28.641
 4220.00    1.00159   0.99918   27.590
 4221.00    1.00297   0.99991   27.175
 4222.00    0.99836   0.99468   27.759
 4223.00    0.98730   0.98265   28.540
 4224.00    0.97052   0.96508   28.756
 4225.00    0.95032   0.94550   28.762
 4226.00    0.93168   0.92888   28.991
 4227.00    0.92204   0.91977   29.167
 4228.00    0.92572   0.92053   29.008
 4229.00    0.94041   0.93031   28.723
 4230.00    0.96039   0.94511   28.549
 4231.00    0.97915   0.95967   28.477
 4232.00    0.99136   0.96990   28.496
 4233.00    0.99418   0.97403   28.707
 4234.00    0.98835   0.97289   29.018
 4235.00    0.97829   0.96904   29.024
 4236.00    0.96915   0.96511   28.715
 4237.00    0.96469   0.96291   28.729
 4238.00    0.96573   0.96341   29.319
 4239.00    0.96996   0.96676   29.867
 4240.00    0.97520   0.97246   29.779
 4241.00    0.98109   0.97982   29.146
 4242.00    0.98692   0.98786   28.430
 4243.00    0.99078   0.99507   28.095
 4244.00    0.99179   0.99978   28.242
 4245.00    0.99097   1.00088   28.561
 4246.00    0.98933   0.99815   28.842
 4247.00    0.98699   0.99213   29.202
 4248.00    0.98420   0.98403   29.554
 4249.00    0.98181   0.97572   29.458
 4250.00    0.98049   0.96892   28.971
 4251.00    0.98037   0.96438   28.801
 4252.00    0.98121   0.96223   29.164
 4253.00    0.98250   0.96244   29.487
 4254.00    0.98334   0.96467   29.480
 4255.00    0.98268   0.96802   29.530
 4256.00    0.98083   0.97128   29.706
 4257.00    0.97945   0.97325   29.511
 4258.00    0.97902   0.97318   29.001
 4259.00    0.97830   0.97147   28.952
 4260.00    0.97771   0.96982   29.613
 4261.00    0.97996   0.97035   30.404
 4262.00    0.98644   0.97456   30.711
 4263.00    0.99597   0.98249   30.369
 4264.00    1.00625   0.99227   29.586
 4265.00    1.01459   1.00082   28.764
 4266.00    1.01835   1.00535   28.292
 4267.00    1.01558   1.00408   28.447
 4268.00    1.00686   0.99650   29.150
 4269.00    0.99515   0.98352   29.928
 4270.00    0.98233   0.96744   30.372
 4271.00    0.96879   0.95126   30.401
 4272.00    0.95655   0.93764   30.238
 4273.00    0.94934   0.92882   30.235
 4274.00    0.94849   0.92644   30.434
 4275.00    0.95231   0.93063   30.579
 4276.00    0.95900   0.94002   30.644
 4277.00    0.96732   0.95218   30.854
 4278.00    0.97516   0.96424   31.050
 4279.00    0.97975   0.97376   30.733
 4280.00    0.97982   0.97925   29.968
 4281.00    0.97612   0.98052   29.360
 4282.00    0.97073   0.97847   29.217
 4283.00    0.96612   0.97430   29.467
 4284.00    0.96298   0.96903   29.910
 4285.00    0.96026   0.96306   30.282
 4286.00    0.95707   0.95599   30.337
 4287.00    0.95299   0.94726   29.969
 4288.00    0.94747   0.93719   29.404
 4289.00    0.94012   0.92757   29.061
 4290.00    0.93246   0.92057   29.175
 4291.00    0.92735   0.91759   29.732
 4292.00    0.92622   0.91862   30.416
 4293.00    0.92843   0.92226   30.748
 4294.00    0.93164   0.92618   30.743
 4295.00    0.93263   0.92776   30.802
 4296.00    0.92923   0.92501   30.890
 4297.00    0.92077   0.91708   30.657
 4298.00    0.90795   0.90469   30.320
 4299.00    0.89259   0.88988   30.469
 4300.00    0.87706   0.87504   31.172
 4301.00    0.86368   0.86246   31.984
 4302.00    0.85354   0.85394   32.476
 4303.00    0.84667   0.84989   32.425
 4304.00    0.84305   0.84924   31.829
 4305.00    0.84237   0.85025   30.945
 4306.00    0.84296   0.85132   30.321
 4307.00    0.84285   0.85196   30.444
 4308.00    0.84241   0.85299   31.179
 4309.00    0.84382   0.85574   31.936
 4310.00    0.84849   0.86101   32.379
 4311.00    0.85666   0.86873   32.478
 4312.00    0.86771   0.87823   32.149
 4313.00    0.88065   0.88896   31.372
 4314.00    0.89489   0.90089   30.532
 4315.00    0.91011   0.91393   30.129
 4316.00    0.92563   0.92746   30.331
 4317.00    0.94026   0.94030   30.955
 4318.00    0.95212   0.95067   31.407
 4319.00    0.95910   0.95681   31.065
 4320.00    0.95978   0.95758   30.174
 4321.00    0.95356   0.95255   29.462
 4322.00    0.94059   0.94178   29.307
 4323.00    0.92212   0.92621   29.742
 4324.00    0.90108   0.90817   -2.000
 4325.00    0.88177   0.89112   -2.000
 4326.00    0.86926   0.87834   -2.000
 4327.00    0.86724   0.87147   -2.000
 4328.00    0.87487   0.87007   -2.000
 4329.00    0.88698   0.87208   -2.000
 4330.00    0.89561   0.87465   -2.000
 4331.00    0.89427   0.87498   -2.000
 4332.00    0.88406   0.87097   -2.000
 4333.00    0.86994   0.86141   -2.000
 4334.00    0.85390   0.84527   -2.000
 4335.00    0.83693   0.82148   -2.000
 4336.00    0.82345   0.78968   -2.000
 4337.00    0.82109   0.75107   -2.000
 4338.00    0.83898   0.70872   -2.000
 4339.00    0.88024   0.66800   -2.000
 4340.00    0.93226   0.63572    0.000
 4341.00    0.97391   0.61737    0.000
 4342.00    0.98756   0.61553    0.000
 4343.00    0.96636   0.62969    0.000
 4344.00    0.92124   0.65665    0.000
 4345.00    0.87249   0.69130    0.000
 4346.00    0.83751   0.72844    0.000
 4347.00    0.82463   0.76372    0.000
 4348.00    0.82796   0.79376    0.000
 4349.00    0.83615   0.81629    0.000
 4350.00    0.84368   0.83120    0.000
 4351.00    0.84977   0.84073   31.695
 4352.00    0.85544   0.84818   32.588
 4353.00    0.86268   0.85645   33.029
 4354.00    0.87368   0.86745   32.912
 4355.00    0.88937   0.88153   32.456
 4356.00    0.90791   0.89724   31.990
 4357.00    0.92630   0.91250   31.742
 4358.00    0.94219   0.92603   31.708
 4359.00    0.95470   0.93781   31.832
 4360.00    0.96490   0.94839   32.180
 4361.00    0.97462   0.95847   32.661
 4362.00    0.98499   0.96850   32.756
 4363.00    0.99567   0.97823   32.178
 4364.00    1.00421   0.98644   31.492
 4365.00    1.00812   0.99151   31.242
 4366.00    1.00676   0.99253   31.278
 4367.00    1.00090   0.98995   31.331
 4368.00    0.99208   0.98511   31.513
 4369.00    0.98255   0.97955   31.920
 4370.00    0.97505   0.97450   32.245
 4371.00    0.97077   0.97024   32.163
 4372.00    0.96793   0.96614   31.740
 4373.00    0.96462   0.96177   31.268
 4374.00    0.96134   0.95802   31.029
 4375.00    0.95993   0.95650   31.076
 4376.00    0.96228   0.95818   31.115
 4377.00    0.96873   0.96268   30.962
 4378.00    0.97695   0.96832   30.867
 4379.00    0.98331   0.97252   30.926
 4380.00    0.98415   0.97228   30.707
 4381.00    0.97700   0.96512   30.069
 4382.00    0.96155   0.95092   29.646
 4383.00    0.94047   0.93278   29.826
 4384.00    0.91957   0.91551   30.214
 4385.00    0.90419   0.90305   30.462
 4386.00    0.89660   0.89743   30.876
 4387.00    0.89662   0.89894   31.654
 4388.00    0.90236   0.90621   32.330
 4389.00    0.91129   0.91670   32.456
 4390.00    0.92109   0.92816   32.199
 4391.00    0.93048   0.93901   31.802
 4392.00    0.93950   0.94797   31.239
 4393.00    0.94834   0.95451   30.702
 4394.00    0.95657   0.95944   30.753
 4395.00    0.96351   0.96408   31.495
 4396.00    0.96852   0.96871   32.155
 4397.00    0.97118   0.97258   32.104
 4398.00    0.97135   0.97480   31.645
 4399.00    0.96906   0.97497   31.329
 4400.00    0.96445   0.97354   31.451
 4401.00    0.95848   0.97098   31.837
 4402.00    0.95294   0.96707   31.857
 4403.00    0.94884   0.96204   31.476
 4404.00    0.94585   0.95731   31.585
 4405.00    0.94408   0.95412   32.507
 4406.00    0.94490   0.95273   33.373
 4407.00    0.94916   0.95352   33.485
 4408.00    0.95639   0.95717   33.189
 4409.00    0.96544   0.96353   32.819
 4410.00    0.97488   0.97137   32.227
 4411.00    0.98278   0.97890   31.524
 4412.00    0.98685   0.98382   31.241
 4413.00    0.98524   0.98409   31.616
 4414.00    0.97724   0.97983   32.385
 4415.00    0.96501   0.97319   33.133
 4416.00    0.95354   0.96690   33.508
 4417.00    0.94707   0.96363   33.472
 4418.00    0.94736   0.96495   33.327
 4419.00    0.95363   0.97022   33.255
 4420.00    0.96298   0.97714   33.167
 4421.00    0.97191   0.98354   32.985
 4422.00    0.97751   0.98832   32.776
 4423.00    0.97942   0.99122   32.791
 4424.00    0.97993   0.99239   33.325
 4425.00    0.98095   0.99238   34.064
 4426.00    0.98275   0.99193   34.053
 4427.00    0.98445   0.99144   33.279
 4428.00    0.98446   0.99056   32.836
 4429.00    0.98141   0.98882   33.108
 4430.00    0.97484   0.98644   33.532
 4431.00    0.96615   0.98350   33.753
 4432.00    0.95815   0.97957   33.954
 4433.00    0.95226   0.97494   34.175
 4434.00    0.94824   0.97091   34.191
 4435.00    0.94684   0.96935   34.062
 4436.00    0.94999   0.97144   34.121
 4437.00    0.95812   0.97695   34.209
 4438.00    0.96930   0.98423   33.762
 4439.00    0.97998   0.99056   33.025
 4440.00    0.98606   0.99338   32.896
 4441.00    0.98567   0.99165   33.498
 4442.00    0.97999   0.98659   34.130
 4443.00    0.97294   0.98117   34.436
 4444.00    0.96978   0.97825   34.618
 4445.00    0.97319   0.97886   34.550
 4446.00    0.98230   0.98265   33.833
 4447.00    0.99377   0.98860   32.847
 4448.00    1.00313   0.99469   32.456
 4449.00    1.00782   0.99881   32.833
 4450.00    1.00759   1.00016   33.492
 4451.00    1.00339   0.99852   33.998
 4452.00    0.99671   0.99355   34.182
 4453.00    0.98896   0.98533   34.130
 4454.00    0.98116   0.97512   34.046
 4455.00    0.97367   0.96487   33.954
 4456.00    0.96649   0.95588   33.751
 4457.00    0.96017   0.94858   33.546
 4458.00    0.95546   0.94334   33.601
 4459.00    0.95188   0.94027   33.984
 4460.00    0.94841   0.93897   34.518
 4461.00    0.94579   0.93957    0.000
 4462.00    0.94598   0.94241    0.000
 4463.00    0.94921   0.94668    0.000
 4464.00    0.95401   0.95118    0.000
 4465.00    0.95904   0.95504    0.000
 4466.00    0.96349   0.95732    0.000
 4467.00    0.96681   0.95736    0.000
 4468.00    0.96902   0.95550    0.000
 4469.00    0.97133   0.95317    0.000
 4470.00    0.97572   0.95221    0.000
 4471.00    0.98379   0.95448    0.000
 4472.00    0.99562   0.96098    0.000
 4473.00    1.00814   0.97101    0.000
 4474.00    1.01694   0.98281    0.000
 4475.00    1.02050   0.99454    0.000
 4476.00    1.01973   1.00431    0.000
 4477.00    1.01531   1.00974    0.000
 4478.00    1.00733   1.00892    0.000
 4479.00    0.99583   1.00168    0.000
 4480.00    0.98179   0.99040    0.000
 4481.00    0.96874   0.97940    0.000
 4482.00    0.96174   0.97258   32.012
 4483.00    0.96497   0.97163   32.978
 4484.00    0.97935   0.97630   32.638
 4485.00    0.99951   0.98454   31.354
 4486.00    1.01700   0.99301   30.445
 4487.00    1.02679   0.99853   30.233
 4488.00    1.02798   0.99986   30.448
 4489.00    1.02315   0.99794   30.893
 4490.00    1.01642   0.99467   31.426
 4491.00    1.01048   0.99167   31.791
 4492.00    1.00644   0.98954   31.791
 4493.00    1.00429   0.98830   31.624
 4494.00    1.00322   0.98828   31.625
 4495.00    1.00210   0.98978   31.821
 4496.00    1.00049   0.99279   32.005
 4497.00    0.99991   0.99726   31.954
 4498.00    1.00225   1.00262   31.632
 4499.00    1.00733   1.00805   31.399
 4500.00    1.01381   1.01335   31.578
 4501.00    1.02117   1.01949   31.899
 4502.00    1.02936   1.02702   31.920
 4503.00    1.03819   1.03510   31.740
 4504.00    1.04695   1.04260   31.659
 4505.00    1.05418   1.04852   31.610
 4506.00    1.05834   1.05203   31.427
 4507.00    1.05868   1.05308   31.243
 4508.00    1.05555   1.05245   31.233
 4509.00    1.05063   1.05087   31.266
 4510.00    1.04608   1.04840   31.214
 4511.00    1.04339   1.04491   31.353
 4512.00    1.04260   1.04046   31.900
 4513.00    1.04159   1.03505   32.415
 4514.00    1.03877   1.02915   32.397
 4515.00    1.03608   1.02366   32.155
 4516.00    1.03580   1.01901   32.123
 4517.00    1.03682   1.01540   32.057
 4518.00    1.03687   1.01316   31.701
 4519.00    1.03515   1.01200   31.507
 4520.00    1.03188   1.01101   31.860
 4521.00    1.02742   1.00882   32.298
 4522.00    1.02220   1.00491   32.301
 4523.00    1.01680   0.99952   32.233
 4524.00    1.01134   0.99233   32.535
 4525.00    1.00515   0.98347   32.886
 4526.00    0.99765   0.97363   32.892
 4527.00    0.98937   0.96360   32.857
 4528.00    0.98141   0.95460   33.082
 4529.00    0.97487   0.94793   33.197
 4530.00    0.97045   0.94412   32.892
 4531.00    0.96821   0.94298   32.587
 4532.00    0.96781   0.94339   32.675
 4533.00    0.96892   0.94494   32.903
 4534.00    0.97169   0.94855   32.914
 4535.00    0.97711   0.95519   32.744
 4536.00    0.98593   0.96473   32.550
 4537.00    0.99780   0.97548   32.335
 4538.00    1.01102   0.98545   32.085
 4539.00    1.02268   0.99337   31.876
 4540.00    1.03041   0.99878   31.844
 4541.00    1.03379   1.00210   32.127
 4542.00    1.03403   1.00357   32.589
 4543.00    1.03340   1.00291   32.666
 4544.00    1.03336   1.00057   32.200
 4545.00    1.03332   0.99745   31.925
 4546.00    1.03141   0.99357   32.225
 4547.00    1.02550   0.98818   32.447
 4548.00    1.01518   0.98117   32.175
 4549.00    1.00289   0.97426   32.064
 4550.00    0.99148   0.96894    0.000
 4551.00    0.98248   0.96477    0.000
 4552.00    0.97608   0.96146    0.000
 4553.00    0.97137   0.95924    0.000
 4554.00    0.96789   0.95858    0.000
 4555.00    0.96655   0.96055    0.000
 4556.00    0.96925   0.96563    0.000
 4557.00    0.97817   0.97299    0.000
 4558.00    0.99341   0.98172    0.000
 4559.00    1.01186   0.99097    0.000
 4560.00    1.02930   0.99947    0.000
 4561.00    1.04195   1.00565    0.000
 4562.00    1.04800   1.00815    0.000
 4563.00    1.04815   1.00734    0.000
 4564.00    1.04421   1.00505    0.000
 4565.00    1.03818   1.00327    0.000
 4566.00    1.03277   1.00332    0.000
 4567.00    1.03098   1.00517    0.000
 4568.00    1.03228   1.00806    0.000
 4569.00    1.03210   1.01074    0.000
 4570.00    1.02947   1.01178    0.000
 4571.00    1.02935   1.01172    0.000
 4572.00    1.03280   1.01195    0.000
 4573.00    1.03377   1.01223    0.000
 4574.00    1.02831   1.01212    0.000
 4575.00    1.01904   1.01197    0.000
 4576.00    1.01330   1.01160    0.000
 4577.00    1.01912   1.01006    0.000
 4578.00    1.03177   1.00624    0.000
 4579.00    1.03282   1.00018    0.000
 4580.00    1.01486   0.99284    0.000
 4581.00    0.98959   0.98513    0.000
 4582.00    0.97209   0.97790    0.000
 4583.00    0.97150   0.97251    0.000
 4584.00    0.98306   0.96998    0.000
 4585.00    0.99051   0.97023    0.000
 4586.00    0.98967   0.97292    0.000
 4587.00    0.99225   0.97734    0.000
 4588.00    1.00018   0.98230    0.000
 4589.00    1.00112   0.98638    0.000
 4590.00    0.99298   0.98857    0.000
 4591.00    0.98867   0.98892    0.000
 4592.00    0.99597   0.98823    0.000
 4593.00    1.01076   0.98704    0.000
 4594.00    1.02220   0.98563    0.000
 4595.00    1.01933   0.98467    0.000
 4596.00    1.00695   0.98468    0.000
 4597.00    1.00347   0.98560    0.000
 4598.00    1.01322   0.98700    0.000
 4599.00    1.02289   0.98810    0.000
 4600.00    1.02376   0.98886    0.000
 4601.00    1.01775   0.98978    0.000
 4602.00    1.01128   0.99095    0.000
 4603.00    1.01094   0.99243    0.000
 4604.00    1.01705   0.99438    0.000
 4605.00    1.02405   0.99738    0.000
 4606.00    1.02864   1.00192    0.000
 4607.00    1.03139   1.00791    0.000
 4608.00    1.03350   1.01448    0.000
 4609.00    1.03530   1.02019    0.000
 4610.00    1.03478   1.02417    0.000
 4611.00    1.02968   1.02625    0.000
 4612.00    1.02459   1.02649    0.000
 4613.00    1.02777   1.02548    0.000
 4614.00    1.03708   1.02366    0.000
 4615.00    1.04216   1.02106    0.000
 4616.00    1.04109   1.01832    0.000
 4617.00    1.04012   1.01565    0.000
 4618.00    1.04085   1.01306    0.000
 4619.00    1.04034   1.01155    0.000
 4620.00    1.04009   1.01178    0.000
 4621.00    1.04422   1.01323    0.000
 4622.00    1.04923   1.01540    0.000
 4623.00    1.04688   1.01782    0.000
 4624.00    1.03749   1.01959    0.000
 4625.00    1.02894   1.02035    0.000
 4626.00    1.02681   1.02027    0.000
 4627.00    1.03135   1.01894    0.000
 4628.00    1.03646   1.01628    0.000
 4629.00    1.03427   1.01361    0.000
 4630.00    1.02530   1.01197    0.000
 4631.00    1.01702   1.01060    0.000
 4632.00    1.01543   1.00857    0.000
 4633.00    1.02144   1.00602    0.000
 4634.00    1.02750   1.00335    0.000
 4635.00    1.02368   1.00056    0.000
 4636.00    1.01115   0.99749    0.000
 4637.00    0.99949   0.99434    0.000
 4638.00    0.99584   0.99159    0.000
 4639.00    1.00277   0.98971    0.000
 4640.00    1.01837   0.98912    0.000
 4641.00    1.03644   0.98936    0.000
 4642.00    1.04674   0.98923    0.000
 4643.00    1.04016   0.98793    0.000
 4644.00    1.01749   0.98488    0.000
 4645.00    0.98824   0.97970    0.000
 4646.00    0.96525   0.97329    0.000
 4647.00    0.95712   0.96740    0.000
 4648.00    0.95752   0.96357    0.000
 4649.00    0.95528   0.96264    0.000
 4650.00    0.95384   0.96463    0.000
 4651.00    0.96297   0.96887    0.000
 4652.00    0.98052   0.97417    0.000
 4653.00    0.99565   0.97892    0.000
 4654.00    0.99899   0.98249    0.000
 4655.00    0.99053   0.98524    0.000
 4656.00    0.98807   0.98809    0.000
 4657.00    1.00756   0.99217    0.000
 4658.00    1.03327   0.99758    0.000
 4659.00    1.04028   1.00305    0.000
 4660.00    1.03248   1.00687    0.000
 4661.00    1.02598   1.00788    0.000
 4662.00    1.01877   1.00546    0.000
 4663.00    1.00285   0.99966    0.000
 4664.00    0.98581   0.99065    0.000
 4665.00    0.97827   0.97848    0.000
 4666.00    0.97435   0.96471    0.000
 4667.00    0.96549   0.95274    0.000
 4668.00    0.96055   0.94516    0.000
 4669.00    0.96972   0.94279    0.000
 4670.00    0.98215   0.94523    0.000
 4671.00    0.98406   0.95112    0.000
 4672.00    0.98318   0.95887    0.000
 4673.00    0.99126   0.96757    0.000
 4674.00    1.00086   0.97633    0.000
 4675.00    0.99944   0.98385    0.000
 4676.00    0.98816   0.98880    0.000
 4677.00    0.97512   0.99060    0.000
 4678.00    0.96530   0.98988    0.000
 4679.00    0.96191   0.98784    0.000
 4680.00    0.96857   0.98538    0.000
 4681.00    0.98436   0.98331    0.000
 4682.00    0.99911   0.98242    0.000
 4683.00    1.00319   0.98269    0.000
 4684.00    0.99778   0.98372    0.000
 4685.00    0.98948   0.98540    0.000
 4686.00    0.98346   0.98724    0.000
 4687.00    0.98186   0.98861    0.000
 4688.00    0.98290   0.98939    0.000
 4689.00    0.98418   0.98951    0.000
 4690.00    0.98556   0.98896    0.000
 4691.00    0.98737   0.98849    0.000
 4692.00    0.98863   0.98873    0.000
 4693.00    0.98885   0.98963    0.000
 4694.00    0.98980   0.99090    0.000
 4695.00    0.99415   0.99192    0.000
 4696.00    1.00374   0.99148    0.000
 4697.00    1.01398   0.98868    0.000
 4698.00    1.01135   0.98400    0.000
 4699.00    0.99104   0.97845    0.000
 4700.00    0.96951   0.97239    0.000
 4701.00    0.96204   0.96596    0.000
 4702.00    0.96525   0.96001    0.000
 4703.00    0.96965   0.95597    0.000
 4704.00    0.97067   0.95432    0.000
 4705.00    0.96823   0.95421    0.000
 4706.00    0.96545   0.95453    0.000
 4707.00    0.96462   0.95489    0.000
 4708.00    0.96475   0.95570    0.000
 4709.00    0.96499   0.95759    0.000
 4710.00    0.96710   0.96052    0.000
 4711.00    0.97374   0.96332    0.000
 4712.00    0.98659   0.96527    0.000
 4713.00    1.00213   0.96694    0.000
 4714.00    1.01039   0.96954    0.000
 4715.00    1.00537   0.97376    0.000
 4716.00    0.99139   0.97927    0.000
 4717.00    0.97782   0.98545    0.000
 4718.00    0.97406   0.99212    0.000
 4719.00    0.98116   0.99910    0.000
 4720.00    0.98901   1.00555    0.000
 4721.00    0.99185   1.01051    0.000
 4722.00    0.99555   1.01354    0.000
 4723.00    1.00368   1.01477    0.000
 4724.00    1.01007   1.01413    0.000
 4725.00    1.00710   1.01099    0.000
 4726.00    0.99145   1.00482    0.000
 4727.00    0.96797   0.99644    0.000
 4728.00    0.94939   0.98759    0.000
 4729.00    0.94346   0.97940    0.000
 4730.00    0.94698   0.97255    0.000
 4731.00    0.95270   0.96805    0.000
 4732.00    0.95440   0.96648    0.000
 4733.00    0.95304   0.96761    0.000
 4734.00    0.95718   0.97067    0.000
 4735.00    0.96945   0.97409    0.000
 4736.00    0.98193   0.97721    0.000
 4737.00    0.98809   0.98074    0.000
 4738.00    0.98806   0.98435    0.000
 4739.00    0.98513   0.98704    0.000
 4740.00    0.98326   0.98894    0.000
 4741.00    0.98447   0.99086    0.000
 4742.00    0.98792   0.99314    0.000
 4743.00    0.99195   0.99550    0.000
 4744.00    0.99483   0.99744    0.000
 4745.00    0.99441   0.99911    0.000
 4746.00    0.98889   1.00076    0.000
 4747.00    0.98065   1.00211    0.000
 4748.00    0.97560   1.00296    0.000
 4749.00    0.97400   1.00322    0.000
 4750.00    0.96979   1.00246    0.000
 4751.00    0.96332   1.00046    0.000
 4752.00    0.96258   0.99736    0.000
 4753.00    0.96803   0.99349    0.000
 4754.00    0.97078   0.98944    0.000
 4755.00    0.96832   0.98583    0.000
 4756.00    0.96709   0.98305    0.000
 4757.00    0.96939   0.98132    0.000
 4758.00    0.97086   0.98050    0.000
 4759.00    0.96899   0.97985    0.000
 4760.00    0.96542   0.97807    0.000
 4761.00    0.96281   0.97440   20.256
 4762.00    0.96283   0.96930   20.146
 4763.00    0.96323   0.96357   20.047
 4764.00    0.95899   0.95777   20.135
 4765.00    0.94927   0.95293   20.341
 4766.00    0.93871   0.95032   20.390
 4767.00    0.93403   0.95066   20.297
 4768.00    0.94032   0.95387   20.352
 4769.00    0.95313   0.95889   20.570
 4770.00    0.96126   0.96413   20.672
 4771.00    0.96185   0.96917   20.547
 4772.00    0.96124   0.97445   20.335
 4773.00    0.96403   0.97990   20.167
 4774.00    0.97076   0.98476   20.101
 4775.00    0.98056   0.98852   20.144
 4776.00    0.99179   0.99153   20.269
 4777.00    1.00155   0.99393   20.418
 4778.00    1.00640   0.99510   20.521
 4779.00    1.00451   0.99468   20.540
 4780.00    0.99628   0.99289   20.483
 4781.00    0.98427   0.98985   20.396
 4782.00    0.97193   0.98577   20.342
 4783.00    0.96084   0.98146   20.357
 4784.00    0.95140   0.97743   20.428
 4785.00    0.94634   0.97351   20.464
 4786.00    0.94839   0.97019   20.373
 4787.00    0.95297   0.96806   20.254
 4788.00    0.95238   0.96702   20.286
 4789.00    0.94901   0.96750   20.388
 4790.00    0.95184   0.96976   20.340
 4791.00    0.96202   0.97342   20.227
 4792.00    0.97392   0.97863   20.308
 4793.00    0.98465   0.98502   20.528
 4794.00    0.99440   0.99111   20.621
 4795.00    1.00266   0.99570   20.566
 4796.00    1.00736   0.99819   20.529
 4797.00    1.00490   0.99822   20.523
 4798.00    0.99252   0.99614   20.470
 4799.00    0.97280   0.99294   20.453
 4800.00    0.95299   0.98975   20.603
 4801.00    0.94171   0.98726   20.786
 4802.00    0.94419   0.98539   20.745
 4803.00    0.95466   0.98350   20.509
 4804.00    0.96144   0.98137   20.306
 4805.00    0.95869   0.97951   20.251
 4806.00    0.94798   0.97786   20.337
 4807.00    0.93689   0.97599   20.496
 4808.00    0.93343   0.97417   20.642
 4809.00    0.93712   0.97300   20.737
 4810.00    0.94266   0.97282   20.800
 4811.00    0.94858   0.97371   20.889
 4812.00    0.95515   0.97535   21.039
 4813.00    0.95893   0.97762   21.156
 4814.00    0.95748   0.98051   21.118
 4815.00    0.95789   0.98374   20.953
 4816.00    0.96763   0.98694   20.794
 4817.00    0.97918   0.98974   20.763
 4818.00    0.98117   0.99174   20.892
 4819.00    0.97805   0.99236   21.039
 4820.00    0.98034   0.99109   21.039
 4821.00    0.98649   0.98749   20.958
 4822.00    0.98850   0.98127   20.970
 4823.00    0.98355   0.97380   21.139
 4824.00    0.97361   0.96751   21.419
 4825.00    0.96256   0.96316   21.697
 4826.00    0.95485   0.96009   21.864
 4827.00    0.95401   0.95771   21.923
 4828.00    0.96004   0.95612   21.962
 4829.00    0.96669   0.95591   22.078
 4830.00    0.96568   0.95621   22.312
 4831.00    0.95295   0.95548   22.588
 4832.00    0.93205   0.95408   22.774
 4833.00    0.91652   0.95297   22.798
 4834.00    0.91739   0.95211   22.649
 4835.00    0.92872   0.95103   22.362
 4836.00    0.93936   0.94949   22.026
 4837.00    0.94801   0.94739   21.789
 4838.00    0.95568   0.94451   21.734
 4839.00    0.95576   0.94075   21.774
 4840.00    0.94308   0.93669   21.804
 4841.00    0.92455   0.93276   21.865
 4842.00    0.91106   0.92886   21.997
 4843.00    0.90754   0.92514   22.075
 4844.00    0.91276   0.92202   21.969
 4845.00    0.92058   0.91917   21.742
 4846.00    0.92478   0.91539   21.556
 4847.00    0.92367   0.90971   21.551
 4848.00    0.91768   0.90274    0.000
 4849.00    0.90678   0.89563    0.000
 4850.00    0.89170   0.88775    0.000
 4851.00    0.87525   0.87787    0.000
 4852.00    0.85998   0.86577    0.000
 4853.00    0.84606   0.85114    0.000
 4854.00    0.83294   0.83357    0.000
 4855.00    0.82158   0.81338    0.000
 4856.00    0.81943   0.79092    0.000
 4857.00    0.84390   0.76608    0.000
 4858.00    0.91501   0.73871    0.000
 4859.00    1.04620   0.70944    0.000
 4860.00    1.22312   0.68153    0.000
 4861.00    1.39058   0.66059    0.000
 4862.00    1.49024   0.64990    0.000
 4863.00    1.49285   0.64884    0.000
 4864.00    1.40108   0.65667    0.000
 4865.00    1.24787   0.67294    0.000
 4866.00    1.08023   0.69600    0.000
 4867.00    0.94384   0.72273    0.000
 4868.00    0.86243   0.74863    0.000
 4869.00    0.82587   0.76986    0.000
 4870.00    0.81361   0.78564    0.000
 4871.00    0.81255   0.79776    0.000
 4872.00    0.81631   0.80864    0.000
 4873.00    0.82334   0.81926    0.000
 4874.00    0.83334   0.82956    0.000
 4875.00    0.84491   0.83982   11.706
 4876.00    0.85678   0.85096   10.988
 4877.00    0.86847   0.86350   11.939
 4878.00    0.87951   0.87645   16.340
 4879.00    0.88883   0.88773   23.316
 4880.00    0.89576   0.89586   24.238
 4881.00    0.90052   0.90123   21.726
 4882.00    0.90358   0.90462   21.449
 4883.00    0.90514   0.90588   22.226
 4884.00    0.90421   0.90482   22.325
 4885.00    0.89867   0.90190   22.174
 4886.00    0.88898   0.89865   22.422
 4887.00    0.87960   0.89652   22.758
 4888.00    0.87402   0.89528   22.866
 4889.00    0.87236   0.89421   22.954
 4890.00    0.87355   0.89404   23.163
 4891.00    0.87687   0.89728   23.276
 4892.00    0.88290   0.90507   23.135
 4893.00    0.89341   0.91582   22.861
 4894.00    0.90772   0.92779   22.623
 4895.00    0.92171   0.94001   22.508
 4896.00    0.93216   0.95183   22.490
 4897.00    0.93879   0.96202   22.447
 4898.00    0.94308   0.96817   22.327
 4899.00    0.94729   0.96975   22.204
 4900.00    0.95236   0.96884   22.170
 4901.00    0.95722   0.96686   22.278
 4902.00    0.96011   0.96410   22.500
 4903.00    0.95972   0.96148   22.724
 4904.00    0.95738   0.96043   22.849
 4905.00    0.95639   0.96129   22.844
 4906.00    0.95467   0.96240   22.792
 4907.00    0.94492   0.96195   22.838
 4908.00    0.92916   0.95980   22.966
 4909.00    0.92034   0.95670   22.969
 4910.00    0.92365   0.95352   22.793
 4911.00    0.93173   0.95098   22.611
 4912.00    0.93786   0.94934   22.522
 4913.00    0.94063   0.94863   22.478
 4914.00    0.94056   0.94866   22.416
 4915.00    0.93828   0.94850   22.331
 4916.00    0.93309   0.94630   22.312
 4917.00    0.92352   0.94003   22.489
 4918.00    0.91132   0.92935   22.802
 4919.00    0.90137   0.91632   22.979
 4920.00    0.89591   0.90374   22.898
 4921.00    0.89328   0.89394   22.694
 4922.00    0.89077   0.88790   22.588
 4923.00    0.88662   0.88619   22.749
 4924.00    0.88316   0.89020   23.070
 4925.00    0.88553   0.90045   23.214
 4926.00    0.89451   0.91464   23.118
 4927.00    0.90562   0.92936   23.034
 4928.00    0.91438   0.94275   23.059
 4929.00    0.91842   0.95417   23.068
 4930.00    0.91849   0.96283   22.987
 4931.00    0.91827   0.96714   22.852
 4932.00    0.92262   0.96596   22.726
 4933.00    0.93457   0.96089   22.656
 4934.00    0.94843   0.95490   22.636
 4935.00    0.95276   0.94896   22.628
 4936.00    0.94411   0.94240   22.645
 4937.00    0.92829   0.93550   22.723
 4938.00    0.91269   0.93070   22.790
 4939.00    0.90339   0.93056   22.693
 4940.00    0.90367   0.93439    0.000
 4941.00    0.91359   0.93963    0.000
 4942.00    0.93017   0.94571    0.000
 4943.00    0.94805   0.95331    0.000
 4944.00    0.96102   0.96153    0.000
 4945.00    0.96469   0.96866    0.000
 4946.00    0.96173   0.97406    0.000
 4947.00    0.95983   0.97812    0.000
 4948.00    0.96380   0.98103    0.000
 4949.00    0.97315   0.98266    0.000
 4950.00    0.98139   0.98321    0.000
 4951.00    0.98079   0.98254    0.000
 4952.00    0.97324   0.97998    0.000
 4953.00    0.96716   0.97542    0.000
 4954.00    0.96566   0.96931    0.000
 4955.00    0.96640   0.96132    0.000
 4956.00    0.96711   0.95101    0.000
 4957.00    0.96733   0.94127    0.000
 4958.00    0.96948   0.93631    0.000
 4959.00    0.97606   0.93618    0.000
 4960.00    0.98402   0.93803    0.000
 4961.00    0.98715   0.94080    0.000
 4962.00    0.98310   0.94568    0.000
 4963.00    0.97368   0.95192    0.000
 4964.00    0.96262   0.95583    0.000
 4965.00    0.95361   0.95579    0.000
 4966.00    0.94724   0.95369    0.000
 4967.00    0.94214   0.95133    0.000
 4968.00    0.93771   0.94918    0.000
 4969.00    0.93459   0.94761    0.000
 4970.00    0.93433   0.94770    0.000
 4971.00    0.93844   0.95005    0.000
 4972.00    0.94688   0.95377    0.000
 4973.00    0.95754   0.95777    0.000
 4974.00    0.96607   0.96125    0.000
 4975.00    0.96794   0.96329    0.000
 4976.00    0.96185   0.96306    0.000
 4977.00    0.94988   0.95971    0.000
 4978.00    0.93673   0.95338    0.000
 4979.00    0.92615   0.94478    0.000
 4980.00    0.91606   0.93412    0.000
 4981.00    0.90291   0.92170    0.000
 4982.00    0.88902   0.90933    0.000
 4983.00    0.87994   0.89986    0.000
 4984.00    0.87927   0.89469    0.000
 4985.00    0.88730   0.89351    0.000
 4986.00    0.90034   0.89606    0.000
 4987.00    0.91236   0.90196    0.000
 4988.00    0.91742   0.90975    0.000
 4989.00    0.91352   0.91742    0.000
 4990.00    0.90666   0.92382    0.000
 4991.00    0.90432   0.92897    0.000
 4992.00    0.90668   0.93242    0.000
 4993.00    0.91020   0.93388    0.000
 4994.00    0.91339   0.93456    0.000
 4995.00    0.91579   0.93520    0.000
 4996.00    0.91592   0.93534    0.000
 4997.00    0.91274   0.93395    0.000
 4998.00    0.90750   0.93045    0.000
 4999.00    0.90233   0.92517    0.000
 5000.00    0.89849   0.91845    0.000
 5001.00    0.89723   0.91096    0.000
 5002.00    0.90100   0.90389    0.000
 5003.00    0.91360   0.89752    0.000
 5004.00    0.93968   0.89158    0.000
 5005.00    0.97918   0.88669    0.000
 5006.00    1.02208   0.88449    0.000
 5007.00    1.05563   0.88556    0.000
 5008.00    1.07235   0.88781    0.000
 5009.00    1.06928   0.88908    0.000
 5010.00    1.04672   0.88931    0.000
 5011.00    1.00875   0.88888    0.000
 5012.00    0.96363   0.88697    0.000
 5013.00    0.92059   0.88272    0.000
 5014.00    0.88663   0.87717    0.000
 5015.00    0.86522   0.87217    0.000
 5016.00    0.85559   0.86790    0.000
 5017.00    0.85481   0.86441    0.000
 5018.00    0.85976   0.86326    0.000
 5019.00    0.86723   0.86561    0.000
 5020.00    0.87407   0.87006    0.000
 5021.00    0.87840   0.87440    0.000
 5022.00    0.88058   0.87911    0.000
 5023.00    0.88261   0.88576    0.000
 5024.00    0.88709   0.89325    0.000
 5025.00    0.89375   0.89920    0.000
 5026.00    0.89747   0.90311    0.000
 5027.00    0.89464   0.90667    0.000
 5028.00    0.88796   0.91119    0.000
 5029.00    0.88334   0.91562   24.364
 5030.00    0.88652   0.91895   24.362
 5031.00    0.89704   0.92181   24.437
 5032.00    0.90556   0.92526   24.664
 5033.00    0.90577   0.92813   24.991
 5034.00    0.90169   0.92752   25.128
 5035.00    0.89789   0.92321   24.971
 5036.00    0.89289   0.91752   24.848
 5037.00    0.88421   0.91109   24.970
 5038.00    0.87201   0.90262   25.129
 5039.00    0.85935   0.89224   25.122
 5040.00    0.85162   0.88304   25.026
 5041.00    0.85271   0.87875   24.967
 5042.00    0.86261   0.87971   24.977
 5043.00    0.87849   0.88373   25.049
 5044.00    0.89567   0.88965   25.168
 5045.00    0.90960   0.89760   25.272
 5046.00    0.91716   0.90650   25.252
 5047.00    0.91777   0.91309   25.143
 5048.00    0.91363   0.91549   25.171
 5049.00    0.90766   0.91525   25.377
 5050.00    0.90229   0.91369   25.482
 5051.00    0.89933   0.91127   25.336
 5052.00    0.89981   0.90970   25.127
 5053.00    0.90320   0.91085   24.999
 5054.00    0.90760   0.91444   24.901
 5055.00    0.91273   0.91906   24.805
 5056.00    0.92058   0.92460   24.790
 5057.00    0.93102   0.93124   24.893
 5058.00    0.94060   0.93759   25.039
 5059.00    0.94845   0.94211   25.103
 5060.00    0.95737   0.94504   24.975
 5061.00    0.96454   0.94679   24.743
 5062.00    0.96029   0.94644   24.676
 5063.00    0.94308   0.94264   24.865
 5064.00    0.92351   0.93637   25.124
 5065.00    0.90973   0.93007   25.274
 5066.00    0.90178   0.92425   25.291
 5067.00    0.89695   0.91804   25.266
 5068.00    0.89265   0.91227   25.331
 5069.00    0.88794   0.90914   25.465
 5070.00    0.88387   0.90839   25.488
 5071.00    0.88245   0.90732   25.387
 5072.00    0.88535   0.90593   25.367
 5073.00    0.89070   0.90560   25.469
 5074.00    0.89353   0.90514   25.505
 5075.00    0.89223   0.90293   25.421
 5076.00    0.88982   0.89994   25.378
 5077.00    0.88875   0.89706   25.476
 5078.00    0.88904   0.89242   25.666
 5079.00    0.88901   0.88592   25.783
 5080.00    0.88672   0.88091   25.648
 5081.00    0.88363   0.87863   25.391
 5082.00    0.88411   0.87724   25.373
 5083.00    0.88897   0.87672   25.587
 5084.00    0.89504   0.87970   25.654
 5085.00    0.90145   0.88609   25.482
 5086.00    0.91009   0.89283   25.349
 5087.00    0.91981   0.89880   25.350
 5088.00    0.92606   0.90511   25.348
 5089.00    0.92576   0.91148   25.390
 5090.00    0.91958   0.91639   25.691
 5091.00    0.91363   0.91993   26.153
 5092.00    0.91585   0.92295   26.371
 5093.00    0.92405   0.92475   26.285
 5094.00    0.92727   0.92395   26.213
 5095.00    0.92060   0.92069   26.277
 5096.00    0.90758   0.91581   26.339
 5097.00    0.89436   0.90943   26.300
 5098.00    0.88656   0.90197   26.177
 5099.00    0.88581   0.89536   26.071
 5100.00    0.88969   0.89142   26.090
 5101.00    0.89464   0.88999   26.215
 5102.00    0.89777   0.88997   26.317
 5103.00    0.89963   0.89110   26.318
 5104.00    0.90247   0.89357   26.233
 5105.00    0.90420   0.89591   26.177
 5106.00    0.90015   0.89635   26.274
 5107.00    0.89100   0.89521   26.467
 5108.00    0.88238   0.89391   26.568
 5109.00    0.87883   0.89303   26.519
 5110.00    0.88161   0.89289   26.405
 5111.00    0.88715   0.89423   26.309
 5112.00    0.88995   0.89747   26.279
 5113.00    0.88976   0.90190   26.339
 5114.00    0.89052   0.90668   26.462
 5115.00    0.89452   0.91195   26.499
 5116.00    0.90133   0.91704   26.306
 5117.00    0.90849   0.92058   26.015
 5118.00    0.91293   0.92190   25.882
 5119.00    0.91356   0.92069   25.916
 5120.00    0.91083   0.91725   25.949
 5121.00    0.90463   0.91192   25.926
 5122.00    0.89478   0.90439   25.913
 5123.00    0.88293   0.89532   26.005
 5124.00    0.87197   0.88664   26.234
 5125.00    0.86437   0.87949   26.444
 5126.00    0.86133   0.87390   26.436
 5127.00    0.86172   0.86966   26.321
 5128.00    0.86286   0.86750   26.368
 5129.00    0.86216   0.86791   26.622
 5130.00    0.85902   0.87031   26.952
 5131.00    0.85747   0.87350   27.238
 5132.00    0.86232   0.87657   27.432
 5133.00    0.87207   0.87968   27.593
 5134.00    0.88117   0.88325   27.819
 5135.00    0.88595   0.88622   28.133
 5136.00    0.88527   0.88669   28.469
 5137.00    0.88009   0.88483   28.701
 5138.00    0.87295   0.88225   28.724
 5139.00    0.86733   0.88001   28.584
 5140.00    0.86605   0.87750   28.391
 5141.00    0.86921   0.87400   28.166
 5142.00    0.87470   0.87056   27.863
 5143.00    0.87952   0.86903   27.440
 5144.00    0.88054   0.86962   26.959
 5145.00    0.87543   0.86952   26.683
 5146.00    0.86507   0.86781   26.827
 5147.00    0.85643   0.86730   27.240
 5148.00    0.85631   0.86840   27.633
 5149.00    0.86255   0.86857   27.961
 5150.00    0.86866   0.86753   28.304
 5151.00    0.87151   0.86700   28.595
 5152.00    0.87117   0.86748   28.669
 5153.00    0.86927   0.86846   28.413
 5154.00    0.86876   0.86989   27.895
 5155.00    0.87344   0.87286   27.442
 5156.00    0.88472   0.87760   27.280
 5157.00    0.89798   0.88283   27.212
 5158.00    0.90689   0.88774   27.025
 5159.00    0.90906   0.89220   26.958
 5160.00    0.90556   0.89490   27.178
 5161.00    0.89949   0.89387   27.183
 5162.00    0.89350   0.88860   26.522
 5163.00    0.88727   0.87986   25.644
 5164.00    0.87804   0.86783   25.045
 5165.00    0.86187   0.85184   24.558
 5166.00    0.83807   0.83269   24.033
 5167.00    0.81318   0.81344   23.916
 5168.00    0.79418   0.79712   24.542
 5169.00    0.78146   0.78498   25.479
 5170.00    0.77326   0.77630   26.213
 5171.00    0.77050   0.77033   27.108
 5172.00    0.77394   0.76988   28.231
 5173.00    0.78116   0.77774   27.940
 5174.00    0.78985   0.79073   26.485
 5175.00    0.80084   0.80323   28.052
 5176.00    0.81536   0.81506   33.246
 5177.00    0.83210   0.82864   27.253
 5178.00    0.84764   0.84112   16.012
 5179.00    0.85726   0.84758   11.537
 5180.00    0.85809   0.84789   10.987
 5181.00    0.85150   0.84396   11.794
 5182.00    0.84033   0.83592   12.155
 5183.00    0.82637   0.82575   12.081
 5184.00    0.81180   0.81874   12.251
 5185.00    0.80023   0.81685   12.497
 5186.00    0.79546   0.81740   12.515
 5187.00    0.79998   0.81955   12.524
 5188.00    0.81272   0.82599   12.546
 5189.00    0.82780   0.83602   12.003
 5190.00    0.83907   0.84352    0.000
 5191.00    0.84370   0.84567    0.000
 5192.00    0.84315   0.84613    0.000
 5193.00    0.84309   0.84805    0.000
 5194.00    0.84898   0.84932    0.000
 5195.00    0.86285   0.84854    0.000
 5196.00    0.88331   0.84935    0.000
 5197.00    0.90609   0.85368    0.000
 5198.00    0.92649   0.85885    0.000
 5199.00    0.94094   0.86269    0.000
 5200.00    0.94584   0.86547    0.000
 5201.00    0.93745   0.86692    0.000
 5202.00    0.91615   0.86619    0.000
 5203.00    0.88858   0.86243    0.000
 5204.00    0.86349   0.85526    0.000
 5205.00    0.84815   0.84673    0.000
 5206.00    0.84260   0.83945    0.000
 5207.00    0.83840   0.83362    0.000
 5208.00    0.83112   0.82918    0.000
 5209.00    0.82619   0.82864    0.000
 5210.00    0.82830   0.83307    0.000
 5211.00    0.83592   0.84029   27.522
 5212.00    0.84531   0.84849   27.783
 5213.00    0.85328   0.85747   27.940
 5214.00    0.85816   0.86578   27.807
 5215.00    0.86020   0.87205   27.677
 5216.00    0.86086   0.87721   27.751
 5217.00    0.86211   0.88203   27.898
 5218.00    0.86447   0.88600   27.966
 5219.00    0.86639   0.88889   27.946
 5220.00    0.86611   0.89134   27.879
 5221.00    0.86286   0.89296   27.806
 5222.00    0.85769   0.89207   27.739
 5223.00    0.85329   0.88788   27.661
 5224.00    0.85068   0.88076   27.584
 5225.00    0.84853   0.87130   27.557
 5226.00    0.84670   0.86094   27.634
 5227.00    0.84716   0.85298   27.841
 5228.00    0.85038   0.84914   28.129
 5229.00    0.85449   0.84799   28.377
 5230.00    0.85880   0.84906   28.565
 5231.00    0.86454   0.85323   28.796
 5232.00    0.87175   0.85903   29.047
 5233.00    0.87842   0.86399   29.137
 5234.00    0.88260   0.86825   29.102
 5235.00    0.88358   0.87288   29.218
 5236.00    0.88283   0.87767   29.439
 5237.00    0.88333   0.88271   29.363
 5238.00    0.88581   0.88856   29.013
 5239.00    0.88836   0.89499   28.881
 5240.00    0.89066   0.90120   29.020
 5241.00    0.89430   0.90596   28.954
 5242.00    0.89838   0.90865   28.523
 5243.00    0.89921   0.91012   28.056
 5244.00    0.89531   0.91093   27.843
 5245.00    0.88856   0.90947   27.971
 5246.00    0.88175   0.90504   28.288
 5247.00    0.87748   0.90029   28.493
 5248.00    0.87752   0.89666   28.539
 5249.00    0.88191   0.89202   28.643
 5250.00    0.88680   0.88630   28.789
 5251.00    0.88601   0.88300   28.716
 5252.00    0.87826   0.88295   28.436
 5253.00    0.86812   0.88338   28.232
 5254.00    0.86207   0.88371   28.164
 5255.00    0.86543   0.88621   28.059
 5256.00    0.87737   0.89077   27.885
 5257.00    0.89169   0.89441   27.770
 5258.00    0.90340   0.89552   27.773
 5259.00    0.90983   0.89458   27.844
 5260.00    0.90831   0.89114   27.876
 5261.00    0.89679   0.88354   27.797
 5262.00    0.87723   0.87183   27.759
 5263.00    0.85486   0.85773   28.004
 5264.00    0.83383   0.84226   28.414
 5265.00    0.81639   0.82669   28.597
 5266.00    0.80416   0.81409   28.540
 5267.00    0.79818   0.80577   28.545
 5268.00    0.79847   0.79919   28.576
 5269.00    0.80358   0.79428   28.373
 5270.00    0.81007   0.79508   28.083
 5271.00    0.81416   0.80125   28.082
 5272.00    0.81595   0.80764   28.273
 5273.00    0.81865   0.81396   28.249
 5274.00    0.82461   0.82335   28.055
 5275.00    0.83413   0.83485   28.054
 5276.00    0.84506   0.84592   28.256
 5277.00    0.85478   0.85609   28.383
 5278.00    0.86452   0.86461   28.335
 5279.00    0.87701   0.87088   28.205
 5280.00    0.88968   0.87605   28.091
 5281.00    0.89685   0.88032   28.050
 5282.00    0.89711   0.88227   28.127
 5283.00    0.89317   0.88263   28.311
 5284.00    0.88857   0.88461   28.455
 5285.00    0.88619   0.88970   28.401
 5286.00    0.88681   0.89603   28.259
 5287.00    0.88999   0.90234   28.246
 5288.00    0.89609   0.90960   28.306
 5289.00    0.90554   0.91773   28.258
 5290.00    0.91686   0.92408   28.186
 5291.00    0.92708   0.92688   28.312
 5292.00    0.93342   0.92665   28.668
 5293.00    0.93381   0.92446   29.107
 5294.00    0.92753   0.92044   29.426
 5295.00    0.91557   0.91404   29.473
 5296.00    0.90104   0.90536   29.310
 5297.00    0.88780   0.89634   29.087
 5298.00    0.87814   0.88964   28.820
 5299.00    0.87247   0.88560   28.499
 5300.00    0.86964   0.88285   28.286
 5301.00    0.86871   0.88201   28.340
 5302.00    0.87152   0.88516   28.529
 5303.00    0.87987   0.89159   28.618
 5304.00    0.89094   0.89833   28.611
 5305.00    0.90022   0.90419   28.626
 5306.00    0.90667   0.90990   28.632
 5307.00    0.91133   0.91552   28.505
 5308.00    0.91427   0.92018   28.182
 5309.00    0.91494   0.92311   27.794
 5310.00    0.91323   0.92444   27.758
 5311.00    0.90987   0.92471   28.014
 5312.00    0.90665   0.92396   27.167
 5313.00    0.90547   0.92209   25.259
 5314.00    0.90698   0.91923   25.778
 5315.00    0.90999   0.91519   30.002
 5316.00    0.91123   0.91051   26.521
 5317.00    0.90889   0.90696   16.048
 5318.00    0.90664   0.90461   11.198
 5319.00    0.90863   0.90174   10.303
 5320.00    0.91327   0.89864   10.905
 5321.00    0.91642   0.89654   11.202
 5322.00    0.91604   0.89364   10.933
 5323.00    0.91166   0.88747   10.802
 5324.00    0.90333   0.87937   11.059
 5325.00    0.89176   0.87188   11.480
 5326.00    0.87853   0.86361   11.400
 5327.00    0.86507   0.85309   10.903
 5328.00    0.85158   0.84461   11.714
 5329.00    0.83898   0.84252   16.320
 5330.00    0.83084   0.84428   26.819
 5331.00    0.83158   0.84674   31.774
 5332.00    0.84410   0.85216   27.411
 5333.00    0.86601   0.86199   26.099
 5334.00    0.88712   0.87231   27.416
 5335.00    0.89885   0.87916   28.084
 5336.00    0.90288   0.88293   27.813
 5337.00    0.90295   0.88561   27.755
 5338.00    0.89723   0.88670   27.934
 5339.00    0.88478   0.88472   27.958
 5340.00    0.87152   0.88141   27.830
 5341.00    0.86463   0.87998   27.695
 5342.00    0.86712   0.88015   27.565
 5343.00    0.87735   0.88020   27.445
 5344.00    0.88946   0.88067   27.433
 5345.00    0.89772   0.88255   27.571
 5346.00    0.89993   0.88522   27.726
 5347.00    0.89659   0.88744   27.750
 5348.00    0.88976   0.88858   27.620
 5349.00    0.88233   0.89006   27.430
 5350.00    0.87718   0.89377   27.341
 5351.00    0.87602   0.89875   27.455
 5352.00    0.87862   0.90343   27.727
 5353.00    0.88464   0.90907   28.026
 5354.00    0.89475   0.91657   28.196
 5355.00    0.90884   0.92382   28.172
 5356.00    0.92472   0.92908   28.062
 5357.00    0.93839   0.93298   28.039
 5358.00    0.94485   0.93572   28.236
 5359.00    0.94243   0.93619   28.599
 5360.00    0.93490   0.93386   28.821
 5361.00    0.92615   0.92918   28.777
 5362.00    0.91678   0.92313   28.772
 5363.00    0.90645   0.91627   29.021
 5364.00    0.89566   0.90850   29.350
 5365.00    0.88642   0.90023   29.513
 5366.00    0.88204   0.89252   29.436
 5367.00    0.88287   0.88560   29.239
 5368.00    0.88457   0.87929   29.174
 5369.00    0.88310   0.87362   29.359
 5370.00    0.87770   0.86897   29.662
 5371.00    0.86997   0.86691   29.912
 5372.00    0.86305   0.86828   30.033
 5373.00    0.86074   0.87192   29.973
 5374.00    0.86636   0.87723   29.703
 5375.00    0.87903   0.88469   29.373
 5376.00    0.89276   0.89299   29.293
 5377.00    0.90299   0.90007   29.477
 5378.00    0.90933   0.90517   29.524
 5379.00    0.91210   0.90794   29.240
 5380.00    0.91074   0.90859   28.897
 5381.00    0.90564   0.90822   28.730
 5382.00    0.89878   0.90698   28.725
 5383.00    0.89212   0.90502   28.703
 5384.00    0.88703   0.90377   28.429
 5385.00    0.88494   0.90326   27.935
 5386.00    0.88716   0.90231   27.556
 5387.00    0.89208   0.90122   27.511
 5388.00    0.89512   0.90006   27.757
 5389.00    0.89404   0.89759   27.971
 5390.00    0.89031   0.89390   27.709
 5391.00    0.88472   0.88983   27.279
 5392.00    0.87625   0.88489   27.638
 5393.00    0.86582   0.87936   28.855
 5394.00    0.85692   0.87476   29.705
 5395.00    0.85174   0.87064   29.568
 5396.00    0.84979   0.86579   29.268
 5397.00    0.84920   0.86221   29.362
 5398.00    0.84799   0.86143   29.652
 5399.00    0.84654   0.86054   29.905
 5400.00    0.84752   0.85831   30.091
 5401.00    0.85199   0.85749   30.163
 5402.00    0.85833   0.85752   30.020
 5403.00    0.86367   0.85492   29.728
 5404.00    0.86507   0.85017   29.509
 5405.00    0.86111   0.84610   29.481
 5406.00    0.85304   0.84309   29.597
 5407.00    0.84638   0.84071   29.720
 5408.00    0.84849   0.83940   29.707
 5409.00    0.85909   0.84001   29.605
 5410.00    0.87018   0.84352   29.616
 5411.00    0.87660   0.84949   29.791
 5412.00    0.87874   0.85592   29.995
 5413.00    0.87954   0.86206   30.112
 5414.00    0.88244   0.86897   30.108
 5415.00    0.88781   0.87657   29.967
 5416.00    0.89310   0.88314   29.705
 5417.00    0.89623   0.88768   29.448
 5418.00    0.89648   0.89096   29.373
 5419.00    0.89377   0.89335   29.525
 5420.00    0.88853   0.89417   -2.000
 5421.00    0.88177   0.89373   -2.000
 5422.00    0.87481   0.89259   -2.000
 5423.00    0.86823   0.89029   -2.000
 5424.00    0.86266   0.88754   -2.000
 5425.00    0.86164   0.88581   -2.000
 5426.00    0.86915   0.88439   -2.000
 5427.00    0.88144   0.88190   -2.000
 5428.00    0.88925   0.87837   -2.000
 5429.00    0.88837   0.87491   -2.000
 5430.00    0.88069   0.87242   -2.000
 5431.00    0.86992   0.86953   -2.000
 5432.00    0.85952   0.86511   -2.000
 5433.00    0.85059   0.86220   -2.000
 5434.00    0.84323   0.86283   -2.000
 5435.00    0.84074   0.86479   29.393
 5436.00    0.84737   0.86748   29.465
 5437.00    0.86122   0.87266   29.317
 5438.00    0.87614   0.88013   29.475
 5439.00    0.88908   0.88787   29.727
 5440.00    0.89983   0.89466   29.538
 5441.00    0.90670   0.89988   29.466
 5442.00    0.90750   0.90261   30.267
 5443.00    0.90308   0.90243   30.468
 5444.00    0.89648   0.89950   28.697
 5445.00    0.88979   0.89417   28.896
 5446.00    0.88386   0.88773   35.030
 5447.00    0.87923   0.88235   34.160
 5448.00    0.87617   0.87885   19.363
 5449.00    0.87459   0.87635   12.205
 5450.00    0.87426   0.87515   10.635
 5451.00    0.87523   0.87582   11.222
 5452.00    0.87717   0.87691   11.708
 5453.00    0.87801   0.87674   11.460
 5454.00    0.87543   0.87503   11.316
 5455.00    0.86963   0.87303   11.475
 5456.00    0.86326   0.87228   11.623
 5457.00    0.86030   0.87237   11.631
 5458.00    0.86340   0.87198   11.572
 5459.00    0.86997   0.87247   11.494
 5460.00    0.87494   0.87487   11.423
 5461.00    0.87602   0.87679   11.410
 5462.00    0.87434   0.87642   11.468
 5463.00    0.87377   0.87584   11.460
 5464.00    0.87754   0.87662   11.306
 5465.00    0.88341   0.87674   11.280
 5466.00    0.88689   0.87594   11.531
 5467.00    0.88679   0.87693   11.381
 5468.00    0.88431   0.87886   10.633
 5469.00    0.88046   0.87881   11.068
 5470.00    0.87619   0.87787   15.514
 5471.00    0.87311   0.87724   28.912
 5472.00    0.87221   0.87439   39.449
 5473.00    0.87228   0.86921   31.930
 5474.00    0.87125   0.86473   29.046
 5475.00    0.86818   0.86010   30.802
 5476.00    0.86332   0.85372   31.643
 5477.00    0.85786   0.84924   30.823
 5478.00    0.85357   0.84847   30.635
 5479.00    0.85226   0.84790   31.060
 5480.00    0.85478   0.84761   31.071
 5481.00    0.85981   0.85085   30.726
 5482.00    0.86457   0.85611   30.555
 5483.00    0.86596   0.86001   30.555
 5484.00    0.86375   0.86354   30.501
 5485.00    0.86340   0.86816   30.400
 5486.00    0.86968   0.87173   30.344
 5487.00    0.87949   0.87364   30.319
 5488.00    0.88670   0.87548   30.341
 5489.00    0.88832   0.87663   30.594
 5490.00    0.88551   0.87650   31.106
 5491.00    0.88359   0.87698   31.404
 5492.00    0.88659   0.87786   31.151
 5493.00    0.89207   0.87744   30.847
 5494.00    0.89546   0.87731   30.982
 5495.00    0.89481   0.87806   31.265
 5496.00    0.89111   0.87734   31.267
 5497.00    0.88766   0.87570   31.101
 5498.00    0.88649   0.87555   31.008
 5499.00    0.88523   0.87527   30.932
 5500.00    0.88092   0.87287   30.827
 5501.00    0.87350   0.87045   30.912
 5502.00    0.86502   0.86920   31.303
 5503.00    0.85840   0.86741   31.699
 5504.00    0.85566   0.86472   31.770
 5505.00    0.85670   0.86216   31.560
 5506.00    0.86019   0.86045   31.266
 5507.00    0.86454   0.85973   30.995
 5508.00    0.86833   0.85887   30.815
 5509.00    0.87066   0.85732   30.799
 5510.00    0.87113   0.85675   30.957
 5511.00    0.86987   0.85713   31.203
 5512.00    0.86796   0.85683   31.451
 5513.00    0.86747   0.85687   31.687
 5514.00    0.86978   0.85843   31.767
 5515.00    0.87436   0.86071   31.347
 5516.00    0.87971   0.86369   30.480
 5517.00    0.88428   0.86797   29.816
 5518.00    0.88704   0.87291   29.634
 5519.00    0.88792   0.87725   29.479
 5520.00    0.88764   0.88073   29.273
 5521.00    0.88749   0.88348   29.836
 5522.00    0.88846   0.88471   31.319
 5523.00    0.89057   0.88381   32.126
 5524.00    0.89197   0.88119   31.495
 5525.00    0.88911   0.87776   31.239
 5526.00    0.88074   0.87381   31.711
 5527.00    0.87003   0.86910   30.451
 5528.00    0.86168   0.86477   28.803
 5529.00    0.85976   0.86252   32.553
 5530.00    0.86615   0.86145   39.714
 5531.00    0.87915   0.86062   -2.000
 5532.00    0.89084   0.86170   -2.000
 5533.00    0.88931   0.86420   -2.000
 5534.00    0.87997   0.86574   -2.000
 5535.00    0.89031   0.86706   -2.000
 5536.00    0.92816   0.86957   -2.000
 5537.00    0.96488   0.87181   -2.000
 5538.00    0.97223   0.87333   -2.000
 5539.00    0.94329   0.87577   -2.000
 5540.00    0.89365   0.87852   -2.000
 5541.00    0.85653   0.88007   -2.000
 5542.00    0.85728   0.88079   -2.000
 5543.00    0.89930   0.88155   -2.000
 5544.00    0.95981   0.88224   -2.000
 5545.00    0.99724   0.88221   -2.000
 5546.00    0.99422   0.88206   -2.000
 5547.00    0.97078   0.88322   -2.000
 5548.00    0.94789   0.88509   -2.000
 5549.00    0.93156   0.88639   -2.000
 5550.00    0.92091   0.88775   -2.000
 5551.00    0.91294   0.88937   -2.000
 5552.00    0.90576   0.88993   -2.000
 5553.00    0.89947   0.88918   -2.000
 5554.00    0.89439   0.88801   -2.000
 5555.00    0.89039   0.88674   31.470
 5556.00    0.88785   0.88496   31.754
 5557.00    0.88765   0.88285   31.972
 5558.00    0.88984   0.88116   31.977
 5559.00    0.89333   0.87981   31.993
 5560.00    0.89680   0.87809   32.043
 5561.00    0.89895   0.87594   31.871
 5562.00    0.89799   0.87364   31.585
 5563.00    0.89228   0.87134   31.647
 5564.00    0.88359   0.86897   32.096
 5565.00    0.87663   0.86598   32.428
 5566.00    0.87352   0.86328   32.291
 5567.00    0.87297   0.86197   31.780
 5568.00    0.87462   0.86032   31.306
 5569.00    0.87937   0.85832   31.292
 5570.00    0.88522   0.85837   31.530
 5571.00    0.88786   0.85909   31.335
 5572.00    0.88696   0.85836   30.822
 5573.00    0.88619   0.85904   30.802
 5574.00    0.88645   0.86184   31.318
 5575.00    0.88523   0.86303   31.627
 5576.00    0.88140   0.86396   31.566
 5577.00    0.87624   0.86706   31.679
 5578.00    0.87181   0.86930   31.996
 5579.00    0.87004   0.86997   32.005
 5580.00    0.87150   0.87106   31.712
 5581.00    0.87534   0.87100   31.632
 5582.00    0.87989   0.86889   31.845
 5583.00    0.88317   0.86605   31.953
 5584.00    0.88365   0.86176   31.673
 5585.00    0.88038   0.85557   31.125
 5586.00    0.87277   0.84895   30.996
 5587.00    0.86136   0.84253   31.840
 5588.00    0.84987   0.83648   32.168
 5589.00    0.84378   0.83149   30.297
 5590.00    0.84547   0.82848   30.134
 5591.00    0.85342   0.82793   36.746
 5592.00    0.86322   0.82937   38.008
 5593.00    0.86989   0.83191   21.205
 5594.00    0.87246   0.83489   12.663
 5595.00    0.87328   0.83856   10.639
 5596.00    0.87371   0.84197   11.136
 5597.00    0.87384   0.84317   11.782
 5598.00    0.87412   0.84361   11.576
 5599.00    0.87497   0.84479   11.245
 5600.00    0.87510   0.84467   11.316
 5601.00    0.87290   0.84330   11.725
 5602.00    0.87002   0.84379   11.719
 5603.00    0.86998   0.84646   10.875
 5604.00    0.87366   0.84997   10.874
 5605.00    0.87986   0.85452   14.446
 5606.00    0.88835   0.86055   26.815
 5607.00    0.89872   0.86743   41.656
 5608.00    0.90713   0.87343   34.199
 5609.00    0.90904   0.87788   29.531
 5610.00    0.90528   0.88053   30.933
 5611.00    0.90017   0.88084   32.634
 5612.00    0.89570   0.87920   32.255
 5613.00    0.89128   0.87600   31.633
 5614.00    0.88518   0.87071   31.702
 5615.00    0.87632   0.86448   32.188
 5616.00    0.86663   0.85971   32.613
 5617.00    0.85917   0.85561   32.634
 5618.00    0.85418   0.85135   32.428
 5619.00    0.85036   0.84957   32.385
 5620.00    0.84788   0.85018   32.507
 5621.00    0.84730   0.85059   32.572
 5622.00    0.84719   0.85082   32.515
 5623.00    0.84587   0.85109   32.423
 5624.00    0.84471   0.85109   32.400
 5625.00    0.84603   0.85171   32.491
 5626.00    0.84912   0.85268   32.601
 5627.00    0.85210   0.85327   32.570
 5628.00    0.85539   0.85525   32.314
 5629.00    0.86058   0.85912   31.906
 5630.00    0.86818   0.86245   31.629
 5631.00    0.87706   0.86497   31.667
 5632.00    0.88431   0.86746   31.739
 5633.00    0.88709   0.86864   31.501
 5634.00    0.88522   0.86810   31.158
 5635.00    0.88033   0.86667   31.058
 5636.00    0.87430   0.86424   31.131
 5637.00    0.86851   0.86097   31.151
 5638.00    0.86315   0.85818   31.132
 5639.00    0.85811   0.85591   31.194
 5640.00    0.85401   0.85348   31.327
 5641.00    0.85154   0.85204   31.438
 5642.00    0.85034   0.85229   31.443
 5643.00    0.84992   0.85280   31.327
 5644.00    0.85072   0.85328   31.197
 5645.00    0.85375   0.85501   31.082
 5646.00    0.85988   0.85719   30.748
 5647.00    0.86829   0.85890   30.061
 5648.00    0.87518   0.86060   29.337
 5649.00    0.87731   0.86204   28.892
 5650.00    0.87570   0.86284   28.665
 5651.00    0.87336   0.86304   28.503
 5652.00    0.87220   0.86260   28.442
 5653.00    0.87223   0.86106   28.522
 5654.00    0.87117   0.85810   28.600
 5655.00    0.86684   0.85473   28.590
 5656.00    0.85946   0.85137   28.707
 5657.00    0.85065   0.84617   29.154
 5658.00    0.84218   0.84036   29.823
 5659.00    0.83566   0.83748   30.470
 5660.00    0.83233   0.83560   30.945
 5661.00    0.83253   0.83252   31.192
 5662.00    0.83536   0.83197   31.225
 5663.00    0.83938   0.83478   31.177
 5664.00    0.84342   0.83720   31.302
 5665.00    0.84672   0.83900   31.696
 5666.00    0.84911   0.84207   32.073
 5667.00    0.85078   0.84573   32.155
 5668.00    0.85223   0.84877   32.045
 5669.00    0.85445   0.85156   31.994
 5670.00    0.85885   0.85431   32.160
 5671.00    0.86580   0.85719   32.490
 5672.00    0.87353   0.86061   32.661
 5673.00    0.87912   0.86392   32.520
 5674.00    0.87976   0.86642   32.383
 5675.00    0.87559   0.86857   32.513
 5676.00    0.87114   0.87062   32.763
 5677.00    0.86954   0.87129   32.923
 5678.00    0.86883   0.87007   32.971
 5679.00    0.86694   0.86852   32.942
 5680.00    0.86493   0.86682   32.817
 5681.00    0.86402   0.86357   32.638
 5682.00    0.86340   0.85949   32.557
 5683.00    0.86133   0.85635   32.646
 5684.00    0.85630   0.85361   32.792
 5685.00    0.84908   0.85050   32.888
 5686.00    0.84343   0.84838   32.953
 5687.00    0.84196   0.84780   33.025
 5688.00    0.84384   0.84807   33.089
 5689.00    0.84740   0.84915   33.089
 5690.00    0.85180   0.85099   32.969
 5691.00    0.85644   0.85352   32.776
 5692.00    0.86058   0.85678   32.691
 5693.00    0.86404   0.85978   32.796
 5694.00    0.86729   0.86161   32.972
 5695.00    0.87015   0.86304   33.064
 5696.00    0.87124   0.86367   32.989
 5697.00    0.86956   0.86239   32.825
 5698.00    0.86528   0.86009   32.791
 5699.00    0.85903   0.85785   32.936
 5700.00    0.85147   0.85482   33.046
 5701.00    0.84368   0.85079   32.987
 5702.00    0.83716   0.84748   32.868
 5703.00    0.83350   0.84471   32.846
 5704.00    0.83372   0.84123   33.002
 5705.00    0.83610   0.83758   33.222
 5706.00    0.83618   0.83463   33.219
 5707.00    0.83178   0.83177   33.001
 5708.00    0.82502   0.82821   32.950
 5709.00    0.82022   0.82542   33.213
 5710.00    0.82179   0.82457   33.508
 5711.00    0.82987   0.82427   33.525
 5712.00    0.83957   0.82533   33.188
 5713.00    0.84623   0.82936   32.775
 5714.00    0.84801   0.83397   32.769
 5715.00    0.84676   0.83886   33.199
 5716.00    0.84702   0.84552   33.536
 5717.00    0.85048   0.85157   33.510
 5718.00    0.85493   0.85654   33.376
 5719.00    0.85874   0.86178   33.314
 5720.00    0.86236   0.86601   33.238
 5721.00    0.86620   0.86909   33.047
 5722.00    0.86986   0.87200   32.737
 5723.00    0.87258   0.87378   32.463
 5724.00    0.87355   0.87450   32.450
 5725.00    0.87276   0.87498   32.647
 5726.00    0.87098   0.87437   32.726
 5727.00    0.86884   0.87283   32.586
 5728.00    0.86659   0.87167   32.391
 5729.00    0.86466   0.87047   32.030
 5730.00    0.86362   0.86872   31.186
 5731.00    0.86357   0.86772   30.079
 5732.00    0.86425   0.86785   29.315
 5733.00    0.86638   0.86798   29.067
 5734.00    0.87107   0.86797   29.115
 5735.00    0.87693   0.86871   29.379
 5736.00    0.88045   0.86974   29.963
 5737.00    0.88040   0.87018   30.784
 5738.00    0.87827   0.87040   31.516
 5739.00    0.87563   0.87047   31.950
 5740.00    0.87323   0.87023    0.000
 5741.00    0.87115   0.86994    0.000
 5742.00    0.86915   0.86956    0.000
 5743.00    0.86745   0.86913    0.000
 5744.00    0.86670   0.86885    0.000
 5745.00    0.86685   0.86858    0.000
 5746.00    0.86715   0.86800    0.000
 5747.00    0.86660   0.86710    0.000
 5748.00    0.86445   0.86606    0.000
 5749.00    0.86089   0.86486    0.000
 5750.00    0.85706   0.86299    0.000
 5751.00    0.85447   0.86082    0.000
 5752.00    0.85423   0.85920    0.000
 5753.00    0.85546   0.85772    0.000
 5754.00    0.85623   0.85639    0.000
 5755.00    0.85651   0.85594    0.000
 5756.00    0.85786   0.85598    0.000
 5757.00    0.86099   0.85629    0.000
 5758.00    0.86500   0.85707    0.000
 5759.00    0.86701   0.85755    0.000
 5760.00    0.86396   0.85747    0.000
 5761.00    0.85676   0.85733    0.000
 5762.00    0.84968   0.85684    0.000
 5763.00    0.84700   0.85664    0.000
 5764.00    0.85120   0.85750    0.000
 5765.00    0.86055   0.85862    0.000
 5766.00    0.87063   0.86031    0.000
 5767.00    0.87822   0.86318    0.000
 5768.00    0.88189   0.86554    0.000
 5769.00    0.88155   0.86700    0.000
 5770.00    0.87819   0.86832    0.000
 5771.00    0.87355   0.86862    0.000
 5772.00    0.86933   0.86787    0.000
 5773.00    0.86600   0.86694    0.000
 5774.00    0.86336   0.86536    0.000
 5775.00    0.86205   0.86333    0.000
 5776.00    0.86261   0.86145    0.000
 5777.00    0.86351   0.85875    0.000
 5778.00    0.86210   0.85530    0.000
 5779.00    0.85695   0.85180    0.000
 5780.00    0.84834   0.84729    0.000
 5781.00    0.83858   0.84206    0.000
 5782.00    0.83046   0.83764    0.000
 5783.00    0.82492   0.83370    0.000
 5784.00    0.82190   0.83010    0.000
 5785.00    0.82215   0.82848    0.000
 5786.00    0.82662   0.82899    0.000
 5787.00    0.83490   0.83015    0.000
 5788.00    0.84506   0.83224    0.000
 5789.00    0.85367   0.83603    0.000
 5790.00    0.85800   0.83974    0.000
 5791.00    0.85881   0.84284    0.000
 5792.00    0.85879   0.84661    0.000
 5793.00    0.85959   0.84973    0.000
 5794.00    0.86170   0.85192    0.000
 5795.00    0.86473   0.85469    0.000
 5796.00    0.86774   0.85695    0.000
 5797.00    0.86968   0.85826    0.000
 5798.00    0.87059   0.86016    0.000
 5799.00    0.87278   0.86222    0.000
 5800.00    0.87832   0.86328    0.000
 5801.00    0.88568   0.86431    0.000
 5802.00    0.89097   0.86579    0.000
 5803.00    0.89022   0.86622    0.000
 5804.00    0.88262   0.86572    0.000
 5805.00    0.87383   0.86555    0.000
 5806.00    0.87059   0.86502    0.000
 5807.00    0.87420   0.86396    0.000
 5808.00    0.88123   0.86343    0.000
 5809.00    0.88553   0.86325    0.000
 5810.00    0.88331   0.86318    0.000
 5811.00    0.87791   0.86332    0.000
 5812.00    0.87454   0.86329    0.000
 5813.00    0.87421   0.86325    0.000
 5814.00    0.87553   0.86319    0.000
 5815.00    0.87736   0.86271    0.000
 5816.00    0.87915   0.86237    0.000
 5817.00    0.88106   0.86277    0.000
 5818.00    0.88355   0.86341    0.000
 5819.00    0.88688   0.86419    0.000
 5820.00    0.89056   0.86577    0.000
 5821.00    0.89292   0.86763    0.000
 5822.00    0.89306   0.86897    0.000
 5823.00    0.89233   0.87022    0.000
 5824.00    0.89238   0.87147    0.000
 5825.00    0.89334   0.87218    0.000
 5826.00    0.89464   0.87249    0.000
 5827.00    0.89591   0.87277    0.000
 5828.00    0.89641   0.87296    0.000
 5829.00    0.89477   0.87297    0.000
 5830.00    0.89053   0.87275    0.000
 5831.00    0.88530   0.87237    0.000
 5832.00    0.88102   0.87198    0.000
 5833.00    0.87851   0.87136    0.000
 5834.00    0.87736   0.87032    0.000
 5835.00    0.87615   0.86956    0.000
 5836.00    0.87396   0.86922    0.000
 5837.00    0.87144   0.86860    0.000
 5838.00    0.86970   0.86823    0.000
 5839.00    0.86949   0.86876    0.000
 5840.00    0.87107   0.86925    0.000
 5841.00    0.87419   0.86935    0.000
 5842.00    0.87770   0.86985    0.000
 5843.00    0.87958   0.87011    0.000
 5844.00    0.87852   0.86939    0.000
 5845.00    0.87476   0.86828    0.000
 5846.00    0.86871   0.86676    0.000
 5847.00    0.86027   0.86441   -2.000
 5848.00    0.85082   0.86171   -2.000
 5849.00    0.84394   0.85871   -2.000
 5850.00    0.84129   0.85522   -2.000
 5851.00    0.84062   0.85171   -2.000
 5852.00    0.84001   0.84800   -2.000
 5853.00    0.84000   0.84383   -2.000
 5854.00    0.84033   0.84001   -2.000
 5855.00    0.83840   0.83656   -2.000
 5856.00    0.83209   0.83299   -2.000
 5857.00    0.82156   0.83025   -2.000
 5858.00    0.80974   0.82894   -2.000
 5859.00    0.80174   0.82813   -2.000
 5860.00    0.80004   0.82814   -2.000
 5861.00    0.80276   0.82975   -2.000
 5862.00    0.80812   0.83178   -2.000
 5863.00    0.81620   0.83393   -2.000
 5864.00    0.82565   0.83680   -2.000
 5865.00    0.83293   0.83942   -2.000
 5866.00    0.83710   0.84158   -2.000
 5867.00    0.84136   0.84402    0.000
 5868.00    0.84872   0.84612    0.000
 5869.00    0.85970   0.84750    0.000
 5870.00    0.87263   0.84887    0.000
 5871.00    0.88445   0.85000    0.000
 5872.00    0.89399   0.85019    0.000
 5873.00    0.90270   0.84983    0.000
 5874.00    0.91177   0.84919    0.000
 5875.00    0.92067   0.84780    0.000
 5876.00    0.92699   0.84587    0.000
 5877.00    0.92716   0.84395    0.000
 5878.00    0.91966   0.84196    0.000
 5879.00    0.90600   0.83956    0.000
 5880.00    0.88919   0.83716    0.000
 5881.00    0.87261   0.83489    0.000
 5882.00    0.85836   0.83180    0.000
 5883.00    0.84667   0.82750    0.000
 5884.00    0.83665   0.82239    0.000
 5885.00    0.82677   0.81548    0.000
 5886.00    0.81587   0.80570    0.000
 5887.00    0.80364   0.79447    0.000
 5888.00    0.79099   0.78213    0.000
 5889.00    0.77977   0.76757    0.000
 5890.00    0.77147   0.75405    0.000
 5891.00    0.76669   0.74352    0.000
 5892.00    0.76516   0.73340    0.000
 5893.00    0.76579   0.72667    0.000
 5894.00    0.76700   0.72574    0.000
 5895.00    0.76750   0.72553    0.000
 5896.00    0.76838   0.72778    0.000
 5897.00    0.77250   0.73559    0.000
 5898.00    0.78045   0.74354    0.000
 5899.00    0.79036   0.75219    0.000
 5900.00    0.80119   0.76494    0.000
 5901.00    0.81297   0.77712   32.450
 5902.00    0.82426   0.78756   32.281
 5903.00    0.83225   0.79886   32.199
 5904.00    0.83512   0.80859   32.426
 5905.00    0.83312   0.81544   32.533
 5906.00    0.82943   0.82131   32.362
 5907.00    0.82851   0.82602   32.132
 5908.00    0.83098   0.82889   31.961
 5909.00    0.83403   0.83074   31.841
 5910.00    0.83610   0.83196   31.877
 5911.00    0.83760   0.83236   32.185
 5912.00    0.83930   0.83195   32.438
 5913.00    0.84158   0.83092   32.098
 5914.00    0.84349   0.82982   31.363
 5915.00    0.84359   0.82874   30.895
 5916.00    0.84234   0.82760   30.814
 5917.00    0.84136   0.82721   30.852
 5918.00    0.84013   0.82754   31.050
 5919.00    0.83709   0.82814   31.658
 5920.00    0.83375   0.82946   32.517
 5921.00    0.83362   0.83095   33.102
 5922.00    0.83781   0.83220   33.150
 5923.00    0.84472   0.83363   32.820
 5924.00    0.85159   0.83457   32.479
 5925.00    0.85557   0.83492   32.454
 5926.00    0.85538   0.83512   32.748
 5927.00    0.85110   0.83478   33.114
 5928.00    0.84299   0.83408   33.332
 5929.00    0.83206   0.83327   33.314
 5930.00    0.82147   0.83225   33.191
 5931.00    0.81532   0.83155   33.133
 5932.00    0.81582   0.83116   33.007
 5933.00    0.82237   0.83089   32.606
 5934.00    0.83096   0.83107   32.165
 5935.00    0.83640   0.83173   32.081
 5936.00    0.83637   0.83254   32.335
 5937.00    0.83213   0.83308   32.604
 5938.00    0.82822   0.83379   32.617
 5939.00    0.82921   0.83468   32.314
 5940.00    0.83436   0.83476   31.977
 5941.00    0.83973   0.83465   31.953
 5942.00    0.84323   0.83495   32.250
 5943.00    0.84475   0.83468   32.654
 5944.00    0.84509   0.83419   33.008
 5945.00    0.84516   0.83406   33.257
 5946.00    0.84499   0.83369   33.451
 5947.00    0.84432   0.83306   33.631
 5948.00    0.84360   0.83230   33.660
 5949.00    0.84316   0.83129   33.433
 5950.00    0.84195   0.83036   33.220
 5951.00    0.83876   0.82936   33.325
 5952.00    0.83438   0.82813   33.588
 5953.00    0.83055   0.82746   33.687
 5954.00    0.82802   0.82725   33.679
 5955.00    0.82662   0.82684   33.764
 5956.00    0.82559   0.82688   33.857
 5957.00    0.82462   0.82774   33.760
 5958.00    0.82493   0.82868   33.481
 5959.00    0.82810   0.82980   33.179
 5960.00    0.83428   0.83158   33.036
 5961.00    0.84192   0.83354   33.151
 5962.00    0.84783   0.83530   33.450
 5963.00    0.84916   0.83708   33.678
 5964.00    0.84585   0.83879   33.464
 5965.00    0.83990   0.83994   32.899
 5966.00    0.83412   0.84090   32.985
 5967.00    0.83097   0.84197   33.951
 5968.00    0.83128   0.84260   33.412
 5969.00    0.83415   0.84312   31.263
 5970.00    0.83719   0.84386   33.383
 5971.00    0.83810   0.84408   42.491
 5972.00    0.83649   0.84374   34.663
 5973.00    0.83329   0.84316   18.040
 5974.00    0.83001   0.84189   12.087
 5975.00    0.82816   0.83983   11.220
 5976.00    0.82861   0.83760   12.066
 5977.00    0.83095   0.83529   12.402
 5978.00    0.83298   0.83274   12.001
 5979.00    0.83276   0.83061   11.786
 5980.00    0.83055   0.82887   12.049
 5981.00    0.82787   0.82708   12.454
 5982.00    0.82623   0.82575   12.073
 5983.00    0.82639   0.82458   11.231
 5984.00    0.82770   0.82316   12.209
 5985.00    0.82889   0.82244   18.496
 5986.00    0.82883   0.82209   35.818
 5987.00    0.82692   0.82176   43.018
 5988.00    0.82340   0.82238   33.795
 5989.00    0.81970   0.82366   32.141
 5990.00    0.81839   0.82490   34.881
 5991.00    0.82109   0.82637   35.702
 5992.00    0.82681   0.82813   34.594
 5993.00    0.83359   0.82956   34.096
 5994.00    0.83985   0.83035   34.107
 5995.00    0.84496   0.83099   33.917
 5996.00    0.84939   0.83122   33.740
 5997.00    0.85351   0.83064   33.877
 5998.00    0.85664   0.82992   34.089
 5999.00    0.85723   0.82892   34.108
 6000.00    0.85341   0.82762   34.035
 6001.00    0.84547   0.82651   34.057
 6002.00    0.83720   0.82515   34.223
 6003.00    0.83158   0.82383   34.439
 6004.00    0.82811   0.82283   34.511
 6005.00    0.82510   0.82134   34.416
 6006.00    0.82155   0.82010   34.435
 6007.00    0.81746   0.81925   34.654
 6008.00    0.81393   0.81802   34.734
 6009.00    0.81213   0.81745   34.533
 6010.00    0.81266   0.81724   34.435
 6011.00    0.81533   0.81686   34.599
 6012.00    0.81912   0.81699   34.625
 6013.00    0.82239   0.81696   34.367
 6014.00    0.82336   0.81674   34.317
 6015.00    0.82194   0.81661   34.714
 6016.00    0.82031   0.81584   35.135
 6017.00    0.81986   0.81511   35.224
 6018.00    0.81974   0.81459   35.123
 6019.00    0.81887   0.81356   35.037
 6020.00    0.81723   0.81283   34.986
 6021.00    0.81580   0.81273   34.928
 6022.00    0.81618   0.81275   34.842
 6023.00    0.81850   0.81318   34.758
 6024.00    0.82074   0.81433   34.749
 6025.00    0.82153   0.81621   34.843
 6026.00    0.82137   0.81830   34.982
 6027.00    0.82170   0.82063   35.050
 6028.00    0.82400   0.82364   34.920
 6029.00    0.82833   0.82647   34.628
 6030.00    0.83303   0.82897   34.392
 6031.00    0.83744   0.83165   34.341
 6032.00    0.84246   0.83399   34.441
 6033.00    0.84738   0.83577   34.630
 6034.00    0.84937   0.83732   34.869
 6035.00    0.84772   0.83855   35.064
 6036.00    0.84503   0.83923   35.068
 6037.00    0.84353   0.83957   34.911
 6038.00    0.84357   0.83970   34.805
 6039.00    0.84403   0.83942   34.768
 6040.00    0.84319   0.83912   34.601
 6041.00    0.84129   0.83891   34.405
 6042.00    0.84068   0.83857   34.577
 6043.00    0.84244   0.83869   35.000
 6044.00    0.84544   0.83909   34.981
 6045.00    0.84802   0.83942   34.482
 6046.00    0.84888   0.84012   34.246
 6047.00    0.84767   0.84087   34.498
 6048.00    0.84516   0.84118   34.768
 6049.00    0.84296   0.84132   34.826
 6050.00    0.84262   0.84114   34.912
 6051.00    0.84283   0.84036   35.168
 6052.00    0.84012   0.83915   35.476
 6053.00    0.83495   0.83765   35.663
 6054.00    0.83157   0.83601   35.623
 6055.00    0.83057   0.83429   35.442
 6056.00    0.82842   0.83270   35.349
 6057.00    0.82435   0.83160   35.431
 6058.00    0.82120   0.83073   35.588
 6059.00    0.82081   0.83004   35.632
 6060.00    0.82276   0.82972   35.439
 6061.00    0.82520   0.82936   35.275
 6062.00    0.82599   0.82863   35.565
 6063.00    0.82496   0.82811   35.966
 6064.00    0.82371   0.82763   35.604
 6065.00    0.82290   0.82692   34.757
 6066.00    0.82207   0.82715   34.480
 6067.00    0.82116   0.82811   34.600
 6068.00    0.82094   0.82929   34.128
 6069.00    0.82268   0.83156   33.581
 6070.00    0.82736   0.83421   34.172
 6071.00    0.83389   0.83653   34.424
 6072.00    0.83953   0.83878   32.168
 6073.00    0.84212   0.84036   31.545
 6074.00    0.84082   0.84097   37.893
 6075.00    0.83644   0.84061   39.238
 6076.00    0.83102   0.83934   22.266
 6077.00    0.82688   0.83742   13.388
 6078.00    0.82552   0.83461   11.291
 6079.00    0.82593   0.83154   11.811
 6080.00    0.82551   0.82875   12.356
 6081.00    0.82307   0.82570   12.182
 6082.00    0.81928   0.82310   12.317
 6083.00    0.81597   0.82136   12.447
 6084.00    0.81502   0.81973   11.686
 6085.00    0.81651   0.81866   11.627
 6086.00    0.81903   0.81825   15.304
 6087.00    0.82111   0.81780   28.436
 6088.00    0.82162   0.81772   43.808
 6089.00    0.81992   0.81782   38.045
 6090.00    0.81608   0.81771   32.963
 6091.00    0.81108   0.81801   34.801
 6092.00    0.80653   0.81843   36.680
 6093.00    0.80384   0.81872   36.008
 6094.00    0.80394   0.81952   35.535
 6095.00    0.80698   0.82039   35.917
 6096.00    0.81237   0.82076   35.958
 6097.00    0.81894   0.82113   35.379
 6098.00    0.82506   0.82108   34.766
 6099.00    0.82889   0.81976   34.450
 6100.00    0.82912   0.81809   34.418
 6101.00    0.82602   0.81625   34.428
 6102.00    0.82104   0.81338   34.256
 6103.00    0.81575   0.81118   34.065
 6104.00    0.81128   0.81007   34.106
 6105.00    0.80770   0.80899   34.171
 6106.00    0.80506   0.80958   33.952
 6107.00    0.80510   0.81136   33.713
 6108.00    0.80917   0.81306   33.883
 6109.00    0.81485   0.81574   34.313
 6110.00    0.81851   0.81837   34.610
 6111.00    0.81981   0.82024   34.823
 6112.00    0.82073   0.82216   35.093
 6113.00    0.82292   0.82327   34.970
 6114.00    0.82651   0.82370   34.209
 6115.00    0.82914   0.82381   33.862
 6116.00    0.82814   0.82278   34.552
 6117.00    0.82378   0.82138   34.304
 6118.00    0.81805   0.81947   32.498
 6119.00    0.81250   0.81634   34.367
 6120.00    0.80777   0.81352   43.179
 6121.00    0.80340   0.81064   36.969
 6122.00    0.79912   0.80729   19.552
 6123.00    0.79626   0.80546   12.825
 6124.00    0.79647   0.80434   11.654
 6125.00    0.79976   0.80348   12.432
 6126.00    0.80454   0.80433   12.809
 6127.00    0.80795   0.80561   12.405
 6128.00    0.80782   0.80675   12.155
 6129.00    0.80480   0.80850   12.403
 6130.00    0.80130   0.80969   12.849
 6131.00    0.79990   0.80985   12.539
 6132.00    0.80168   0.80950   11.623
 6133.00    0.80475   0.80798   12.348
 6134.00    0.80591   0.80494   18.046
 6135.00    0.80277   0.80147   34.396
 6136.00    0.79494   0.79756   43.808
 6137.00    0.78495   0.79338   35.013
 6138.00    0.77683   0.79030   32.810
 6139.00    0.77430   0.78847   35.396
 6140.00    0.77826   0.78805   36.377
 6141.00    0.78470   0.78926   35.582
 6142.00    0.78931   0.79159   35.707
 6143.00    0.79190   0.79490   36.319
 6144.00    0.79431   0.79839   36.165
 6145.00    0.79806   0.80159   35.755
 6146.00    0.80353   0.80439   35.887
 6147.00    0.80948   0.80621   36.240
 6148.00    0.81421   0.80732   36.262
 6149.00    0.81666   0.80779   36.059
 6150.00    0.81644   0.80761   35.960
 6151.00    0.81379   0.80710   36.071
 6152.00    0.80953   0.80642   36.266
 6153.00    0.80482   0.80564   36.235
 6154.00    0.80043   0.80436   35.856
 6155.00    0.79615   0.80258   35.444
 6156.00    0.79169   0.80043   35.264
 6157.00    0.78740   0.79713   35.222
 6158.00    0.78381   0.79283   35.120
 6159.00    0.78113   0.78796   34.864
 6160.00    0.77840   0.78222   34.425
 6161.00    0.77324   0.77632   33.825
 6162.00    0.76487   0.77094   33.377
 6163.00    0.75603   0.76607   33.644
 6164.00    0.75052   0.76272   34.132
 6165.00    0.75102   0.76111   32.923
 6166.00    0.75725   0.76033   31.555
 6167.00    0.76523   0.76105   35.809
 6168.00    0.77134   0.76297   43.808
 6169.00    0.77473   0.76479   31.674
 6170.00    0.77578   0.76710   17.065
 6171.00    0.77491   0.76982   12.442
 6172.00    0.77305   0.77239   12.174
 6173.00    0.77176   0.77527   13.137
 6174.00    0.77229   0.77829   13.284
 6175.00    0.77498   0.78128   12.812
 6176.00    0.77877   0.78440   12.616
 6177.00    0.78143   0.78730   12.906
 6178.00    0.78231   0.78999   13.189
 6179.00    0.78344   0.79245   12.512
 6180.00    0.78633   0.79449   11.764
 6181.00    0.79033   0.79625   13.567
 6182.00    0.79417   0.79740   22.177
 6183.00    0.79683   0.79790   41.629
 6184.00    0.79803   0.79795   42.625
 6185.00    0.79817   0.79686   34.274
 6186.00    0.79736   0.79507   34.269
 6187.00    0.79495   0.79300   37.121
 6188.00    0.79029   0.78977   37.274
 6189.00    0.78316   0.78661   36.422
 6190.00    0.77472   0.78414   36.576
 6191.00    0.76752   0.78139   36.526
 6192.00    0.76388   0.77990   35.342
 6193.00    0.76491   0.77968   33.762
 6194.00    0.76997   0.77994   32.352
 6195.00    0.77675   0.78164   31.027
 6196.00    0.78289   0.78361   29.849
 6197.00    0.78680   0.78559   29.160
 6198.00    0.78818   0.78815   29.254
 6199.00    0.78780   0.78999   30.289
 6200.00    0.78582   0.79146   32.012
 6201.00    0.78170   0.79310   33.552
 6202.00    0.77669   0.79439   34.309
 6203.00    0.77405   0.79576   34.569
 6204.00    0.77561   0.79708   34.771
 6205.00    0.78060   0.79824   35.098
 6206.00    0.78667   0.79936   35.531
 6207.00    0.79097   0.79977   35.941
 6208.00    0.79244   0.79950   36.330
 6209.00    0.79212   0.79861   36.840
 6210.00    0.79094   0.79649   37.378
 6211.00    0.78890   0.79367   37.610
 6212.00    0.78544   0.79022   37.611
 6213.00    0.77978   0.78587   37.806
 6214.00    0.77201   0.78179   37.863
 6215.00    0.76332   0.77784   36.820
 6216.00    0.75580   0.77398   34.875
 6217.00    0.75171   0.77139   33.146
 6218.00    0.75137   0.76941   31.984
 6219.00    0.75310   0.76812   31.152
 6220.00    0.75525   0.76801   30.801
 6221.00    0.75687   0.76811   31.373
 6222.00    0.75749   0.76876   32.639
 6223.00    0.75706   0.76986   33.611
 6224.00    0.75583   0.77040   33.897
 6225.00    0.75425   0.77106   34.012
 6226.00    0.75282   0.77135   34.160
 6227.00    0.75183   0.77054   34.126
 6228.00    0.75073   0.76967   34.173
 6229.00    0.74868   0.76832   34.891
 6230.00    0.74618   0.76636   36.060
 6231.00    0.74477   0.76511   36.698
 6232.00    0.74487   0.76410   36.666
 6233.00    0.74557   0.76341   36.734
 6234.00    0.74571   0.76392   37.113
 6235.00    0.74433   0.76455   37.404
 6236.00    0.74117   0.76523   37.518
 6237.00    0.73650   0.76597   37.710
 6238.00    0.73066   0.76605   38.005
 6239.00    0.72434   0.76544   38.227
 6240.00    0.71940   0.76397   38.446
 6241.00    0.71814   0.76240   38.844
 6242.00    0.72105   0.76048   39.129
 6243.00    0.72657   0.75820   38.718
 6244.00    0.73191   0.75696   37.574
 6245.00    0.73448   0.75586   36.136
 6246.00    0.73442   0.75512   34.741
 6247.00    0.73400   0.75564   33.562
 6248.00    0.73505   0.75591   32.721
 6249.00    0.73825   0.75622   32.358
 6250.00    0.74280   0.75705   32.732
 6251.00    0.74712   0.75682   33.981
 6252.00    0.75027   0.75593   35.423
 6253.00    0.75264   0.75503   36.026
 6254.00    0.75656   0.75325   36.412
 6255.00    0.76323   0.75117   37.180
 6256.00    0.76683   0.74969   -2.000
 6257.00    0.75806   0.74864   -2.000
 6258.00    0.73282   0.74804   -2.000
 6259.00    0.69594   0.74873   -2.000
 6260.00    0.66457   0.75064   -2.000
 6261.00    0.65797   0.75289   -2.000
 6262.00    0.67892   0.75603   -2.000
 6263.00    0.71533   0.75968   -2.000
 6264.00    0.74882   0.76303   -2.000
 6265.00    0.76465   0.76634   -2.000
 6266.00    0.76505   0.76903   -2.000
 6267.00    0.76182   0.77110   -2.000
 6268.00    0.76083   0.77302   32.311
 6269.00    0.76206   0.77446   32.240
 6270.00    0.76374   0.77536   33.907
 6271.00    0.76416   0.77627   35.719
 6272.00    0.76355   0.77733   36.804
 6273.00    0.76325   0.77805   37.382
 6274.00    0.76402   0.77847   37.676
 6275.00    0.76568   0.77905   37.787
 6276.00    0.76708   0.77927   37.862
 6277.00    0.76702   0.77889   37.910
 6278.00    0.76566   0.77864   37.573
 6279.00    0.76367   0.77809   36.646
 6280.00    0.76096   0.77733    0.000
 6281.00    0.75733   0.77722    0.000
 6282.00    0.75364   0.77701    0.000
 6283.00    0.75099   0.77735    0.000
 6284.00    0.74954   0.77856    0.000
 6285.00    0.74885   0.77961    0.000
 6286.00    0.74858   0.78128    0.000
 6287.00    0.74891   0.78299    0.000
 6288.00    0.75089   0.78418    0.000
 6289.00    0.75519   0.78543    0.000
 6290.00    0.76061   0.78574    0.000
 6291.00    0.76523   0.78553    0.000
 6292.00    0.76790   0.78497    0.000
 6293.00    0.76877   0.78338    0.000
 6294.00    0.76956   0.78165    0.000
 6295.00    0.77253   0.77959    0.000
 6296.00    0.77922   0.77719    0.000
 6297.00    0.79095   0.77504    0.000
 6298.00    0.80910   0.77264    0.000
 6299.00    0.83232   0.77055    0.000
 6300.00    0.85401   0.76923    0.000
 6301.00    0.86718   0.76810    0.000
 6302.00    0.86941   0.76746    0.000
 6303.00    0.86186   0.76776    0.000
 6304.00    0.84769   0.76882    0.000
 6305.00    0.83077   0.77031    0.000
 6306.00    0.81451   0.77214    0.000
 6307.00    0.80172   0.77409    0.000
 6308.00    0.79445   0.77598    0.000
 6309.00    0.79302   0.77752    0.000
 6310.00    0.79524   0.77832    0.000
 6311.00    0.79804   0.77813    0.000
 6312.00    0.79893   0.77719    0.000
 6313.00    0.79631   0.77590    0.000
 6314.00    0.78966   0.77373    0.000
 6315.00    0.78009   0.77098    0.000
 6316.00    0.77049   0.76879    0.000
 6317.00    0.76402   0.76674    0.000
 6318.00    0.76263   0.76523    0.000
 6319.00    0.76491   0.76467    0.000
 6320.00    0.76544   0.76457    0.000
 6321.00    0.76135   0.76590   28.064
 6322.00    0.75671   0.76808   23.619
 6323.00    0.75689   0.77026   21.055
 6324.00    0.76409   0.77301   19.901
 6325.00    0.77701   0.77612   19.901
 6326.00    0.79116   0.77892   21.398
 6327.00    0.80129   0.78084   24.861
 6328.00    0.80342   0.78254   29.939
 6329.00    0.79792   0.78383   34.864
 6330.00    0.79048   0.78408   37.569
 6331.00    0.78564   0.78395   37.830
 6332.00    0.78287   0.78285   37.486
 6333.00    0.77996   0.78125   37.713
 6334.00    0.77540   0.77983   37.921
 6335.00    0.76874   0.77764   37.593
 6336.00    0.76077   0.77531   37.295
 6337.00    0.75399   0.77368   37.313
 6338.00    0.75225   0.77228   37.059
 6339.00    0.75674   0.77123   36.386
 6340.00    0.76429   0.77055   36.085
 6341.00    0.77123   0.76995   36.528
 6342.00    0.77561   0.77013   37.143
 6343.00    0.77672   0.77026   37.339
 6344.00    0.77473   0.76974   37.093
 6345.00    0.77039   0.76992   36.689
 6346.00    0.76501   0.77020   36.459
 6347.00    0.76064   0.77037   36.587
 6348.00    0.75975   0.77106   37.041
 6349.00    0.76309   0.77186   37.649
 6350.00    0.76888   0.77307   38.148
 6351.00    0.77451   0.77412   38.409
 6352.00    0.77772   0.77442   38.535
 6353.00    0.77769   0.77469   38.619
 6354.00    0.77534   0.77426   38.646
 6355.00    0.77219   0.77249   38.608
 6356.00    0.76956   0.77029   38.545
 6357.00    0.76780   0.76772   38.465
 6358.00    0.76619   0.76458   38.328
 6359.00    0.76408   0.76128   38.150
 6360.00    0.76162   0.75820   38.010
 6361.00    0.76049   0.75583   37.919
 6362.00    0.76344   0.75427   37.797
 6363.00    0.77097   0.75325   37.625
 6364.00    0.78058   0.75324   37.486
 6365.00    0.78921   0.75462   37.487
 6366.00    0.79455   0.75661   37.696
 6367.00    0.79540   0.75892   38.054
 6368.00    0.79198   0.76187   38.369
 6369.00    0.78610   0.76515   38.485
 6370.00    0.78062   0.76829   38.368
 6371.00    0.77716   0.77108   38.117
 6372.00    0.77549   0.77363   37.908
 6373.00    0.77491   0.77610   37.854
 6374.00    0.77487   0.77814   37.973
 6375.00    0.77537   0.77948   38.254
 6376.00    0.77689   0.78048   38.641
 6377.00    0.77930   0.78122   38.890
 6378.00    0.78182   0.78140   38.696
 6379.00    0.78371   0.78119   38.270
 6380.00    0.78453   0.78059   38.194
 6381.00    0.78408   0.77984   38.470
 6382.00    0.78235   0.77939   38.543
 6383.00    0.77972   0.77890   38.275
 6384.00    0.77671   0.77860   38.051
 6385.00    0.77354   0.77866   38.066
 6386.00    0.77026   0.77871   38.211
 6387.00    0.76787   0.77888   38.311
 6388.00    0.76796   0.77904   38.236
 6389.00    0.77053   0.77867   37.994
 6390.00    0.77379   0.77766   37.714
 6391.00    0.77537   0.77681   37.501
 6392.00    0.77346   0.77581   37.422
 6393.00    0.76900   0.77412   37.580
 6394.00    0.76510   0.77270   38.035
 6395.00    0.76405   0.77156   38.521
 6396.00    0.76606   0.77044   38.604
 6397.00    0.76819   0.76958   38.359
 6398.00    0.76639   0.76920   38.282
 6399.00    0.76075   0.76922   38.644
 6400.00    0.75514   0.76950   39.328
 6401.00    0.75282   0.77021   39.771
 6402.00    0.75520   0.77075   39.387
 6403.00    0.76132   0.77179   38.668
 6404.00    0.76860   0.77281   38.598
 6405.00    0.77482   0.77278   39.100
 6406.00    0.77865   0.77381   39.337
 6407.00    0.77959   0.77461   39.100
 6408.00    0.77787   0.77368   38.805
 6409.00    0.77400   0.77321   38.662
 6410.00    0.76887   0.77257   38.599
 6411.00    0.76398   0.77148   38.458
 6412.00    0.76057   0.77077   38.156
 6413.00    0.75780   0.76976   37.887
 6414.00    0.75403   0.76936   37.904
 6415.00    0.74984   0.76952   38.063
 6416.00    0.74732   0.76881   38.038
 6417.00    0.74741   0.76826   37.900
 6418.00    0.74950   0.76839   37.912
 6419.00    0.75155   0.76833   37.941
 6420.00    0.75133   0.76856   37.646
 6421.00    0.74836   0.76905   37.025
 6422.00    0.74422   0.76979   36.303
 6423.00    0.74218   0.77135   35.606
 6424.00    0.74506   0.77312   35.008
 6425.00    0.75180   0.77482   34.687
 6426.00    0.75860   0.77632   34.757
 6427.00    0.76187   0.77738   34.970
 6428.00    0.75987   0.77809   35.001
 6429.00    0.75447   0.77802   35.001
 6430.00    0.74944   0.77700   35.308
 6431.00    0.74730   0.77579   35.868
 6432.00    0.74829   0.77458   36.388
 6433.00    0.74956   0.77332   36.767
 6434.00    0.74790   0.77264   37.199
 6435.00    0.74380   0.77183   38.170
 6436.00    0.73999   0.77111   39.442
 6437.00    0.73845   0.77171   38.510
 6438.00    0.73957   0.77226   35.470
 6439.00    0.74179   0.77270   36.984
 6440.00    0.74332   0.77374   43.808
 6441.00    0.74449   0.77479   41.526
 6442.00    0.74676   0.77646   21.340
 6443.00    0.75083   0.77798   13.667
 6444.00    0.75659   0.77880   12.261
 6445.00    0.76317   0.77985   13.010
 6446.00    0.76888   0.77985   13.403
 6447.00    0.77127   0.77854   13.003
 6448.00    0.76862   0.77696   12.778
 6449.00    0.76183   0.77436   13.095
 6450.00    0.75335   0.77143   13.657
 6451.00    0.74561   0.76886   13.469
 6452.00    0.74030   0.76625   12.595
 6453.00    0.73771   0.76472   13.418
 6454.00    0.73733   0.76384   19.591
 6455.00    0.73861   0.76326   36.800
 6456.00    0.74141   0.76394   43.808
 6457.00    0.74632   0.76485   33.698
 6458.00    0.75321   0.76560   30.571
 6459.00    0.75990   0.76627   32.510
 6460.00    0.76403   0.76667   34.255
 6461.00    0.76506   0.76716   34.818
 6462.00    0.76350   0.76735   35.682
 6463.00    0.75993   0.76766   36.537
 6464.00    0.75556   0.76803   36.521
 6465.00    0.75263   0.76844   36.222
 6466.00    0.75273   0.76949   36.482
 6467.00    0.75518   0.77025   37.159
 6468.00    0.75807   0.77110   37.755
 6469.00    0.75953   0.77254   38.104
 6470.00    0.75871   0.77375   38.260
 6471.00    0.75650   0.77418   38.293
 6472.00    0.75407   0.77443   38.277
 6473.00    0.75164   0.77472   38.291
 6474.00    0.74904   0.77463   38.379
 6475.00    0.74625   0.77461   38.519
 6476.00    0.74407   0.77433   38.690
 6477.00    0.74440   0.77386   38.907
 6478.00    0.74811   0.77343   39.076
 6479.00    0.75349   0.77251   38.914
 6480.00    0.75777   0.77129   38.357
 6481.00    0.75867   0.77000   37.807
 6482.00    0.75647   0.76866   37.598
 6483.00    0.75497   0.76723   37.692
 6484.00    0.75695   0.76589   37.921
 6485.00    0.76099   0.76495   38.175
 6486.00    0.76384   0.76395   38.412
 6487.00    0.76255   0.76254   38.628
 6488.00    0.75636   0.76086   38.564
 6489.00    0.74761   0.75856   37.647
 6490.00    0.73876   0.75505   35.955
 6491.00    0.73047   0.74998   34.441
 6492.00    0.72272   0.74411   33.725
 6493.00    0.71571   0.73772   33.776
 6494.00    0.71045   0.73091   34.455
 6495.00    0.70865   0.72492   35.733
 6496.00    0.70964   0.71965   37.388
 6497.00    0.70943   0.71656   38.753
 6498.00    0.70624   0.71606   39.260
 6499.00    0.70326   0.71685   38.983
 6500.00    0.70396   0.72029   38.294
 6501.00    0.70921   0.72529   37.520
 6502.00    0.71763   0.73113   36.892
 6503.00    0.72629   0.73788   36.548
 6504.00    0.73287   0.74384   36.564
 6505.00    0.73676   0.74935   36.954
 6506.00    0.73844   0.75427   37.654
 6507.00    0.73902   0.75805   38.458
 6508.00    0.73950   0.76089   38.864
 6509.00    0.74034   0.76269   38.183
 6510.00    0.74095   0.76371   36.507
 6511.00    0.74000   0.76412   34.767
 6512.00    0.73766   0.76385   33.591
 6513.00    0.73617   0.76299   33.115
 6514.00    0.73700   0.76186   33.470
 6515.00    0.73951   0.76047   34.883
 6516.00    0.74186   0.75902   37.028
 6517.00    0.74189   0.75777   38.541
 6518.00    0.73971   0.75666   38.361
 6519.00    0.73797   0.75614   36.919
 6520.00    0.73828   0.75606   35.228
 6521.00    0.73996   0.75631   34.073
 6522.00    0.74202   0.75723   33.732
 6523.00    0.74390   0.75796   34.095
 6524.00    0.74490   0.75856   34.933
 6525.00    0.74418   0.75929   35.948
 6526.00    0.74210   0.75952   36.850
 6527.00    0.74030   0.75947   37.425
 6528.00    0.74007   0.75900    0.000
 6529.00    0.74154   0.75826    0.000
 6530.00    0.74283   0.75771    0.000
 6531.00    0.74084   0.75698    0.000
 6532.00    0.73536   0.75625    0.000
 6533.00    0.72967   0.75570    0.000
 6534.00    0.72752   0.75520    0.000
 6535.00    0.73125   0.75497    0.000
 6536.00    0.73978   0.75486    0.000
 6537.00    0.74889   0.75460    0.000
 6538.00    0.75474   0.75422    0.000
 6539.00    0.75549   0.75360    0.000
 6540.00    0.75253   0.75264    0.000
 6541.00    0.74994   0.75124    0.000
 6542.00    0.75151   0.74902    0.000
 6543.00    0.76044   0.74605    0.000
 6544.00    0.78185   0.74291    0.000
 6545.00    0.82171   0.73939    0.000
 6546.00    0.88156   0.73545    0.000
 6547.00    0.95580   0.73147    0.000
 6548.00    1.02901   0.72730    0.000
 6549.00    1.07959   0.72344    0.000
 6550.00    1.09256   0.71956    0.000
 6551.00    1.06370   0.71498    0.000
 6552.00    1.00034   0.71013    0.000
 6553.00    0.91942   0.70461    0.000
 6554.00    0.84170   0.69805    0.000
 6555.00    0.78655   0.69035    0.000
 6556.00    0.76302   0.68124    0.000
 6557.00    0.77738   0.67086    0.000
 6558.00    0.85794   0.65923    0.000
 6559.00    1.05485   0.64608    0.000
 6560.00    1.42253   0.63253    0.000
 6561.00    1.98451   0.62034    0.000
 6562.00    2.66174   0.60912    0.000
 6563.00    3.28829   0.60015    0.000
 6564.00    3.69048   0.59509    0.000
 6565.00    3.73835   0.59407    0.000
 6566.00    3.41695   0.59832    0.000
 6567.00    2.82486   0.60592    0.000
 6568.00    2.13225   0.61563    0.000
 6569.00    1.52363   0.62800    0.000
 6570.00    1.09740   0.64088    0.000
 6571.00    0.86023   0.65291    0.000
 6572.00    0.76327   0.66388    0.000
 6573.00    0.73445   0.67350    0.000
 6574.00    0.72738   0.68177    0.000
 6575.00    0.72456   0.68904    0.000
 6576.00    0.72335   0.69545    0.000
 6577.00    0.73011   0.70109    0.000
 6578.00    0.75464   0.70632    0.000
 6579.00    0.81052   0.71111    0.000
 6580.00    0.91723   0.71544    0.000
 6581.00    1.08919   0.71926    0.000
 6582.00    1.31517   0.72271    0.000
 6583.00    1.55711   0.72552    0.000
 6584.00    1.75556   0.72794    0.000
 6585.00    1.85010   0.73016    0.000
 6586.00    1.81255   0.73157    0.000
 6587.00    1.65329   0.73290    0.000
 6588.00    1.42116   0.73363    0.000
 6589.00    1.18248   0.73369    0.000
 6590.00    0.98703   0.73346    0.000
 6591.00    0.85881   0.73267    0.000
 6592.00    0.79116   0.73176    0.000
 6593.00    0.76068   0.73057    0.000
 6594.00    0.74960   0.72953    0.000
 6595.00    0.74731   0.72891    0.000
 6596.00    0.74730   0.72908    0.000
 6597.00    0.74644   0.73007    0.000
 6598.00    0.74441   0.73124    0.000
 6599.00    0.74237   0.73301    0.000
 6600.00    0.74112   0.73512    0.000
 6601.00    0.74069   0.73710    0.000
 6602.00    0.74019   0.73891    0.000
 6603.00    0.73870   0.74012    0.000
 6604.00    0.73647   0.74071    0.000
 6605.00    0.73413   0.74088    0.000
 6606.00    0.73157   0.74053    0.000
 6607.00    0.72866   0.74003    0.000
 6608.00    0.72633   0.73959    0.000
 6609.00    0.72564   0.73908   39.537
 6610.00    0.72652   0.73902   39.620
 6611.00    0.72888   0.73939   39.875
 6612.00    0.73395   0.74042   40.108
 6613.00    0.74262   0.74187   40.070
 6614.00    0.75337   0.74327   39.835
 6615.00    0.76346   0.74497   39.585
 6616.00    0.77054   0.74666   39.317
 6617.00    0.77325   0.74831   39.015
 6618.00    0.77168   0.74958   38.842
 6619.00    0.76705   0.75028   38.870
 6620.00    0.76135   0.75071   38.822
 6621.00    0.75665   0.75070   38.508
 6622.00    0.75435   0.75021   38.256
 6623.00    0.75456   0.74944   38.300
 6624.00    0.75571   0.74822   38.242
 6625.00    0.75554   0.74679   37.824
 6626.00    0.75243   0.74540   37.644
 6627.00    0.74693   0.74383   38.139
 6628.00    0.74287   0.74250   38.708
 6629.00    0.74350   0.74109   38.694
 6630.00    0.74810   0.73954   38.455
 6631.00    0.75371   0.73829   38.549
 6632.00    0.75716   0.73712   38.956
 6633.00    0.75662   0.73613   39.450
 6634.00    0.75261   0.73536   39.975
 6635.00    0.74659   0.73485   40.426
 6636.00    0.73972   0.73479   40.480
 6637.00    0.73335   0.73522   40.105
 6638.00    0.72939   0.73591   39.880
 6639.00    0.72932   0.73656   40.100
 6640.00    0.73327   0.73716   40.187
 6641.00    0.73982   0.73777   39.676
 6642.00    0.74609   0.73827   38.982
 6643.00    0.74944   0.73857   38.609
 6644.00    0.74880   0.73864   38.604
 6645.00    0.74495   0.73855   38.757
 6646.00    0.74031   0.73870   38.759
 6647.00    0.73721   0.73906   38.518
 6648.00    0.73651   0.73935   38.318
 6649.00    0.73751   0.73966   38.346
 6650.00    0.73825   0.74005   38.423
 6651.00    0.73760   0.74044   38.428
 6652.00    0.73653   0.74076   38.541
 6653.00    0.73607   0.74085   38.797
 6654.00    0.73598   0.74072   38.852
 6655.00    0.73538   0.74056   38.617
 6656.00    0.73333   0.74009   38.556
 6657.00    0.73014   0.73944   38.901
 6658.00    0.72784   0.73854   39.262
 6659.00    0.72808   0.73737   39.348
 6660.00    0.73082   0.73604   39.382
 6661.00    0.73425   0.73456   39.477
 6662.00    0.73535   0.73308   39.334
 6663.00    0.73320   0.73150   38.844
 6664.00    0.73040   0.73028   38.319
 6665.00    0.72999   0.72934   37.905
 6666.00    0.73334   0.72895   37.398
 6667.00    0.73914   0.72924   36.881
 6668.00    0.74357   0.72968   36.862
 6669.00    0.74449   0.73057   37.446
 6670.00    0.74312   0.73169   38.032
 6671.00    0.74124   0.73279   38.095
 6672.00    0.73975   0.73365   37.730
 6673.00    0.73921   0.73392   37.610
 6674.00    0.74011   0.73349   38.518
 6675.00    0.74254   0.73254   39.360
 6676.00    0.74607   0.73130   37.466
 6677.00    0.74998   0.72963   36.043
 6678.00    0.75337   0.72779   42.717
 6679.00    0.75549   0.72618   43.808
 6680.00    0.75600   0.72511   30.709
 6681.00    0.75527   0.72503   16.388
 6682.00    0.75433   0.72569   12.502
 6683.00    0.75403   0.72661   12.605
 6684.00    0.75458   0.72807   13.551
 6685.00    0.75540   0.72981   13.525
 6686.00    0.75528   0.73165   13.089
 6687.00    0.75348   0.73336   13.067
 6688.00    0.75016   0.73455   13.522
 6689.00    0.74632   0.73545   13.789
 6690.00    0.74348   0.73593   13.007
 6691.00    0.74250   0.73611   12.515
 6692.00    0.74312   0.73591   15.257
 6693.00    0.74408   0.73530   26.544
 6694.00    0.74367   0.73458   43.808
 6695.00    0.74154   0.73369   43.808
 6696.00    0.73896   0.73271    0.000
 6697.00    0.73707   0.73186    0.000
 6698.00    0.73626   0.73098    0.000
 6699.00    0.73600   0.73042    0.000
 6700.00    0.73533   0.73019    0.000
 6701.00    0.73459   0.72998    0.000
 6702.00    0.73531   0.73007    0.000
 6703.00    0.73769   0.73008    0.000
 6704.00    0.74049   0.73006    0.000
 6705.00    0.74296   0.73007    0.000
 6706.00    0.74519   0.72991    0.000
 6707.00    0.74703   0.72971    0.000
 6708.00    0.74814   0.72935    0.000
 6709.00    0.74906   0.72876    0.000
 6710.00    0.75200   0.72782    0.000
 6711.00    0.76219   0.72674    0.000
 6712.00    0.78803   0.72527    0.000
 6713.00    0.84053   0.72355    0.000
 6714.00    0.92873   0.72175    0.000
 6715.00    1.04821   0.71967    0.000
 6716.00    1.17899   0.71792    0.000
 6717.00    1.28908   0.71630    0.000
 6718.00    1.34354   0.71508    0.000
 6719.00    1.32460   0.71458    0.000
 6720.00    1.23697   0.71459    0.000
 6721.00    1.10695   0.71543    0.000
 6722.00    0.97308   0.71650    0.000
 6723.00    0.86428   0.71773    0.000
 6724.00    0.79443   0.71921    0.000
 6725.00    0.76315   0.72073    0.000
 6726.00    0.76190   0.72222    0.000
 6727.00    0.78736   0.72341    0.000
 6728.00    0.84088   0.72427    0.000
 6729.00    0.91977   0.72508    0.000
 6730.00    1.01368   0.72580    0.000
 6731.00    1.10110   0.72633    0.000
 6732.00    1.15573   0.72664    0.000
 6733.00    1.16126   0.72670    0.000
 6734.00    1.11569   0.72658    0.000
 6735.00    1.03319   0.72627    0.000
 6736.00    0.93815   0.72582    0.000
 6737.00    0.85244   0.72518    0.000
 6738.00    0.79029   0.72436    0.000
 6739.00    0.75375   0.72336    0.000
 6740.00    0.73601   0.72227    0.000
 6741.00    0.72956   0.72127    0.000
 6742.00    0.72838   0.72037    0.000
 6743.00    0.72897   0.71941    0.000
 6744.00    0.72988   0.71849    0.000
 6745.00    0.73037   0.71746    0.000
 6746.00    0.72997   0.71670    0.000
 6747.00    0.72801   0.71605    0.000
 6748.00    0.72448   0.71531    0.000
 6749.00    0.72150   0.71479    0.000
 6750.00    0.72131   0.71418    0.000
 6751.00    0.72288   0.71411    0.000
 6752.00    0.72347   0.71423    0.000
 6753.00    0.72209   0.71464   38.852
 6754.00    0.71953   0.71555   39.334
 6755.00    0.71760   0.71646   39.596
 6756.00    0.71790   0.71799   39.163
 6757.00    0.72047   0.71954   38.645
 6758.00    0.72412   0.72117   38.837
 6759.00    0.72742   0.72280   39.424
 6760.00    0.72934   0.72412   39.616
 6761.00    0.72991   0.72528   39.392
 6762.00    0.72960   0.72590   39.207
 6763.00    0.72843   0.72613   39.278
 6764.00    0.72608   0.72585   39.523
 6765.00    0.72240   0.72532   39.613
 6766.00    0.71797   0.72450   39.331
 6767.00    0.71475   0.72342   39.019
 6768.00    0.71426   0.72237   39.069
 6769.00    0.71535   0.72146   39.285
 6770.00    0.71638   0.72101   39.321
 6771.00    0.71808   0.72102   39.303
 6772.00    0.72167   0.72135   39.424
 6773.00    0.72627   0.72196   39.392
 6774.00    0.73000   0.72297   38.943
 6775.00    0.73172   0.72427   38.447
 6776.00    0.73185   0.72565   38.333
 6777.00    0.73285   0.72669   38.462
 6778.00    0.73609   0.72729   38.516
 6779.00    0.73855   0.72743   38.459
 6780.00    0.73646   0.72709   38.338
 6781.00    0.72958   0.72629   38.004
 6782.00    0.72030   0.72494   37.101
 6783.00    0.71217   0.72323   35.233
 6784.00    0.70784   0.72132   32.690
 6785.00    0.70737   0.71955   30.549
 6786.00    0.70934   0.71805   29.411
 6787.00    0.71220   0.71705   29.024
 6788.00    0.71471   0.71640   28.985
 6789.00    0.71620   0.71610   29.148
 6790.00    0.71711   0.71616   29.407
 6791.00    0.71925   0.71630   29.525
 6792.00    0.72305   0.71666   29.556
 6793.00    0.72557   0.71699   30.178
 6794.00    0.72410   0.71730   31.842
 6795.00    0.71958   0.71754   33.861
 6796.00    0.71501   0.71767   35.135
 6797.00    0.71372   0.71801   35.537
 6798.00    0.71706   0.71833   35.532
 6799.00    0.72290   0.71877   35.381
 6800.00    0.72831   0.71920   35.335
 6801.00    0.73184   0.71952   35.818
 6802.00    0.73308   0.72000   36.893
 6803.00    0.73206   0.72034   37.801
 6804.00    0.72888   0.72045   38.005
 6805.00    0.72359   0.72053   38.135
 6806.00    0.71735   0.72029   38.692
 6807.00    0.71297   0.72011   39.096
 6808.00    0.71214   0.71990   38.885
 6809.00    0.71381   0.71941   38.626
 6810.00    0.71673   0.71909   38.837
 6811.00    0.72113   0.71869   39.296
 6812.00    0.72659   0.71832   39.548
 6813.00    0.73076   0.71820   39.332
 6814.00    0.73108   0.71801   38.794
 6815.00    0.72633   0.71793   38.390
 6816.00    0.71873   0.71801   37.853
 6817.00    0.71430   0.71806   35.924
 6818.00    0.71634   0.71850   32.220
 6819.00    0.72203   0.71908   27.995
 6820.00    0.72846   0.71950   25.230
 6821.00    0.73560   0.72004   25.463
 6822.00    0.74200   0.72043   26.724
 6823.00    0.74335   0.72099   22.318
 6824.00    0.74123   0.72154   15.934
 6825.00    0.74594   0.72177   13.030
 6826.00    0.76296   0.72188   12.668
 6827.00    0.78654   0.72171   12.807
 6828.00    0.80841   0.72149   12.412
 6829.00    0.82296   0.72122   12.193
 6830.00    0.82773   0.72079   12.334
 6831.00    0.82361   0.72049   11.917
 6832.00    0.81543   0.72022   11.452
 6833.00    0.81041   0.71987   13.282
 6834.00    0.80910   0.71930   20.934
 6835.00    0.80337   0.71850   35.381
 6836.00    0.78941   0.71755   35.873
 6837.00    0.77265   0.71640   30.466
 6838.00    0.75954   0.71491   30.804
 6839.00    0.75291   0.71312   32.966
 6840.00    0.74933   0.71143   33.149
 6841.00    0.74100   0.70980   32.987
 6842.00    0.72921   0.70859   33.671
 6843.00    0.72608   0.70780   33.494
 6844.00    0.73513   0.70755   31.829
 6845.00    0.74635   0.70807   30.267
 6846.00    0.75251   0.70896   29.641
 6847.00    0.75500   0.71019   29.685
 6848.00    0.75766   0.71145   30.110
 6849.00    0.76319   0.71250   30.879
 6850.00    0.76995   0.71341   31.981
 6851.00    0.77240   0.71391   33.286
 6852.00    0.76778   0.71395   34.389
 6853.00    0.75858   0.71356   34.667
 6854.00    0.75144   0.71279   33.995
 6855.00    0.75335   0.71174   32.915
 6856.00    0.75956   0.71050   32.033
 6857.00    0.75619   0.70913   31.697
 6858.00    0.74521   0.70816   31.696
 6859.00    0.74392   0.70758   31.501
 6860.00    0.75168   0.70708   31.409
 6861.00    0.74920   0.70694   32.356
 6862.00    0.73606   0.70687   33.977
 6863.00    0.73236   0.70700   34.338
 6864.00    0.74173   0.70746   33.309
 6865.00    0.74818   0.70800   32.745
 6866.00    0.74616   0.70855   32.676
 6867.00    0.74463   0.70871   31.616
 6868.00    0.74883   0.70867   30.086
 6869.00    0.75614   0.70857   29.828
 6870.00    0.76172   0.70849   30.336
 6871.00    0.76116   0.70858   29.858
 6872.00    0.75329   0.70865   30.775
 6873.00    0.74085   0.70877   38.352
 6874.00    0.73018   0.70886   43.366
 6875.00    0.72777   0.70921   25.995
 6876.00    0.73139   0.70971   15.398
 6877.00    0.73337   0.71016   12.720
 6878.00    0.73573   0.71057   13.169
 6879.00    0.74672   0.71087   13.754
 6880.00    0.76143   0.71116   13.305
 6881.00    0.76560   0.71114   12.879
 6882.00    0.75791   0.71115   13.058
 6883.00    0.74866   0.71105   13.620
 6884.00    0.74252   0.71117   13.744
 6885.00    0.73757   0.71155   12.939
 6886.00    0.73376   0.71222   12.909
 6887.00    0.73287   0.71320   16.591
 6888.00    0.73393   0.71410   28.825
 6889.00    0.73408   0.71533   43.808
 6890.00    0.73323   0.71661   38.707
 6891.00    0.73307   0.71778   33.992
 6892.00    0.73277   0.71879   35.106
 6893.00    0.73035   0.71952   36.059
 6894.00    0.72774   0.72003   34.567
 6895.00    0.72935   0.72022   33.022
 6896.00    0.73703   0.72033   32.383
 6897.00    0.74877   0.72029   32.287
 6898.00    0.75842   0.72022   32.641
 6899.00    0.75924   0.72022   33.570
 6900.00    0.75072   0.72027   34.796
 6901.00    0.73757   0.72038   35.467
 6902.00    0.72508   0.72055   34.470
 6903.00    0.71796   0.72086   31.690
 6904.00    0.71969   0.72134   28.823
 6905.00    0.73018   0.72176   27.260
 6906.00    0.74183   0.72202   26.962
 6907.00    0.74494   0.72227   27.479
 6908.00    0.73814   0.72231   28.815
 6909.00    0.72689   0.72228   31.142
 6910.00    0.71763   0.72194   33.790
 6911.00    0.71475   0.72132   35.337
 6912.00    0.71724   0.72052   35.604
 6913.00    0.72091   0.71954   35.579
 6914.00    0.72278   0.71853   35.635
 6915.00    0.72236   0.71767   35.647
 6916.00    0.72240   0.71681   35.721
 6917.00    0.72555   0.71633   36.042
 6918.00    0.72939   0.71618   36.478
 6919.00    0.72970   0.71597   36.750
 6920.00    0.72639   0.71613   36.804
 6921.00    0.72220   0.71624   36.680
 6922.00    0.71951   0.71642   36.222
 6923.00    0.71899   0.71655   35.383
 6924.00    0.71833   0.71638   34.579
 6925.00    0.71528   0.71624   34.163
 6926.00    0.71165   0.71581   33.863
 6927.00    0.71058   0.71560   33.399
 6928.00    0.71239   0.71547   33.259
 6929.00    0.71556   0.71562   33.898
 6930.00    0.71877   0.71587   34.679
 6931.00    0.72187   0.71601   34.312
 6932.00    0.72658   0.71634   32.138
 6933.00    0.73485   0.71656   29.012
 6934.00    0.74672   0.71702   26.690
 6935.00    0.75923   0.71729   25.996
 6936.00    0.76580   0.71773   26.510
 6937.00    0.76118   0.71818   27.671
 6938.00    0.74699   0.71840   29.669
 6939.00    0.72900   0.71855   32.807
 6940.00    0.71335   0.71845   35.967
 6941.00    0.70411   0.71842   37.277
 6942.00    0.70126   0.71815   37.165
 6943.00    0.70181   0.71771   37.147
 6944.00    0.70153   0.71710   37.330
 6945.00    0.69803   0.71629   37.286
 6946.00    0.69346   0.71557   37.163
 6947.00    0.69179   0.71482   37.202
 6948.00    0.69554   0.71449   37.193
 6949.00    0.70364   0.71428   36.938
 6950.00    0.71016   0.71410   36.702
 6951.00    0.71009   0.71397   36.685
 6952.00    0.70463   0.71398   36.571
 6953.00    0.69788   0.71390   36.207
 6954.00    0.69322   0.71412   36.124
 6955.00    0.69269   0.71451   36.491
 6956.00    0.69661   0.71502   36.326
 6957.00    0.70257   0.71573   35.312
 6958.00    0.70544   0.71652   34.988
 6959.00    0.70407   0.71750   35.687
 6960.00    0.70549   0.71830   34.758
 6961.00    0.71065   0.71921   32.728
 6962.00    0.70535   0.72001   35.740
 6963.00    0.68614   0.72082   43.808
 6964.00    0.67731   0.72148   34.896
 6965.00    0.69386   0.72194   19.197
 6966.00    0.71580   0.72225   13.679
 6967.00    0.72361   0.72242   13.071
 6968.00    0.72387   0.72239   13.919
 6969.00    0.72632   0.72226   14.049
 6970.00    0.72722   0.72195   13.711
 6971.00    0.72159   0.72113   13.759
 6972.00    0.71215   0.72001   14.058
 6973.00    0.70317   0.71830   14.259
 6974.00    0.69609   0.71637   14.359
 6975.00    0.69118   0.71439   14.454
 6976.00    0.68870   0.71204   14.523
 6977.00    0.68789   0.70973   14.542
 6978.00    0.68654   0.70763   14.565
 6979.00    0.68358   0.70606   14.627
 6980.00    0.68047   0.70514   14.696
 6981.00    0.67933   0.70500   14.721
 6982.00    0.68172   0.70610   14.669
 6983.00    0.68796   0.70773   14.536
 6984.00    0.69688   0.70957   14.350
 6985.00    0.70665   0.71171   14.151
 6986.00    0.71539   0.71371   13.978
 6987.00    0.72200   0.71557   13.850
 6988.00    0.72641   0.71706   13.766
 6989.00    0.72850   0.71819   13.727
 6990.00    0.72764   0.71900   13.743
 6991.00    0.72345   0.71935   13.823
 6992.00    0.71647   0.71955   13.957
 6993.00    0.70942   0.71962   14.096
 6994.00    0.70696   0.71942   14.145
 6995.00    0.71137   0.71905   14.057
 6996.00    0.72054   0.71846   13.878
 6997.00    0.72983   0.71777   13.702
 6998.00    0.73395   0.71698   13.625
 6999.00    0.73182   0.71595   13.664
 7000.00    0.72762   0.71488   13.743
 7001.00    0.72487   0.71368   -2.000
 7002.00    0.72387   0.71258   -2.000
 7003.00    0.72283   0.71180   -2.000
 7004.00    0.71926   0.71123   -2.000
 7005.00    0.71314   0.71078   -2.000
 7006.00    0.70750   0.71032   -2.000
 7007.00    0.70495   0.71022   -2.000
 7008.00    0.70601   0.71032   -2.000
 7009.00    0.70892   0.71056   -2.000
 7010.00    0.71063   0.71075   -2.000
 7011.00    0.71113   0.71077   -2.000
 7012.00    0.71360   0.71061   -2.000
 7013.00    0.71814   0.71021   -2.000
 7014.00    0.72075   0.70972   -2.000
 7015.00    0.71927   0.70922   -2.000
 7016.00    0.71511   0.70859   -2.000
 7017.00    0.71075   0.70793   -2.000
 7018.00    0.70829   0.70724   -2.000
 7019.00    0.70782   0.70703   -2.000
 7020.00    0.70755   0.70739   -2.000
 7021.00    0.70635   0.70780   -2.000
 7022.00    0.70441   0.70816   -2.000
 7023.00    0.70233   0.70848   -2.000
 7024.00    0.70082   0.70875   -2.000
 7025.00    0.70080   0.70890   -2.000
 7026.00    0.70305   0.70925   -2.000
 7027.00    0.70727   0.70989   -2.000
 7028.00    0.71219   0.71069   -2.000
 7029.00    0.71676   0.71142   -2.000
 7030.00    0.72009   0.71215   -2.000
 7031.00    0.71990   0.71301   -2.000
 7032.00    0.71455   0.71368   -2.000
 7033.00    0.70986   0.71431   -2.000
 7034.00    0.71413   0.71480   -2.000
 7035.00    0.71834   0.71537   -2.000
 7036.00    0.70444   0.71588   -2.000
 7037.00    0.68330   0.71644   -2.000
 7038.00    0.68536   0.71726   -2.000
 7039.00    0.70667   0.71822   -2.000
 7040.00    0.71500   0.71916   -2.000
 7041.00    0.70437   0.72061   -2.000
 7042.00    0.69543   0.72260   -2.000
 7043.00    0.69891   0.72453   -2.000
 7044.00    0.71035   0.72624   -2.000
 7045.00    0.72128   0.72764   -2.000
 7046.00    0.72480   0.72861   -2.000
 7047.00    0.72172   0.72891   -2.000
 7048.00    0.71822   0.72886   -2.000
 7049.00    0.71703   0.72840   -2.000
 7050.00    0.71666   0.72715   -2.000
 7051.00    0.71471   0.72531   -2.000
 7052.00    0.70961   0.72274   -2.000
 7053.00    0.70276   0.71982   -2.000
 7054.00    0.69735   0.71650   -2.000
 7055.00    0.69495   0.71306   -2.000
 7056.00    0.69514   0.71005   -2.000
 7057.00    0.69638   0.70722   -2.000
 7058.00    0.69711   0.70492   -2.000
 7059.00    0.69758   0.70292   -2.000
 7060.00    0.69891   0.70123   -2.000
 7061.00    0.70068   0.69975   -2.000
 7062.00    0.70134   0.69844   -2.000
 7063.00    0.69994   0.69760   -2.000
 7064.00    0.69659   0.69702   -2.000
 7065.00    0.69263   0.69657   -2.000
 7066.00    0.68960   0.69623   -2.000
 7067.00    0.68737   0.69604   -2.000
 7068.00    0.68495   0.69570   -2.000
 7069.00    0.68255   0.69570   -2.000
 7070.00    0.68118   0.69594   -2.000
 7071.00    0.68145   0.69661   -2.000
 7072.00    0.68323   0.69776   -2.000
 7073.00    0.68555   0.69898   -2.000
 7074.00    0.68712   0.70020   -2.000
 7075.00    0.68738   0.70130   -2.000
 7076.00    0.68669   0.70233   -2.000
 7077.00    0.68652   0.70296   -2.000
 7078.00    0.68832   0.70324   -2.000
 7079.00    0.69175   0.70302   -2.000
 7080.00    0.69513   0.70233   -2.000
 7081.00    0.69636   0.70099   -2.000
 7082.00    0.69409   0.69904   -2.000
 7083.00    0.68906   0.69664   -2.000
 7084.00    0.68321   0.69364   -2.000
 7085.00    0.67812   0.69032   -2.000
 7086.00    0.67435   0.68680   -2.000
 7087.00    0.67102   0.68347   -2.000
 7088.00    0.66715   0.68064   -2.000
 7089.00    0.66348   0.67804   -2.000
 7090.00    0.66122   0.67573   -2.000
 7091.00    0.66021   0.67405   -2.000
 7092.00    0.66008   0.67278   -2.000
 7093.00    0.66195   0.67202   -2.000
 7094.00    0.66623   0.67195   -2.000
 7095.00    0.66994   0.67198   -2.000
 7096.00    0.66976   0.67256   -2.000
 7097.00    0.66607   0.67327   -2.000
 7098.00    0.66199   0.67417   -2.000
 7099.00    0.66138   0.67536   -2.000
 7100.00    0.66507   0.67640   -2.000
 7101.00    0.66748   0.67775   -2.000
 7102.00    0.66406   0.67868   -2.000
 7103.00    0.65923   0.67957   -2.000
 7104.00    0.65953   0.68013   -2.000
 7105.00    0.66543   0.68050   -2.000
 7106.00    0.67204   0.68074   -2.000
 7107.00    0.67163   0.68074   -2.000
 7108.00    0.66371   0.68048   -2.000
 7109.00    0.66283   0.67993   -2.000
 7110.00    0.67653   0.67938   -2.000
 7111.00    0.68568   0.67888   -2.000
 7112.00    0.67464   0.67834   -2.000
 7113.00    0.65916   0.67782   -2.000
 7114.00    0.65770   0.67762   -2.000
 7115.00    0.66430   0.67763   -2.000
 7116.00    0.66702   0.67786   -2.000
 7117.00    0.66603   0.67797   -2.000
 7118.00    0.66649   0.67828   -2.000
 7119.00    0.67079   0.67843   -2.000
 7120.00    0.67736   0.67841   -2.000
 7121.00    0.68091   0.67832   -2.000
 7122.00    0.67850   0.67790   -2.000
 7123.00    0.67404   0.67745   -2.000
 7124.00    0.67206   0.67652   -2.000
 7125.00    0.67275   0.67563   -2.000
 7126.00    0.67429   0.67470   -2.000
 7127.00    0.67511   0.67344   -2.000
 7128.00    0.67486   0.67221   -2.000
 7129.00    0.67484   0.67111   -2.000
 7130.00    0.67655   0.67037   -2.000
 7131.00    0.68040   0.66979   -2.000
 7132.00    0.68472   0.66944   -2.000
 7133.00    0.68588   0.66947   -2.000
 7134.00    0.68337   0.67018   -2.000
 7135.00    0.68228   0.67113   -2.000
 7136.00    0.68500   0.67235   -2.000
 7137.00    0.68671   0.67362   -2.000
 7138.00    0.68470   0.67473   -2.000
 7139.00    0.68345   0.67589   -2.000
 7140.00    0.68542   0.67666   -2.000
 7141.00    0.68630   0.67712   -2.000
 7142.00    0.68414   0.67729   -2.000
 7143.00    0.68327   0.67735   -2.000
 7144.00    0.68152   0.67704   -2.000
 7145.00    0.66645   0.67645   -2.000
 7146.00    0.64092   0.67585   -2.000
 7147.00    0.63183   0.67515   -2.000
 7148.00    0.64993   0.67461   -2.000
 7149.00    0.67261   0.67429   -2.000
 7150.00    0.68088   0.67402   -2.000
 7151.00    0.67801   0.67450   -2.000
 7152.00    0.67223   0.67552   -2.000
 7153.00    0.66707   0.67665   -2.000
 7154.00    0.66402   0.67809   -2.000
 7155.00    0.66392   0.67955   -2.000
 7156.00    0.66574   0.68082   -2.000
 7157.00    0.66661   0.68171   -2.000
 7158.00    0.66542   0.68229   -2.000
 7159.00    0.66402   0.68275   -2.000
 7160.00    0.66432   0.68251   -2.000
 7161.00    0.66703   0.68192   -2.000
 7162.00    0.67248   0.68105   -2.000
 7163.00    0.68039   0.68007   -2.000
 7164.00    0.68662   0.67927   -2.000
 7165.00    0.68402   0.67849   -2.000
 7166.00    0.67224   0.67793   -2.000
 7167.00    0.65984   0.67782   -2.000
 7168.00    0.65372   0.67851   -2.000
 7169.00    0.65506   0.67969   -2.000
 7170.00    0.66193   0.68112   -2.000
 7171.00    0.67089   0.68259   -2.000
 7172.00    0.67838   0.68398   -2.000
 7173.00    0.68167   0.68522   -2.000
 7174.00    0.68028   0.68619   -2.000
 7175.00    0.67588   0.68668   -2.000
 7176.00    0.66954   0.68673   -2.000
 7177.00    0.66142   0.68632   -2.000
 7178.00    0.65355   0.68551   -2.000
 7179.00    0.64972   0.68451   -2.000
 7180.00    0.65100   0.68347   -2.000
 7181.00    0.65504   0.68218   -2.000
 7182.00    0.65954   0.68073   -2.000
 7183.00    0.66294   0.67935   -2.000
 7184.00    0.66257   0.67824   -2.000
 7185.00    0.65554   0.67734   -2.000
 7186.00    0.64377   0.67647   -2.000
 7187.00    0.63399   0.67544   -2.000
 7188.00    0.63191   0.67465   -2.000
 7189.00    0.63998   0.67371   -2.000
 7190.00    0.65649   0.67319   -2.000
 7191.00    0.67628   0.67305   -2.000
 7192.00    0.69379   0.67313   -2.000
 7193.00    0.70470   0.67376   -2.000
 7194.00    0.70823   0.67429   -2.000
 7195.00    0.70698   0.67503   -2.000
 7196.00    0.70491   0.67583   -2.000
 7197.00    0.70495   0.67680   -2.000
 7198.00    0.70463   0.67764   -2.000
 7199.00    0.69849   0.67814   -2.000
 7200.00    0.68815   0.67868   -2.000
 7201.00    0.68023   0.67901   -2.000
 7202.00    0.67410   0.67906   -2.000
 7203.00    0.66367   0.67887   -2.000
 7204.00    0.65058   0.67837   -2.000
 7205.00    0.64281   0.67789   -2.000
 7206.00    0.64254   0.67744   -2.000
 7207.00    0.64590   0.67680   -2.000
 7208.00    0.64976   0.67625   -2.000
 7209.00    0.65323   0.67553   -2.000
 7210.00    0.65690   0.67548   -2.000
 7211.00    0.66168   0.67580   -2.000
 7212.00    0.66667   0.67636   -2.000
 7213.00    0.66863   0.67732   -2.000
 7214.00    0.66229   0.67812   -2.000
 7215.00    0.64681   0.67906   -2.000
 7216.00    0.63878   0.67987   -2.000
 7217.00    0.65223   0.68074   -2.000
 7218.00    0.65268   0.68155   -2.000
