###################################################################
## OUTPUT of StarlightChains_v04.for    [Cid@UFSC - 01/Apr/2007] ##
###################################################################

## Some input info
2009ie.txt                               [arq_obs]
Base.CB07.vall.4m                        [arq_base]
Masks.EmLines.NEW.gm                     [arq_masks]
StCv04.C11.config                        [arq_config]
   66                                    [N_base]
    0                                    [N_YAV_components = # of components with extra extinction!]
    0                                    [i_FitPowerLaw (1/0 = Yes/No)]
-9.99                                    [alpha_PowerLaw]
CCM                                      [red_law_option]
 1.458241                                [q_norm = A(l_norm)/A(V)]

## (Re)Sampling Parameters
 3741.00                                 [l_ini (A)]
 7218.00                                 [l_fin (A)]
    1.00                                 [dl    (A)]     (OBS: dl_cushion =    50.00 A)

## Normalization info
 4020.00                                 [l_norm (A) - for base]
 4010.00                                 [llow_norm (A) - window for f_obs]
 4060.00                                 [lupp_norm (A) - window for f_obs]
1.729135E-17                             [fobs_norm (in input units)]

## S/N
 3691.00                                 [llow_SN (A) - window for S/N]
 7268.00                                 [lupp_SN (A) - window for S/N]
   3.852                                 [S/N in S/N window]
   4.238                                 [S/N in norm. window]
  10.000                                 [S/N_err in S/N window]
  11.002                                 [S/N_err in norm. window]
  1.0000                                 [fscale_chi2]

## etc...
    -2007359                             [idum_orig]
  2383                                   [NOl_eff]
  1866                                   [Nl_eff]
   517    NSIGMA                         [Ntot_cliped & clip_method]
   709730                                [Nglobal_steps]
   7                                     [N_chains]
  13                                     [NEX0s_base = N_base in EX0s-fits]
 0   0   1        5   2.0   1.014E+02    [Clip-Bug, RC-Crash & Burn-In warning-flags, n_censored_weights, wei_nsig_threshold & wei_limit]
    11     10.879     10.374      0.504  [idt_all, wdt_TotTime, wdt_UsrTime & wdt_SysTime (sec)]

## Synthesis Results - Best model ##

 1.86730E+00                             [chi2/Nl_eff]
    11.12332                             [adev (%)]

    92.83414                             [sum-of-x (%)]
 4.19025E-18                             [Flux_tot (units of input spectrum!)]
 3.73948E-13                             [Mini_tot (???)]
 1.89040E-13                             [Mcor_tot (???)]

-323.91                                  [v0_min  (km/s)]
 242.05                                  [vd_min  (km/s)]
-1.0000                                  [AV_min  (mag)]
 0.0000                                  [YAV_min (mag)]

# j     x_j(%)      Mini_j(%)     Mcor_j(%)     age_j(yr)     Z_j      (L/M)_j    YAV?  Mstars   component_j        a/Fe...       SSP_chi2r SSP_adev(%)   SSP_AV   SSP_x(%)
  1      0.0000     0.0000E+00    0.0000E+00    1.000000E+06  0.00400  1.094E-02    0   1.0000   age020_m42            0.0000     3.1724E+00    13.9117   2.9783    78.2731
  2      0.0000     0.0000E+00    0.0000E+00    3.160000E+06  0.00400  4.007E-02    0   0.9999   age045_m42            0.0000     2.9530E+00    13.5766   2.2203    84.9320
  3      0.0000     0.0000E+00    0.0000E+00    5.010000E+06  0.00400  2.539E-02    0   0.9488   age055_m42            0.0000     3.0590E+00    13.7380   2.5529    82.3321
  4      0.0000     0.0000E+00    0.0000E+00    6.610000E+06  0.00400  2.620E-02    0   0.9220   age061_m42            0.0000     2.9668E+00    13.5816   2.1404    85.3228
  5      0.0000     0.0000E+00    0.0000E+00    1.000000E+07  0.00400  1.322E-02    0   0.8862   age070_m42            0.0000     3.2448E+00    14.2089   1.8417    87.3793
  6      0.0000     0.0000E+00    0.0000E+00    1.445000E+07  0.00400  7.883E-03    0   0.8571   age078_m42            0.0000     3.2738E+00    14.2211   2.1788    84.8148
  7      0.0000     0.0000E+00    0.0000E+00    2.512000E+07  0.00400  5.251E-03    0   0.8174   age090_m42            0.0000     3.3017E+00    14.3406   1.7074    87.9773
  8      0.0000     0.0000E+00    0.0000E+00    4.000000E+07  0.00400  3.649E-03    0   0.7851   age104_m42            0.0000     3.2138E+00    14.1892   1.4758    88.9269
  9      0.0000     0.0000E+00    0.0000E+00    5.500000E+07  0.00400  3.098E-03    0   0.7629   age110_m42            0.0000     3.0598E+00    13.8316   1.6297    89.1270
 10      0.0000     0.0000E+00    0.0000E+00    1.015200E+08  0.00400  2.228E-03    0   0.7207   age116_m42            0.0000     2.9640E+00    13.5987   1.6503    89.4215
 11      0.0000     0.0000E+00    0.0000E+00    2.861200E+08  0.00400  1.093E-03    0   0.6648   age125_m42            0.0000     2.9854E+00    13.7029   1.0583    92.8665
 12      0.0000     0.0000E+00    0.0000E+00    5.088000E+08  0.00400  6.597E-04    0   0.6365   age130_m42            0.0000     2.7993E+00    13.2794   1.0524    93.7074
 13      0.0000     0.0000E+00    0.0000E+00    1.434000E+09  0.00400  2.132E-04    0   0.5798   age139_m42            0.0000     2.4922E+00    12.7264   0.0865    95.4428
 14      0.0000     0.0000E+00    0.0000E+00    4.250000E+09  0.00400  5.895E-05    0   0.5377   age158_m42            0.0000     2.2709E+00    12.2298  -0.3281    90.9030
 15      0.0000     0.0000E+00    0.0000E+00    7.500000E+09  0.00400  3.510E-05    0   0.5212   age171_m42            0.0000     2.1911E+00    12.0150  -0.5097    90.1144
 16      0.0000     0.0000E+00    0.0000E+00    1.300000E+10  0.00400  2.005E-05    0   0.5034   age193_m42            0.0000     2.1324E+00    11.8440  -0.6690    89.4473
 17      0.0000     0.0000E+00    0.0000E+00    1.800000E+10  0.00400  1.525E-05    0   0.4967   age213_m42            0.0000     2.1433E+00    11.8736  -0.6927    89.0655
 18      0.0000     0.0000E+00    0.0000E+00    1.000000E+06  0.00800  1.238E-02    0   1.0000   age020_m52            0.0000     3.1708E+00    13.9036   2.9753    78.4030
 19      0.0000     0.0000E+00    0.0000E+00    3.160000E+06  0.00800  3.074E-02    0   0.9966   age045_m52            0.0000     3.1467E+00    13.8517   2.8973    79.1612
 20      0.0000     0.0000E+00    0.0000E+00    5.010000E+06  0.00800  2.668E-02    0   0.9443   age055_m52            0.0000     3.0910E+00    13.7747   2.6393    81.4307
 21      0.0000     0.0000E+00    0.0000E+00    6.610000E+06  0.00800  2.136E-02    0   0.9177   age061_m52            0.0000     3.1091E+00    13.9895   1.3525    87.9694
 22      0.0000     0.0000E+00    0.0000E+00    1.000000E+07  0.00800  1.215E-02    0   0.8827   age070_m52            0.0000     3.3802E+00    14.4695   2.0207    87.0536
 23      0.0000     0.0000E+00    0.0000E+00    1.445000E+07  0.00800  8.717E-03    0   0.8552   age078_m52            0.0000     3.2608E+00    14.1986   2.1418    86.0773
 24      0.0000     0.0000E+00    0.0000E+00    2.512000E+07  0.00800  5.592E-03    0   0.8162   age090_m52            0.0000     3.3027E+00    14.3428   1.7672    89.1586
 25      0.0000     0.0000E+00    0.0000E+00    4.000000E+07  0.00800  3.896E-03    0   0.7841   age104_m52            0.0000     3.1968E+00    14.1325   1.6754    90.1068
 26      0.0000     0.0000E+00    0.0000E+00    1.015200E+08  0.00800  2.148E-03    0   0.7226   age116_m52            0.0000     3.0101E+00    13.7276   1.6142    90.1747
 27      0.0000     0.0000E+00    0.0000E+00    2.861200E+08  0.00800  9.925E-04    0   0.6683   age125_m52            0.0000     2.8116E+00    13.3198   1.1159    94.5974
 28      0.0000     0.0000E+00    0.0000E+00    9.047900E+08  0.00800  3.141E-04    0   0.6138   age135_m52            0.0000     2.3762E+00    12.4544   0.3122    99.0680
 29      0.0000     0.0000E+00    0.0000E+00    1.434000E+09  0.00800  1.719E-04    0   0.5853   age139_m52            0.0000     2.2910E+00    12.2801  -0.2475    96.0984
 30      0.0000     0.0000E+00    0.0000E+00    2.500000E+09  0.00800  7.872E-05    0   0.5600   age150_m52            0.0000     2.1134E+00    11.8201  -0.4962    92.9710
 31      0.0000     0.0000E+00    0.0000E+00    4.250000E+09  0.00800  4.336E-05    0   0.5426   age158_m52            0.0000     2.1106E+00    11.8131  -0.5106    92.0778
 32      0.0000     0.0000E+00    0.0000E+00    6.250000E+09  0.00800  3.159E-05    0   0.5319   age166_m52            0.0000     2.0174E+00    11.5412  -0.7075    91.9930
 33      0.0000     0.0000E+00    0.0000E+00    1.300000E+10  0.00800  1.361E-05    0   0.5073   age193_m52            0.0000     2.0258E+00    11.7331  -1.0000    84.8838
 34      0.0000     0.0000E+00    0.0000E+00    1.800000E+10  0.00800  9.886E-06    0   0.4990   age213_m52            0.0000     2.1108E+00    11.9749  -1.0000    80.6858
 35      0.0000     0.0000E+00    0.0000E+00    1.000000E+06  0.02000  1.544E-02    0   1.0000   age020_m62            0.0000     3.1731E+00    13.9012   2.9724    78.5491
 36      0.0000     0.0000E+00    0.0000E+00    3.160000E+06  0.02000  3.762E-02    0   0.9858   age045_m62            0.0000     3.1603E+00    13.8658   2.9114    79.2402
 37      0.0000     0.0000E+00    0.0000E+00    5.010000E+06  0.02000  3.296E-02    0   0.9342   age055_m62            0.0000     2.9812E+00    13.5677   2.5077    83.6196
 38      0.0000     0.0000E+00    0.0000E+00    8.710000E+06  0.02000  1.154E-02    0   0.8861   age067_m62            0.0000     4.3051E+00    16.3090   1.4488    89.5020
 39      0.0000     0.0000E+00    0.0000E+00    1.445000E+07  0.02000  7.663E-03    0   0.8472   age078_m62            0.0000     3.5639E+00    14.8820   1.6540    89.3021
 40      0.0000     0.0000E+00    0.0000E+00    2.512000E+07  0.02000  4.532E-03    0   0.8099   age090_m62            0.0000     3.6218E+00    14.9869   1.6402    89.2528
 41      0.0000     0.0000E+00    0.0000E+00    5.500000E+07  0.02000  2.733E-03    0   0.7595   age110_m62            0.0000     3.1712E+00    14.0493   1.6594    89.4271
 42      0.0000     0.0000E+00    0.0000E+00    1.609000E+08  0.02000  1.369E-03    0   0.6985   age120_m62            0.0000     2.9473E+00    13.5492   1.4877    92.5933
 43      0.0000     0.0000E+00    0.0000E+00    2.861200E+08  0.02000  9.013E-04    0   0.6714   age125_m62            0.0000     2.8184E+00    13.2957   1.2300    95.7055
 44      7.1279     1.7112E-01    2.1829E-01    5.088000E+08  0.02000  5.028E-04    0   0.6449   age130_m62            0.0000     2.5004E+00    12.6556   0.8514    98.6146
 45      0.0000     0.0000E+00    0.0000E+00    9.047900E+08  0.02000  2.428E-04    0   0.6179   age135_m62            0.0000     2.2331E+00    12.0991   0.2735    97.7847
 46      0.0000     0.0000E+00    0.0000E+00    1.434000E+09  0.02000  1.263E-04    0   0.5908   age139_m62            0.0000     2.1433E+00    11.8912  -0.1586    95.8483
 47      0.0000     0.0000E+00    0.0000E+00    2.500000E+09  0.02000  5.985E-05    0   0.5673   age150_m62            0.0000     2.0236E+00    11.5607  -0.5066    93.9406
 48      0.0000     0.0000E+00    0.0000E+00    4.250000E+09  0.02000  3.271E-05    0   0.5468   age158_m62            0.0000     1.9283E+00    11.2676  -0.7969    92.7136
 49      0.0087     7.7259E-03    7.8967E-03    1.000000E+10  0.02000  1.360E-05    0   0.5167   age181_m62            0.0000     1.9182E+00    11.3261  -1.0000    86.9684
 50     55.3615     9.3801E+01    9.3017E+01    1.800000E+10  0.02000  7.124E-06    0   0.5013   age213_m62            0.0000     2.1769E+00    12.0446  -1.0000    78.7921
 51      0.0000     0.0000E+00    0.0000E+00    1.000000E+06  0.05000  2.592E-02    0   0.9998   age020_m72            0.0000     3.2017E+00    13.9419   2.9677    78.4220
 52      0.0000     0.0000E+00    0.0000E+00    3.160000E+06  0.05000  4.845E-02    0   0.9577   age045_m72            0.0000     3.0700E+00    13.7039   2.7863    80.6589
 53      0.0000     0.0000E+00    0.0000E+00    5.010000E+06  0.05000  3.072E-02    0   0.9147   age055_m72            0.0000     3.3850E+00    14.4238   2.2578    85.4970
 54      0.0000     0.0000E+00    0.0000E+00    6.610000E+06  0.05000  1.455E-02    0   0.8877   age061_m72            0.0000     5.1257E+00    17.8389   1.4708    90.7992
 55      0.0000     0.0000E+00    0.0000E+00    1.000000E+07  0.05000  9.074E-03    0   0.8524   age070_m72            0.0000     3.5410E+00    14.7197   2.4323    85.5200
 56      0.0000     0.0000E+00    0.0000E+00    2.512000E+07  0.05000  4.250E-03    0   0.7902   age090_m72            0.0000     3.3979E+00    14.4618   2.1198    87.6666
 57      0.0000     0.0000E+00    0.0000E+00    4.000000E+07  0.05000  3.087E-03    0   0.7618   age104_m72            0.0000     3.4182E+00    14.5180   1.8810    89.5252
 58      0.0000     0.0000E+00    0.0000E+00    1.015200E+08  0.05000  1.700E-03    0   0.7096   age116_m72            0.0000     3.0744E+00    13.8218   1.6247    92.3007
 59      0.0000     0.0000E+00    0.0000E+00    2.861200E+08  0.05000  7.384E-04    0   0.6633   age125_m72            0.0000     2.6486E+00    12.9516   1.0956    97.2890
 60      0.0000     0.0000E+00    0.0000E+00    5.088000E+08  0.05000  3.819E-04    0   0.6372   age130_m72            0.0000     2.3224E+00    12.2600   0.6117    98.7890
 61     12.3382     8.8859E-01    1.0740E+00    9.047900E+08  0.05000  1.676E-04    0   0.6110   age135_m72            0.0000     2.0536E+00    11.6312  -0.0611    96.3327
 62      0.0000     0.0000E+00    0.0000E+00    1.434000E+09  0.05000  8.837E-05    0   0.5874   age139_m72            0.0000     1.9894E+00    11.4564  -0.5128    95.6161
 63     17.9978     5.1321E+00    5.6831E+00    2.500000E+09  0.05000  4.233E-05    0   0.5598   age150_m72            0.0000     1.9022E+00    11.1819  -0.7957    93.5087
 64      0.0000     0.0000E+00    0.0000E+00    6.250000E+09  0.05000  1.435E-05    0   0.5249   age166_m72            0.0000     2.0138E+00    11.6280  -1.0000    83.0834
 65      0.0000     0.0000E+00    0.0000E+00    1.300000E+10  0.05000  6.513E-06    0   0.5036   age193_m72            0.0000     2.5308E+00    12.9658  -1.0000    74.0680
 66      0.0000     0.0000E+00    0.0000E+00    1.800000E+10  0.05000  4.527E-06    0   0.4945   age213_m72            0.0000     2.9772E+00    14.0044  -1.0000    68.6747


## Synthesis Results - Average & Chains ##

# j      x_j: min, <> & last-chain-values for 1 ...  7 chains
  1      0.0000      0.0123      0.0000      0.0000      0.0000      0.0000      0.0000      0.0000      0.0704
  2      0.0000      0.0535      0.0000      0.0000      0.0000      0.0000      0.0000      0.0000      0.0000
  3      0.0000      0.0231      0.0000      0.0000      0.0000      0.0000      0.0000      0.0000      0.0000
  4      0.0000      0.0457      0.0000      0.0000      0.0000      0.0000      0.0000      0.0000      0.0000
  5      0.0000      0.0216      0.0000      0.0000      0.0000      0.0000      0.0000      0.0000      0.0000
  6      0.0000      0.0211      0.0653      0.0000      0.0000      0.0000      0.0000      0.0000      0.0000
  7      0.0000      0.0143      0.0000      0.0000      0.0000      0.0000      0.0000      0.0000      0.0000
  8      0.0000      0.0242      0.0000      0.0000      0.0000      0.0000      0.0000      0.0000      0.1278
  9      0.0000      0.0440      0.0000      0.0000      0.0000      0.4489      0.3083      0.0000      0.0000
 10      0.0000      0.0677      0.0000      0.0000      0.0000      0.0000      0.0000      0.1000      0.0000
 11      0.0000      0.0863      0.0000      0.0000      0.0000      0.0000      0.0000      0.0000      0.0000
 12      0.0000      0.0946      0.0764      0.0000      0.0000      0.0000      0.0000      0.0000      0.0000
 13      0.0000      0.2618      0.0000      0.0000      0.0000      0.2697      0.0000      0.0000      0.0000
 14      0.0000      0.2843      0.2277      0.0000      0.0000      0.0000      0.0000      0.0000      0.0000
 15      0.0000      0.5026      0.0000      0.5023      0.0690      0.3305      0.0000      0.0000      0.0297
 16      0.0000      0.7589      0.0000      0.0000      1.0601      0.1802      0.0000      0.0000      0.4267
 17      0.0000      0.6849      0.0000      0.1525      0.0000      0.0000      0.0000      0.0000      0.0000
 18      0.0000      0.0102      0.0000      0.0000      0.0000      0.0000      0.0000      0.0000      0.0000
 19      0.0000      0.0100      0.0000      0.0000      0.0000      0.0000      0.0000      0.0000      0.0000
 20      0.0000      0.0261      0.0000      0.0000      0.0000      0.0000      0.0000      0.0000      0.0000
 21      0.0000      0.0469      0.0000      0.0000      0.0000      0.6235      0.0000      0.0000      0.0000
 22      0.0000      0.0228      0.0000      0.0000      0.0000      0.0000      0.0000      0.0000      0.0000
 23      0.0000      0.0251      0.0000      0.0000      0.0000      0.2964      0.0000      0.0000      0.0000
 24      0.0000      0.0181      0.0000      0.0000      0.0000      0.0000      0.0000      0.0000      0.0000
 25      0.0000      0.0275      0.0000      0.0000      0.0000      0.0000      0.0000      0.0000      0.0000
 26      0.0000      0.1017      0.0000      0.0000      0.0000      0.0000      0.0000      0.0000      0.0000
 27      0.0000      0.1340      0.0138      0.0000      0.0000      0.0000      0.0000      0.0000      0.0000
 28      0.0000      0.5316      2.0188      0.0000      0.0000      0.2461      0.5358      1.6738      0.0000
 29      0.0000      0.3686      0.0000      0.0000      0.0000      0.0000      0.0000      1.1583      0.0000
 30      0.0000      0.8845      0.0000      0.6552      0.0000      1.2808      0.7851      4.4384      0.0000
 31      0.0000      0.9141      0.0000      0.1401      0.0000      1.2719      0.0000      0.2659      0.0000
 32      0.0000      1.4866      0.0000      2.0326      0.3232      0.7541      0.1794      1.0684      0.7621
 33      0.0000      0.6935      0.0000      0.0000      0.0000      0.0000      0.0000      0.3064      0.0000
 34      0.0000      1.3067      0.0000      0.9688      0.0000      0.0000      0.0000      0.5669      0.0000
 35      0.0000      0.0082      0.0000      0.0000      0.0000      0.0000      0.0000      0.0000      0.0000
 36      0.0000      0.0315      0.0000      0.0000      0.0000      0.0000      0.0000      0.0000      0.0000
 37      0.0000      0.0141      0.0000      0.0000      0.0000      0.0000      0.0000      0.0000      0.0000
 38      0.0000      0.0279      0.0000      0.0000      0.0000      0.0000      0.0000      0.0000      0.0000
 39      0.0000      0.0161      0.0000      0.0000      0.0000      0.0000      0.0000      0.0000      0.0000
 40      0.0000      0.0307      0.0000      0.0000      0.0000      0.0000      0.0000      0.0000      0.0000
 41      0.0000      0.0376      0.0000      0.0000      0.0000      0.0000      0.0000      0.0000      0.0000
 42      0.0000      0.0483      0.0000      0.0000      0.0000      0.0000      0.0000      0.0000      0.0000
 43      0.0000      0.1145      0.0000      0.0000      0.0000      0.0000      0.0000      0.5806      0.0000
 44      7.1279      2.2838      1.6481      4.0944      1.9713      4.1155      1.8770      2.1767      2.9210
 45      0.0000      0.1956      0.0895      0.0000      0.0000      0.1188      1.0321      0.3349      0.0000
 46      0.0000      0.7399      0.7156      0.0000      0.2325      0.0000      0.0000      0.0000      0.0000
 47      0.0000      1.3049      2.1307      0.0000      3.3225      0.0000      0.0000      0.0000      3.1515
 48      0.0000      3.8969      0.0000      5.3857      0.0000      2.3734      4.5817      0.3092      0.0000
 49      0.0087     12.8878     15.3408      9.1020     12.2351     24.4723     21.5285     10.3174     11.4261
 50     55.3615     17.2165     15.8941     23.5599     21.5103     15.7917     15.3346     20.3596     21.9989
 51      0.0000      0.0272      0.0000      0.0000      0.0000      0.0000      0.0000      0.0000      0.0000
 52      0.0000      0.0101      0.0000      0.0000      0.0000      0.0000      0.0000      0.0000      0.0000
 53      0.0000      0.0143      0.0000      0.0000      0.0000      0.0000      0.0000      0.0000      0.0000
 54      0.0000      0.0117      0.0000      0.0000      0.0000      0.0000      0.0000      0.0000      0.0000
 55      0.0000      0.0458      0.0000      0.0000      0.0000      0.0000      0.0000      0.0000      0.0000
 56      0.0000      0.0597      0.0000      0.0000      0.0000      0.0000      0.1459      0.0000      0.0000
 57      0.0000      0.0299      0.0000      0.0000      0.2058      0.0000      0.1145      0.0000      0.0000
 58      0.0000      0.0210      0.0000      0.0000      0.0000      0.0000      0.0000      0.0000      0.0000
 59      0.0000      0.2070      0.0000      0.6938      0.0000      0.0000      0.0000      0.0000      0.0000
 60      0.0000      0.5516      3.7138      0.0000      1.6564      0.4345      0.0000      0.7733      2.9200
 61     12.3382      6.4182      5.3217      6.2731      6.9211      5.3382      7.1731      5.9180     10.6767
 62      0.0000      1.1071      0.5629      3.1843      0.0000      0.0000      0.0000      2.2339      0.6904
 63     17.9978     16.9553     19.9393     21.6995     27.3467     16.6679     22.3475     19.7885     18.8764
 64      0.0000      4.6457      9.5712      4.9470      0.0000      6.9909      1.6439      9.0484      2.7020
 65      0.0000      5.6045      7.6470      3.3634      5.4272      3.9869      5.7145      5.0548      4.2097
 66      0.0000      6.9017      6.9486      5.9998      9.0210      6.2118      7.5037      5.2873     10.9245

# j      m_j: min, <> & last-chain-values for 1 ...  7 chains
  1  0.0000E+00  3.1369E-05  0.0000E+00  0.0000E+00  0.0000E+00  0.0000E+00  0.0000E+00  0.0000E+00  1.6267E-04
  2  0.0000E+00  3.7195E-05  0.0000E+00  0.0000E+00  0.0000E+00  0.0000E+00  0.0000E+00  0.0000E+00  0.0000E+00
  3  0.0000E+00  2.4049E-05  0.0000E+00  0.0000E+00  0.0000E+00  0.0000E+00  0.0000E+00  0.0000E+00  0.0000E+00
  4  0.0000E+00  4.4851E-05  0.0000E+00  0.0000E+00  0.0000E+00  0.0000E+00  0.0000E+00  0.0000E+00  0.0000E+00
  5  0.0000E+00  4.0401E-05  0.0000E+00  0.0000E+00  0.0000E+00  0.0000E+00  0.0000E+00  0.0000E+00  0.0000E+00
  6  0.0000E+00  6.4018E-05  1.9053E-04  0.0000E+00  0.0000E+00  0.0000E+00  0.0000E+00  0.0000E+00  0.0000E+00
  7  0.0000E+00  6.1903E-05  0.0000E+00  0.0000E+00  0.0000E+00  0.0000E+00  0.0000E+00  0.0000E+00  0.0000E+00
  8  0.0000E+00  1.4528E-04  0.0000E+00  0.0000E+00  0.0000E+00  0.0000E+00  0.0000E+00  0.0000E+00  6.9494E-04
  9  0.0000E+00  3.0220E-04  0.0000E+00  0.0000E+00  0.0000E+00  3.0553E-03  2.0906E-03  0.0000E+00  0.0000E+00
 10  0.0000E+00  6.1030E-04  0.0000E+00  0.0000E+00  0.0000E+00  0.0000E+00  0.0000E+00  9.1595E-04  0.0000E+00
 11  0.0000E+00  1.4623E-03  0.0000E+00  0.0000E+00  0.0000E+00  0.0000E+00  0.0000E+00  0.0000E+00  0.0000E+00
 12  0.0000E+00  2.5426E-03  1.9784E-03  0.0000E+00  0.0000E+00  0.0000E+00  0.0000E+00  0.0000E+00  0.0000E+00
 13  0.0000E+00  1.9841E-02  0.0000E+00  0.0000E+00  0.0000E+00  2.0270E-02  0.0000E+00  0.0000E+00  0.0000E+00
 14  0.0000E+00  7.2280E-02  5.5726E-02  0.0000E+00  0.0000E+00  0.0000E+00  0.0000E+00  0.0000E+00  0.0000E+00
 15  0.0000E+00  2.0800E-01  0.0000E+00  2.0555E-01  2.6679E-02  1.3565E-01  0.0000E+00  0.0000E+00  1.1166E-02
 16  0.0000E+00  5.3098E-01  0.0000E+00  0.0000E+00  6.9285E-01  1.2506E-01  0.0000E+00  0.0000E+00  2.7086E-01
 17  0.0000E+00  6.2164E-01  0.0000E+00  1.3687E-01  0.0000E+00  0.0000E+00  0.0000E+00  0.0000E+00  0.0000E+00
 18  0.0000E+00  2.3040E-05  0.0000E+00  0.0000E+00  0.0000E+00  0.0000E+00  0.0000E+00  0.0000E+00  0.0000E+00
 19  0.0000E+00  9.0506E-06  0.0000E+00  0.0000E+00  0.0000E+00  0.0000E+00  0.0000E+00  0.0000E+00  0.0000E+00
 20  0.0000E+00  2.5769E-05  0.0000E+00  0.0000E+00  0.0000E+00  0.0000E+00  0.0000E+00  0.0000E+00  0.0000E+00
 21  0.0000E+00  5.6174E-05  0.0000E+00  0.0000E+00  0.0000E+00  7.4036E-04  0.0000E+00  0.0000E+00  0.0000E+00
 22  0.0000E+00  4.6150E-05  0.0000E+00  0.0000E+00  0.0000E+00  0.0000E+00  0.0000E+00  0.0000E+00  0.0000E+00
 23  0.0000E+00  6.8508E-05  0.0000E+00  0.0000E+00  0.0000E+00  8.0387E-04  0.0000E+00  0.0000E+00  0.0000E+00
 24  0.0000E+00  7.3569E-05  0.0000E+00  0.0000E+00  0.0000E+00  0.0000E+00  0.0000E+00  0.0000E+00  0.0000E+00
 25  0.0000E+00  1.5451E-04  0.0000E+00  0.0000E+00  0.0000E+00  0.0000E+00  0.0000E+00  0.0000E+00  0.0000E+00
 26  0.0000E+00  9.5311E-04  0.0000E+00  0.0000E+00  0.0000E+00  0.0000E+00  0.0000E+00  0.0000E+00  0.0000E+00
 27  0.0000E+00  2.5142E-03  2.4880E-04  0.0000E+00  0.0000E+00  0.0000E+00  0.0000E+00  0.0000E+00  0.0000E+00
 28  0.0000E+00  2.8951E-02  1.0586E-01  0.0000E+00  0.0000E+00  1.3295E-02  2.8828E-02  9.2587E-02  0.0000E+00
 29  0.0000E+00  3.4979E-02  0.0000E+00  0.0000E+00  0.0000E+00  0.0000E+00  0.0000E+00  1.1164E-01  0.0000E+00
 30  0.0000E+00  1.7535E-01  0.0000E+00  1.2844E-01  0.0000E+00  2.5185E-01  1.5379E-01  8.9373E-01  0.0000E+00
 31  0.0000E+00  3.1878E-01  0.0000E+00  4.8295E-02  0.0000E+00  4.3993E-01  0.0000E+00  9.4177E-02  0.0000E+00
 32  0.0000E+00  6.9757E-01  0.0000E+00  9.4308E-01  1.4167E-01  3.5096E-01  8.3161E-02  5.0920E-01  3.2440E-01
 33  0.0000E+00  7.2034E-01  0.0000E+00  0.0000E+00  0.0000E+00  0.0000E+00  0.0000E+00  3.2323E-01  0.0000E+00
 34  0.0000E+00  1.8380E+00  0.0000E+00  1.3475E+00  0.0000E+00  0.0000E+00  0.0000E+00  8.0991E-01  0.0000E+00
 35  0.0000E+00  1.4741E-05  0.0000E+00  0.0000E+00  0.0000E+00  0.0000E+00  0.0000E+00  0.0000E+00  0.0000E+00
 36  0.0000E+00  2.3040E-05  0.0000E+00  0.0000E+00  0.0000E+00  0.0000E+00  0.0000E+00  0.0000E+00  0.0000E+00
 37  0.0000E+00  1.1145E-05  0.0000E+00  0.0000E+00  0.0000E+00  0.0000E+00  0.0000E+00  0.0000E+00  0.0000E+00
 38  0.0000E+00  5.9638E-05  0.0000E+00  0.0000E+00  0.0000E+00  0.0000E+00  0.0000E+00  0.0000E+00  0.0000E+00
 39  0.0000E+00  4.9562E-05  0.0000E+00  0.0000E+00  0.0000E+00  0.0000E+00  0.0000E+00  0.0000E+00  0.0000E+00
 40  0.0000E+00  1.5305E-04  0.0000E+00  0.0000E+00  0.0000E+00  0.0000E+00  0.0000E+00  0.0000E+00  0.0000E+00
 41  0.0000E+00  2.9094E-04  0.0000E+00  0.0000E+00  0.0000E+00  0.0000E+00  0.0000E+00  0.0000E+00  0.0000E+00
 42  0.0000E+00  6.8634E-04  0.0000E+00  0.0000E+00  0.0000E+00  0.0000E+00  0.0000E+00  0.0000E+00  0.0000E+00
 43  0.0000E+00  2.3761E-03  0.0000E+00  0.0000E+00  0.0000E+00  0.0000E+00  0.0000E+00  1.2243E-02  0.0000E+00
 44  2.1829E-01  8.1633E-02  5.6722E-02  1.4472E-01  6.5821E-02  1.4590E-01  6.6291E-02  7.9025E-02  9.4719E-02
 45  0.0000E+00  1.3873E-02  6.1123E-03  0.0000E+00  0.0000E+00  8.3581E-03  7.2324E-02  2.4124E-02  0.0000E+00
 46  0.0000E+00  9.6453E-02  8.9823E-02  0.0000E+00  2.8311E-02  0.0000E+00  0.0000E+00  0.0000E+00  0.0000E+00
 47  0.0000E+00  3.4469E-01  5.4193E-01  0.0000E+00  8.1983E-01  0.0000E+00  0.0000E+00  0.0000E+00  7.5521E-01
 48  0.0000E+00  1.8154E+00  0.0000E+00  2.4809E+00  0.0000E+00  1.0966E+00  2.1089E+00  1.4632E-01  0.0000E+00
 49  7.8967E-03  1.3646E+01  1.5639E+01  9.5292E+00  1.2101E+01  2.5699E+01  2.2522E+01  1.1095E+01  1.0975E+01
 50  9.3017E+01  3.3762E+01  3.0011E+01  4.5684E+01  3.9403E+01  3.0715E+01  2.9712E+01  4.0552E+01  3.9136E+01
 51  0.0000E+00  2.9190E-05  0.0000E+00  0.0000E+00  0.0000E+00  0.0000E+00  0.0000E+00  0.0000E+00  0.0000E+00
 52  0.0000E+00  5.5497E-06  0.0000E+00  0.0000E+00  0.0000E+00  0.0000E+00  0.0000E+00  0.0000E+00  0.0000E+00
 53  0.0000E+00  1.1892E-05  0.0000E+00  0.0000E+00  0.0000E+00  0.0000E+00  0.0000E+00  0.0000E+00  0.0000E+00
 54  0.0000E+00  1.9844E-05  0.0000E+00  0.0000E+00  0.0000E+00  0.0000E+00  0.0000E+00  0.0000E+00  0.0000E+00
 55  0.0000E+00  1.2000E-04  0.0000E+00  0.0000E+00  0.0000E+00  0.0000E+00  0.0000E+00  0.0000E+00  0.0000E+00
 56  0.0000E+00  3.0957E-04  0.0000E+00  0.0000E+00  0.0000E+00  0.0000E+00  7.4702E-04  0.0000E+00  0.0000E+00
 57  0.0000E+00  2.0595E-04  0.0000E+00  0.0000E+00  1.3223E-03  0.0000E+00  7.7818E-04  0.0000E+00  0.0000E+00
 58  0.0000E+00  2.4397E-04  0.0000E+00  0.0000E+00  0.0000E+00  0.0000E+00  0.0000E+00  0.0000E+00  0.0000E+00
 59  0.0000E+00  5.1816E-03  0.0000E+00  1.7174E-02  0.0000E+00  0.0000E+00  0.0000E+00  0.0000E+00  0.0000E+00
 60  0.0000E+00  2.5649E-02  1.6627E-01  0.0000E+00  7.1944E-02  2.0037E-02  0.0000E+00  3.6523E-02  1.2317E-01
 61  1.0740E+00  6.5207E-01  5.2059E-01  6.3019E-01  6.5683E-01  5.3790E-01  7.2005E-01  6.1068E-01  9.8403E-01
 62  0.0000E+00  2.0509E-01  1.0040E-01  5.8326E-01  0.0000E+00  0.0000E+00  0.0000E+00  4.2030E-01  1.1602E-01
 63  5.6831E+00  6.2489E+00  7.0757E+00  7.9078E+00  9.4145E+00  6.0926E+00  8.1377E+00  7.4075E+00  6.3112E+00
 64  0.0000E+00  4.7358E+00  9.3944E+00  4.9864E+00  0.0000E+00  7.0681E+00  1.6557E+00  9.3686E+00  2.4987E+00
 65  0.0000E+00  1.2077E+01  1.5866E+01  7.1664E+00  1.0924E+01  8.5208E+00  1.2167E+01  1.1063E+01  8.2292E+00
 66  0.0000E+00  2.1010E+01  2.0367E+01  1.8060E+01  2.5652E+01  1.8755E+01  2.2569E+01  1.6348E+01  3.0169E+01

# AV, chi2 & Mass for <> & i_chain = 1 ...  7 solutions
AV      -1.0000     -0.9545     -1.0000     -1.0000     -1.0000     -1.0000     -0.9896     -0.9795     -0.9909
chi2 1.8673E+00  1.8929E+00  1.8749E+00  1.8740E+00  1.8770E+00  1.8776E+00  1.8821E+00  1.8813E+00  1.8770E+00
Mass 1.8904E-13  1.7218E-13  1.6821E-13  1.6380E-13  1.7339E-13  1.6330E-13  1.6624E-13  1.6392E-13  1.8073E-13
-323.91                                  [v0_min (km/s) before EX0s...]
 242.05                                  [vd_min (km/s) before EX0s...]


## Synthetic spectrum (Best Model) ##l_obs f_obs f_syn wei
 3478    [Nl_obs]
 3741.00    0.62821   0.36175    0.000
 3742.00    0.67323   0.34668    0.000
 3743.00    0.69751   0.33834    0.000
 3744.00    0.71648   0.33790    0.000
 3745.00    0.76186   0.34772   -1.000
 3746.00    0.85406   0.36943   -1.000
 3747.00    0.98046   0.39905   -1.000
 3748.00    1.12263   0.42887   -1.000
 3749.00    1.27559   0.45378   -1.000
 3750.00    1.41771   0.47221   -1.000
 3751.00    1.49748   0.48206   -1.000
 3752.00    1.50389   0.48091   -1.000
 3753.00    1.49886   0.46984   -1.000
 3754.00    1.51236   0.45552   -1.000
 3755.00    1.49176   0.44563   -1.000
 3756.00    1.40225   0.44160   -1.000
 3757.00    1.27515   0.43991   -1.000
 3758.00    1.14052   0.43875   -1.000
 3759.00    0.99470   0.43886   -1.000
 3760.00    0.82761   0.44170   -1.000
 3761.00    0.63733   0.44695   -1.000
 3762.00    0.43021   0.45234   23.245
 3763.00    0.22708   0.45897   -1.000
 3764.00    0.08873   0.47023   -1.000
 3765.00    0.09428   0.48496   -1.000
 3766.00    0.21931   0.49975   -1.000
 3767.00    0.33775   0.51468   -1.000
 3768.00    0.39622   0.53040   25.239
 3769.00    0.44114   0.54502   22.669
 3770.00    0.49830   0.55711   20.068
 3771.00    0.55590   0.56760   17.989
 3772.00    0.63658   0.57812   15.709
 3773.00    0.78954   0.58905   -1.000
 3774.00    1.00724   0.59978   -1.000
 3775.00    1.22053   0.61017   -1.000
 3776.00    1.34819   0.61837   -1.000
 3777.00    1.33443   0.62091   -1.000
 3778.00    1.20373   0.61676   -1.000
 3779.00    1.03943   0.60682   -1.000
 3780.00    0.90832   0.59128   -1.000
 3781.00    0.83396   0.56959   -1.000
 3782.00    0.77990   0.54366   -1.000
 3783.00    0.70210   0.51866   -1.000
 3784.00    0.64801   0.49776   -1.000
 3785.00    0.68564   0.48086   -1.000
 3786.00    0.75526   0.46792   -1.000
 3787.00    0.75237   0.45865   -1.000
 3788.00    0.69567   0.44988   -1.000
 3789.00    0.66598   0.43890   -1.000
 3790.00    0.67839   0.42710   -1.000
 3791.00    0.68394   0.41804   -1.000
 3792.00    0.60253   0.41369   -1.000
 3793.00    0.40472   0.41367   24.709
 3794.00    0.20023   0.41857   -1.000
 3795.00    0.12921   0.43087   -1.000
 3796.00    0.22572   0.45078   -1.000
 3797.00    0.44179   0.47380   22.635
 3798.00    0.69234   0.49538   -1.000
 3799.00    0.88549   0.51414   -1.000
 3800.00    0.95276   0.52932   -1.000
 3801.00    0.89338   0.53962   -1.000
 3802.00    0.80062   0.54467   -1.000
 3803.00    0.75495   0.54597   -1.000
 3804.00    0.73981   0.54592   -1.000
 3805.00    0.71633   0.54443   -1.000
 3806.00    0.68344   0.53874   -1.000
 3807.00    0.64679   0.52750   -1.000
 3808.00    0.59960   0.51166   -1.000
 3809.00    0.56796   0.49280   -1.000
 3810.00    0.62612   0.47275   -1.000
 3811.00    0.79553   0.45321   -1.000
 3812.00    0.99979   0.43640   -1.000
 3813.00    1.17379   0.42435   -1.000
 3814.00    1.31618   0.41511   -1.000
 3815.00    1.42282   0.40452   -1.000
 3816.00    1.46200   0.39229   -1.000
 3817.00    1.43373   0.38184   -1.000
 3818.00    1.38269   0.37450   -1.000
 3819.00    1.32295   0.36710   -1.000
 3820.00    1.22201   0.35700   -1.000
 3821.00    1.07848   0.34651   -1.000
 3822.00    0.94086   0.33888   -1.000
 3823.00    0.85275   0.33378   -1.000
 3824.00    0.83466   0.32919   -1.000
 3825.00    0.89697   0.32441   -1.000
 3826.00    1.02982   0.31992   -1.000
 3827.00    1.15711   0.31550   -1.000
 3828.00    1.17369   0.31025   -1.000
 3829.00    1.09676   0.30500   -1.000
 3830.00    1.03993   0.30196   -1.000
 3831.00    1.01856   0.30229   -1.000
 3832.00    0.94992   0.30588   -1.000
 3833.00    0.79260   0.31232   -1.000
 3834.00    0.57187   0.32176   -1.000
 3835.00    0.35207   0.33501   28.404
 3836.00    0.20314   0.35214   -1.000
 3837.00    0.14484   0.37238   -1.000
 3838.00    0.15093   0.39489   -1.000
 3839.00    0.18299   0.41701   -1.000
 3840.00    0.22460   0.43494   -1.000
 3841.00    0.32723   0.44725   30.560
 3842.00    0.53984   0.45530   18.524
 3843.00    0.78037   0.46116   -1.000
 3844.00    0.91387   0.46463   -1.000
 3845.00    0.90638   0.46408   -1.000
 3846.00    0.79356   0.46081   -1.000
 3847.00    0.60198   0.45812    0.000
 3848.00    0.37131   0.45621    0.000
 3849.00    0.19448   0.45207    0.000
 3850.00    0.15388   0.44426    0.000
 3851.00    0.23902   0.43478    0.000
 3852.00    0.38727   0.42638    0.000
 3853.00    0.54308   0.42111    0.000
 3854.00    0.67507   0.41946    0.000
 3855.00    0.78498   0.42040    0.000
 3856.00    0.88351   0.42474    0.000
 3857.00    0.96744   0.43400    0.000
 3858.00    1.03849   0.44656    0.000
 3859.00    1.11806   0.45806    0.000
 3860.00    1.20954   0.46490    0.000
 3861.00    1.27372   0.46680    0.000
 3862.00    1.29515   0.46503    0.000
 3863.00    1.32401   0.46070    0.000
 3864.00    1.39160   0.45455    0.000
 3865.00    1.45762   0.44829    0.000
 3866.00    1.48130   0.44391    0.000
 3867.00    1.46684   0.44199    0.000
 3868.00    1.43542   0.44220    0.000
 3869.00    1.40352   0.44400    0.000
 3870.00    1.36742   0.44731    0.000
 3871.00    1.30356   0.45135    0.000
 3872.00    1.21296   0.45263    0.000
 3873.00    1.13327   0.44848    0.000
 3874.00    1.08400   0.44116    0.000
 3875.00    1.04821   0.43609    0.000
 3876.00    1.01187   0.43480    0.000
 3877.00    0.98001   0.43205    0.000
 3878.00    0.96770   0.42602    0.000
 3879.00    0.98646   0.42198    0.000
 3880.00    1.00936   0.42224    0.000
 3881.00    0.97976   0.42280   -1.000
 3882.00    0.88587   0.42243   -1.000
 3883.00    0.76867   0.42669   -1.000
 3884.00    0.66284   0.43908   -1.000
 3885.00    0.57943   0.45622   -1.000
 3886.00    0.51360   0.47499   19.470
 3887.00    0.45572   0.49492   21.943
 3888.00    0.41398   0.51485   24.156
 3889.00    0.41001   0.53187   24.390
 3890.00    0.45238   0.54277   22.105
 3891.00    0.53068   0.54833   18.844
 3892.00    0.61847   0.55217   16.169
 3893.00    0.69145   0.55720   -1.000
 3894.00    0.76291   0.56049   -1.000
 3895.00    0.85965   0.55973   -1.000
 3896.00    0.96142   0.55878   -1.000
 3897.00    1.02921   0.55935   -1.000
 3898.00    1.07615   0.56041   -1.000
 3899.00    1.13745   0.56102   -1.000
 3900.00    1.19990   0.56379   -1.000
 3901.00    1.22160   0.57070   -1.000
 3902.00    1.18100   0.57987   -1.000
 3903.00    1.08249   0.59277   -1.000
 3904.00    0.95277   0.61010   -1.000
 3905.00    0.82799   0.62719   -1.000
 3906.00    0.73731   0.64025   13.563
 3907.00    0.69843   0.64889   14.318
 3908.00    0.71517   0.65324   13.983
 3909.00    0.78009   0.65235   12.819
 3910.00    0.87849   0.64542   -1.000
 3911.00    0.99585   0.63354   -1.000
 3912.00    1.12433   0.61787   -1.000
 3913.00    1.25218   0.59941   -1.000
 3914.00    1.35485   0.58087   -1.000
 3915.00    1.41360   0.56313   -1.000
 3916.00    1.43072   0.54591   -1.000
 3917.00    1.40952   0.52940   -1.000
 3918.00    1.34108   0.51411   -1.000
 3919.00    1.23934   0.49892   -1.000
 3920.00    1.16114   0.48111   -1.000
 3921.00    1.14942   0.45915   -1.000
 3922.00    1.19490   0.43173   -1.000
 3923.00    1.25809   0.39988   -1.000
 3924.00    1.29066   0.36565   -1.000
 3925.00    1.26675   0.33123   -1.000
 3926.00    1.19697   0.30007   -1.000
 3927.00    1.10258   0.27496   -1.000
 3928.00    0.99886   0.25819   -1.000
 3929.00    0.88728   0.25127   -1.000
 3930.00    0.75788   0.25502   -1.000
 3931.00    0.61782   0.26936   -1.000
 3932.00    0.49619   0.29233   -1.000
 3933.00    0.40498   0.32081   24.692
 3934.00    0.32987   0.35159   30.315
 3935.00    0.26350   0.38183   -1.000
 3936.00    0.21480   0.40979   -1.000
 3937.00    0.19202   0.43549   -1.000
 3938.00    0.19788   0.45977   -1.000
 3939.00    0.23572   0.48223   -1.000
 3940.00    0.30841   0.50185   -1.000
 3941.00    0.40820   0.52163   24.498
 3942.00    0.51574   0.54521   19.390
 3943.00    0.60700   0.56854   16.474
 3944.00    0.66080   0.58538   15.133
 3945.00    0.67264   0.59802   14.867
 3946.00    0.65326   0.61208   15.308
 3947.00    0.61587   0.62509   16.237
 3948.00    0.57321   0.63031   17.446
 3949.00    0.53860   0.62797   18.567
 3950.00    0.52040   0.62497   19.216
 3951.00    0.51069   0.62182   19.581
 3952.00    0.49654   0.61034   20.139
 3953.00    0.48505   0.58864   20.616
 3954.00    0.47679   0.56295   20.974
 3955.00    0.41324   0.53605   24.199
 3956.00    0.24656   0.50483   -1.000
 3957.00    0.06471   0.46647   -1.000
 3958.00    0.00466   0.42397   -1.000
 3959.00    0.09142   0.38389   -1.000
 3960.00    0.26915   0.34827    0.000
 3961.00    0.47993   0.31589    0.000
 3962.00    0.67212   0.28837    0.000
 3963.00    0.79849   0.26946    0.000
 3964.00    0.84082   0.26177    0.000
 3965.00    0.83677   0.26592    0.000
 3966.00    0.84114   0.28187    0.000
 3967.00    0.87884   0.30919    0.000
 3968.00    0.94191   0.34560    0.000
 3969.00    0.99415   0.38743    0.000
 3970.00    0.99861   0.43216    0.000
 3971.00    0.94247   0.47855    0.000
 3972.00    0.82591   0.52428    0.000
 3973.00    0.65308   0.56549    0.000
 3974.00    0.45510   0.60062    0.000
 3975.00    0.30144   0.63065    0.000
 3976.00    0.23625   0.65610    0.000
 3977.00    0.23703   0.67654    0.000
 3978.00    0.27124   0.69159    0.000
 3979.00    0.33305   0.70355    0.000
 3980.00    0.40964   0.71604    0.000
 3981.00    0.46534   0.72921   -1.000
 3982.00    0.48680   0.74074   -1.000
 3983.00    0.50271   0.75023   -1.000
 3984.00    0.53914   0.76024   18.548
 3985.00    0.59793   0.77032   16.724
 3986.00    0.67711   0.77612   14.769
 3987.00    0.77944   0.77862   12.830
 3988.00    0.90063   0.78141   11.103
 3989.00    1.02380   0.78324   -1.000
 3990.00    1.12104   0.78294   -1.000
 3991.00    1.16133   0.78313   -1.000
 3992.00    1.13773   0.78673   -1.000
 3993.00    1.07008   0.79177   -1.000
 3994.00    0.97500   0.79652   10.256
 3995.00    0.86159   0.80395   11.606
 3996.00    0.75467   0.81331   13.251
 3997.00    0.69311   0.81677   14.428
 3998.00    0.69949   0.81254   14.296
 3999.00    0.77425   0.80897   12.916
 4000.00    0.90668   0.80855   11.029
 4001.00    1.07607   0.80596   -1.000
 4002.00    1.24625   0.80251   -1.000
 4003.00    1.37147   0.80669   -1.000
 4004.00    1.41461   0.81883   -1.000
 4005.00    1.36414   0.83179   -1.000
 4006.00    1.26027   0.84289   -1.000
 4007.00    1.16827   0.85389   -1.000
 4008.00    1.11193   0.86530   -1.000
 4009.00    1.07640   0.87412    9.290
 4010.00    1.04116   0.87930    9.605
 4011.00    1.00000   0.88385   10.000
 4012.00    0.98300   0.88949   10.173
 4013.00    1.02696   0.89205    9.737
 4014.00    1.12241   0.89043    8.909
 4015.00    1.23347   0.88990   -1.000
 4016.00    1.34015   0.89105   -1.000
 4017.00    1.42814   0.88887   -1.000
 4018.00    1.46672   0.88464   -1.000
 4019.00    1.42284   0.88266   -1.000
 4020.00    1.28394   0.88147   -1.000
 4021.00    1.07104   0.87750    9.337
 4022.00    0.84810   0.86964   11.791
 4023.00    0.68827   0.85733   14.529
 4024.00    0.63393   0.84172   15.775
 4025.00    0.67810   0.82493   14.747
 4026.00    0.75589   0.80642   13.229
 4027.00    0.80809   0.78890   12.375
 4028.00    0.83728   0.78022   11.943
 4029.00    0.86114   0.78396   11.613
 4030.00    0.87066   0.79611   11.486
 4031.00    0.85888   0.81325   11.643
 4032.00    0.84397   0.83270   11.849
 4033.00    0.84708   0.85023   11.805
 4034.00    0.87477   0.86207   11.432
 4035.00    0.92097   0.86633   10.858
 4036.00    0.97146   0.86022   10.294
 4037.00    1.01834   0.84231    9.820
 4038.00    1.06575   0.81853   -1.000
 4039.00    1.10903   0.79906   -1.000
 4040.00    1.12877   0.78713   -1.000
 4041.00    1.12608   0.77851   -1.000
 4042.00    1.13090   0.77504   -1.000
 4043.00    1.14552   0.78409   -1.000
 4044.00    1.13027   0.80351   -1.000
 4045.00    1.07034   0.82157   -1.000
 4046.00    0.99874   0.83301   10.013
 4047.00    0.95756   0.83931   10.443
 4048.00    0.97406   0.84068   10.266
 4049.00    1.03590   0.83669    9.653
 4050.00    1.09691   0.82721   -1.000
 4051.00    1.13144   0.81464   -1.000
 4052.00    1.14240   0.80407   -1.000
 4053.00    1.12132   0.79750   -1.000
 4054.00    1.04708   0.79054   -1.000
 4055.00    0.92383   0.77975   10.825
 4056.00    0.78498   0.76832   12.739
 4057.00    0.67039   0.76201   14.917
 4058.00    0.61360   0.76054   16.297
 4059.00    0.62661   0.75668   15.959
 4060.00    0.69333   0.75147   14.423
 4061.00    0.76456   0.75583   13.079
 4062.00    0.78644   0.77055   12.715
 4063.00    0.76415   0.78135   13.086
 4064.00    0.75027   0.78288   13.329
 4065.00    0.79121   0.78567   12.639
 4066.00    0.90289   0.79341   11.076
 4067.00    1.04801   0.79527   -1.000
 4068.00    1.16544   0.78745   -1.000
 4069.00    1.22843   0.77943   -1.000
 4070.00    1.24824   0.77731   -1.000
 4071.00    1.26206   0.77763   -1.000
 4072.00    1.30460   0.77848   -1.000
 4073.00    1.37030   0.78317   -1.000
 4074.00    1.43126   0.79401   -1.000
 4075.00    1.46957   0.80902   -1.000
 4076.00    1.47956   0.82526   -1.000
 4077.00    1.46519   0.84174   -1.000
 4078.00    1.44082   0.85714   -1.000
 4079.00    1.43030   0.86960   -1.000
 4080.00    1.43996   0.88043   -1.000
 4081.00    1.43292   0.89167   -1.000
 4082.00    1.36930   0.90203   -1.000
 4083.00    1.24972   0.91000   -1.000
 4084.00    1.11678   0.91547    8.954
 4085.00    1.04610   0.91682    9.559
 4086.00    1.08534   0.91303    9.214
 4087.00    1.20744   0.90408   -1.000
 4088.00    1.35618   0.88847   -1.000
 4089.00    1.48575   0.86695   -1.000
 4090.00    1.56070   0.84400   -1.000
 4091.00    1.55627   0.82105   -1.000
 4092.00    1.47449   0.79586    0.000
 4093.00    1.35114   0.76959    0.000
 4094.00    1.23034   0.74654    0.000
 4095.00    1.14458   0.73079    0.000
 4096.00    1.09514   0.72294    0.000
 4097.00    1.04887   0.72043    0.000
 4098.00    0.97892   0.72375    0.000
 4099.00    0.88532   0.73618    0.000
 4100.00    0.78565   0.75465    0.000
 4101.00    0.70567   0.77251    0.000
 4102.00    0.66055   0.78826    0.000
 4103.00    0.64999   0.80253    0.000
 4104.00    0.67355   0.81356    0.000
 4105.00    0.73473   0.82129    0.000
 4106.00    0.83128   0.82822    0.000
 4107.00    0.95478   0.83490    0.000
 4108.00    1.10312   0.84068    0.000
 4109.00    1.27372   0.84669    0.000
 4110.00    1.42784   0.85283    0.000
 4111.00    1.50107   0.85524    0.000
 4112.00    1.46976   0.85336    0.000
 4113.00    1.36258   0.85181   -1.000
 4114.00    1.23445   0.85072   -1.000
 4115.00    1.14793   0.84632   -1.000
 4116.00    1.14576   0.84123   -1.000
 4117.00    1.23924   0.84085   -1.000
 4118.00    1.39873   0.84281   -1.000
 4119.00    1.56856   0.84183   -1.000
 4120.00    1.70400   0.83830   -1.000
 4121.00    1.77781   0.83447   -1.000
 4122.00    1.77678   0.82914   -1.000
 4123.00    1.70701   0.82026   -1.000
 4124.00    1.60427   0.80873   -1.000
 4125.00    1.51686   0.79697   -1.000
 4126.00    1.47259   0.78803   -1.000
 4127.00    1.46787   0.78333   -1.000
 4128.00    1.46153   0.78344   -1.000
 4129.00    1.41022   0.78875   -1.000
 4130.00    1.31992   0.79830   -1.000
 4131.00    1.22225   0.80963   -1.000
 4132.00    1.13265   0.82093   -1.000
 4133.00    1.05763   0.82933   -1.000
 4134.00    1.00975   0.83148    9.903
 4135.00    0.99532   0.82655   10.047
 4136.00    0.99961   0.81535   -1.000
 4137.00    1.00647   0.80199   -1.000
 4138.00    1.01960   0.79140   -1.000
 4139.00    1.04536   0.78288   -1.000
 4140.00    1.07528   0.77556   -1.000
 4141.00    1.10377   0.77392   -1.000
 4142.00    1.14321   0.77815   -1.000
 4143.00    1.19957   0.78193   -1.000
 4144.00    1.25369   0.78343   -1.000
 4145.00    1.28889   0.78448   -1.000
 4146.00    1.31168   0.78375   -1.000
 4147.00    1.33490   0.78093   -1.000
 4148.00    1.36418   0.77919   -1.000
 4149.00    1.39669   0.77946   -1.000
 4150.00    1.42256   0.78087   -1.000
 4151.00    1.43491   0.78530   -1.000
 4152.00    1.43369   0.79492   -1.000
 4153.00    1.41094   0.80659   -1.000
 4154.00    1.34822   0.81756   -1.000
 4155.00    1.24832   0.82996   -1.000
 4156.00    1.14549   0.84289   -1.000
 4157.00    1.07155   0.85063   -1.000
 4158.00    1.03739   0.85283    9.640
 4159.00    1.02759   0.85376    9.731
 4160.00    1.01142   0.85141    9.887
 4161.00    0.99559   0.84311   10.044
 4162.00    1.02746   0.83320   -1.000
 4163.00    1.12300   0.82403   -1.000
 4164.00    1.25159   0.81223   -1.000
 4165.00    1.38192   0.79761   -1.000
 4166.00    1.49663   0.78364   -1.000
 4167.00    1.58474   0.77199   -1.000
 4168.00    1.63737   0.76195   -1.000
 4169.00    1.64331   0.75352   -1.000
 4170.00    1.59379   0.74855   -1.000
 4171.00    1.49867   0.74795   -1.000
 4172.00    1.38438   0.75119   -1.000
 4173.00    1.27688   0.75716   -1.000
 4174.00    1.19346   0.76380   -1.000
 4175.00    1.13435   0.77039   -1.000
 4176.00    1.09165   0.77774   -1.000
 4177.00    1.07169   0.78527   -1.000
 4178.00    1.08144   0.79225   -1.000
 4179.00    1.09315   0.79846   -1.000
 4180.00    1.07252   0.80165   -1.000
 4181.00    1.04134   0.80279   -1.000
 4182.00    1.04657   0.80735   -1.000
 4183.00    1.08932   0.81328   -1.000
 4184.00    1.13900   0.81431   -1.000
 4185.00    1.17460   0.81431   -1.000
 4186.00    1.18962   0.81919   -1.000
 4187.00    1.18934   0.82284   -1.000
 4188.00    1.18124   0.81756   -1.000
 4189.00    1.16395   0.80823   -1.000
 4190.00    1.14304   0.80019   -1.000
 4191.00    1.14918   0.78890   -1.000
 4192.00    1.19740   0.77295   -1.000
 4193.00    1.24253   0.76078   -1.000
 4194.00    1.23653   0.75495   -1.000
 4195.00    1.19076   0.75052   -1.000
 4196.00    1.13695   0.75057   -1.000
 4197.00    1.08460   0.75971   -1.000
 4198.00    1.03911   0.77250   -1.000
 4199.00    1.01983   0.78523   -1.000
 4200.00    1.04159   0.80116   -1.000
 4201.00    1.09844   0.81916   -1.000
 4202.00    1.16742   0.83418   -1.000
 4203.00    1.21639   0.84446   -1.000
 4204.00    1.23307   0.85132   -1.000
 4205.00    1.23895   0.85535   -1.000
 4206.00    1.24387   0.85609   -1.000
 4207.00    1.22285   0.85401   -1.000
 4208.00    1.16452   0.85040   -1.000
 4209.00    1.09573   0.84702   -1.000
 4210.00    1.04584   0.84798    9.562
 4211.00    1.02699   0.85426    9.737
 4212.00    1.04304   0.85969    9.587
 4213.00    1.09419   0.86328    9.139
 4214.00    1.17443   0.86779   -1.000
 4215.00    1.26938   0.86712   -1.000
 4216.00    1.35285   0.85312   -1.000
 4217.00    1.39385   0.83013   -1.000
 4218.00    1.38999   0.80499   -1.000
 4219.00    1.37033   0.77590   -1.000
 4220.00    1.35363   0.74512   -1.000
 4221.00    1.33759   0.72525   -1.000
 4222.00    1.31731   0.72153   -1.000
 4223.00    1.28933   0.72613   -1.000
 4224.00    1.24309   0.73805   -1.000
 4225.00    1.16932   0.76014   -1.000
 4226.00    1.09195   0.78227   -1.000
 4227.00    1.05762   0.79774   -1.000
 4228.00    1.08180   0.81125   -1.000
 4229.00    1.13921   0.82002   -1.000
 4230.00    1.17875   0.82126   -1.000
 4231.00    1.15455   0.82453   -1.000
 4232.00    1.08617   0.83117   -1.000
 4233.00    1.03215   0.83626    9.688
 4234.00    1.00538   0.84558    9.947
 4235.00    0.98405   0.86186   10.162
 4236.00    0.96879   0.87585   10.322
 4237.00    0.96978   0.88623   10.312
 4238.00    0.96430   0.89877   10.370
 4239.00    0.92103   0.90662   10.857
 4240.00    0.85201   0.90268   11.737
 4241.00    0.78794   0.89325   12.691
 4242.00    0.72828   0.88367   13.731
 4243.00    0.66986   0.86906   14.929
 4244.00    0.65556   0.84839   15.254
 4245.00    0.72737   0.83268   13.748
 4246.00    0.85801   0.82588   11.655
 4247.00    0.99285   0.81901   10.072
 4248.00    1.11113   0.81117   -1.000
 4249.00    1.21424   0.81102   -1.000
 4250.00    1.30393   0.81719   -1.000
 4251.00    1.37507   0.82063   -1.000
 4252.00    1.41234   0.82112   -1.000
 4253.00    1.40974   0.82488   -1.000
 4254.00    1.38671   0.83089   -1.000
 4255.00    1.35937   0.83763   -1.000
 4256.00    1.31607   0.84945   -1.000
 4257.00    1.24301   0.86418   -1.000
 4258.00    1.14564   0.87668   -1.000
 4259.00    1.03708   0.88851    9.642
 4260.00    0.92867   0.89763   10.768
 4261.00    0.83517   0.89448   11.974
 4262.00    0.77606   0.88039   12.886
 4263.00    0.75679   0.86278   13.214
 4264.00    0.75893   0.83834   13.176
 4265.00    0.75597   0.80616   13.228
 4266.00    0.72615   0.78051   13.771
 4267.00    0.66745   0.76786   14.982
 4268.00    0.60079   0.75895   16.645
 4269.00    0.54482   0.75723   18.355
 4270.00    0.50411   0.77094   -1.000
 4271.00    0.47707   0.79149   -1.000
 4272.00    0.46097   0.81038   -1.000
 4273.00    0.45608   0.82760   -1.000
 4274.00    0.46606   0.84183   -1.000
 4275.00    0.49251   0.85183   -2.000
 4276.00    0.53014   0.85552   -2.000
 4277.00    0.55785   0.85343   -2.000
 4278.00    0.54425   0.84852   -2.000
 4279.00    0.47712   0.83910   -2.000
 4280.00    0.37201   0.82644   -2.000
 4281.00    0.26595   0.81498   -2.000
 4282.00    0.20742   0.80337   -2.000
 4283.00    0.23401   0.78863   -2.000
 4284.00    0.36264   0.77659   -2.000
 4285.00    0.58177   0.77151   -2.000
 4286.00    0.84622   0.76968   -2.000
 4287.00    1.07097   0.76746   -2.000
 4288.00    1.17197   0.76394   -2.000
 4289.00    1.15954   0.76114   -2.000
 4290.00    1.11346   0.75543   -2.000
 4291.00    1.08610   0.74260   -1.000
 4292.00    1.09093   0.72482   -1.000
 4293.00    1.12156   0.70349   -1.000
 4294.00    1.15922   0.68191   -1.000
 4295.00    1.17984   0.66373   -1.000
 4296.00    1.16693   0.64634   -1.000
 4297.00    1.13001   0.63059   -1.000
 4298.00    1.09159   0.62137   -1.000
 4299.00    1.06267   0.61515   -1.000
 4300.00    1.03945   0.60928   -1.000
 4301.00    1.00530   0.60673   -1.000
 4302.00    0.95217   0.60840   -1.000
 4303.00    0.90627   0.61587   -1.000
 4304.00    0.90346   0.63110   -1.000
 4305.00    0.95550   0.65354   -1.000
 4306.00    1.05030   0.68449   -1.000
 4307.00    1.15752   0.72508   -1.000
 4308.00    1.24161   0.76899   -1.000
 4309.00    1.27552   0.81447   -1.000
 4310.00    1.25072   0.86281   -1.000
 4311.00    1.18460   0.90419    8.442
 4312.00    1.11138   0.93277    8.998
 4313.00    1.07064   0.95248    9.340
 4314.00    1.08294   0.96035    9.234
 4315.00    1.13251   0.95168    8.830
 4316.00    1.18254   0.93319   -1.000
 4317.00    1.19271   0.90954   -1.000
 4318.00    1.15357   0.88319   -1.000
 4319.00    1.10195   0.86017   -1.000
 4320.00    1.06818   0.84632   -1.000
 4321.00    1.04570   0.84487    9.563
 4322.00    1.02079   0.85538    9.796
 4323.00    0.98998   0.87344   10.101
 4324.00    0.95185   0.89440   10.506
 4325.00    0.90314   0.91836   11.072
 4326.00    0.84461   0.94097   11.840
 4327.00    0.78507   0.95281   12.738
 4328.00    0.74520   0.95301   13.419
 4329.00    0.75128   0.94777   13.311
 4330.00    0.80169   0.93371    0.000
 4331.00    0.86500   0.90585    0.000
 4332.00    0.92966   0.87665    0.000
 4333.00    1.00911   0.85391    0.000
 4334.00    1.08699   0.83047    0.000
 4335.00    1.11899   0.81328    0.000
 4336.00    1.10748   0.81458    0.000
 4337.00    1.10663   0.82454    0.000
 4338.00    1.15814   0.83612    0.000
 4339.00    1.26910   0.85872    0.000
 4340.00    1.40934   0.88644    0.000
 4341.00    1.52195   0.90450    0.000
 4342.00    1.55249   0.91651    0.000
 4343.00    1.47516   0.92894    0.000
 4344.00    1.33471   0.93395    0.000
 4345.00    1.21461   0.92755    0.000
 4346.00    1.14426   0.92067    0.000
 4347.00    1.10178   0.92040    0.000
 4348.00    1.06419   0.92052    0.000
 4349.00    1.02018   0.91875    0.000
 4350.00    0.97370   0.92407    0.000
 4351.00    0.94274   0.93787   10.607
 4352.00    0.95511   0.95033   10.470
 4353.00    1.02707   0.95977    9.736
 4354.00    1.13138   0.97290    8.839
 4355.00    1.22178   0.98901    8.185
 4356.00    1.27715   1.00108    7.830
 4357.00    1.29698   1.00831    7.710
 4358.00    1.28608   1.01573    7.776
 4359.00    1.26008   1.02224    7.936
 4360.00    1.25332   1.02174    7.979
 4361.00    1.29476   1.01404    7.723
 4362.00    1.37874   1.00534   -1.000
 4363.00    1.47520   0.99626   -1.000
 4364.00    1.54679   0.98209   -1.000
 4365.00    1.57286   0.96549   -1.000
 4366.00    1.56906   0.95239   -1.000
 4367.00    1.55561   0.94152   -1.000
 4368.00    1.52774   0.93010   -1.000
 4369.00    1.47828   0.92086   -1.000
 4370.00    1.41636   0.91546   -1.000
 4371.00    1.33913   0.91102   -1.000
 4372.00    1.21592   0.90560   -1.000
 4373.00    1.05276   0.89684    9.499
 4374.00    0.92805   0.88223   10.775
 4375.00    0.89622   0.86438   11.158
 4376.00    0.92978   0.84471   10.755
 4377.00    0.99003   0.82151   10.101
 4378.00    1.06882   0.79957   -1.000
 4379.00    1.15140   0.78770   -1.000
 4380.00    1.19873   0.78538   -1.000
 4381.00    1.17864   0.78741   -1.000
 4382.00    1.08510   0.79699   -1.000
 4383.00    0.94501   0.81566   10.582
 4384.00    0.81242   0.83540   12.309
 4385.00    0.72846   0.85162   13.728
 4386.00    0.70424   0.86812   14.200
 4387.00    0.72900   0.88620   13.717
 4388.00    0.77899   0.90092   12.837
 4389.00    0.83665   0.91193   11.952
 4390.00    0.89602   0.92369   11.160
 4391.00    0.95483   0.93314   10.473
 4392.00    1.01155   0.93634    9.886
 4393.00    1.06610   0.93704    9.380
 4394.00    1.12233   0.93357    8.910
 4395.00    1.19454   0.92120   -1.000
 4396.00    1.29542   0.90719   -1.000
 4397.00    1.39770   0.89573   -1.000
 4398.00    1.44926   0.87906   -1.000
 4399.00    1.43996   0.86312   -1.000
 4400.00    1.39884   0.86066   -1.000
 4401.00    1.34482   0.86419   -1.000
 4402.00    1.28078   0.86667   -1.000
 4403.00    1.20780   0.87880   -1.000
 4404.00    1.12903   0.90081    8.857
 4405.00    1.05099   0.91713    9.515
 4406.00    0.98527   0.92759   10.150
 4407.00    0.95076   0.94149   10.518
 4408.00    0.96173   0.95097   10.398
 4409.00    1.00719   0.95060    9.929
 4410.00    1.06488   0.95212    9.391
 4411.00    1.12885   0.95773    8.859
 4412.00    1.20165   0.95940    8.322
 4413.00    1.27626   0.96122   -1.000
 4414.00    1.33818   0.96840   -1.000
 4415.00    1.37237   0.97410   -1.000
 4416.00    1.36976   0.97513   -1.000
 4417.00    1.33383   0.97569   -1.000
 4418.00    1.27288   0.97616   -1.000
 4419.00    1.19088   0.97518    8.397
 4420.00    1.09758   0.97264    9.111
 4421.00    1.01920   0.96949    9.812
 4422.00    0.98249   0.96818   10.178
 4423.00    0.99711   0.96726   10.029
 4424.00    1.05148   0.96271    9.510
 4425.00    1.11298   0.95678    8.985
 4426.00    1.15158   0.95377    8.684
 4427.00    1.15946   0.95068    8.625
 4428.00    1.14361   0.94583    8.744
 4429.00    1.11700   0.94496    8.953
 4430.00    1.08523   0.94891    9.215
 4431.00    1.04113   0.95408    9.605
 4432.00    0.99192   0.96012   10.081
 4433.00    0.97081   0.96732   10.301
 4434.00    0.98970   0.97443   10.104
 4435.00    1.01625   0.97922    9.840
 4436.00    1.01905   0.98286    9.813
 4437.00    0.99355   0.98693   10.065
 4438.00    0.95434   0.98997   10.478
 4439.00    0.92616   0.99535   10.797
 4440.00    0.92407   1.00407   10.822
 4441.00    0.94571   1.00984   10.574
 4442.00    0.98074   1.01407   10.196
 4443.00    1.01663   1.01937    9.836
 4444.00    1.04351   1.01790    9.583
 4445.00    1.05756   1.00824    9.456
 4446.00    1.06625   0.99723    9.379
 4447.00    1.08555   0.98289    9.212
 4448.00    1.12317   0.96306    8.903
 4449.00    1.17362   0.94258    8.521
 4450.00    1.22218   0.92413   -1.000
 4451.00    1.25161   0.90922   -1.000
 4452.00    1.25740   0.89651   -1.000
 4453.00    1.24764   0.88610   -1.000
 4454.00    1.22941   0.88412   -1.000
 4455.00    1.20382   0.88783   -1.000
 4456.00    1.16377   0.89086   -1.000
 4457.00    1.10106   0.89883    9.082
 4458.00    1.02422   0.91338    9.764
 4459.00    0.95255   0.92505   10.498
 4460.00    0.89443   0.93471   11.180
 4461.00    0.85429   0.94845    0.000
 4462.00    0.85546   0.96108    0.000
 4463.00    0.92049   0.97008    0.000
 4464.00    1.02724   0.98109    0.000
 4465.00    1.12859   0.99543    0.000
 4466.00    1.20000   1.00910    0.000
 4467.00    1.23663   1.02201    0.000
 4468.00    1.23603   1.03708    0.000
 4469.00    1.20353   1.05020    0.000
 4470.00    1.16313   1.05743    0.000
 4471.00    1.14063   1.06179    0.000
 4472.00    1.13934   1.06276    0.000
 4473.00    1.15211   1.05747    0.000
 4474.00    1.17939   1.04984    0.000
 4475.00    1.21721   1.04390    0.000
 4476.00    1.24197   1.03858    0.000
 4477.00    1.22864   1.03515    0.000
 4478.00    1.17216   1.03631    0.000
 4479.00    1.08759   1.03918    0.000
 4480.00    1.00617   1.04131    0.000
 4481.00    0.95627   1.04348    0.000
 4482.00    0.94648   1.04294   10.565
 4483.00    0.96938   1.03850   10.316
 4484.00    1.00709   1.03281    9.930
 4485.00    1.04003   1.02584    9.615
 4486.00    1.05453   1.01850    9.483
 4487.00    1.05006   1.01354    9.523
 4488.00    1.04210   1.01041    9.596
 4489.00    1.04833   1.00926    9.539
 4490.00    1.07842   1.01307    9.273
 4491.00    1.13011   1.02061    8.849
 4492.00    1.18898   1.02941    8.411
 4493.00    1.23914   1.04167    8.070
 4494.00    1.26987   1.05795    7.875
 4495.00    1.27746   1.07441    7.828
 4496.00    1.26560   1.08909    7.901
 4497.00    1.24307   1.10493    8.045
 4498.00    1.22005   1.12034    8.196
 4499.00    1.19694   1.12986    8.355
 4500.00    1.16505   1.13675    8.583
 4501.00    1.13014   1.14274    8.848
 4502.00    1.11311   1.14331    8.984
 4503.00    1.11531   1.13971    8.966
 4504.00    1.11599   1.13481    8.961
 4505.00    1.11042   1.12788    9.006
 4506.00    1.11366   1.11840    8.979
 4507.00    1.12825   1.10853    8.863
 4508.00    1.14004   1.10000    8.772
 4509.00    1.13790   1.09117    8.788
 4510.00    1.11911   1.08377    8.936
 4511.00    1.08692   1.07991    9.200
 4512.00    1.05101   1.07628    9.515
 4513.00    1.03021   1.07324    9.707
 4514.00    1.04018   1.07112    9.614
 4515.00    1.06425   1.06642    9.396
 4516.00    1.07317   1.05906    9.318
 4517.00    1.08042   1.04727    9.256
 4518.00    1.10828   1.03153    9.023
 4519.00    1.09985   1.01475    9.092
 4520.00    0.98781   0.99405   10.123
 4521.00    0.84781   0.97317   11.795
 4522.00    0.81198   0.95688   12.316
 4523.00    0.87754   0.94249   11.395
 4524.00    0.95108   0.93297   10.514
 4525.00    0.96927   0.92964   10.317
 4526.00    0.91023   0.92988   10.986
 4527.00    0.78299   0.93546   12.772
 4528.00    0.63976   0.94524   -1.000
 4529.00    0.58756   0.95676   -1.000
 4530.00    0.68781   0.96991   -1.000
 4531.00    0.84047   0.98479   11.898
 4532.00    0.91827   0.99980   10.890
 4533.00    0.93106   1.01073   10.740
 4534.00    0.96164   1.02022   10.399
 4535.00    1.07283   1.02896    9.321
 4536.00    1.24806   1.03120    8.012
 4537.00    1.35691   1.03125    7.370
 4538.00    1.30454   1.03145    7.666
 4539.00    1.15890   1.02751    8.629
 4540.00    1.04461   1.02271    9.573
 4541.00    1.03843   1.01904    9.630
 4542.00    1.12223   1.01479    8.911
 4543.00    1.17361   1.01049    8.521
 4544.00    1.12430   1.00615    8.894
 4545.00    1.05486   1.00496    9.480
 4546.00    1.05283   1.00607    9.498
 4547.00    1.12055   1.00579    8.924
 4548.00    1.21950   1.01023    8.200
 4549.00    1.30670   1.01912    7.653
 4550.00    1.36676   1.02687    0.000
 4551.00    1.41680   1.03763    0.000
 4552.00    1.44233   1.05012    0.000
 4553.00    1.38774   1.05974    0.000
 4554.00    1.27405   1.06813    0.000
 4555.00    1.21403   1.07336    0.000
 4556.00    1.22507   1.07485    0.000
 4557.00    1.19932   1.07450    0.000
 4558.00    1.12775   1.07174    0.000
 4559.00    1.13193   1.06944    0.000
 4560.00    1.23123   1.06784    0.000
 4561.00    1.30785   1.06736    0.000
 4562.00    1.29839   1.07020    0.000
 4563.00    1.24068   1.07095    0.000
 4564.00    1.20105   1.07262    0.000
 4565.00    1.22305   1.07833    0.000
 4566.00    1.25276   1.07789    0.000
 4567.00    1.18359   1.07656    0.000
 4568.00    1.03393   1.08010    0.000
 4569.00    0.93073   1.07673    0.000
 4570.00    0.94606   1.07027    0.000
 4571.00    1.06528   1.06704    0.000
 4572.00    1.21366   1.05864    0.000
 4573.00    1.29927   1.04755    0.000
 4574.00    1.28904   1.03895    0.000
 4575.00    1.21735   1.02940    0.000
 4576.00    1.16732   1.02188    0.000
 4577.00    1.19559   1.01887    0.000
 4578.00    1.21035   1.01689    0.000
 4579.00    1.09037   1.01877    0.000
 4580.00    0.91359   1.02457    0.000
 4581.00    0.83826   1.02946    0.000
 4582.00    0.86476   1.03535    0.000
 4583.00    0.90276   1.04079    0.000
 4584.00    0.91994   1.04248    0.000
 4585.00    0.94729   1.04297    0.000
 4586.00    1.05159   1.04044    0.000
 4587.00    1.23697   1.03471    0.000
 4588.00    1.34395   1.03021    0.000
 4589.00    1.24289   1.02433    0.000
 4590.00    1.04917   1.01815    0.000
 4591.00    0.92130   1.01659    0.000
 4592.00    0.83903   1.01438    0.000
 4593.00    0.75365   1.01291    0.000
 4594.00    0.74265   1.01637    0.000
 4595.00    0.88887   1.01801    0.000
 4596.00    1.16058   1.02088    0.000
 4597.00    1.42478   1.02822    0.000
 4598.00    1.49202   1.03456    0.000
 4599.00    1.32108   1.04269    0.000
 4600.00    1.13372   1.05391    0.000
 4601.00    1.11459   1.06532    0.000
 4602.00    1.21232   1.07607    0.000
 4603.00    1.28571   1.08645    0.000
 4604.00    1.22478   1.09616    0.000
 4605.00    1.04677   1.10120    0.000
 4606.00    0.91316   1.10490    0.000
 4607.00    0.91851   1.10907    0.000
 4608.00    0.99581   1.10766    0.000
 4609.00    1.05178   1.10779    0.000
 4610.00    1.04331   1.11096    0.000
 4611.00    0.98981   1.10818    0.000
 4612.00    0.95849   1.10881    0.000
 4613.00    0.98225   1.11319    0.000
 4614.00    1.03497   1.11022    0.000
 4615.00    1.08057   1.11002    0.000
 4616.00    1.09748   1.11413    0.000
 4617.00    1.09091   1.11105    0.000
 4618.00    1.08667   1.10845    0.000
 4619.00    1.09516   1.11060    0.000
 4620.00    1.10420   1.10823    0.000
 4621.00    1.09649   1.10362    0.000
 4622.00    1.06235   1.10282    0.000
 4623.00    1.01879   1.10158    0.000
 4624.00    0.99432   1.09600    0.000
 4625.00    0.97499   1.09100    0.000
 4626.00    0.92660   1.08788    0.000
 4627.00    0.88348   1.08064    0.000
 4628.00    0.91109   1.07134    0.000
 4629.00    0.97366   1.06359    0.000
 4630.00    0.98520   1.05521    0.000
 4631.00    0.97721   1.04606    0.000
 4632.00    1.03870   1.03681    0.000
 4633.00    1.13421   1.03035    0.000
 4634.00    1.15964   1.02527    0.000
 4635.00    1.10424   1.01706    0.000
 4636.00    1.03633   1.01162    0.000
 4637.00    1.02875   1.00766    0.000
 4638.00    1.11012   0.99848    0.000
 4639.00    1.21384   0.99168    0.000
 4640.00    1.24296   0.98800    0.000
 4641.00    1.17249   0.98207    0.000
 4642.00    1.05284   0.98057    0.000
 4643.00    0.98835   0.98371    0.000
 4644.00    1.03450   0.98750    0.000
 4645.00    1.08904   0.99510    0.000
 4646.00    1.04653   1.00345    0.000
 4647.00    0.97300   1.01156    0.000
 4648.00    0.96110   1.02142    0.000
 4649.00    0.97183   1.02889    0.000
 4650.00    0.94859   1.03647    0.000
 4651.00    0.93083   1.04540    0.000
 4652.00    0.95557   1.05114    0.000
 4653.00    0.97449   1.05579    0.000
 4654.00    0.96857   1.05865    0.000
 4655.00    1.02916   1.05537    0.000
 4656.00    1.20962   1.04775    0.000
 4657.00    1.42240   1.03703    0.000
 4658.00    1.54578   1.02106    0.000
 4659.00    1.51021   1.00314    0.000
 4660.00    1.33667   0.98844    0.000
 4661.00    1.14051   0.97536    0.000
 4662.00    1.02355   0.96549    0.000
 4663.00    1.01034   0.96403    0.000
 4664.00    1.06004   0.96765    0.000
 4665.00    1.08935   0.97379    0.000
 4666.00    1.04470   0.98454    0.000
 4667.00    0.93463   0.99606    0.000
 4668.00    0.80709   1.00597    0.000
 4669.00    0.72551   1.01445    0.000
 4670.00    0.71704   1.01931    0.000
 4671.00    0.75674   1.02193    0.000
 4672.00    0.79492   1.02239    0.000
 4673.00    0.78661   1.01950    0.000
 4674.00    0.75438   1.01679    0.000
 4675.00    0.77530   1.01537    0.000
 4676.00    0.86050   1.01297    0.000
 4677.00    0.94852   1.01161    0.000
 4678.00    1.01351   1.01357    0.000
 4679.00    1.07255   1.01462    0.000
 4680.00    1.10796   1.01448    0.000
 4681.00    1.07596   1.01694    0.000
 4682.00    0.98868   1.01788    0.000
 4683.00    0.90469   1.01652    0.000
 4684.00    0.85221   1.01777    0.000
 4685.00    0.82420   1.01867    0.000
 4686.00    0.81112   1.01779    0.000
 4687.00    0.81639   1.01889    0.000
 4688.00    0.87050   1.01977    0.000
 4689.00    0.99089   1.01818    0.000
 4690.00    1.10405   1.01566    0.000
 4691.00    1.12083   1.01186    0.000
 4692.00    1.09060   1.00602    0.000
 4693.00    1.11596   0.99815    0.000
 4694.00    1.17410   0.99031    0.000
 4695.00    1.19435   0.98360    0.000
 4696.00    1.21341   0.97700    0.000
 4697.00    1.28975   0.97237    0.000
 4698.00    1.35829   0.96991    0.000
 4699.00    1.32214   0.96879    0.000
 4700.00    1.19337   0.96984    0.000
 4701.00    1.05201   0.97133    0.000
 4702.00    0.97238   0.97378    0.000
 4703.00    0.97657   0.97865    0.000
 4704.00    0.99987   0.98285    0.000
 4705.00    0.97477   0.98790    0.000
 4706.00    0.91565   0.99551    0.000
 4707.00    0.86678   1.00236    0.000
 4708.00    0.84666   1.01098    0.000
 4709.00    0.86085   1.02127    0.000
 4710.00    0.91419   1.03095    0.000
 4711.00    0.98409   1.04310    0.000
 4712.00    1.00881   1.05465    0.000
 4713.00    0.97090   1.06393    0.000
 4714.00    0.94483   1.07331    0.000
 4715.00    0.98396   1.07930    0.000
 4716.00    1.05077   1.08090    0.000
 4717.00    1.09064   1.07951    0.000
 4718.00    1.08467   1.07420    0.000
 4719.00    1.06360   1.06492    0.000
 4720.00    1.09543   1.05279    0.000
 4721.00    1.18327   1.03984    0.000
 4722.00    1.23620   1.02651    0.000
 4723.00    1.20453   1.01404    0.000
 4724.00    1.13556   1.00597    0.000
 4725.00    1.10669   1.00091    0.000
 4726.00    1.17152   0.99816    0.000
 4727.00    1.27406   1.00132    0.000
 4728.00    1.26456   1.00629    0.000
 4729.00    1.10206   1.01039    0.000
 4730.00    0.89459   1.01872    0.000
 4731.00    0.75097   1.02605    0.000
 4732.00    0.72131   1.03016    0.000
 4733.00    0.78820   1.03780    0.000
 4734.00    0.88807   1.04373    0.000
 4735.00    0.98275   1.04677    0.000
 4736.00    1.07285   1.05272    0.000
 4737.00    1.17074   1.05751    0.000
 4738.00    1.27398   1.06090    0.000
 4739.00    1.31968   1.06540    0.000
 4740.00    1.23653   1.06826    0.000
 4741.00    1.09361   1.07062    0.000
 4742.00    1.03620   1.07218    0.000
 4743.00    1.06705   1.07078    0.000
 4744.00    1.08019   1.06852    0.000
 4745.00    1.03072   1.06540    0.000
 4746.00    0.95216   1.05980    0.000
 4747.00    0.91905   1.05355    0.000
 4748.00    0.98461   1.04816    0.000
 4749.00    1.08949   1.04240    0.000
 4750.00    1.12731   1.03703    0.000
 4751.00    1.07481   1.03262    0.000
 4752.00    0.98329   1.02826    0.000
 4753.00    0.93077   1.02367    0.000
 4754.00    0.95483   1.01794    0.000
 4755.00    0.97770   1.01182    0.000
 4756.00    0.91475   1.00511    0.000
 4757.00    0.81893   0.99741    0.000
 4758.00    0.79334   0.99147    0.000
 4759.00    0.86783   0.98770    0.000
 4760.00    1.00275   0.98539    0.000
 4761.00    1.11455   0.98669    8.972
 4762.00    1.14640   0.99211    8.723
 4763.00    1.12975   0.99873    8.852
 4764.00    1.11050   1.00729    9.005
 4765.00    1.08001   1.01823    9.259
 4766.00    1.02584   1.02798    9.748
 4767.00    0.97698   1.03753   10.236
 4768.00    0.97187   1.04687   10.289
 4769.00    1.02703   1.05401    9.737
 4770.00    1.11540   1.05956    8.965
 4771.00    1.16461   1.06265    8.587
 4772.00    1.14565   1.06379    8.729
 4773.00    1.11870   1.06230    8.939
 4774.00    1.13505   1.05781    8.810
 4775.00    1.18340   1.05222    8.450
 4776.00    1.25255   1.04512    7.984
 4777.00    1.35640   1.03766    7.372
 4778.00    1.46115   1.02990   -1.000
 4779.00    1.47067   1.02328   -1.000
 4780.00    1.35185   1.02018   -1.000
 4781.00    1.17776   1.01678    8.491
 4782.00    1.03316   1.01637    9.679
 4783.00    0.96296   1.02138   10.385
 4784.00    0.94735   1.02550   10.556
 4785.00    0.92157   1.03207   10.851
 4786.00    0.88814   1.04231   11.259
 4787.00    0.91956   1.05021   10.875
 4788.00    1.01188   1.05740    9.883
 4789.00    1.07580   1.06441    9.295
 4790.00    1.08243   1.06794    9.239
 4791.00    1.08172   1.06880    9.245
 4792.00    1.10854   1.06861    9.021
 4793.00    1.15702   1.06690    8.643
 4794.00    1.19326   1.06380    8.380
 4795.00    1.18541   1.06094    8.436
 4796.00    1.16833   1.05884    8.559
 4797.00    1.20737   1.05587    8.282
 4798.00    1.27541   1.05272    7.841
 4799.00    1.28253   1.05047    7.797
 4800.00    1.20492   1.04716    8.299
 4801.00    1.08450   1.04448    9.221
 4802.00    0.96922   1.04302   10.318
 4803.00    0.89408   1.04152   11.185
 4804.00    0.86971   1.04263   11.498
 4805.00    0.89063   1.04521   11.228
 4806.00    0.95229   1.04816   10.501
 4807.00    1.03773   1.05323    9.636
 4808.00    1.09484   1.05891    9.134
 4809.00    1.08852   1.06449    9.187
 4810.00    1.07710   1.06933    9.284
 4811.00    1.12587   1.07342    8.882
 4812.00    1.18166   1.07647    8.463
 4813.00    1.16841   1.07596    8.559
 4814.00    1.12165   1.07411    8.915
 4815.00    1.10444   1.07078    9.054
 4816.00    1.09679   1.06421    9.118
 4817.00    1.06956   1.05841    9.350
 4818.00    1.06892   1.05187    9.355
 4819.00    1.12583   1.04489    8.882
 4820.00    1.16830   1.04125    8.559
 4821.00    1.13138   1.03682    8.839
 4822.00    1.05759   1.03264    9.455
 4823.00    1.01846   1.03177    9.819
 4824.00    1.04047   1.02993    9.611
 4825.00    1.10828   1.02808    9.023
 4826.00    1.17539   1.02772    8.508
 4827.00    1.19234   1.02682    8.387
 4828.00    1.13185   1.02669    8.835
 4829.00    1.02169   1.02610    9.788
 4830.00    0.94930   1.02411   10.534
 4831.00    0.95707   1.02298   10.449
 4832.00    0.99136   1.02136   10.087
 4833.00    0.99115   1.01792   10.089
 4834.00    0.94308   1.01541   10.604
 4835.00    0.88917   1.01398   11.246
 4836.00    0.90881   1.01241   11.003
 4837.00    1.01880   1.01220    9.815
 4838.00    1.14356   1.01204    8.745
 4839.00    1.20334   1.01252    8.310
 4840.00    1.16294   1.01443    8.599
 4841.00    1.05981   1.01319    9.436
 4842.00    0.98490   1.01130   10.153
 4843.00    0.96980   1.01019   10.311
 4844.00    0.97502   1.00471   10.256
 4845.00    1.00251   0.99721    9.975
 4846.00    1.10009   0.98898    9.090
 4847.00    1.24490   0.97731    8.033
 4848.00    1.34516   0.96353    0.000
 4849.00    1.36033   0.94803    0.000
 4850.00    1.31460   0.92985    0.000
 4851.00    1.23177   0.91093    0.000
 4852.00    1.12108   0.89389    0.000
 4853.00    0.98948   0.87726    0.000
 4854.00    0.85597   0.86224    0.000
 4855.00    0.77565   0.85410    0.000
 4856.00    0.80837   0.85018    0.000
 4857.00    0.94101   0.84986    0.000
 4858.00    1.11964   0.85602    0.000
 4859.00    1.34456   0.86471    0.000
 4860.00    1.62475   0.87461    0.000
 4861.00    1.86248   0.88459    0.000
 4862.00    1.92081   0.89273    0.000
 4863.00    1.77327   0.90004    0.000
 4864.00    1.50446   0.90523    0.000
 4865.00    1.26465   0.90884    0.000
 4866.00    1.16001   0.91324    0.000
 4867.00    1.11343   0.91909    0.000
 4868.00    1.00231   0.92595    0.000
 4869.00    0.86315   0.93502    0.000
 4870.00    0.79738   0.94543    0.000
 4871.00    0.82250   0.95503    0.000
 4872.00    0.88774   0.96503    0.000
 4873.00    0.91744   0.97260    0.000
 4874.00    0.87109   0.97656    0.000
 4875.00    0.79665   0.97838   12.553
 4876.00    0.77074   0.97585   12.974
 4877.00    0.83170   0.97134   12.024
 4878.00    0.95326   0.96536   10.490
 4879.00    1.03771   0.95680    9.637
 4880.00    1.01922   0.94927    9.811
 4881.00    0.94043   0.94284   10.633
 4882.00    0.85828   0.93962   11.651
 4883.00    0.77525   0.93977   12.899
 4884.00    0.71059   0.94232   14.073
 4885.00    0.73972   0.95201   13.519
 4886.00    0.88949   0.96454   11.242
 4887.00    1.07899   0.97896    9.268
 4888.00    1.20221   0.99737    8.318
 4889.00    1.19319   1.01275    8.381
 4890.00    1.09027   1.02693    9.172
 4891.00    1.03372   1.04033    9.674
 4892.00    1.07259   1.04670    9.323
 4893.00    1.10328   1.04949    9.064
 4894.00    1.06851   1.05107    9.359
 4895.00    1.03019   1.04899    9.707
 4896.00    1.05198   1.04565    9.506
 4897.00    1.14066   1.04176    8.767
 4898.00    1.23297   1.03719    8.110
 4899.00    1.23212   1.03390    8.116
 4900.00    1.15813   1.02936    8.635
 4901.00    1.14189   1.02403    8.757
 4902.00    1.20767   1.01962    8.280
 4903.00    1.25642   1.01448    7.959
 4904.00    1.25910   1.00981    7.942
 4905.00    1.27479   1.00580    7.844
 4906.00    1.31660   1.00155    7.595
 4907.00    1.33375   0.99731   -1.000
 4908.00    1.27504   0.99175    7.843
 4909.00    1.13135   0.98421    8.839
 4910.00    0.99307   0.97503   10.070
 4911.00    0.98224   0.96339   10.181
 4912.00    1.06781   0.95092    9.365
 4913.00    1.11519   0.93944    8.967
 4914.00    1.08235   0.93008    9.239
 4915.00    1.01937   0.92563    9.810
 4916.00    0.98253   0.92624   10.178
 4917.00    1.00991   0.93097    9.902
 4918.00    1.10900   0.94093    9.017
 4919.00    1.25237   0.95598    7.985
 4920.00    1.37647   0.97182   -1.000
 4921.00    1.42353   0.98718   -1.000
 4922.00    1.40447   1.00218   -1.000
 4923.00    1.36464   1.01221    7.328
 4924.00    1.32190   1.01918    7.565
 4925.00    1.27467   1.02294    7.845
 4926.00    1.22422   1.01906    8.168
 4927.00    1.17329   1.01337    8.523
 4928.00    1.12170   1.00703    8.915
 4929.00    1.07689   0.99756    9.286
 4930.00    1.06346   0.98978    9.403
 4931.00    1.08675   0.98325    9.202
 4932.00    1.09955   0.97882    9.095
 4933.00    1.06556   0.98104    9.385
 4934.00    1.01831   0.98628    9.820
 4935.00    1.00249   0.99229    9.975
 4936.00    1.01989   1.00256    9.805
 4937.00    1.06180   1.01472    9.418
 4938.00    1.13551   1.02538    8.807
 4939.00    1.23140   1.03554    8.121
 4940.00    1.30139   1.04472    0.000
 4941.00    1.29924   1.05172    0.000
 4942.00    1.21310   1.05621    0.000
 4943.00    1.08310   1.05750    0.000
 4944.00    0.99483   1.05656    0.000
 4945.00    0.97701   1.05254    0.000
 4946.00    0.96035   1.04500    0.000
 4947.00    0.89863   1.03467    0.000
 4948.00    0.82754   1.02358    0.000
 4949.00    0.80643   1.01297    0.000
 4950.00    0.87397   0.99915    0.000
 4951.00    0.99261   0.98909    0.000
 4952.00    1.05541   0.98591    0.000
 4953.00    1.02793   0.98308    0.000
 4954.00    0.98875   0.98291    0.000
 4955.00    1.03555   0.98414    0.000
 4956.00    1.22439   0.98706    0.000
 4957.00    1.49577   0.99139    0.000
 4958.00    1.69391   0.99126    0.000
 4959.00    1.72450   0.99092    0.000
 4960.00    1.59619   0.99187    0.000
 4961.00    1.37400   0.99107    0.000
 4962.00    1.14297   0.99175    0.000
 4963.00    0.95028   0.99254    0.000
 4964.00    0.80438   0.99477    0.000
 4965.00    0.71858   0.99940    0.000
 4966.00    0.71049   1.00179    0.000
 4967.00    0.77172   1.00429    0.000
 4968.00    0.87510   1.00494    0.000
 4969.00    1.00849   1.00174    0.000
 4970.00    1.16372   0.99679    0.000
 4971.00    1.29810   0.98692    0.000
 4972.00    1.35981   0.97478    0.000
 4973.00    1.35126   0.96243    0.000
 4974.00    1.31049   0.94836    0.000
 4975.00    1.25588   0.93449    0.000
 4976.00    1.18683   0.92322    0.000
 4977.00    1.10185   0.91699    0.000
 4978.00    1.00731   0.91411    0.000
 4979.00    0.92509   0.91436    0.000
 4980.00    0.87989   0.91993    0.000
 4981.00    0.87983   0.92677    0.000
 4982.00    0.92113   0.93485    0.000
 4983.00    0.99697   0.94381    0.000
 4984.00    1.08727   0.95005    0.000
 4985.00    1.14765   0.95773    0.000
 4986.00    1.14395   0.96281    0.000
 4987.00    1.08943   0.96318    0.000
 4988.00    1.01215   0.96521    0.000
 4989.00    0.92089   0.96377    0.000
 4990.00    0.84672   0.95938    0.000
 4991.00    0.87370   0.95510    0.000
 4992.00    1.02121   0.94669    0.000
 4993.00    1.15593   0.93784    0.000
 4994.00    1.15688   0.92914    0.000
 4995.00    1.04892   0.91875    0.000
 4996.00    0.93483   0.91015    0.000
 4997.00    0.92240   0.90249    0.000
 4998.00    1.02773   0.89511    0.000
 4999.00    1.13438   0.88968    0.000
 5000.00    1.15362   0.88663    0.000
 5001.00    1.11672   0.88594    0.000
 5002.00    1.08769   0.88437    0.000
 5003.00    1.10915   0.88255    0.000
 5004.00    1.21295   0.88139    0.000
 5005.00    1.41735   0.87801    0.000
 5006.00    1.67645   0.87461    0.000
 5007.00    1.87905   0.87071    0.000
 5008.00    1.96394   0.86710    0.000
 5009.00    1.94746   0.86617    0.000
 5010.00    1.80479   0.86428    0.000
 5011.00    1.47002   0.86401    0.000
 5012.00    1.04283   0.86742    0.000
 5013.00    0.77939   0.87115    0.000
 5014.00    0.75609   0.87617    0.000
 5015.00    0.82233   0.88079    0.000
 5016.00    0.86887   0.88671    0.000
 5017.00    0.89397   0.89489    0.000
 5018.00    0.91435   0.90071    0.000
 5019.00    0.93870   0.90777    0.000
 5020.00    0.97568   0.91444    0.000
 5021.00    1.02397   0.92107    0.000
 5022.00    1.04057   0.93033    0.000
 5023.00    0.97218   0.93612    0.000
 5024.00    0.84959   0.94127    0.000
 5025.00    0.75948   0.94696    0.000
 5026.00    0.73005   0.94889    0.000
 5027.00    0.74274   0.94836    0.000
 5028.00    0.80984   0.94336    0.000
 5029.00    0.94726   0.93415   10.557
 5030.00    1.09394   0.92634    9.141
 5031.00    1.16068   0.91602    8.616
 5032.00    1.14196   0.90374    8.757
 5033.00    1.09046   0.89542    9.170
 5034.00    1.04276   0.88883    9.590
 5035.00    1.01051   0.88803    9.896
 5036.00    0.98650   0.89183   10.137
 5037.00    0.95713   0.89590   10.448
 5038.00    0.91867   0.90465   10.885
 5039.00    0.88195   0.91428   11.339
 5040.00    0.87433   0.92156   11.437
 5041.00    0.92358   0.92760   10.827
 5042.00    1.03673   0.93115    9.646
 5043.00    1.17922   0.93418    8.480
 5044.00    1.26299   0.93635   -1.000
 5045.00    1.24178   0.93772    8.053
 5046.00    1.19645   0.94138    8.358
 5047.00    1.19239   0.94641    8.387
 5048.00    1.15305   0.95291    8.673
 5049.00    1.01456   0.96052    9.856
 5050.00    0.85684   0.96795   11.671
 5051.00    0.78161   0.97581   12.794
 5052.00    0.80789   0.98112   12.378
 5053.00    0.89694   0.98394   11.149
 5054.00    0.98436   0.98571   10.159
 5055.00    1.03443   0.98331    9.667
 5056.00    1.06997   0.97836    9.346
 5057.00    1.12835   0.97126    8.863
 5058.00    1.22676   0.96237    8.152
 5059.00    1.33341   0.95495   -1.000
 5060.00    1.36993   0.94608   -1.000
 5061.00    1.31236   0.93816   -1.000
 5062.00    1.22573   0.93328    8.158
 5063.00    1.15841   0.92918    8.633
 5064.00    1.09973   0.92651    9.093
 5065.00    1.03913   0.92370    9.623
 5066.00    0.98861   0.92194   10.115
 5067.00    0.95576   0.91992   10.463
 5068.00    0.93816   0.91585   10.659
 5069.00    0.94847   0.91163   10.543
 5070.00    1.01021   0.90622    9.899
 5071.00    1.10717   0.89991    9.032
 5072.00    1.18631   0.89266   -1.000
 5073.00    1.22880   0.88640   -1.000
 5074.00    1.25672   0.88292   -1.000
 5075.00    1.27918   0.88054   -1.000
 5076.00    1.28265   0.88051   -1.000
 5077.00    1.25274   0.88394   -1.000
 5078.00    1.18672   0.89034    8.427
 5079.00    1.10816   0.89838    9.024
 5080.00    1.05331   0.90718    9.494
 5081.00    1.02994   0.91660    9.709
 5082.00    1.02175   0.92594    9.787
 5083.00    1.02048   0.93418    9.799
 5084.00    1.02435   0.94029    9.762
 5085.00    1.02034   0.94449    9.801
 5086.00    0.99418   0.94652   10.059
 5087.00    0.95548   0.94531   10.466
 5088.00    0.92728   0.94207   10.784
 5089.00    0.91967   0.93695   10.874
 5090.00    0.92841   0.92988   10.771
 5091.00    0.94070   0.92277   10.630
 5092.00    0.94355   0.91548   10.598
 5093.00    0.93501   0.91000   10.695
 5094.00    0.92401   0.90612   10.822
 5095.00    0.92728   0.90230   10.784
 5096.00    0.95759   0.90060   10.443
 5097.00    1.00896   0.89982    9.911
 5098.00    1.05224   0.89868    9.504
 5099.00    1.03730   0.89795    9.640
 5100.00    0.95772   0.89659   10.441
 5101.00    0.91004   0.89540   10.989
 5102.00    0.96975   0.89640   10.312
 5103.00    1.07060   0.89730    9.341
 5104.00    1.11522   0.89990    8.967
 5105.00    1.08664   0.90533    9.203
 5106.00    1.02257   0.91035    9.779
 5107.00    0.97924   0.91744   10.212
 5108.00    0.98429   0.92488   10.160
 5109.00    1.00775   0.93009    9.923
 5110.00    1.01293   0.93507    9.872
 5111.00    0.99474   0.93651   10.053
 5112.00    0.97093   0.93466   10.299
 5113.00    0.96784   0.93114   10.332
 5114.00    0.97915   0.92336   10.213
 5115.00    0.95506   0.91386   10.471
 5116.00    0.88936   0.90328   11.244
 5117.00    0.85132   0.89188   11.746
 5118.00    0.87850   0.88246   11.383
 5119.00    0.93177   0.87410   10.732
 5120.00    0.96770   0.86772   10.334
 5121.00    0.97317   0.86498   10.276
 5122.00    0.95063   0.86459   10.519
 5123.00    0.90878   0.86659   11.004
 5124.00    0.85544   0.87023   11.690
 5125.00    0.79619   0.87397   12.560
 5126.00    0.74103   0.87915   13.495
 5127.00    0.70594   0.88318   14.166
 5128.00    0.70880   0.88584   14.108
 5129.00    0.76299   0.88727   13.106
 5130.00    0.86179   0.88525   11.604
 5131.00    0.97352   0.88418   10.272
 5132.00    1.04339   0.88124    9.584
 5133.00    1.01692   0.87581    9.834
 5134.00    0.90114   0.87210   11.097
 5135.00    0.75730   0.86702   13.205
 5136.00    0.63750   0.86350   15.686
 5137.00    0.57107   0.86167   -1.000
 5138.00    0.57266   0.85761   -1.000
 5139.00    0.63837   0.85539   15.665
 5140.00    0.73383   0.85493   13.627
 5141.00    0.81667   0.85377   12.245
 5142.00    0.88555   0.85369   11.292
 5143.00    0.96333   0.85378   10.381
 5144.00    1.04713   0.85448    9.550
 5145.00    1.10868   0.85742    9.020
 5146.00    1.11251   0.86114    8.989
 5147.00    1.04451   0.86539    9.574
 5148.00    0.94959   0.87116   10.531
 5149.00    0.88786   0.87734   11.263
 5150.00    0.86385   0.88268   11.576
 5151.00    0.85770   0.88751   11.659
 5152.00    0.87913   0.88953   11.375
 5153.00    0.93064   0.88727   10.745
 5154.00    0.95765   0.88168   10.442
 5155.00    0.92063   0.87038   10.862
 5156.00    0.87923   0.85459   11.374
 5157.00    0.90842   0.83473   11.008
 5158.00    1.00122   0.80962    9.988
 5159.00    1.10189   0.78476   -1.000
 5160.00    1.15285   0.76118   -1.000
 5161.00    1.13361   0.73975   -1.000
 5162.00    1.08592   0.72136   -1.000
 5163.00    1.04969   0.70577   -1.000
 5164.00    1.01188   0.69776   -1.000
 5165.00    0.95253   0.69835   -1.000
 5166.00    0.88169   0.70497   11.342
 5167.00    0.81817   0.71443   12.222
 5168.00    0.77297   0.72524   12.937
 5169.00    0.75516   0.73832   13.242
 5170.00    0.77370   0.75303   12.925
 5171.00    0.81915   0.76569   12.208
 5172.00    0.85936   0.77323   11.637
 5173.00    0.88071   0.77580   11.354
 5174.00    0.90486   0.77374   11.051
 5175.00    0.94831   0.77069   10.545
 5176.00    1.00269   0.76926   -1.000
 5177.00    1.04737   0.76789   -1.000
 5178.00    1.06313   0.76880   -1.000
 5179.00    1.06258   0.77128   -1.000
 5180.00    1.08613   0.77815   -1.000
 5181.00    1.12982   0.79070   -1.000
 5182.00    1.13822   0.80179   -1.000
 5183.00    1.09355   0.81178    9.145
 5184.00    1.03185   0.82086    9.691
 5185.00    0.97698   0.82885   10.236
 5186.00    0.92631   0.83630   10.796
 5187.00    0.88329   0.84134   11.321
 5188.00    0.86509   0.84524   11.559
 5189.00    0.89219   0.85058   11.208
 5190.00    0.97185   0.85664    0.000
 5191.00    1.06333   0.86111    0.000
 5192.00    1.09966   0.86474    0.000
 5193.00    1.06604   0.86658    0.000
 5194.00    1.00572   0.86613    0.000
 5195.00    0.98413   0.86298    0.000
 5196.00    1.04681   0.85582    0.000
 5197.00    1.15059   0.84730    0.000
 5198.00    1.20779   0.83862    0.000
 5199.00    1.20246   0.82890    0.000
 5200.00    1.17810   0.82146    0.000
 5201.00    1.17104   0.81668    0.000
 5202.00    1.19176   0.81596    0.000
 5203.00    1.21623   0.82090    0.000
 5204.00    1.21509   0.82725    0.000
 5205.00    1.19937   0.83693    0.000
 5206.00    1.18554   0.84791    0.000
 5207.00    1.13784   0.85923    0.000
 5208.00    1.02435   0.87158    0.000
 5209.00    0.89826   0.88189    0.000
 5210.00    0.83022   0.89059    0.000
 5211.00    0.81473   0.89600   12.274
 5212.00    0.81422   0.89956   12.282
 5213.00    0.82095   0.90118   12.181
 5214.00    0.83751   0.90021   11.940
 5215.00    0.85026   0.89647   11.761
 5216.00    0.84370   0.88949   11.853
 5217.00    0.81737   0.88131   12.234
 5218.00    0.78767   0.87217   12.696
 5219.00    0.78454   0.86542   12.746
 5220.00    0.82121   0.86035   12.177
 5221.00    0.87249   0.85630   11.462
 5222.00    0.90580   0.85632   11.040
 5223.00    0.90608   0.85786   11.037
 5224.00    0.87068   0.86353   11.485
 5225.00    0.80611   0.87231   12.405
 5226.00    0.73926   0.88001   13.527
 5227.00    0.71643   0.88994   13.958
 5228.00    0.75001   0.89895   13.333
 5229.00    0.79627   0.90707   12.559
 5230.00    0.81762   0.91665   12.231
 5231.00    0.81762   0.92463   12.231
 5232.00    0.83151   0.93267   12.026
 5233.00    0.90347   0.93894   11.068
 5234.00    1.00686   0.94254    9.932
 5235.00    1.04092   0.94501    9.607
 5236.00    0.98550   0.94488   10.147
 5237.00    0.93551   0.94255   10.689
 5238.00    0.95443   0.93752   10.477
 5239.00    1.02119   0.93144    9.793
 5240.00    1.06662   0.92546    9.375
 5241.00    1.02063   0.91802    9.798
 5242.00    0.91996   0.91089   10.870
 5243.00    0.88818   0.90464   11.259
 5244.00    0.95330   0.90122   10.490
 5245.00    1.03550   0.90039    9.657
 5246.00    1.08719   0.89920    9.198
 5247.00    1.11405   0.90127    8.976
 5248.00    1.11576   0.90530    8.963
 5249.00    1.08801   0.90839    9.191
 5250.00    1.06853   0.91035    9.359
 5251.00    1.10384   0.90858    9.059
 5252.00    1.14884   0.90517    8.704
 5253.00    1.11736   0.89860    8.950
 5254.00    1.03671   0.88681    9.646
 5255.00    1.00658   0.87166    9.935
 5256.00    1.05336   0.85372    9.493
 5257.00    1.13192   0.83449   -1.000
 5258.00    1.18310   0.81625   -1.000
 5259.00    1.16076   0.79953   -1.000
 5260.00    1.05923   0.78520   -1.000
 5261.00    0.92115   0.77577   10.856
 5262.00    0.83831   0.77215   11.929
 5263.00    0.87949   0.77504   11.370
 5264.00    0.99190   0.78140   10.082
 5265.00    1.07053   0.78937    9.341
 5266.00    1.06874   0.80114    9.357
 5267.00    1.00277   0.81855    9.972
 5268.00    0.93575   0.83760   10.687
 5269.00    0.92600   0.85382   10.799
 5270.00    0.97265   0.86888   10.281
 5271.00    1.04032   0.88147    9.612
 5272.00    1.09301   0.89246    9.149
 5273.00    1.11332   0.90319    8.982
 5274.00    1.11536   0.91116    8.966
 5275.00    1.11963   0.91711    8.932
 5276.00    1.13017   0.92290    8.848
 5277.00    1.14245   0.92880    8.753
 5278.00    1.15266   0.93575    8.676
 5279.00    1.16625   0.94334    8.574
 5280.00    1.20040   0.95081    8.331
 5281.00    1.25761   0.95971    7.952
 5282.00    1.31038   0.96720    7.631
 5283.00    1.32608   0.97171    7.541
 5284.00    1.28775   0.97320    7.765
 5285.00    1.21520   0.97181    8.229
 5286.00    1.16451   0.96826    8.587
 5287.00    1.15676   0.96147    8.645
 5288.00    1.15088   0.95263    8.689
 5289.00    1.11309   0.94283    8.984
 5290.00    1.05089   0.93420    9.516
 5291.00    0.99654   0.92740   10.035
 5292.00    0.98862   0.92193   10.115
 5293.00    1.03055   0.91972    9.704
 5294.00    1.08077   0.92123    9.253
 5295.00    1.08708   0.92759    9.199
 5296.00    1.01564   0.93621    9.846
 5297.00    0.90234   0.94479   11.082
 5298.00    0.84082   0.95454   11.893
 5299.00    0.87733   0.96483   11.398
 5300.00    0.98444   0.97459   10.158
 5301.00    1.09633   0.98236    9.121
 5302.00    1.14278   0.98743    8.751
 5303.00    1.11126   0.99048    8.999
 5304.00    1.04729   0.99195    9.548
 5305.00    1.00575   0.99204    9.943
 5306.00    1.02121   0.99030    9.792
 5307.00    1.07035   0.98678    9.343
 5308.00    1.09431   0.98213    9.138
 5309.00    1.06992   0.97689    9.346
 5310.00    1.01281   0.97097    9.874
 5311.00    0.94834   0.96464   10.545
 5312.00    0.90333   0.95688   11.070
 5313.00    0.90188   0.94807   11.088
 5314.00    0.95549   0.93942   10.466
 5315.00    1.04732   0.92899    9.548
 5316.00    1.13967   0.91743    8.775
 5317.00    1.19176   0.90453    8.391
 5318.00    1.17513   0.89207    8.510
 5319.00    1.09258   0.88090    9.153
 5320.00    0.98198   0.87127   10.184
 5321.00    0.91434   0.86559   10.937
 5322.00    0.94280   0.86304   10.607
 5323.00    1.03941   0.86383    9.621
 5324.00    1.13657   0.86707    8.798
 5325.00    1.18742   0.87545    8.422
 5326.00    1.17422   0.88718    8.516
 5327.00    1.10949   0.89814    9.013
 5328.00    1.03233   0.90754    9.687
 5329.00    0.99919   0.91418   10.008
 5330.00    1.02953   0.92013    9.713
 5331.00    1.06319   0.92428    9.406
 5332.00    1.04489   0.92549    9.570
 5333.00    0.99503   0.92543   10.050
 5334.00    0.94074   0.92403   10.630
 5335.00    0.86311   0.92256   11.586
 5336.00    0.76557   0.92134   13.062
 5337.00    0.71604   0.92076   13.966
 5338.00    0.75272   0.92252   13.285
 5339.00    0.82807   0.92449   12.076
 5340.00    0.89211   0.92718   11.209
 5341.00    0.94202   0.93114   10.616
 5342.00    0.97763   0.93540   10.229
 5343.00    0.97860   0.94238   10.219
 5344.00    0.93651   0.94999   10.678
 5345.00    0.87291   0.95808   11.456
 5346.00    0.83582   0.96757   11.964
 5347.00    0.88350   0.97693   11.319
 5348.00    1.02068   0.98571    9.797
 5349.00    1.18235   0.99256    8.458
 5350.00    1.29480   0.99750    7.723
 5351.00    1.31154   1.00038    7.625
 5352.00    1.24524   1.00046    8.031
 5353.00    1.15712   0.99777    8.642
 5354.00    1.07408   0.99231    9.310
 5355.00    0.98034   0.98513   10.200
 5356.00    0.89375   0.97587   11.189
 5357.00    0.86711   0.96568   11.533
 5358.00    0.91018   0.95438   10.987
 5359.00    0.98125   0.94285   -2.000
 5360.00    1.03565   0.93221   -2.000
 5361.00    1.04806   0.92255   -2.000
 5362.00    1.03191   0.91610   -2.000
 5363.00    1.03232   0.91118   -2.000
 5364.00    1.09543   0.90898   -2.000
 5365.00    1.23071   0.90943   -2.000
 5366.00    1.34725   0.91202   -2.000
 5367.00    1.32226   0.91808   -2.000
 5368.00    1.16914   0.92580   -2.000
 5369.00    0.99856   0.93486   -2.000
 5370.00    0.87584   0.94253   -2.000
 5371.00    0.81688   0.94881   -2.000
 5372.00    0.82954   0.95359   -2.000
 5373.00    0.90583   0.95659   -2.000
 5374.00    0.99862   0.95878   10.014
 5375.00    1.05176   0.95900    9.508
 5376.00    1.05088   0.95786    9.516
 5377.00    1.01850   0.95533    9.818
 5378.00    0.99465   0.95217   10.054
 5379.00    1.00345   0.94816    9.966
 5380.00    1.01592   0.94345    9.843
 5381.00    0.98176   0.93840   10.186
 5382.00    0.87542   0.93206   11.423
 5383.00    0.72834   0.92495   13.730
 5384.00    0.64903   0.91753   -1.000
 5385.00    0.71351   0.90978   14.015
 5386.00    0.86010   0.90188   11.626
 5387.00    0.98632   0.89544   10.139
 5388.00    1.04942   0.88972    9.529
 5389.00    1.05829   0.88486    9.449
 5390.00    1.05286   0.88071    9.498
 5391.00    1.05473   0.87719    9.481
 5392.00    1.03641   0.87477    9.649
 5393.00    0.98527   0.87156   10.149
 5394.00    0.94355   0.86934   10.598
 5395.00    0.93791   0.86703   10.662
 5396.00    0.93749   0.86419   10.667
 5397.00    0.91269   0.86082   10.957
 5398.00    0.87214   0.85748   11.466
 5399.00    0.84568   0.85494   11.825
 5400.00    0.86637   0.85390   11.542
 5401.00    0.93452   0.85560   10.701
 5402.00    1.00877   0.85965    9.913
 5403.00    1.05879   0.86622    9.445
 5404.00    1.08562   0.87418    9.211
 5405.00    1.09004   0.88370    9.174
 5406.00    1.06415   0.89390    9.397
 5407.00    1.02090   0.90444    9.795
 5408.00    0.99641   0.91457   10.036
 5409.00    1.00851   0.92286    9.916
 5410.00    1.04422   0.92963    9.577
 5411.00    1.07573   0.93457    9.296
 5412.00    1.07056   0.93778    9.341
 5413.00    1.00475   0.93918    9.953
 5414.00    0.88076   0.93893   11.354
 5415.00    0.76670   0.93763   13.043
 5416.00    0.75866   0.93528   13.181
 5417.00    0.84360   0.93221   11.854
 5418.00    0.92186   0.92814   10.848
 5419.00    0.96733   0.92400   10.338
 5420.00    1.01907   0.91947    9.813
 5421.00    1.05919   0.91449    9.441
 5422.00    1.02686   0.90963    9.738
 5423.00    0.91613   0.90368   10.915
 5424.00    0.78127   0.89875   12.800
 5425.00    0.70024   0.89544   14.281
 5426.00    0.73038   0.89334   13.692
 5427.00    0.84206   0.89469   11.876
 5428.00    0.95771   0.89704   10.442
 5429.00    1.04091   0.90160    9.607
 5430.00    1.09065   0.90808    9.169
 5431.00    1.10688   0.91559    9.034
 5432.00    1.09654   0.92411    9.120
 5433.00    1.08888   0.93101    9.184
 5434.00    1.10271   0.93649    9.069
 5435.00    1.10172   0.93947    9.077
 5436.00    1.04606   0.93978    9.560
 5437.00    0.96320   0.93827   10.382
 5438.00    0.91353   0.93458   10.946
 5439.00    0.93719   0.92982   10.670
 5440.00    1.02686   0.92433    9.738
 5441.00    1.11145   0.91888    8.997
 5442.00    1.13324   0.91504    8.824
 5443.00    1.12042   0.91181    8.925
 5444.00    1.11306   0.91023    8.984
 5445.00    1.09311   0.90869    9.148
 5446.00    1.03884   0.90756    9.626
 5447.00    0.97221   0.90615   10.286
 5448.00    0.91635   0.90530   10.913
 5449.00    0.86293   0.90417   11.588
 5450.00    0.80751   0.90394   12.384
 5451.00    0.77139   0.90493   12.964
 5452.00    0.75860   0.90600   13.182
 5453.00    0.73541   0.90776   13.598
 5454.00    0.69415   0.90865   14.406
 5455.00    0.68255   0.90953   14.651
 5456.00    0.73201   0.90987   13.661
 5457.00    0.82204   0.90973   12.165
 5458.00    0.92299   0.91029   10.834
 5459.00    1.01735   0.91058    9.829
 5460.00    1.08448   0.91009    9.221
 5461.00    1.10001   0.90931    9.091
 5462.00    1.06913   0.90757    9.353
 5463.00    1.02979   0.90439    9.711
 5464.00    1.00138   0.90032    9.986
 5465.00    0.97525   0.89582   10.254
 5466.00    0.96343   0.89112   10.380
 5467.00    0.99899   0.88545   10.010
 5468.00    1.06896   0.88018    9.355
 5469.00    1.11354   0.87601   -2.000
 5470.00    1.10343   0.87207   -2.000
 5471.00    1.05489   0.87007   -2.000
 5472.00    0.99514   0.87044   -2.000
 5473.00    0.94977   0.87200   -2.000
 5474.00    0.93963   0.87482   -2.000
 5475.00    1.00953   0.87787   -2.000
 5476.00    1.29816   0.88229   -2.000
 5477.00    1.86783   0.88664   -2.000
 5478.00    2.27585   0.89139   -2.000
 5479.00    1.88240   0.89611   -2.000
 5480.00    0.73326   0.89946   -2.000
 5481.00   -0.55546   0.90206   -2.000
 5482.00   -1.43298   0.90390   -2.000
 5483.00   -1.61176   0.90586   -2.000
 5484.00   -1.17971   0.90668   -2.000
 5485.00   -0.47870   0.90791   -2.000
 5486.00    0.14512   0.90895   -2.000
 5487.00    0.48006   0.90903   -2.000
 5488.00    0.58999   0.90901   -2.000
 5489.00    0.65922   0.90888   -2.000
 5490.00    0.73616   0.90849   -2.000
 5491.00    0.78533   0.90729   -2.000
 5492.00    0.80817   0.90613   -2.000
 5493.00    0.82891   0.90480   12.064
 5494.00    0.85654   0.90267   11.675
 5495.00    0.88394   0.90011   11.313
 5496.00    0.89423   0.89722   11.183
 5497.00    0.88460   0.89456   11.305
 5498.00    0.88675   0.89180   11.277
 5499.00    0.91823   0.88940   10.891
 5500.00    0.93775   0.88654   10.664
 5501.00    0.90606   0.88443   11.037
 5502.00    0.84265   0.88318   11.867
 5503.00    0.79437   0.88183   12.589
 5504.00    0.80009   0.88098   12.499
 5505.00    0.85558   0.88091   11.688
 5506.00    0.89711   0.88120   11.147
 5507.00    0.87285   0.88296   11.457
 5508.00    0.79352   0.88597   12.602
 5509.00    0.71177   0.89007   14.049
 5510.00    0.69682   0.89509   14.351
 5511.00    0.77714   0.90017   12.868
 5512.00    0.91122   0.90548   10.974
 5513.00    1.02384   0.90968    9.767
 5514.00    1.04252   0.91253    9.592
 5515.00    0.97164   0.91398   10.292
 5516.00    0.90538   0.91401   11.045
 5517.00    0.90027   0.91276   11.108
 5518.00    0.92727   0.91043   10.784
 5519.00    0.94476   0.90724   10.585
 5520.00    0.93536   0.90380   10.691
 5521.00    0.91372   0.90067   10.944
 5522.00    0.91383   0.89777   10.943
 5523.00    0.93144   0.89660   10.736
 5524.00    0.92163   0.89685   10.850
 5525.00    0.86835   0.89755   11.516
 5526.00    0.79688   0.89888   12.549
 5527.00    0.73211   0.90057   13.659
 5528.00    0.68851   0.90287   14.524
 5529.00    0.68265   0.90495   14.649
 5530.00    0.72598   0.90772   13.774
 5531.00    0.79532   0.91069   12.574
 5532.00    0.84818   0.91305   11.790
 5533.00    0.88170   0.91598   11.342
 5534.00    0.92557   0.91844   10.804
 5535.00    0.98998   0.92086   10.101
 5536.00    1.05827   0.92272    9.449
 5537.00    1.09930   0.92425    9.097
 5538.00    1.08809   0.92601    9.190
 5539.00    1.04012   0.92794    9.614
 5540.00    0.98904   0.92951   10.111
 5541.00    0.93466   0.93108   10.699
 5542.00    0.86588   0.93284   11.549
 5543.00    0.81409   0.93378   12.284
 5544.00    0.81871   0.93404   12.214
 5545.00    0.86072   0.93362   11.618
 5546.00    0.89460   0.93254   11.178
 5547.00    0.90882   0.93051   11.003
 5548.00    0.91238   0.92810   10.960
 5549.00    0.90578   0.92554   11.040
 5550.00    0.89032   0.92285   11.232
 5551.00    0.88273   0.91970   11.328
 5552.00    0.89402   0.91619   11.185
 5553.00    0.90562   0.91300   11.042
 5554.00    0.90024   0.90929   11.108
 5555.00    0.89475   0.90565   11.176
 5556.00    0.91135   0.90197   10.973
 5557.00    0.94693   0.89815   10.560
 5558.00    0.98390   0.89518   10.164
 5559.00    1.00381   0.89240    9.962
 5560.00    0.99873   0.88991   10.013
 5561.00    0.97813   0.88829   10.224
 5562.00    0.95508   0.88755   10.470
 5563.00    0.93458   0.88736   10.700
 5564.00    0.91095   0.88765   10.978
 5565.00    0.87084   0.88939   11.483
 5566.00    0.82243   0.89086   12.159
 5567.00    0.80467   0.89232   12.427
 5568.00    0.82380   0.89513   12.139
 5569.00    0.82812   0.89734   12.076
 5570.00    0.79146   0.89871   12.635
 5571.00    0.75113   0.89965   13.313
 5572.00    0.75052   0.89962   13.324
 5573.00    0.80327   0.89790   12.449
 5574.00    0.87449   0.89518   11.435
 5575.00    0.89217   0.89088   11.209
 5576.00    0.83404   0.88477   11.990
 5577.00    0.74799   0.87818   13.369
 5578.00    0.67484   0.87066   14.818
 5579.00    0.62649   0.86284   15.962
 5580.00    0.62730   0.85563   15.941
 5581.00    0.70725   0.84945   14.139
 5582.00    0.82349   0.84535   12.143
 5583.00    0.87359   0.84323   11.447
 5584.00    0.82508   0.84298   12.120
 5585.00    0.73188   0.84463   13.663
 5586.00    0.65609   0.84680   15.242
 5587.00    0.63675   0.85015   15.705
 5588.00    0.67221   0.85336   14.876
 5589.00    0.72787   0.85675   13.739
 5590.00    0.76774   0.85989   13.025
 5591.00    0.76762   0.86222   13.027
 5592.00    0.72614   0.86393   13.772
 5593.00    0.66283   0.86583   15.087
 5594.00    0.60819   0.86872   -1.000
 5595.00    0.59104   0.87172   -1.000
 5596.00    0.61843   0.87647   -1.000
 5597.00    0.67293   0.88186   14.860
 5598.00    0.71610   0.88862   13.964
 5599.00    0.70854   0.89534   14.114
 5600.00    0.64213   0.90140   -1.000
 5601.00    0.54375   0.90635   -1.000
 5602.00    0.47018   0.90951   -1.000
 5603.00    0.47061   0.91102   -1.000
 5604.00    0.53603   0.91027   -1.000
 5605.00    0.62828   0.90763   -1.000
 5606.00    0.72727   0.90332   13.750
 5607.00    0.81975   0.89746   12.199
 5608.00    0.87993   0.89131   11.364
 5609.00    0.89573   0.88501   11.164
 5610.00    0.89748   0.87991   11.142
 5611.00    0.91623   0.87629   10.914
 5612.00    0.93997   0.87337   10.639
 5613.00    0.94916   0.87150   10.536
 5614.00    0.95232   0.87051   10.501
 5615.00    0.95424   0.87045   10.480
 5616.00    0.93003   0.87079   10.752
 5617.00    0.87301   0.87163   11.455
 5618.00    0.82864   0.87312   12.068
 5619.00    0.83096   0.87538   12.034
 5620.00    0.85815   0.87872   11.653
 5621.00    0.88213   0.88233   11.336
 5622.00    0.90263   0.88573   11.079
 5623.00    0.92268   0.88906   10.838
 5624.00    0.93212   0.89158   10.728
 5625.00    0.91455   0.89318   10.934
 5626.00    0.85735   0.89344   11.664
 5627.00    0.77994   0.89261   12.822
 5628.00    0.73644   0.89075   13.579
 5629.00    0.74832   0.88819   13.363
 5630.00    0.78048   0.88540   12.813
 5631.00    0.79649   0.88245   12.555
 5632.00    0.78743   0.87999   12.700
 5633.00    0.77697   0.87793   12.870
 5634.00    0.80780   0.87665   12.379
 5635.00    0.88119   0.87617   11.348
 5636.00    0.94688   0.87632   10.561
 5637.00    0.95785   0.87749   10.440
 5638.00    0.89866   0.87879   11.128
 5639.00    0.80789   0.88060   12.378
 5640.00    0.76140   0.88227   13.134
 5641.00    0.79689   0.88363   12.549
 5642.00    0.89430   0.88463   11.182
 5643.00    0.99171   0.88493   10.084
 5644.00    1.01667   0.88450    9.836
 5645.00    0.95483   0.88312   10.473
 5646.00    0.85382   0.88066   11.712
 5647.00    0.78497   0.87728   12.739
 5648.00    0.80178   0.87338   12.472
 5649.00    0.87088   0.86916   11.483
 5650.00    0.91073   0.86438   10.980
 5651.00    0.90465   0.86062   11.054
 5652.00    0.88696   0.85773   11.274
 5653.00    0.86929   0.85588   11.504
 5654.00    0.84129   0.85538   11.886
 5655.00    0.79845   0.85599   12.524
 5656.00    0.74773   0.85803   13.374
 5657.00    0.70761   0.86079   14.132
 5658.00    0.69216   0.86454   14.447
 5659.00    0.68819   0.86833   14.531
 5660.00    0.67983   0.87270   14.709
 5661.00    0.68628   0.87706   14.571
 5662.00    0.73304   0.88165   13.642
 5663.00    0.80930   0.88636   12.356
 5664.00    0.89267   0.89094   11.202
 5665.00    0.98365   0.89542   10.166
 5666.00    1.07797   0.89921    9.277
 5667.00    1.13476   0.90238    8.812
 5668.00    1.11794   0.90462    8.945
 5669.00    1.04035   0.90603    9.612
 5670.00    0.93757   0.90598   10.666
 5671.00    0.83848   0.90489   11.926
 5672.00    0.76476   0.90280   13.076
 5673.00    0.73238   0.89994   13.654
 5674.00    0.74936   0.89615   13.345
 5675.00    0.81211   0.89234   12.314
 5676.00    0.89253   0.88890   11.204
 5677.00    0.93581   0.88586   10.686
 5678.00    0.91445   0.88347   10.936
 5679.00    0.86085   0.88171   11.616
 5680.00    0.82875   0.88135   12.066
 5681.00    0.85980   0.88176   11.631
 5682.00    0.94340   0.88352   10.600
 5683.00    1.01091   0.88539    9.892
 5684.00    1.03203   0.88791    9.690
 5685.00    1.05188   0.88999    9.507
 5686.00    1.10252   0.89145    9.070
 5687.00    1.16279   0.89221    8.600
 5688.00    1.19055   0.89180    8.399
 5689.00    1.15047   0.89043    8.692
 5690.00    1.06182   0.88723    9.418
 5691.00    0.99630   0.88356   10.037
 5692.00    0.98877   0.87901   10.114
 5693.00    1.01579   0.87370    9.845
 5694.00    1.05148   0.86819    9.510
 5695.00    1.08607   0.86281    9.208
 5696.00    1.11559   0.85758    8.964
 5697.00    1.13807   0.85235    8.787
 5698.00    1.15351   0.84729   -1.000
 5699.00    1.15712   0.84291   -1.000
 5700.00    1.12095   0.83952    8.921
 5701.00    1.01321   0.83686    9.870
 5702.00    0.86170   0.83624   11.605
 5703.00    0.73239   0.83704   13.654
 5704.00    0.63710   0.83938   15.696
 5705.00    0.54818   0.84401   -1.000
 5706.00    0.48208   0.84999   -1.000
 5707.00    0.48293   0.85708   -1.000
 5708.00    0.54930   0.86502   -1.000
 5709.00    0.63831   0.87333   -1.000
 5710.00    0.70423   0.88148   14.200
 5711.00    0.72102   0.88937   13.869
 5712.00    0.70731   0.89646   14.138
 5713.00    0.70480   0.90244   14.188
 5714.00    0.73564   0.90748   13.594
 5715.00    0.79539   0.91103   12.572
 5716.00    0.85462   0.91344   11.701
 5717.00    0.88465   0.91454   11.304
 5718.00    0.89188   0.91475   11.212
 5719.00    0.89777   0.91395   11.139
 5720.00    0.90761   0.91301   11.018
 5721.00    0.91810   0.91181   10.892
 5722.00    0.93106   0.91057   10.740
 5723.00    0.95197   0.90932   10.505
 5724.00    0.98635   0.90854   10.138
 5725.00    1.03673   0.90841    9.646
 5726.00    1.09937   0.90847    9.096
 5727.00    1.15843   0.90876    8.632
 5728.00    1.18362   0.90913    8.449
 5729.00    1.15721   0.90954    8.642
 5730.00    1.09586   0.90987    9.125
 5731.00    1.03228   0.91010    9.687
 5732.00    0.99635   0.91014   10.037
 5733.00    0.99663   0.90995   10.034
 5734.00    1.01208   0.90957    9.881
 5735.00    1.02496   0.90905    9.756
 5736.00    1.04233   0.90841    9.594
 5737.00    1.08274   0.90759    9.236
 5738.00    1.15928   0.90627    8.626
 5739.00    1.23618   0.90484    8.089
 5740.00    1.22439   0.90294    0.000
 5741.00    1.09636   0.90113    0.000
 5742.00    0.92897   0.89898    0.000
 5743.00    0.79852   0.89671    0.000
 5744.00    0.72912   0.89435    0.000
 5745.00    0.70964   0.89233    0.000
 5746.00    0.70959   0.89081    0.000
 5747.00    0.70766   0.88972    0.000
 5748.00    0.69983   0.88932    0.000
 5749.00    0.68263   0.88887    0.000
 5750.00    0.65323   0.88893    0.000
 5751.00    0.63382   0.88885    0.000
 5752.00    0.66404   0.88923    0.000
 5753.00    0.74659   0.88961    0.000
 5754.00    0.84174   0.89082    0.000
 5755.00    0.90787   0.89219    0.000
 5756.00    0.92269   0.89425    0.000
 5757.00    0.90486   0.89666    0.000
 5758.00    0.89764   0.89928    0.000
 5759.00    0.91134   0.90208    0.000
 5760.00    0.92965   0.90453    0.000
 5761.00    0.96096   0.90674    0.000
 5762.00    1.02261   0.90795    0.000
 5763.00    1.07929   0.90868    0.000
 5764.00    1.06538   0.90818    0.000
 5765.00    0.95898   0.90688    0.000
 5766.00    0.79451   0.90473    0.000
 5767.00    0.65450   0.90154    0.000
 5768.00    0.62039   0.89767    0.000
 5769.00    0.69111   0.89264    0.000
 5770.00    0.80208   0.88703    0.000
 5771.00    0.88022   0.88031    0.000
 5772.00    0.88145   0.87376    0.000
 5773.00    0.83069   0.86701    0.000
 5774.00    0.78765   0.86087    0.000
 5775.00    0.79060   0.85521    0.000
 5776.00    0.84036   0.85112    0.000
 5777.00    0.89292   0.84875    0.000
 5778.00    0.90502   0.84790    0.000
 5779.00    0.88580   0.84901    0.000
 5780.00    0.85769   0.85137    0.000
 5781.00    0.81069   0.85500   -2.000
 5782.00    0.74035   0.85980   -2.000
 5783.00    0.68638   0.86512   -2.000
 5784.00    0.68565   0.87073   -2.000
 5785.00    0.72569   0.87623   -2.000
 5786.00    0.75372   0.88148   -2.000
 5787.00    0.70003   0.88603   -2.000
 5788.00    0.57912   0.89020   -2.000
 5789.00    0.54457   0.89407   -2.000
 5790.00    0.69689   0.89757   -2.000
 5791.00    0.95357   0.90029   -2.000
 5792.00    1.16566   0.90266   -2.000
 5793.00    1.21647   0.90427   -2.000
 5794.00    1.09963   0.90532   -2.000
 5795.00    0.94098   0.90583   -2.000
 5796.00    0.85615   0.90602   -2.000
 5797.00    0.86979   0.90577   -2.000
 5798.00    0.94187   0.90532   -2.000
 5799.00    0.99507   0.90470   -2.000
 5800.00    0.96793   0.90409   -2.000
 5801.00    0.84914   0.90364    0.000
 5802.00    0.71180   0.90320    0.000
 5803.00    0.68812   0.90299    0.000
 5804.00    0.80316   0.90278    0.000
 5805.00    0.94337   0.90277    0.000
 5806.00    1.01111   0.90285    0.000
 5807.00    0.98644   0.90325    0.000
 5808.00    0.92199   0.90404    0.000
 5809.00    0.90810   0.90503    0.000
 5810.00    0.96973   0.90640    0.000
 5811.00    1.05499   0.90804    0.000
 5812.00    1.10649   0.90990    0.000
 5813.00    1.09225   0.91192    0.000
 5814.00    1.02712   0.91386    0.000
 5815.00    0.95783   0.91579    0.000
 5816.00    0.90985   0.91732    0.000
 5817.00    0.87783   0.91867    0.000
 5818.00    0.83745   0.91952    0.000
 5819.00    0.76681   0.92011    0.000
 5820.00    0.68535   0.92027    0.000
 5821.00    0.63952   0.92013    0.000
 5822.00    0.65649   0.91966    0.000
 5823.00    0.73262   0.91894    0.000
 5824.00    0.83131   0.91805    0.000
 5825.00    0.90548   0.91705    0.000
 5826.00    0.93662   0.91598    0.000
 5827.00    0.93672   0.91509    0.000
 5828.00    0.93861   0.91426    0.000
 5829.00    0.96114   0.91382    0.000
 5830.00    0.96366   0.91351    0.000
 5831.00    0.89769   0.91354    0.000
 5832.00    0.78421   0.91356    0.000
 5833.00    0.68679   0.91362    0.000
 5834.00    0.66174   0.91341    0.000
 5835.00    0.71780   0.91282    0.000
 5836.00    0.78292   0.91171    0.000
 5837.00    0.78533   0.90999    0.000
 5838.00    0.74087   0.90760    0.000
 5839.00    0.70639   0.90453    0.000
 5840.00    0.72231   0.90075    0.000
 5841.00    0.79254   0.89647    0.000
 5842.00    0.87562   0.89175    0.000
 5843.00    0.92948   0.88694    0.000
 5844.00    0.94800   0.88177    0.000
 5845.00    0.93919   0.87670    0.000
 5846.00    0.90750   0.87166    0.000
 5847.00    0.86776   0.86738    0.000
 5848.00    0.85060   0.86338    0.000
 5849.00    0.86260   0.86050    0.000
 5850.00    0.86881   0.85807    0.000
 5851.00    0.85418   0.85700    0.000
 5852.00    0.85266   0.85664    0.000
 5853.00    0.88682   0.85749    0.000
 5854.00    0.93797   0.85887    0.000
 5855.00    0.97920   0.86104    0.000
 5856.00    0.99548   0.86370    0.000
 5857.00    0.98972   0.86661    0.000
 5858.00    0.98016   0.86976    0.000
 5859.00    0.97706   0.87270    0.000
 5860.00    0.97472   0.87573    0.000
 5861.00    0.96265   0.87828    0.000
 5862.00    0.93011   0.88072    0.000
 5863.00    0.86459   0.88258    0.000
 5864.00    0.76029   0.88395    0.000
 5865.00    0.64930   0.88466    0.000
 5866.00    0.59005   0.88456    0.000
 5867.00    0.59504   0.88381    0.000
 5868.00    0.62682   0.88206    0.000
 5869.00    0.65799   0.87970    0.000
 5870.00    0.68437   0.87630    0.000
 5871.00    0.70973   0.87221    0.000
 5872.00    0.73648   0.86699    0.000
 5873.00    0.75434   0.86086    0.000
 5874.00    0.75228   0.85332    0.000
 5875.00    0.75212   0.84426    0.000
 5876.00    0.79010   0.83340    0.000
 5877.00    0.86063   0.82100    0.000
 5878.00    0.92834   0.80693    0.000
 5879.00    0.97640   0.79174    0.000
 5880.00    1.00449   0.77577    0.000
 5881.00    1.00664   0.75969    0.000
 5882.00    0.97062   0.74439    0.000
 5883.00    0.88437   0.73104    0.000
 5884.00    0.75077   0.72037    0.000
 5885.00    0.60749   0.71292    0.000
 5886.00    0.50432   0.70927    0.000
 5887.00    0.46541   0.70944    0.000
 5888.00    0.48320   0.71344    0.000
 5889.00    0.51979   0.72078    0.000
 5890.00    0.53887   0.73112    0.000
 5891.00    0.54292   0.74358    0.000
 5892.00    0.54313   0.75761    0.000
 5893.00    0.52257   0.77223    0.000
 5894.00    0.47042   0.78689    0.000
 5895.00    0.41901   0.80074    0.000
 5896.00    0.40360   0.81345    0.000
 5897.00    0.42178   0.82453    0.000
 5898.00    0.46142   0.83384    0.000
 5899.00    0.52708   0.84128    0.000
 5900.00    0.61694   0.84692    0.000
 5901.00    0.70452   0.85101   14.194
 5902.00    0.76343   0.85364   13.099
 5903.00    0.78682   0.85519   12.709
 5904.00    0.77899   0.85574   12.837
 5905.00    0.74881   0.85572   13.354
 5906.00    0.71314   0.85530   14.023
 5907.00    0.69552   0.85479   14.378
 5908.00    0.70288   0.85441   14.227
 5909.00    0.71762   0.85430   13.935
 5910.00    0.73543   0.85469   13.597
 5911.00    0.77871   0.85537   12.842
 5912.00    0.85109   0.85657   11.750
 5913.00    0.92108   0.85786   10.857
 5914.00    0.96188   0.85936   10.396
 5915.00    0.96837   0.86071   10.327
 5916.00    0.94350   0.86191   10.599
 5917.00    0.89330   0.86277   11.194
 5918.00    0.83305   0.86321   12.004
 5919.00    0.78551   0.86334   12.731
 5920.00    0.76497   0.86308   13.072
 5921.00    0.77079   0.86266   12.974
 5922.00    0.78734   0.86203   12.701
 5923.00    0.79423   0.86146   12.591
 5924.00    0.79756   0.86093   12.538
 5925.00    0.82408   0.86055   12.135
 5926.00    0.87438   0.86041   11.437
 5927.00    0.91920   0.86042   10.879
 5928.00    0.92858   0.86065   10.769
 5929.00    0.89026   0.86095   11.233
 5930.00    0.83341   0.86135   11.999
 5931.00    0.81312   0.86170   12.298
 5932.00    0.86097   0.86200   11.615
 5933.00    0.96827   0.86221   10.328
 5934.00    1.07724   0.86227    9.283
 5935.00    1.11654   0.86222    8.956
 5936.00    1.07344   0.86197    9.316
 5937.00    0.98734   0.86159   10.128
 5938.00    0.91060   0.86101   10.982
 5939.00    0.87987   0.86026   11.365
 5940.00    0.88205   0.85933   11.337
 5941.00    0.88045   0.85826   11.358
 5942.00    0.86380   0.85715   11.577
 5943.00    0.84545   0.85602   11.828
 5944.00    0.84968   0.85505   11.769
 5945.00    0.88813   0.85424   11.260
 5946.00    0.93323   0.85381   10.715
 5947.00    0.94870   0.85371   10.541
 5948.00    0.93002   0.85412   10.752
 5949.00    0.89091   0.85495   11.224
 5950.00    0.84263   0.85629   11.868
 5951.00    0.79489   0.85796   12.580
 5952.00    0.75815   0.86000   13.190
 5953.00    0.73160   0.86219   13.669
 5954.00    0.69464   0.86449   14.396
 5955.00    0.63922   0.86676   -1.000
 5956.00    0.59526   0.86890   -1.000
 5957.00    0.58959   0.87088   -1.000
 5958.00    0.61300   0.87259   -1.000
 5959.00    0.64479   0.87406   -1.000
 5960.00    0.67511   0.87515   14.812
 5961.00    0.71473   0.87593   13.991
 5962.00    0.79295   0.87622   12.611
 5963.00    0.90478   0.87606   11.052
 5964.00    0.98895   0.87532   10.112
 5965.00    1.00857   0.87406    9.915
 5966.00    0.99088   0.87226   10.092
 5967.00    0.96722   0.87001   10.339
 5968.00    0.94140   0.86741   10.622
 5969.00    0.90950   0.86462   10.995
 5970.00    0.87420   0.86177   11.439
 5971.00    0.85904   0.85899   11.641
 5972.00    0.90202   0.85639   11.086
 5973.00    0.99971   0.85406   10.003
 5974.00    1.09880   0.85208    9.101
 5975.00    1.16258   0.85048    8.602
 5976.00    1.18972   0.84935   -1.000
 5977.00    1.18013   0.84868   -1.000
 5978.00    1.12815   0.84856    8.864
 5979.00    1.04426   0.84891    9.576
 5980.00    0.95499   0.84977   10.471
 5981.00    0.87835   0.85097   11.385
 5982.00    0.82175   0.85242   12.169
 5983.00    0.79883   0.85393   12.518
 5984.00    0.82018   0.85533   12.193
 5985.00    0.85604   0.85647   11.682
 5986.00    0.85209   0.85721   11.736
 5987.00    0.79275   0.85750   12.614
 5988.00    0.70684   0.85728   14.147
 5989.00    0.64255   0.85660   15.563
 5990.00    0.64226   0.85551   15.570
 5991.00    0.70356   0.85411   14.213
 5992.00    0.78931   0.85247   12.669
 5993.00    0.86371   0.85072   11.578
 5994.00    0.90436   0.84888   11.058
 5995.00    0.91041   0.84706   10.984
 5996.00    0.89705   0.84525   11.148
 5997.00    0.88374   0.84356   11.316
 5998.00    0.88611   0.84197   11.285
 5999.00    0.90691   0.84056   11.027
 6000.00    0.93494   0.83932   10.696
 6001.00    0.94676   0.83827   10.562
 6002.00    0.92181   0.83738   10.848
 6003.00    0.86174   0.83664   11.604
 6004.00    0.78752   0.83597   12.698
 6005.00    0.73131   0.83536   13.674
 6006.00    0.71722   0.83471   13.943
 6007.00    0.74192   0.83408   13.479
 6008.00    0.78812   0.83342   12.688
 6009.00    0.84066   0.83287   11.895
 6010.00    0.88512   0.83242   11.298
 6011.00    0.90574   0.83227   11.041
 6012.00    0.89178   0.83247   11.214
 6013.00    0.84457   0.83313   11.840
 6014.00    0.78843   0.83435   12.683
 6015.00    0.77278   0.83609   12.940
 6016.00    0.82243   0.83847   12.159
 6017.00    0.90547   0.84127   11.044
 6018.00    0.97678   0.84460   10.238
 6019.00    1.01179   0.84812    9.883
 6020.00    1.01445   0.85190    9.858
 6021.00    1.01454   0.85562    9.857
 6022.00    1.02804   0.85928    9.727
 6023.00    1.03830   0.86269    9.631
 6024.00    1.02545   0.86574    9.752
 6025.00    0.98416   0.86842   10.161
 6026.00    0.92710   0.87059   10.786
 6027.00    0.88142   0.87237   11.345
 6028.00    0.86576   0.87363   11.550
 6029.00    0.87747   0.87458   11.396
 6030.00    0.88528   0.87515   11.296
 6031.00    0.84306   0.87558   11.861
 6032.00    0.75477   0.87584   13.249
 6033.00    0.67922   0.87611   14.723
 6034.00    0.65181   0.87642   -1.000
 6035.00    0.66587   0.87680   15.018
 6036.00    0.71048   0.87728   14.075
 6037.00    0.77814   0.87777   12.851
 6038.00    0.84693   0.87823   11.807
 6039.00    0.88830   0.87851   11.257
 6040.00    0.90519   0.87855   11.047
 6041.00    0.92550   0.87823   10.805
 6042.00    0.95585   0.87751   10.462
 6043.00    0.98309   0.87638   10.172
 6044.00    1.00844   0.87486    9.916
 6045.00    1.04332   0.87304    9.585
 6046.00    1.08090   0.87102    9.252
 6047.00    1.09774   0.86891    9.110
 6048.00    1.07135   0.86685    9.334
 6049.00    0.99789   0.86487   10.021
 6050.00    0.91708   0.86313   10.904
 6051.00    0.88045   0.86155   11.358
 6052.00    0.88795   0.86030   11.262
 6053.00    0.90135   0.85924   11.094
 6054.00    0.88565   0.85859   11.291
 6055.00    0.83297   0.85824   12.005
 6056.00    0.78513   0.85840   12.737
 6057.00    0.78727   0.85903   12.702
 6058.00    0.82092   0.86024   12.181
 6059.00    0.84261   0.86197   11.868
 6060.00    0.84492   0.86413   11.835
 6061.00    0.84694   0.86657   11.807
 6062.00    0.87209   0.86903   11.467
 6063.00    0.92721   0.87127   10.785
 6064.00    0.98497   0.87298   10.153
 6065.00    1.01469   0.87397    9.855
 6066.00    1.01459   0.87405    9.856
 6067.00    0.99861   0.87318   10.014
 6068.00    0.98025   0.87136   10.201
 6069.00    0.96568   0.86873   10.355
 6070.00    0.95021   0.86548   10.524
 6071.00    0.92902   0.86184   10.764
 6072.00    0.90570   0.85807   11.041
 6073.00    0.88825   0.85437   11.258
 6074.00    0.88399   0.85096   11.312
 6075.00    0.88818   0.84796   11.259
 6076.00    0.88029   0.84544   11.360
 6077.00    0.85040   0.84341   11.759
 6078.00    0.81322   0.84188   12.297
 6079.00    0.78860   0.84075   12.681
 6080.00    0.78837   0.84002   12.684
 6081.00    0.81084   0.83957   12.333
 6082.00    0.84282   0.83941   11.865
 6083.00    0.88254   0.83945   11.331
 6084.00    0.94388   0.83969   10.595
 6085.00    1.02190   0.84000    9.786
 6086.00    1.08282   0.84037    9.235
 6087.00    1.09170   0.84063    9.160
 6088.00    1.02903   0.84071    9.718
 6089.00    0.90662   0.84047   11.030
 6090.00    0.77025   0.83990   12.983
 6091.00    0.68655   0.83895   14.566
 6092.00    0.71261   0.83773   14.033
 6093.00    0.81431   0.83636   12.280
 6094.00    0.88251   0.83504   11.331
 6095.00    0.86612   0.83401   11.546
 6096.00    0.79205   0.83342   12.626
 6097.00    0.70125   0.83346   14.260
 6098.00    0.62392   0.83412   -1.000
 6099.00    0.56562   0.83544   -1.000
 6100.00    0.51980   0.83718   -1.000
 6101.00    0.50546   0.83926   -1.000
 6102.00    0.55136   0.84133   -1.000
 6103.00    0.64172   0.84326   15.583
 6104.00    0.73125   0.84474   13.675
 6105.00    0.80063   0.84564   12.490
 6106.00    0.85109   0.84582   11.750
 6107.00    0.87285   0.84522   11.457
 6108.00    0.85778   0.84385   11.658
 6109.00    0.83091   0.84177   12.035
 6110.00    0.82464   0.83917   12.126
 6111.00    0.82974   0.83620   12.052
 6112.00    0.81569   0.83317   12.260
 6113.00    0.77290   0.83025   12.938
 6114.00    0.71292   0.82775   14.027
 6115.00    0.65905   0.82578   15.173
 6116.00    0.62936   0.82449   15.889
 6117.00    0.61797   0.82381   16.182
 6118.00    0.61335   0.82370   -1.000
 6119.00    0.62199   0.82392   16.077
 6120.00    0.66165   0.82423   15.114
 6121.00    0.74914   0.82437   13.349
 6122.00    0.87929   0.82407   11.373
 6123.00    1.00785   0.82316    9.922
 6124.00    1.08235   0.82154    9.239
 6125.00    1.07404   0.81926    9.311
 6126.00    0.99120   0.81645   10.089
 6127.00    0.88400   0.81347   11.312
 6128.00    0.80657   0.81059   12.398
 6129.00    0.78549   0.80828   12.731
 6130.00    0.81508   0.80679   12.269
 6131.00    0.86010   0.80642   11.627
 6132.00    0.88713   0.80722   11.272
 6133.00    0.88605   0.80912   11.286
 6134.00    0.86806   0.81192   11.520
 6135.00    0.85925   0.81527   11.638
 6136.00    0.87480   0.81884   11.431
 6137.00    0.90676   0.82220   11.028
 6138.00    0.93951   0.82515   10.644
 6139.00    0.95799   0.82734   10.439
 6140.00    0.94383   0.82877   10.595
 6141.00    0.88045   0.82929   11.358
 6142.00    0.78460   0.82902   12.745
 6143.00    0.70835   0.82789   14.117
 6144.00    0.68643   0.82606   14.568
 6145.00    0.71841   0.82343   13.920
 6146.00    0.78875   0.82011   12.678
 6147.00    0.87762   0.81598   11.394
 6148.00    0.96949   0.81115   10.315
 6149.00    1.05070   0.80558    9.517
 6150.00    1.09198   0.79945    9.158
 6151.00    1.05915   0.79293    9.441
 6152.00    0.96223   0.78632   10.393
 6153.00    0.85265   0.77996   11.728
 6154.00    0.77291   0.77419   12.938
 6155.00    0.73847   0.76934   13.542
 6156.00    0.73002   0.76566   13.698
 6157.00    0.71659   0.76330   13.955
 6158.00    0.71293   0.76227   14.027
 6159.00    0.75368   0.76253   13.268
 6160.00    0.80819   0.76390   12.373
 6161.00    0.80678   0.76623   12.395
 6162.00    0.73168   0.76926   13.667
 6163.00    0.62019   0.77287   16.124
 6164.00    0.53363   0.77681   -1.000
 6165.00    0.52116   0.78102   -1.000
 6166.00    0.56972   0.78529   -1.000
 6167.00    0.63015   0.78954   15.869
 6168.00    0.67305   0.79362   14.858
 6169.00    0.69731   0.79742   14.341
 6170.00    0.72761   0.80085   13.744
 6171.00    0.78460   0.80371   12.745
 6172.00    0.84694   0.80602   11.807
 6173.00    0.87861   0.80749   11.382
 6174.00    0.86988   0.80827   11.496
 6175.00    0.83987   0.80808   11.907
 6176.00    0.83003   0.80716   12.048
 6177.00    0.86010   0.80536   11.627
 6178.00    0.88685   0.80305   11.276
 6179.00    0.86691   0.80021   11.535
 6180.00    0.81894   0.79731   12.211
 6181.00    0.77487   0.79447   12.905
 6182.00    0.73193   0.79212   13.662
 6183.00    0.67569   0.79033   14.800
 6184.00    0.60513   0.78944   16.525
 6185.00    0.54861   0.78930   -2.000
 6186.00    0.56946   0.79010   -2.000
 6187.00    0.72428   0.79147   -2.000
 6188.00    1.02019   0.79348   -2.000
 6189.00    1.33530   0.79570   -2.000
 6190.00    1.41337   0.79817   -2.000
 6191.00    1.15874   0.80054   -2.000
 6192.00    0.77401   0.80286   -2.000
 6193.00    0.47533   0.80492   -2.000
 6194.00    0.33157   0.80677   -2.000
 6195.00    0.32065   0.80827   -2.000
 6196.00    0.37608   0.80935   -2.000
 6197.00    0.44376   0.80993   -1.000
 6198.00    0.50466   0.80983   -1.000
 6199.00    0.55174   0.80901   -1.000
 6200.00    0.57943   0.80729   -1.000
 6201.00    0.58645   0.80473   -1.000
 6202.00    0.57811   0.80128   -1.000
 6203.00    0.56996   0.79715   -1.000
 6204.00    0.58466   0.79247   17.104
 6205.00    0.63628   0.78753   15.716
 6206.00    0.72282   0.78261   13.835
 6207.00    0.82078   0.77797   12.183
 6208.00    0.89285   0.77390   11.200
 6209.00    0.91549   0.77051   10.923
 6210.00    0.88926   0.76800   11.245
 6211.00    0.84267   0.76625   11.867
 6212.00    0.81290   0.76530   12.302
 6213.00    0.79596   0.76490   12.563
 6214.00    0.76445   0.76494   13.081
 6215.00    0.73776   0.76517   13.554
 6216.00    0.75630   0.76540   13.222
 6217.00    0.79100   0.76553   12.642
 6218.00    0.76791   0.76533   13.022
 6219.00    0.65705   0.76502   15.220
 6220.00    0.49097   0.76433   -1.000
 6221.00    0.36228   0.76377   -1.000
 6222.00    0.36027   0.76301   -1.000
 6223.00    0.46706   0.76270   -1.000
 6224.00    0.59551   0.76237   16.792
 6225.00    0.67776   0.76259   14.755
 6226.00    0.68835   0.76278   14.528
 6227.00    0.65499   0.76327   15.267
 6228.00    0.62103   0.76349   16.102
 6229.00    0.59442   0.76363   16.823
 6230.00    0.56695   0.76327   17.638
 6231.00    0.54630   0.76262   -1.000
 6232.00    0.55215   0.76150   -1.000
 6233.00    0.60566   0.76020   16.511
 6234.00    0.70985   0.75874   14.088
 6235.00    0.83243   0.75738   12.013
 6236.00    0.93384   0.75618   10.708
 6237.00    0.99575   0.75524   10.043
 6238.00    1.01228   0.75454    9.879
 6239.00    0.98095   0.75395   10.194
 6240.00    0.91369   0.75340   10.945
 6241.00    0.84345   0.75261   11.856
 6242.00    0.79641   0.75161   12.556
 6243.00    0.77001   0.75013   12.987
 6244.00    0.73576   0.74838   13.591
 6245.00    0.65142   0.74631   15.351
 6246.00    0.52232   0.74424   -1.000
 6247.00    0.42599   0.74237   -1.000
 6248.00    0.41137   0.74092   -1.000
 6249.00    0.44502   0.74029   -1.000
 6250.00    0.46948   0.74039   -1.000
 6251.00    0.44441   0.74164   -1.000
 6252.00    0.37461   0.74361   -1.000
 6253.00    0.31103   0.74660   -1.000
 6254.00    0.28851   0.75000   -1.000
 6255.00    0.30172   0.75394   -1.000
 6256.00    0.33583   0.75786   -1.000
 6257.00    0.38217   0.76175   -1.000
 6258.00    0.44265   0.76538   -1.000
 6259.00    0.52582   0.76856   -1.000
 6260.00    0.62597   0.77144   15.975
 6261.00    0.71992   0.77373   13.890
 6262.00    0.78407   0.77583   12.754
 6263.00    0.80413   0.77734   12.436
 6264.00    0.78608   0.77877   12.721
 6265.00    0.75246   0.77969   13.290
 6266.00    0.72141   0.78055   13.862
 6267.00    0.70138   0.78102   14.258
 6268.00    0.69431   0.78141   14.403
 6269.00    0.69919   0.78163   14.302
 6270.00    0.71848   0.78178   13.918
 6271.00    0.75473   0.78207   13.250
 6272.00    0.79946   0.78233   12.508
 6273.00    0.83547   0.78304   11.969
 6274.00    0.84781   0.78373   11.795
 6275.00    0.82845   0.78501   12.071
 6276.00    0.78082   0.78617   12.807
 6277.00    0.72152   0.78778   13.860
 6278.00    0.68110   0.78903   14.682
 6279.00    0.68789   0.79037   14.537
 6280.00    0.74122   0.79111    0.000
 6281.00    0.81391   0.79154    0.000
 6282.00    0.86466   0.79126    0.000
 6283.00    0.86325   0.79042    0.000
 6284.00    0.82235   0.78895    0.000
 6285.00    0.77636   0.78695    0.000
 6286.00    0.74678   0.78457    0.000
 6287.00    0.73436   0.78193    0.000
 6288.00    0.71718   0.77924    0.000
 6289.00    0.68052   0.77666    0.000
 6290.00    0.64810   0.77439    0.000
 6291.00    0.64869   0.77255    0.000
 6292.00    0.67905   0.77129    0.000
 6293.00    0.72235   0.77063    0.000
 6294.00    0.76954   0.77065    0.000
 6295.00    0.81763   0.77119    0.000
 6296.00    0.86613   0.77229    0.000
 6297.00    0.91511   0.77359    0.000
 6298.00    0.96308   0.77510    0.000
 6299.00    1.00231   0.77639    0.000
 6300.00    1.01696   0.77742    0.000
 6301.00    0.99497   0.77789    0.000
 6302.00    0.93627   0.77781    0.000
 6303.00    0.84957   0.77703    0.000
 6304.00    0.74939   0.77571    0.000
 6305.00    0.65312   0.77393    0.000
 6306.00    0.57952   0.77194    0.000
 6307.00    0.54967   0.76988    0.000
 6308.00    0.58310   0.76810    0.000
 6309.00    0.67509   0.76679    0.000
 6310.00    0.78989   0.76609    0.000
 6311.00    0.88540   0.76622    0.000
 6312.00    0.92954   0.76700    0.000
 6313.00    0.91751   0.76872    0.000
 6314.00    0.87408   0.77079    0.000
 6315.00    0.83264   0.77361    0.000
 6316.00    0.82086   0.77629    0.000
 6317.00    0.84150   0.77933    0.000
 6318.00    0.87108   0.78179    0.000
 6319.00    0.88001   0.78420    0.000
 6320.00    0.84691   0.78571    0.000
 6321.00    0.77985   0.78686   12.823
 6322.00    0.71164   0.78705   14.052
 6323.00    0.66643   0.78681   15.005
 6324.00    0.65215   0.78578   15.334
 6325.00    0.66735   0.78454   14.985
 6326.00    0.70309   0.78270   14.223
 6327.00    0.74280   0.78100   13.463
 6328.00    0.77087   0.77905   12.972
 6329.00    0.79142   0.77748   12.635
 6330.00    0.81740   0.77598   12.234
 6331.00    0.83887   0.77493   11.921
 6332.00    0.83256   0.77428   12.011
 6333.00    0.79328   0.77401   12.606
 6334.00    0.73494   0.77417   13.607
 6335.00    0.68054   0.77457   14.694
 6336.00    0.65030   0.77535   15.378
 6337.00    0.64575   0.77618   15.486
 6338.00    0.65877   0.77724   15.180
 6339.00    0.68882   0.77816   14.518
 6340.00    0.73234   0.77901   13.655
 6341.00    0.76548   0.77946   13.064
 6342.00    0.76719   0.77951   13.035
 6343.00    0.75090   0.77892   13.317
 6344.00    0.74254   0.77771   13.467
 6345.00    0.74921   0.77571   13.347
 6346.00    0.76313   0.77311   13.104
 6347.00    0.77097   0.76978   12.971
 6348.00    0.76308   0.76613   13.105
 6349.00    0.74171   0.76220   13.482
 6350.00    0.71649   0.75844   13.957
 6351.00    0.69784   0.75492   14.330
 6352.00    0.68219   0.75213   14.659
 6353.00    0.64292   0.75019   15.554
 6354.00    0.56117   0.74932   17.820
 6355.00    0.45148   0.74961   -1.000
 6356.00    0.35744   0.75102   -1.000
 6357.00    0.33898   0.75359   -1.000
 6358.00    0.41485   0.75698   -1.000
 6359.00    0.53212   0.76111   -1.000
 6360.00    0.63084   0.76561   15.852
 6361.00    0.68738   0.77039   14.548
 6362.00    0.71131   0.77503   14.059
 6363.00    0.73497   0.77932   13.606
 6364.00    0.77446   0.78313   12.912
 6365.00    0.81383   0.78627   12.288
 6366.00    0.83571   0.78883   11.966
 6367.00    0.83699   0.79051   11.948
 6368.00    0.82542   0.79171   12.115
 6369.00    0.81380   0.79223   12.288
 6370.00    0.80410   0.79240   12.436
 6371.00    0.78607   0.79224   12.722
 6372.00    0.75931   0.79192   13.170
 6373.00    0.73784   0.79149   13.553
 6374.00    0.73338   0.79105   13.635
 6375.00    0.74626   0.79069   13.400
 6376.00    0.75705   0.79027   13.209
 6377.00    0.73680   0.78993   13.572
 6378.00    0.68677   0.78938   14.561
 6379.00    0.63941   0.78881   15.639
 6380.00    0.62480   0.78784   16.005
 6381.00    0.65536   0.78681   15.259
 6382.00    0.71317   0.78527   14.022
 6383.00    0.76107   0.78378   13.139
 6384.00    0.77753   0.78198   12.861
 6385.00    0.76322   0.78037   13.102
 6386.00    0.73556   0.77891   13.595
 6387.00    0.71857   0.77758   13.916
 6388.00    0.72482   0.77658   13.796
 6389.00    0.75541   0.77569   13.238
 6390.00    0.80735   0.77536   12.386
 6391.00    0.87560   0.77503   11.421
 6392.00    0.95381   0.77543   10.484
 6393.00    1.02775   0.77601    9.730
 6394.00    1.06583   0.77665    9.382
 6395.00    1.04358   0.77736    9.582
 6396.00    0.98155   0.77787   10.188
 6397.00    0.92053   0.77833   10.863
 6398.00    0.87900   0.77845   11.377
 6399.00    0.85150   0.77837   11.744
 6400.00    0.81620   0.77818   12.252
 6401.00    0.76346   0.77785   13.098
 6402.00    0.72571   0.77718   13.780
 6403.00    0.73733   0.77657   13.563
 6404.00    0.78851   0.77606   12.682
 6405.00    0.84972   0.77559   11.769
 6406.00    0.90181   0.77514   11.089
 6407.00    0.93537   0.77496   10.691
 6408.00    0.94697   0.77478   10.560
 6409.00    0.93444   0.77479   10.702
 6410.00    0.89415   0.77491   11.184
 6411.00    0.83123   0.77516   12.030
 6412.00    0.76718   0.77574   13.035
 6413.00    0.73165   0.77652   13.668
 6414.00    0.75267   0.77776   13.286
 6415.00    0.83348   0.77878   11.998
 6416.00    0.94112   0.78007   10.626
 6417.00    1.03454   0.78103    9.666
 6418.00    1.08567   0.78203    9.211
 6419.00    1.09285   0.78252    9.150
 6420.00    1.08127   0.78286    9.248
 6421.00    1.06541   0.78263    9.386
 6422.00    1.03517   0.78229    9.660
 6423.00    0.99148   0.78182   10.086
 6424.00    0.95807   0.78142   10.438
 6425.00    0.95015   0.78108   10.525
 6426.00    0.96176   0.78101   10.398
 6427.00    0.97662   0.78103   10.239
 6428.00    0.97642   0.78142   10.241
 6429.00    0.95312   0.78183   10.492
 6430.00    0.91238   0.78261   10.960
 6431.00    0.86834   0.78346   11.516
 6432.00    0.83689   0.78457   11.949
 6433.00    0.82052   0.78547   12.187
 6434.00    0.80394   0.78641   12.439
 6435.00    0.75698   0.78665   13.210
 6436.00    0.65399   0.78660   15.291
 6437.00    0.52391   0.78579   -1.000
 6438.00    0.43468   0.78461   -1.000
 6439.00    0.41529   0.78272   -1.000
 6440.00    0.44711   0.78062   -1.000
 6441.00    0.49416   0.77811   -1.000
 6442.00    0.52559   0.77610   -1.000
 6443.00    0.54720   0.77411   -1.000
 6444.00    0.58328   0.77322   17.144
 6445.00    0.62581   0.77266   15.979
 6446.00    0.64572   0.77272   15.486
 6447.00    0.63435   0.77319   15.764
 6448.00    0.60899   0.77391   16.421
 6449.00    0.60695   0.77493   16.476
 6450.00    0.65366   0.77595   15.299
 6451.00    0.71563   0.77707   13.974
 6452.00    0.74165   0.77774   13.484
 6453.00    0.73386   0.77840   13.627
 6454.00    0.72363   0.77855   13.819
 6455.00    0.72357   0.77891   13.820
 6456.00    0.72812   0.77884   13.734
 6457.00    0.72349   0.77966   13.822
 6458.00    0.70049   0.77989   14.276
 6459.00    0.66740   0.78066   14.984
 6460.00    0.63994   0.78093   15.627
 6461.00    0.62851   0.78157   15.911
 6462.00    0.63697   0.78177   15.699
 6463.00    0.66307   0.78202   15.081
 6464.00    0.70281   0.78215   14.229
 6465.00    0.75370   0.78191   13.268
 6466.00    0.80829   0.78194   12.372
 6467.00    0.84998   0.78131   11.765
 6468.00    0.86804   0.78073   11.520
 6469.00    0.86830   0.77971   11.517
 6470.00    0.86033   0.77888   11.623
 6471.00    0.84874   0.77759   11.782
 6472.00    0.84306   0.77624   11.862
 6473.00    0.86118   0.77477   11.612
 6474.00    0.90543   0.77302   11.045
 6475.00    0.95080   0.77115   10.517
 6476.00    0.96766   0.76916   10.334
 6477.00    0.93901   0.76709   10.649
 6478.00    0.87884   0.76448   11.379
 6479.00    0.83235   0.76133   12.014
 6480.00    0.83030   0.75750   12.044
 6481.00    0.86854   0.75293   11.514
 6482.00    0.92118   0.74771   10.856
 6483.00    0.95349   0.74186   10.488
 6484.00    0.94782   0.73585   10.550
 6485.00    0.91120   0.72995   10.975
 6486.00    0.86153   0.72449   11.607
 6487.00    0.81621   0.71987   12.252
 6488.00    0.77226   0.71652   12.949
 6489.00    0.71176   0.71525   14.050
 6490.00    0.64269   0.71531   15.560
 6491.00    0.59906   0.71757   16.693
 6492.00    0.59985   0.72077   16.671
 6493.00    0.63845   0.72551   15.663
 6494.00    0.68984   0.73096   14.496
 6495.00    0.72340   0.73673   13.824
 6496.00    0.72960   0.74277   13.706
 6497.00    0.71762   0.74815   13.935
 6498.00    0.69335   0.75340   14.423
 6499.00    0.66182   0.75751   15.110
 6500.00    0.64384   0.76122   15.532
 6501.00    0.66380   0.76364   15.065
 6502.00    0.71804   0.76565   13.927
 6503.00    0.78427   0.76666   12.751
 6504.00    0.85071   0.76737   11.755
 6505.00    0.91093   0.76729   10.978
 6506.00    0.94630   0.76714   10.567
 6507.00    0.94206   0.76651   10.615
 6508.00    0.91663   0.76598   10.910
 6509.00    0.90316   0.76529   11.072
 6510.00    0.91568   0.76493   10.921
 6511.00    0.95046   0.76462   10.521
 6512.00    0.99517   0.76463   10.049
 6513.00    1.03385   0.76491    9.673
 6514.00    1.05186   0.76527    9.507
 6515.00    1.03810   0.76578    9.633
 6516.00    0.98724   0.76617   10.129
 6517.00    0.90342   0.76655   11.069
 6518.00    0.80302   0.76675   12.453
 6519.00    0.70456   0.76686   14.193
 6520.00    0.61937   0.76680   16.146
 6521.00    0.56251   0.76679   -1.000
 6522.00    0.56013   0.76673   -1.000
 6523.00    0.61548   0.76679   16.247
 6524.00    0.68532   0.76691   14.592
 6525.00    0.73020   0.76701   13.695
 6526.00    0.75236   0.76720   13.292
 6527.00    0.76752   0.76743   13.029
 6528.00    0.78196   0.76763    0.000
 6529.00    0.79025   0.76780    0.000
 6530.00    0.77825   0.76757    0.000
 6531.00    0.74495   0.76717    0.000
 6532.00    0.71204   0.76621    0.000
 6533.00    0.69964   0.76497    0.000
 6534.00    0.71357   0.76325    0.000
 6535.00    0.75495   0.76110    0.000
 6536.00    0.82175   0.75865    0.000
 6537.00    0.88975   0.75578    0.000
 6538.00    0.91550   0.75288    0.000
 6539.00    0.89148   0.74962    0.000
 6540.00    0.85580   0.74641    0.000
 6541.00    0.82735   0.74292    0.000
 6542.00    0.79061   0.73923    0.000
 6543.00    0.74432   0.73538    0.000
 6544.00    0.71429   0.73077    0.000
 6545.00    0.72984   0.72583    0.000
 6546.00    0.80625   0.71999    0.000
 6547.00    0.91752   0.71376    0.000
 6548.00    1.00695   0.70684    0.000
 6549.00    1.04449   0.69964    0.000
 6550.00    1.03526   0.69222    0.000
 6551.00    0.99393   0.68517    0.000
 6552.00    0.93430   0.67863    0.000
 6553.00    0.86257   0.67318    0.000
 6554.00    0.78262   0.66883    0.000
 6555.00    0.71227   0.66628    0.000
 6556.00    0.68659   0.66526    0.000
 6557.00    0.75624   0.66660    0.000
 6558.00    0.98396   0.66934    0.000
 6559.00    1.43658   0.67476    0.000
 6560.00    2.13474   0.68088    0.000
 6561.00    2.96603   0.68730    0.000
 6562.00    3.71680   0.69362    0.000
 6563.00    4.15765   0.69989    0.000
 6564.00    4.13008   0.70552    0.000
 6565.00    3.65637   0.71090    0.000
 6566.00    2.90471   0.71568    0.000
 6567.00    2.10781   0.72008    0.000
 6568.00    1.47451   0.72380    0.000
 6569.00    1.08885   0.72746    0.000
 6570.00    0.93009   0.73062    0.000
 6571.00    0.91807   0.73376    0.000
 6572.00    0.95659   0.73639    0.000
 6573.00    0.97784   0.73871    0.000
 6574.00    0.95715   0.74045    0.000
 6575.00    0.91951   0.74190    0.000
 6576.00    0.89539   0.74280    0.000
 6577.00    0.88015   0.74344    0.000
 6578.00    0.87294   0.74370    0.000
 6579.00    0.91080   0.74333    0.000
 6580.00    1.02627   0.74268    0.000
 6581.00    1.21043   0.74149    0.000
 6582.00    1.42555   0.74025    0.000
 6583.00    1.61958   0.73887    0.000
 6584.00    1.74382   0.73746    0.000
 6585.00    1.76588   0.73615    0.000
 6586.00    1.67483   0.73513    0.000
 6587.00    1.48478   0.73438    0.000
 6588.00    1.23883   0.73403    0.000
 6589.00    1.00399   0.73443    0.000
 6590.00    0.82959   0.73540    0.000
 6591.00    0.72832   0.73635    0.000
 6592.00    0.70292   0.73724    0.000
 6593.00    0.75373   0.73802    0.000
 6594.00    0.84520   0.73863    0.000
 6595.00    0.90671   0.73922    0.000
 6596.00    0.90961   0.73942    0.000
 6597.00    0.88701   0.73944    0.000
 6598.00    0.87068   0.73913    0.000
 6599.00    0.86640   0.73903    0.000
 6600.00    0.86365   0.73881    0.000
 6601.00    0.84812   0.73917    0.000
 6602.00    0.83017   0.73958    0.000
 6603.00    0.83711   0.74054    0.000
 6604.00    0.85784   0.74157    0.000
 6605.00    0.84914   0.74313    0.000
 6606.00    0.80730   0.74495    0.000
 6607.00    0.77100   0.74651    0.000
 6608.00    0.76974   0.74790    0.000
 6609.00    0.80943   0.74891   12.354
 6610.00    0.87405   0.74983   11.441
 6611.00    0.93849   0.75019   10.655
 6612.00    0.99633   0.75004   10.037
 6613.00    1.04882   0.74941    9.534
 6614.00    1.06855   0.74845   -1.000
 6615.00    1.02080   0.74709    9.796
 6616.00    0.92000   0.74542   10.870
 6617.00    0.81535   0.74353   12.265
 6618.00    0.74367   0.74140   13.447
 6619.00    0.71562   0.73927   13.974
 6620.00    0.70875   0.73710   14.109
 6621.00    0.69445   0.73534   14.400
 6622.00    0.67999   0.73361   14.706
 6623.00    0.68955   0.73200   14.502
 6624.00    0.72745   0.73073   13.747
 6625.00    0.77873   0.72957   12.841
 6626.00    0.81816   0.72889   12.223
 6627.00    0.83157   0.72833   12.025
 6628.00    0.83840   0.72818   11.928
 6629.00    0.86208   0.72813   11.600
 6630.00    0.89484   0.72863   11.175
 6631.00    0.91351   0.72912   10.947
 6632.00    0.90120   0.72974   11.096
 6633.00    0.85679   0.73018   11.671
 6634.00    0.80058   0.73065   12.491
 6635.00    0.75844   0.73095   13.185
 6636.00    0.74672   0.73147   13.392
 6637.00    0.76900   0.73188   13.004
 6638.00    0.81466   0.73212   12.275
 6639.00    0.86046   0.73248   11.622
 6640.00    0.87672   0.73296   11.406
 6641.00    0.86150   0.73339   11.608
 6642.00    0.85530   0.73362   11.692
 6643.00    0.87554   0.73381   11.422
 6644.00    0.88325   0.73383   11.322
 6645.00    0.85038   0.73364   11.759
 6646.00    0.79566   0.73321   12.568
 6647.00    0.74588   0.73250   13.407
 6648.00    0.71397   0.73161   14.006
 6649.00    0.70539   0.73036   14.176
 6650.00    0.72181   0.72908   13.854
 6651.00    0.75988   0.72749   13.160
 6652.00    0.80960   0.72593   12.352
 6653.00    0.85000   0.72436   11.765
 6654.00    0.85541   0.72292   11.690
 6655.00    0.82790   0.72169   12.079
 6656.00    0.79847   0.72072   12.524
 6657.00    0.78206   0.72019   12.787
 6658.00    0.76926   0.71984   13.000
 6659.00    0.75663   0.72001   13.217
 6660.00    0.75420   0.72043   13.259
 6661.00    0.77426   0.72106   12.916
 6662.00    0.82592   0.72164   12.108
 6663.00    0.91027   0.72223   10.986
 6664.00    1.01272   0.72254   -1.000
 6665.00    1.08777   0.72275   -1.000
 6666.00    1.08554   0.72261   -1.000
 6667.00    1.02580   0.72222   -1.000
 6668.00    0.97604   0.72177   10.246
 6669.00    0.95977   0.72110   10.419
 6670.00    0.95385   0.72076   10.484
 6671.00    0.92899   0.72034   10.764
 6672.00    0.87025   0.72032   11.491
 6673.00    0.79846   0.72038   12.524
 6674.00    0.75193   0.72107   13.299
 6675.00    0.74632   0.72207   13.399
 6676.00    0.77328   0.72305   12.932
 6677.00    0.81093   0.72422   12.331
 6678.00    0.83314   0.72508   12.003
 6679.00    0.82152   0.72586   12.173
 6680.00    0.77693   0.72630   12.871
 6681.00    0.73102   0.72643   13.680
 6682.00    0.71476   0.72633   13.991
 6683.00    0.71703   0.72575   13.946
 6684.00    0.71037   0.72519   14.077
 6685.00    0.68901   0.72414   14.513
 6686.00    0.67206   0.72325   14.880
 6687.00    0.69843   0.72200   14.318
 6688.00    0.78514   0.72103   12.737
 6689.00    0.88872   0.71992   11.252
 6690.00    0.95126   0.71907   10.512
 6691.00    0.94834   0.71824   10.545
 6692.00    0.88706   0.71761   11.273
 6693.00    0.79878   0.71725   12.519
 6694.00    0.72327   0.71677   13.826
 6695.00    0.69422   0.71666   14.405
 6696.00    0.72513   0.71616    0.000
 6697.00    0.80021   0.71571    0.000
 6698.00    0.88118   0.71493    0.000
 6699.00    0.91943   0.71394    0.000
 6700.00    0.90073   0.71282    0.000
 6701.00    0.86553   0.71144    0.000
 6702.00    0.85562   0.70998    0.000
 6703.00    0.88201   0.70834    0.000
 6704.00    0.93091   0.70661    0.000
 6705.00    0.97300   0.70486    0.000
 6706.00    0.98856   0.70317    0.000
 6707.00    0.97301   0.70193    0.000
 6708.00    0.90269   0.70073    0.000
 6709.00    0.74005   0.70020    0.000
 6710.00    0.52557   0.69987    0.000
 6711.00    0.38172   0.70009    0.000
 6712.00    0.36804   0.70077    0.000
 6713.00    0.44695   0.70168    0.000
 6714.00    0.57787   0.70325    0.000
 6715.00    0.74761   0.70459    0.000
 6716.00    0.94938   0.70637    0.000
 6717.00    1.16690   0.70765    0.000
 6718.00    1.34972   0.70917    0.000
 6719.00    1.42935   0.71018    0.000
 6720.00    1.38691   0.71131    0.000
 6721.00    1.25990   0.71188    0.000
 6722.00    1.10661   0.71241    0.000
 6723.00    0.98292   0.71254    0.000
 6724.00    0.91118   0.71254    0.000
 6725.00    0.88672   0.71236    0.000
 6726.00    0.90980   0.71174    0.000
 6727.00    0.98416   0.71104    0.000
 6728.00    1.09855   0.70995    0.000
 6729.00    1.22588   0.70898    0.000
 6730.00    1.32965   0.70763    0.000
 6731.00    1.38038   0.70651    0.000
 6732.00    1.38157   0.70515    0.000
 6733.00    1.35578   0.70394    0.000
 6734.00    1.31476   0.70266    0.000
 6735.00    1.26030   0.70160    0.000
 6736.00    1.19299   0.70069    0.000
 6737.00    1.11215   0.69981    0.000
 6738.00    1.01455   0.69932    0.000
 6739.00    0.90779   0.69872    0.000
 6740.00    0.82591   0.69869    0.000
 6741.00    0.80585   0.69853    0.000
 6742.00    0.85514   0.69910    0.000
 6743.00    0.93059   0.69951    0.000
 6744.00    0.92728   0.70051    0.000
 6745.00    0.77682   0.70161    0.000
 6746.00    0.54274   0.70296    0.000
 6747.00    0.34951   0.70462    0.000
 6748.00    0.29957   0.70603    0.000
 6749.00    0.41069   0.70788    0.000
 6750.00    0.57950   0.70908    0.000
 6751.00    0.68860   0.71043    0.000
 6752.00    0.69654   0.71126    0.000
 6753.00    0.63582   0.71183   15.728
 6754.00    0.59318   0.71196   16.858
 6755.00    0.61495   0.71179   16.261
 6756.00    0.65487   0.71128   15.270
 6757.00    0.66194   0.71057   15.107
 6758.00    0.63576   0.70984   15.729
 6759.00    0.60343   0.70910   16.572
 6760.00    0.59786   0.70861   16.726
 6761.00    0.62582   0.70820   15.979
 6762.00    0.65883   0.70818   15.178
 6763.00    0.67372   0.70829   14.843
 6764.00    0.67222   0.70885   14.876
 6765.00    0.67310   0.70952   14.857
 6766.00    0.69872   0.71033   14.312
 6767.00    0.73628   0.71106   13.582
 6768.00    0.73954   0.71148   13.522
 6769.00    0.70034   0.71182   14.279
 6770.00    0.65918   0.71170   15.170
 6771.00    0.63917   0.71139   15.645
 6772.00    0.63205   0.71056   15.821
 6773.00    0.63482   0.70947   15.753
 6774.00    0.65880   0.70829   15.179
 6775.00    0.71783   0.70680   13.931
 6776.00    0.81513   0.70558   12.268
 6777.00    0.91822   0.70420   10.891
 6778.00    0.97105   0.70316   10.298
 6779.00    0.94399   0.70215   10.593
 6780.00    0.84833   0.70157   11.788
 6781.00    0.73707   0.70123   13.567
 6782.00    0.67534   0.70117   14.807
 6783.00    0.67598   0.70140   14.793
 6784.00    0.70789   0.70153   14.127
 6785.00    0.74330   0.70194   13.454
 6786.00    0.76377   0.70215   13.093
 6787.00    0.75289   0.70251   13.282
 6788.00    0.70482   0.70279   14.188
 6789.00    0.64073   0.70312   15.607
 6790.00    0.59350   0.70341   16.849
 6791.00    0.57815   0.70368   17.297
 6792.00    0.58807   0.70414   17.005
 6793.00    0.59782   0.70428   16.728
 6794.00    0.58322   0.70466   17.146
 6795.00    0.54795   0.70472   18.250
 6796.00    0.51517   0.70480   -1.000
 6797.00    0.51109   0.70478   -1.000
 6798.00    0.54855   0.70469   18.230
 6799.00    0.61114   0.70458   16.363
 6800.00    0.66488   0.70427   15.040
 6801.00    0.67484   0.70411   14.818
 6802.00    0.62517   0.70392   15.996
 6803.00    0.53658   0.70403   18.636
 6804.00    0.45443   0.70392   -1.000
 6805.00    0.43130   0.70402   -1.000
 6806.00    0.48396   0.70417   -1.000
 6807.00    0.56443   0.70437   17.717
 6808.00    0.62271   0.70482   16.059
 6809.00    0.65425   0.70531   15.285
 6810.00    0.66202   0.70577   15.105
 6811.00    0.63021   0.70627   15.868
 6812.00    0.55738   0.70677   17.941
 6813.00    0.47704   0.70725   -1.000
 6814.00    0.43505   0.70765   -1.000
 6815.00    0.46713   0.70782   -1.000
 6816.00    0.55759   0.70800   17.934
 6817.00    0.63300   0.70803   15.798
 6818.00    0.65592   0.70797   15.246
 6819.00    0.66158   0.70782   15.115
 6820.00    0.68294   0.70754   14.643
 6821.00    0.71721   0.70709   13.943
 6822.00    0.75139   0.70649   13.309
 6823.00    0.77486   0.70563   12.905
 6824.00    0.77943   0.70476   12.830
 6825.00    0.76026   0.70344   13.153
 6826.00    0.72025   0.70226   13.884
 6827.00    0.67189   0.70070   14.883
 6828.00    0.63752   0.69925   15.686
 6829.00    0.63859   0.69748   15.660
 6830.00    0.66138   0.69597   15.120
 6831.00    0.66973   0.69453   14.932
 6832.00    0.67680   0.69332   14.776
 6833.00    0.73081   0.69239   13.683
 6834.00    0.81416   0.69158   12.283
 6835.00    0.85692   0.69138   11.670
 6836.00    0.84535   0.69121   11.829
 6837.00    0.81597   0.69162   12.255
 6838.00    0.77376   0.69200   12.924
 6839.00    0.70329   0.69271   14.219
 6840.00    0.63583   0.69324   15.727
 6841.00    0.62551   0.69360   15.987
 6842.00    0.67188   0.69374   14.884
 6843.00    0.73503   0.69347   13.605
 6844.00    0.79331   0.69294   12.605
 6845.00    0.84147   0.69222   11.884
 6846.00    0.86857   0.69129   11.513
 6847.00    0.86250   0.69016   11.594
 6848.00    0.82317   0.68911   12.148
 6849.00    0.76072   0.68812   13.145
 6850.00    0.68992   0.68735   14.494
 6851.00    0.63226   0.68667   15.816
 6852.00    0.61821   0.68610   16.176
 6853.00    0.66323   0.68572   15.078
 6854.00    0.73924   0.68564   13.527
 6855.00    0.80458   0.68550   12.429
 6856.00    0.84216   0.68551   11.874
 6857.00    0.84970   0.68555   11.769
 6858.00    0.82530   0.68546   12.117
 6859.00    0.77735   0.68552   12.864
 6860.00    0.73376   0.68567   13.628
 6861.00    0.72027   0.68588   13.884
 6862.00    0.73941   0.68587   13.524
 6863.00    0.76948   0.68596   12.996
 6864.00    0.77015   0.68604   12.984
 6865.00    0.72487   0.68635   13.796
 6866.00    0.66810   0.68685   14.968
 6867.00    0.63898   0.68744   15.650
 6868.00    0.64744   0.68786   15.445
 6869.00    0.68720   0.68815   14.552
 6870.00    0.74547   0.68870   13.414
 6871.00    0.79911   0.68931   12.514
 6872.00    0.81677   0.68996   12.243
 6873.00    0.78712   0.69068   12.705
 6874.00    0.72995   0.69146   13.700
 6875.00    0.66741   0.69249   14.983
 6876.00    0.61066   0.69345   16.376
 6877.00    0.57222   0.69457   17.476
 6878.00    0.56808   0.69571   17.603
 6879.00    0.59820   0.69691   16.717
 6880.00    0.64188   0.69828   15.579
 6881.00    0.67604   0.69954   14.792
 6882.00    0.68846   0.70096   14.525
 6883.00    0.69709   0.70177   14.345
 6884.00    0.74036   0.70271   13.507
 6885.00    0.81818   0.70352   12.222
 6886.00    0.88603   0.70402   11.286
 6887.00    0.90543   0.70445   11.045
 6888.00    0.86355   0.70464   11.580
 6889.00    0.77984   0.70489   12.823
 6890.00    0.69714   0.70500   14.344
 6891.00    0.65228   0.70523   15.331
 6892.00    0.66388   0.70533   15.063
 6893.00    0.72333   0.70546   13.825
 6894.00    0.80441   0.70570   12.431
 6895.00    0.89070   0.70604   11.227
 6896.00    0.96985   0.70603   10.311
 6897.00    1.00796   0.70605   -1.000
 6898.00    0.96947   0.70586   10.315
 6899.00    0.86683   0.70578   11.536
 6900.00    0.74770   0.70516   13.374
 6901.00    0.65216   0.70451   15.334
 6902.00    0.60033   0.70366   16.657
 6903.00    0.58607   0.70279   17.063
 6904.00    0.59519   0.70216   16.801
 6905.00    0.63423   0.70104   15.767
 6906.00    0.70571   0.70039   14.170
 6907.00    0.76824   0.69954   13.017
 6908.00    0.77851   0.69905   12.845
 6909.00    0.75303   0.69836   13.280
 6910.00    0.73357   0.69794   13.632
 6911.00    0.73453   0.69744   13.614
 6912.00    0.74921   0.69686   13.347
 6913.00    0.76499   0.69667   13.072
 6914.00    0.77018   0.69608   12.984
 6915.00    0.75985   0.69598   13.160
 6916.00    0.73863   0.69568   13.539
 6917.00    0.72139   0.69544   13.862
 6918.00    0.71849   0.69515   13.918
 6919.00    0.72318   0.69485   13.828
 6920.00    0.72195   0.69467   13.851
 6921.00    0.70480   0.69429   14.188
 6922.00    0.67085   0.69433   14.907
 6923.00    0.63084   0.69470   15.852
 6924.00    0.59830   0.69507   16.714
 6925.00    0.58286   0.69554   17.157
 6926.00    0.59003   0.69573   16.948
 6927.00    0.62037   0.69614   16.120
 6928.00    0.66260   0.69635   15.092
 6929.00    0.69354   0.69652   14.419
 6930.00    0.70096   0.69639   14.266
 6931.00    0.69293   0.69613   14.431
 6932.00    0.67705   0.69599   14.770
 6933.00    0.65244   0.69529   15.327
 6934.00    0.62593   0.69477   15.976
 6935.00    0.61572   0.69426   16.241
 6936.00    0.63156   0.69365   15.834
 6937.00    0.66863   0.69310   14.956
 6938.00    0.72022   0.69251   13.885
 6939.00    0.77990   0.69171   12.822
 6940.00    0.82959   0.69115   12.054
 6941.00    0.84501   0.69082   11.834
 6942.00    0.82978   0.69059   12.051
 6943.00    0.81219   0.69076   12.312
 6944.00    0.79602   0.69129   12.563
 6945.00    0.76051   0.69189   13.149
 6946.00    0.70746   0.69235   14.135
 6947.00    0.66088   0.69326   15.131
 6948.00    0.62715   0.69380   15.945
 6949.00    0.59610   0.69486   16.776
 6950.00    0.57162   0.69594   17.494
 6951.00    0.57095   0.69698   17.515
 6952.00    0.60457   0.69820   16.541
 6953.00    0.66533   0.69911   15.030
 6954.00    0.71706   0.70004   13.946
 6955.00    0.72110   0.70060   13.868
 6956.00    0.69175   0.70133   14.456
 6957.00    0.67380   0.70147   14.841
 6958.00    0.68203   0.70152   14.662
 6959.00    0.70546   0.70107   14.175
 6960.00    0.73356   0.70043   13.632
 6961.00    0.75535   0.69966   13.239
 6962.00    0.75220   0.69829   13.294
 6963.00    0.71536   0.69664   13.979
 6964.00    0.67142   0.69474   14.894
 6965.00    0.66063   0.69285   15.137
 6966.00    0.70240   0.69043   14.237
 6967.00    0.78179   0.68823   12.791
 6968.00    0.84263   0.68657   11.868
 6969.00    0.84351   0.68531   11.855
 6970.00    0.81793   0.68482   12.226
 6971.00    0.82046   0.68456   12.188
 6972.00    0.86297   0.68474   11.588
 6973.00    0.91585   0.68543   10.919
 6974.00    0.92148   0.68655   10.852
 6975.00    0.85504   0.68789   11.695
 6976.00    0.77049   0.68945   12.979
 6977.00    0.72907   0.69141   13.716
 6978.00    0.73924   0.69330   13.527
 6979.00    0.78094   0.69490   12.805
 6980.00    0.83015   0.69619   12.046
 6981.00    0.87501   0.69718   11.428
 6982.00    0.92022   0.69767   10.867
 6983.00    0.94664   0.69796   10.564
 6984.00    0.89839   0.69791   11.131
 6985.00    0.76959   0.69759   12.994
 6986.00    0.64117   0.69704   15.596
 6987.00    0.58350   0.69616   17.138
 6988.00    0.60322   0.69524   16.578
 6989.00    0.66293   0.69420   15.084
 6990.00    0.70566   0.69310   14.171
 6991.00    0.71446   0.69195   13.996
 6992.00    0.72475   0.69066   13.798
 6993.00    0.75289   0.68964   13.282
 6994.00    0.77341   0.68850   12.930
 6995.00    0.75854   0.68763   13.183
 6996.00    0.69894   0.68670   14.307
 6997.00    0.61694   0.68597   16.209
 6998.00    0.55990   0.68553   17.860
 6999.00    0.56124   0.68514   17.818
 7000.00    0.62393   0.68477   16.027
 7001.00    0.71318   0.68413   -2.000
 7002.00    0.77472   0.68372   -2.000
 7003.00    0.79308   0.68311   -2.000
 7004.00    0.79476   0.68237   -2.000
 7005.00    0.80921   0.68168   -2.000
 7006.00    0.84519   0.68119   -2.000
 7007.00    0.86141   0.68085   -2.000
 7008.00    0.80957   0.68073   -2.000
 7009.00    0.74535   0.68067   -2.000
 7010.00    0.76994   0.68069   -2.000
 7011.00    0.85592   0.68063   -2.000
 7012.00    0.89881   0.68056   -2.000
 7013.00    0.88788   0.68043   -2.000
 7014.00    0.87480   0.68085   -2.000
 7015.00    0.85814   0.68169   -2.000
 7016.00    0.80880   0.68262   -2.000
 7017.00    0.74566   0.68329   -2.000
 7018.00    0.70567   0.68402   -2.000
 7019.00    0.68075   0.68459   -2.000
 7020.00    0.65139   0.68512   -2.000
 7021.00    0.64473   0.68589   -2.000
 7022.00    0.68656   0.68674   -2.000
 7023.00    0.73185   0.68788   -2.000
 7024.00    0.72492   0.68897   -2.000
 7025.00    0.68009   0.68995   -2.000
 7026.00    0.64052   0.69087   -2.000
 7027.00    0.62309   0.69194   -2.000
 7028.00    0.63784   0.69306   -2.000
 7029.00    0.70912   0.69443   -2.000
 7030.00    0.81938   0.69625   -2.000
 7031.00    0.86760   0.69806   -2.000
 7032.00    0.81030   0.69973   -2.000
 7033.00    0.76892   0.70124   -2.000
 7034.00    0.83805   0.70251   -2.000
 7035.00    0.93909   0.70326   -2.000
 7036.00    0.97770   0.70407   -2.000
 7037.00    0.96280   0.70492   -2.000
 7038.00    0.93285   0.70497   -2.000
 7039.00    0.89981   0.70443   -2.000
 7040.00    0.86293   0.70282   -2.000
 7041.00    0.82238   0.70064   -2.000
 7042.00    0.79355   0.69772   -2.000
 7043.00    0.80569   0.69454   -2.000
 7044.00    0.84849   0.69141   -2.000
 7045.00    0.85992   0.68805   -2.000
 7046.00    0.81723   0.68479   -2.000
 7047.00    0.76873   0.68122   -2.000
 7048.00    0.75867   0.67774   -2.000
 7049.00    0.79163   0.67420   -2.000
 7050.00    0.83936   0.67089   -2.000
 7051.00    0.85817   0.66831   -2.000
 7052.00    0.84245   0.66627   -2.000
 7053.00    0.82966   0.66453   -2.000
 7054.00    0.83938   0.66312   -2.000
 7055.00    0.85814   0.66192   -2.000
 7056.00    0.86722   0.66059   -2.000
 7057.00    0.85563   0.65972   -2.000
 7058.00    0.82920   0.65922   -2.000
 7059.00    0.80599   0.65945   -2.000
 7060.00    0.79551   0.66001   -2.000
 7061.00    0.79341   0.66095   -2.000
 7062.00    0.78453   0.66188   -2.000
 7063.00    0.75518   0.66271   -2.000
 7064.00    0.72002   0.66377   -2.000
 7065.00    0.70935   0.66452   -2.000
 7066.00    0.72617   0.66543   -2.000
 7067.00    0.75278   0.66614   -2.000
 7068.00    0.78468   0.66659   -2.000
 7069.00    0.82218   0.66635   -2.000
 7070.00    0.84189   0.66554   -2.000
 7071.00    0.82479   0.66426   -2.000
 7072.00    0.81296   0.66215   -2.000
 7073.00    0.85762   0.65955   -2.000
 7074.00    0.92042   0.65644   -2.000
 7075.00    0.92259   0.65322   -2.000
 7076.00    0.84337   0.65020   -2.000
 7077.00    0.71893   0.64692   -2.000
 7078.00    0.61672   0.64365   -2.000
 7079.00    0.58614   0.64054   -2.000
 7080.00    0.60291   0.63769   -2.000
 7081.00    0.61856   0.63510   -2.000
 7082.00    0.62661   0.63346   -2.000
 7083.00    0.64359   0.63206   -2.000
 7084.00    0.67897   0.63139   -2.000
 7085.00    0.72880   0.63089   -2.000
 7086.00    0.77408   0.63069   -2.000
 7087.00    0.79888   0.63128   -2.000
 7088.00    0.80595   0.63144   -2.000
 7089.00    0.80117   0.63291   -2.000
 7090.00    0.77991   0.63340   -2.000
 7091.00    0.73894   0.63451   -2.000
 7092.00    0.68715   0.63525   -2.000
 7093.00    0.64601   0.63584   -2.000
 7094.00    0.64427   0.63681   -2.000
 7095.00    0.68212   0.63722   -2.000
 7096.00    0.71790   0.63785   -2.000
 7097.00    0.74335   0.63774   -2.000
 7098.00    0.81097   0.63776   -2.000
 7099.00    0.90320   0.63771   -2.000
 7100.00    0.89260   0.63741   -2.000
 7101.00    0.75859   0.63703   -2.000
 7102.00    0.65982   0.63694   -2.000
 7103.00    0.68640   0.63679   -2.000
 7104.00    0.76424   0.63683   -2.000
 7105.00    0.81227   0.63652   -2.000
 7106.00    0.81533   0.63664   -2.000
 7107.00    0.80537   0.63650   -2.000
 7108.00    0.83361   0.63614   -2.000
 7109.00    0.90031   0.63604   -2.000
 7110.00    0.94947   0.63547   -2.000
 7111.00    0.95135   0.63534   -2.000
 7112.00    0.92154   0.63426   -2.000
 7113.00    0.88045   0.63359   -2.000
 7114.00    0.83088   0.63276   -2.000
 7115.00    0.73480   0.63143   -2.000
 7116.00    0.55045   0.63027   -2.000
 7117.00    0.35410   0.62887   -2.000
 7118.00    0.29178   0.62812   -2.000
 7119.00    0.36461   0.62695   -2.000
 7120.00    0.45219   0.62606   -2.000
 7121.00    0.50720   0.62535   -2.000
 7122.00    0.56717   0.62518   -2.000
 7123.00    0.67101   0.62529   -2.000
 7124.00    0.82284   0.62581   -2.000
 7125.00    0.96001   0.62651   -2.000
 7126.00    1.00632   0.62714   -2.000
 7127.00    0.98197   0.62819   -2.000
 7128.00    0.95930   0.62893   -2.000
 7129.00    0.94975   0.62981   -2.000
 7130.00    0.92453   0.63061   -2.000
 7131.00    0.87975   0.63149   -2.000
 7132.00    0.82508   0.63204   -2.000
 7133.00    0.75236   0.63225   -2.000
 7134.00    0.65606   0.63251   -2.000
 7135.00    0.56618   0.63246   -2.000
 7136.00    0.52209   0.63235   -2.000
 7137.00    0.53353   0.63227   -2.000
 7138.00    0.58432   0.63174   -2.000
 7139.00    0.64380   0.63185   -2.000
 7140.00    0.68411   0.63220   -2.000
 7141.00    0.69687   0.63250   -2.000
 7142.00    0.68524   0.63316   -2.000
 7143.00    0.65365   0.63374   -2.000
 7144.00    0.60367   0.63452   -2.000
 7145.00    0.53215   0.63483   -2.000
 7146.00    0.44141   0.63545   -2.000
 7147.00    0.34665   0.63640   -2.000
 7148.00    0.26134   0.63655   -2.000
 7149.00    0.18795   0.63702   -2.000
 7150.00    0.14089   0.63698   -2.000
 7151.00    0.15724   0.63701   -2.000
 7152.00    0.24870   0.63686   -2.000
 7153.00    0.37658   0.63651   -2.000
 7154.00    0.50803   0.63626   -2.000
 7155.00    0.64329   0.63574   -2.000
 7156.00    0.75774   0.63601   -2.000
 7157.00    0.78418   0.63632   -2.000
 7158.00    0.70650   0.63701   -2.000
 7159.00    0.59591   0.63762   -2.000
 7160.00    0.53277   0.63829   -2.000
 7161.00    0.55987   0.63906   -2.000
 7162.00    0.65665   0.63976   -2.000
 7163.00    0.75217   0.64060   -2.000
 7164.00    0.82490   0.64110   -2.000
 7165.00    0.91284   0.64144   -2.000
 7166.00    0.98709   0.64125   -2.000
 7167.00    0.94750   0.64098   -2.000
 7168.00    0.78610   0.64065   -2.000
 7169.00    0.60507   0.63984   -2.000
 7170.00    0.47719   0.63858   -2.000
 7171.00    0.40718   0.63702   -2.000
 7172.00    0.36187   0.63561   -2.000
 7173.00    0.30409   0.63436   -2.000
 7174.00    0.25774   0.63331   -2.000
 7175.00    0.28665   0.63216   -2.000
 7176.00    0.39346   0.63098   -2.000
 7177.00    0.51919   0.62933   -2.000
 7178.00    0.60659   0.62810   -2.000
 7179.00    0.62575   0.62729   -2.000
 7180.00    0.59421   0.62678   -2.000
 7181.00    0.56343   0.62695   -2.000
 7182.00    0.58148   0.62669   -2.000
 7183.00    0.66120   0.62682   -2.000
 7184.00    0.73889   0.62683   -2.000
 7185.00    0.74708   0.62727   -2.000
 7186.00    0.74714   0.62806   -2.000
 7187.00    0.82359   0.62869   -2.000
 7188.00    0.88652   0.62986   -2.000
 7189.00    0.80382   0.63062   -2.000
 7190.00    0.63575   0.63116   -2.000
 7191.00    0.53101   0.63170   -2.000
 7192.00    0.53891   0.63191   -2.000
 7193.00    0.62197   0.63232   -2.000
 7194.00    0.70807   0.63258   -2.000
 7195.00    0.74790   0.63273   -2.000
 7196.00    0.76911   0.63278   -2.000
 7197.00    0.80536   0.63211   -2.000
 7198.00    0.81935   0.63187   -2.000
 7199.00    0.77227   0.63161   -2.000
 7200.00    0.69692   0.63180   -2.000
 7201.00    0.65226   0.63260   -2.000
 7202.00    0.67266   0.63299   -2.000
 7203.00    0.74776   0.63365   -2.000
 7204.00    0.81686   0.63387   -2.000
 7205.00    0.83631   0.63459   -2.000
 7206.00    0.82557   0.63550   -2.000
 7207.00    0.80523   0.63672   -2.000
 7208.00    0.75517   0.63825   -2.000
 7209.00    0.65824   0.63929   -2.000
 7210.00    0.53237   0.64055   -2.000
 7211.00    0.43201   0.64132   -2.000
 7212.00    0.42810   0.64245   -2.000
 7213.00    0.49653   0.64345   -2.000
 7214.00    0.50178   0.64465   -2.000
 7215.00    0.45308   0.64624   -2.000
 7216.00    0.56298   0.64734   -2.000
 7217.00    0.85554   0.64893   -2.000
 7218.00    1.06259   0.64995   -2.000
