###################################################################
## OUTPUT of StarlightChains_v04.for    [Cid@UFSC - 01/Apr/2007] ##
###################################################################

## Some input info
2009ds.txt                               [arq_obs]
Base.CB07.vall.4m                        [arq_base]
Masks.EmLines.NEW.gm                     [arq_masks]
StCv04.C11.config                        [arq_config]
   66                                    [N_base]
    0                                    [N_YAV_components = # of components with extra extinction!]
    0                                    [i_FitPowerLaw (1/0 = Yes/No)]
-9.99                                    [alpha_PowerLaw]
CCM                                      [red_law_option]
 1.458241                                [q_norm = A(l_norm)/A(V)]

## (Re)Sampling Parameters
 3741.00                                 [l_ini (A)]
 7218.00                                 [l_fin (A)]
    1.00                                 [dl    (A)]     (OBS: dl_cushion =    50.00 A)

## Normalization info
 4020.00                                 [l_norm (A) - for base]
 4010.00                                 [llow_norm (A) - window for f_obs]
 4060.00                                 [lupp_norm (A) - window for f_obs]
7.728209E-17                             [fobs_norm (in input units)]

## S/N
 3691.00                                 [llow_SN (A) - window for S/N]
 7268.00                                 [lupp_SN (A) - window for S/N]
   9.532                                 [S/N in S/N window]
  10.439                                 [S/N in norm. window]
  16.505                                 [S/N_err in S/N window]
  18.075                                 [S/N_err in norm. window]
  1.0000                                 [fscale_chi2]

## etc...
    -2007353                             [idum_orig]
  2384                                   [NOl_eff]
  2384                                   [Nl_eff]
     0    NSIGMA                         [Ntot_cliped & clip_method]
  2302720                                [Nglobal_steps]
   7                                     [N_chains]
  40                                     [NEX0s_base = N_base in EX0s-fits]
 0   0   1        0   2.0   3.200E+01    [Clip-Bug, RC-Crash & Burn-In warning-flags, n_censored_weights, wei_nsig_threshold & wei_limit]
    19     19.008     18.505      0.503  [idt_all, wdt_TotTime, wdt_UsrTime & wdt_SysTime (sec)]

## Synthesis Results - Best model ##

 3.72194E-01                             [chi2/Nl_eff]
     3.05298                             [adev (%)]

   104.14069                             [sum-of-x (%)]
 1.01652E-16                             [Flux_tot (units of input spectrum!)]
 2.67022E-12                             [Mini_tot (???)]
 1.37671E-12                             [Mcor_tot (???)]

-123.05                                  [v0_min  (km/s)]
 163.13                                  [vd_min  (km/s)]
 0.1739                                  [AV_min  (mag)]
 0.0000                                  [YAV_min (mag)]

# j     x_j(%)      Mini_j(%)     Mcor_j(%)     age_j(yr)     Z_j      (L/M)_j    YAV?  Mstars   component_j        a/Fe...       SSP_chi2r SSP_adev(%)   SSP_AV   SSP_x(%)
  1      2.0238     6.7623E-03    1.3116E-02    1.000000E+06  0.00400  1.094E-02    0   1.0000   age020_m42            0.0000     1.6171E+00     6.3360   2.9925    86.0687
  2      0.0000     0.0000E+00    0.0000E+00    3.160000E+06  0.00400  4.007E-02    0   0.9999   age045_m42            0.0000     1.2799E+00     5.2660   2.2720    91.8241
  3      4.0131     5.7779E-03    1.0633E-02    5.010000E+06  0.00400  2.539E-02    0   0.9488   age055_m42            0.0000     1.3714E+00     5.6066   2.5862    89.7855
  4      0.0027     3.7336E-06    6.6768E-06    6.610000E+06  0.00400  2.620E-02    0   0.9220   age061_m42            0.0000     1.1851E+00     5.1228   2.1907    92.3831
  5      0.0000     0.0000E+00    0.0000E+00    1.000000E+07  0.00400  1.322E-02    0   0.8862   age070_m42            0.0000     9.4222E-01     4.9282   1.8477    97.1792
  6      0.7352     3.4092E-03    5.6675E-03    1.445000E+07  0.00400  7.883E-03    0   0.8571   age078_m42            0.0000     1.0638E+00     5.2238   2.1811    94.4018
  7      2.8077     1.9546E-02    3.0988E-02    2.512000E+07  0.00400  5.251E-03    0   0.8174   age090_m42            0.0000     9.2241E-01     4.9403   1.7065    98.2655
  8      0.0000     0.0000E+00    0.0000E+00    4.000000E+07  0.00400  3.649E-03    0   0.7851   age104_m42            0.0000     8.5537E-01     4.7214   1.4849    98.8154
  9      0.0000     0.0000E+00    0.0000E+00    5.500000E+07  0.00400  3.098E-03    0   0.7629   age110_m42            0.0000     8.9574E-01     4.6379   1.6672    97.4766
 10      0.0000     0.0000E+00    0.0000E+00    1.015200E+08  0.00400  2.228E-03    0   0.7207   age116_m42            0.0000     9.2554E-01     4.6427   1.7060    96.8189
 11      0.0000     0.0000E+00    0.0000E+00    2.861200E+08  0.00400  1.093E-03    0   0.6648   age125_m42            0.0000     8.6102E-01     4.6150   1.1136   100.8837
 12      0.0000     0.0000E+00    0.0000E+00    5.088000E+08  0.00400  6.597E-04    0   0.6365   age130_m42            0.0000     8.1999E-01     4.5850   1.1332   100.3192
 13      0.0000     0.0000E+00    0.0000E+00    1.434000E+09  0.00400  2.132E-04    0   0.5798   age139_m42            0.0000     4.9716E-01     3.6733   0.1758   101.6765
 14      0.0000     0.0000E+00    0.0000E+00    4.250000E+09  0.00400  5.895E-05    0   0.5377   age158_m42            0.0000     6.4049E-01     4.0951  -0.2216    95.7563
 15      0.0000     0.0000E+00    0.0000E+00    7.500000E+09  0.00400  3.510E-05    0   0.5212   age171_m42            0.0000     7.4087E-01     4.4475  -0.3892    94.2508
 16      0.0000     0.0000E+00    0.0000E+00    1.300000E+10  0.00400  2.005E-05    0   0.5034   age193_m42            0.0000     8.7366E-01     4.8376  -0.5355    92.9522
 17      0.0000     0.0000E+00    0.0000E+00    1.800000E+10  0.00400  1.525E-05    0   0.4967   age213_m42            0.0000     8.5268E-01     4.7610  -0.5639    92.7592
 18      0.0000     0.0000E+00    0.0000E+00    1.000000E+06  0.00800  1.238E-02    0   1.0000   age020_m52            0.0000     1.6142E+00     6.3408   2.9896    86.2056
 19      0.8572     1.0193E-03    1.9704E-03    3.160000E+06  0.00800  3.074E-02    0   0.9966   age045_m52            0.0000     1.5842E+00     6.2466   2.9151    86.8791
 20      0.0000     0.0000E+00    0.0000E+00    5.010000E+06  0.00800  2.668E-02    0   0.9443   age055_m52            0.0000     1.3679E+00     5.7066   2.6652    89.1203
 21      0.0000     0.0000E+00    0.0000E+00    6.610000E+06  0.00800  2.136E-02    0   0.9177   age061_m52            0.0000     7.5156E-01     4.5614   1.3519    98.0592
 22      0.0000     0.0000E+00    0.0000E+00    1.000000E+07  0.00800  1.215E-02    0   0.8827   age070_m52            0.0000     9.7358E-01     5.1722   2.0089    97.8143
 23      0.5150     2.1597E-03    3.5823E-03    1.445000E+07  0.00800  8.717E-03    0   0.8552   age078_m52            0.0000     9.8700E-01     5.0504   2.1441    95.8329
 24      2.1837     1.4275E-02    2.2598E-02    2.512000E+07  0.00800  5.592E-03    0   0.8162   age090_m52            0.0000     8.7091E-01     4.8587   1.7658    99.6680
 25      0.8955     8.4022E-03    1.2778E-02    4.000000E+07  0.00800  3.896E-03    0   0.7841   age104_m52            0.0000     8.3768E-01     4.6779   1.6918    99.8077
 26      0.6832     1.1627E-02    1.6296E-02    1.015200E+08  0.00800  2.148E-03    0   0.7226   age116_m52            0.0000     8.3703E-01     4.5031   1.6585    98.3039
 27      0.0000     0.0000E+00    0.0000E+00    2.861200E+08  0.00800  9.925E-04    0   0.6683   age125_m52            0.0000     7.3060E-01     4.3999   1.1949   101.4117
 28      0.0000     0.0000E+00    0.0000E+00    9.047900E+08  0.00800  3.141E-04    0   0.6138   age135_m52            0.0000     6.0258E-01     4.1350   0.4363   103.7183
 29      0.0002     3.2915E-05    3.7366E-05    1.434000E+09  0.00800  1.719E-04    0   0.5853   age139_m52            0.0000     5.5880E-01     3.8453  -0.1391   101.3743
 30      0.0000     0.0000E+00    0.0000E+00    2.500000E+09  0.00800  7.872E-05    0   0.5600   age150_m52            0.0000     7.2482E-01     4.5038  -0.3590    96.4576
 31      0.0000     0.0000E+00    0.0000E+00    4.250000E+09  0.00800  4.336E-05    0   0.5426   age158_m52            0.0000     7.7971E-01     4.6199  -0.3709    95.3943
 32      0.0000     0.0000E+00    0.0000E+00    6.250000E+09  0.00800  3.159E-05    0   0.5319   age166_m52            0.0000     9.6440E-01     5.2254  -0.5450    94.1848
 33      0.0000     0.0000E+00    0.0000E+00    1.300000E+10  0.00800  1.361E-05    0   0.5073   age193_m52            0.0000     1.2481E+00     6.1200  -0.9775    92.0705
 34      0.0010     3.6316E-03    3.5148E-03    1.800000E+10  0.00800  9.886E-06    0   0.4990   age213_m52            0.0000     1.5471E+00     7.0840  -1.0000    88.2168
 35      0.0000     0.0000E+00    0.0000E+00    1.000000E+06  0.02000  1.544E-02    0   1.0000   age020_m62            0.0000     1.6263E+00     6.3810   2.9859    86.3875
 36      0.0000     0.0000E+00    0.0000E+00    3.160000E+06  0.02000  3.762E-02    0   0.9858   age045_m62            0.0000     1.6233E+00     6.3742   2.9275    87.0365
 37      2.3067     2.5583E-03    4.6354E-03    5.010000E+06  0.02000  3.296E-02    0   0.9342   age055_m62            0.0000     1.3161E+00     5.4425   2.5543    90.5610
 38     10.6527     3.3744E-02    5.7994E-02    8.710000E+06  0.02000  1.154E-02    0   0.8861   age067_m62            0.0000     1.5726E+00     7.4983   1.3466   106.3271
 39      3.4251     1.6339E-02    2.6848E-02    1.445000E+07  0.02000  7.663E-03    0   0.8472   age078_m62            0.0000     1.0053E+00     5.5961   1.6193   101.8335
 40      1.4263     1.1505E-02    1.8072E-02    2.512000E+07  0.02000  4.532E-03    0   0.8099   age090_m62            0.0000     1.0733E+00     5.7326   1.6055   101.8805
 41      1.1388     1.5231E-02    2.2437E-02    5.500000E+07  0.02000  2.733E-03    0   0.7595   age110_m62            0.0000     8.0435E-01     4.6146   1.6735    99.1174
 42      5.0212     1.3408E-01    1.8164E-01    1.609000E+08  0.02000  1.369E-03    0   0.6985   age120_m62            0.0000     7.7870E-01     4.4278   1.5462   100.2496
 43      2.4306     9.8580E-02    1.2837E-01    2.861200E+08  0.02000  9.013E-04    0   0.6714   age125_m62            0.0000     7.2833E-01     4.5007   1.3113   102.3898
 44      1.2671     9.2122E-02    1.1523E-01    5.088000E+08  0.02000  5.028E-04    0   0.6449   age130_m62            0.0000     7.3812E-01     4.6132   0.9765   103.0414
 45      0.0000     0.0000E+00    0.0000E+00    9.047900E+08  0.02000  2.428E-04    0   0.6179   age135_m62            0.0000     6.2604E-01     4.2617   0.4124   101.4154
 46      0.0000     0.0000E+00    0.0000E+00    1.434000E+09  0.02000  1.263E-04    0   0.5908   age139_m62            0.0000     6.6364E-01     4.3476  -0.0189    99.3326
 47      0.0000     0.0000E+00    0.0000E+00    2.500000E+09  0.02000  5.985E-05    0   0.5673   age150_m62            0.0000     9.1703E-01     5.1502  -0.3450    96.1876
 48      0.0012     1.3665E-03    1.4492E-03    4.250000E+09  0.02000  3.271E-05    0   0.5468   age158_m62            0.0000     1.2549E+00     6.2379  -0.6063    93.4981
 49      0.1503     4.0391E-01    4.0479E-01    1.000000E+10  0.02000  1.360E-05    0   0.5167   age181_m62            0.0000     1.7320E+00     7.5730  -0.9051    91.0772
 50      6.8917     3.5363E+01    3.4383E+01    1.800000E+10  0.02000  7.124E-06    0   0.5013   age213_m62            0.0000     2.1996E+00     8.8016  -1.0000    85.8846
 51      0.0000     0.0000E+00    0.0000E+00    1.000000E+06  0.05000  2.592E-02    0   0.9998   age020_m72            0.0000     1.6548E+00     6.4946   2.9741    86.5342
 52      0.0952     7.1819E-05    1.3340E-04    3.160000E+06  0.05000  4.845E-02    0   0.9577   age045_m72            0.0000     1.5412E+00     6.0245   2.8174    87.9239
 53      0.0000     0.0000E+00    0.0000E+00    5.010000E+06  0.05000  3.072E-02    0   0.9147   age055_m72            0.0000     1.2066E+00     5.7774   2.2519    95.7948
 54      0.0000     0.0000E+00    0.0000E+00    6.610000E+06  0.05000  1.455E-02    0   0.8877   age061_m72            0.0000     3.3892E+00    10.3160   1.3556   109.5288
 55      0.0000     0.0000E+00    0.0000E+00    1.000000E+07  0.05000  9.074E-03    0   0.8524   age070_m72            0.0000     1.7314E+00     6.5735   2.4419    95.3576
 56      0.0000     0.0000E+00    0.0000E+00    2.512000E+07  0.05000  4.250E-03    0   0.7902   age090_m72            0.0000     1.3070E+00     5.7543   2.1322    97.5255
 57      0.0000     0.0000E+00    0.0000E+00    4.000000E+07  0.05000  3.087E-03    0   0.7618   age104_m72            0.0000     1.2881E+00     5.7422   1.8920    99.7495
 58      0.0295     6.3448E-04    8.7324E-04    1.015200E+08  0.05000  1.700E-03    0   0.7096   age116_m72            0.0000     8.5530E-01     4.6575   1.6695   100.7502
 59      7.8231     3.8729E-01    4.9825E-01    2.861200E+08  0.05000  7.384E-04    0   0.6633   age125_m72            0.0000     6.8139E-01     4.4411   1.2003   102.7851
 60     19.5429     1.8706E+00    2.3119E+00    5.088000E+08  0.05000  3.819E-04    0   0.6372   age130_m72            0.0000     6.2055E-01     4.2654   0.7458   102.6329
 61      8.6175     1.8795E+00    2.2274E+00    9.047900E+08  0.05000  1.676E-04    0   0.6110   age135_m72            0.0000     8.8646E-01     5.1691   0.1074    98.2055
 62      0.0000     0.0000E+00    0.0000E+00    1.434000E+09  0.05000  8.837E-05    0   0.5874   age139_m72            0.0000     9.6715E-01     5.3221  -0.3419    97.4404
 63      2.7166     2.3460E+00    2.5472E+00    2.500000E+09  0.05000  4.233E-05    0   0.5598   age150_m72            0.0000     1.3856E+00     6.6208  -0.5941    93.7548
 64     11.5547     2.9434E+01    2.9966E+01    6.250000E+09  0.05000  1.435E-05    0   0.5249   age166_m72            0.0000     1.8913E+00     7.9701  -0.9892    90.1795
 65      2.9013     1.6284E+01    1.5905E+01    1.300000E+10  0.05000  6.513E-06    0   0.5036   age193_m72            0.0000     2.8231E+00    10.0410  -1.0000    80.7732
 66      1.4302     1.1549E+01    1.1076E+01    1.800000E+10  0.05000  4.527E-06    0   0.4945   age213_m72            0.0000     3.7293E+00    11.5716  -1.0000    74.9469


## Synthesis Results - Average & Chains ##

# j      x_j: min, <> & last-chain-values for 1 ...  7 chains
  1      2.0238      1.6347      1.3915      0.2673      1.6533      0.8730      1.4464      2.1239      1.6176
  2      0.0000      0.3312      0.0000      0.1157      0.0000      1.7913      0.1478      0.0000      0.0000
  3      4.0131      2.8792      3.3066      3.7340      3.1136      3.0848      3.1239      2.0363      2.7687
  4      0.0027      0.2713      0.0000      0.0000      0.0000      0.1076      0.8601      0.0000      0.6376
  5      0.0000      0.3771      0.0000      0.0000      0.6577      0.6927      0.2577      1.4808      0.0000
  6      0.7352      0.2570      0.2568      0.0000      0.0000      0.0000      1.3174      0.0000      1.5286
  7      2.8077      2.7571      1.8263      3.2823      2.6552      3.3237      2.9360      3.6954      2.1123
  8      0.0000      1.4094      1.3936      0.7912      1.0819      0.4739      0.0000      0.1774      1.5021
  9      0.0000      1.5975      1.3403      3.0678      1.5036      2.5562      0.2291      1.3891      0.0000
 10      0.0000      0.8245      1.0877      0.9333      1.1371      0.5872      0.1532      0.6299      0.1728
 11      0.0000      0.5957      0.3589      0.2229      0.0000      0.0000      0.3008      0.0000      0.3998
 12      0.0000      0.4796      0.3261      0.0000      0.0000      0.0000      0.0000      0.0000      0.4864
 13      0.0000      1.1999      1.1922      0.0000      0.1830      2.3641      0.9724      0.1144      0.0000
 14      0.0000      0.2738      0.0000      0.0000      0.0000      0.7571      0.0000      0.0000      0.0000
 15      0.0000      0.2430      0.0000      0.0000      0.0000      0.0000      0.2718      0.0000      0.3079
 16      0.0000      0.7596      0.0000      0.0000      0.1382      0.0000      0.4412      1.5180      0.1060
 17      0.0000      0.1827      0.0279      0.0000      0.0000      0.1599      0.3767      0.0000      0.0000
 18      0.0000      1.5041      1.8383      2.1831      1.4867      1.1486      0.0000      1.5267      1.8114
 19      0.8572      0.4830      0.4663      1.0670      0.1227      0.4345      1.2708      0.0000      0.0000
 20      0.0000      0.2630      0.0000      0.7554      0.0000      0.2741      0.0000      0.6666      0.0000
 21      0.0000      0.5454      0.4931      0.0000      0.2969      0.5556      0.1990      0.0000      0.5795
 22      0.0000      0.4121      1.6894      0.0000      0.0000      0.7627      0.0000      0.7172      0.0000
 23      0.5150      0.2913      0.0000      0.0000      0.0144      0.9984      1.2277      0.3266      0.0000
 24      2.1837      1.3516      1.7880      1.2413      1.9518      3.6751      0.4705      0.0000      2.4303
 25      0.8955      0.6346      0.1807      0.5263      0.0000      0.7445      1.0285      1.2215      1.2242
 26      0.6832      2.1756      2.2257      1.0203      2.3835      2.3085      1.3399      1.6514      1.8439
 27      0.0000      1.0335      0.8294      0.9550      0.9022      0.6042      4.0169      1.9850      0.4426
 28      0.0000      1.1357      1.8886      0.2878      0.8637      0.6749      0.0000      2.5555      0.0000
 29      0.0002      0.4622      0.6082      0.0000      0.0000      0.1222      0.6770      0.0000      0.0000
 30      0.0000      0.1719      0.0000      0.0000      0.1202      0.4439      0.0000      0.1009      0.0000
 31      0.0000      0.1909      0.3778      0.0000      0.0000      0.0000      0.0000      0.0000      0.0000
 32      0.0000      0.1412      0.0000      0.0000      0.0000      0.0000      0.0000      0.0000      0.2838
 33      0.0000      0.0853      0.0000      0.0000      0.0000      0.0000      0.0000      0.0000      0.2452
 34      0.0010      1.3746      1.2320      1.5249      1.3854      1.7554      1.3030      1.1124      1.4984
 35      0.0000      0.3797      0.1731      0.0000      0.0679      0.0035      0.2754      0.4419      0.0000
 36      0.0000      0.1008      0.0000      0.0000      0.0000      0.0000      0.0000      0.6152      0.1688
 37      2.3067      2.5699      2.0370      1.4558      3.9691      2.5996      3.4383      2.0785      3.0360
 38     10.6527      4.6098      5.3298      5.7901      4.4954      4.4845      6.0370      5.8400      4.2994
 39      3.4251      2.9866      3.0506      4.2696      3.6148      3.5337      3.9343      2.4821      4.1888
 40      1.4263      1.3370      2.2019      1.8487      1.5890      1.8524      1.6333      0.9470      2.7432
 41      1.1388      1.3519      1.4443      1.6196      1.4114      1.0604      2.0060      1.7579      0.0000
 42      5.0212      3.5011      3.1165      3.6548      5.2683      2.1557      3.9365      3.5124      3.6926
 43      2.4306      2.4074      2.3607      2.7350      0.0000      2.4033      3.1301      2.3126      3.0083
 44      1.2671      2.8097      0.6219      3.4257      5.3955      1.5430      1.2262      1.8097      1.5816
 45      0.0000      0.9788      1.0378      0.0081      0.0000      0.0000      0.3557      0.7639      3.0363
 46      0.0000      1.3627      0.0000      0.6635      0.0000      2.1837      0.0766      0.9765      0.0000
 47      0.0000      2.3025      2.8602      1.4899      2.5313      0.8852      0.0000      2.4196      0.4646
 48      0.0012      0.5735      0.6860      0.4738      0.0000      0.4483      1.5266      0.0000      0.0000
 49      0.1503      0.5832      0.0000      0.4718      0.6160      0.4796      1.2153      0.0000      0.0114
 50      6.8917      5.1537      5.2892      6.0279      5.8551      5.2761      4.5877      5.3240      5.4926
 51      0.0000      0.1544      0.0000      0.2173      0.0000      0.0000      0.2486      0.0000      0.0000
 52      0.0952      0.3926      0.2219      0.7616      1.8635      0.0000      0.5400      0.5635      0.5475
 53      0.0000      0.4430      1.1291      0.0307      0.0000      0.0000      0.0876      0.9335      0.0000
 54      0.0000      0.3405      0.0000      0.0000      0.0000      0.0000      0.0000      0.0000      0.2102
 55      0.0000      0.2348      0.0000      0.1639      0.0000      0.0000      0.0000      0.0000      0.0000
 56      0.0000      0.3651      0.3616      0.6319      1.1311      0.7613      0.0000      0.1991      0.0245
 57      0.0000      0.2966      0.7468      0.0000      0.0000      0.1683      0.4576      0.4358      1.1525
 58      0.0295      1.4887      1.9472      1.5960      1.6935      0.0000      1.4877      1.5456      2.6745
 59      7.8231      2.1735      4.6581      2.0145      2.4094      5.7480      1.8619      4.5735      4.2143
 60     19.5429     10.0205     10.6140     11.6150     10.1004     10.9800     15.3057     11.3893     11.2858
 61      8.6175     11.5750     10.4701     15.1657     11.4062     10.8125      9.7848     11.4345     12.4722
 62      0.0000      2.5664      2.8508      2.8142      4.3216      1.8093      1.9989      2.6600      3.1989
 63      2.7166      2.3175      3.6796      2.5108      3.2712      2.2742      2.7273      2.7790      2.6748
 64     11.5547      6.8685      7.2732      7.4071      7.0982      8.1066      8.2076      7.2385      8.3856
 65      2.9013      1.8413      2.6767      1.7759      2.1093      2.0458      2.2212      1.7018      1.8448
 66      1.4302      0.7251      0.4485      0.5867      1.3458      0.6579      0.8387      1.4117      0.9104

# j      m_j: min, <> & last-chain-values for 1 ...  7 chains
  1  1.3116E-02  1.3140E-02  1.1053E-02  2.1067E-03  1.2054E-02  6.8232E-03  1.1175E-02  1.6367E-02  1.2510E-02
  2  0.0000E+00  7.2672E-04  0.0000E+00  2.4885E-04  0.0000E+00  3.8218E-03  3.1167E-04  0.0000E+00  0.0000E+00
  3  1.0633E-02  9.4614E-03  1.0738E-02  1.2030E-02  9.2801E-03  9.8560E-03  9.8678E-03  6.4149E-03  8.7540E-03
  4  6.6768E-06  8.3964E-04  0.0000E+00  0.0000E+00  0.0000E+00  3.2378E-04  2.5586E-03  0.0000E+00  1.8984E-03
  5  0.0000E+00  2.2228E-03  0.0000E+00  0.0000E+00  3.5166E-03  3.9699E-03  1.4600E-03  8.3680E-03  0.0000E+00
  6  5.6675E-03  2.4572E-03  2.4259E-03  0.0000E+00  0.0000E+00  0.0000E+00  1.2108E-02  0.0000E+00  1.4062E-02
  7  3.0988E-02  3.7741E-02  2.4704E-02  4.4049E-02  3.2965E-02  4.4236E-02  3.8633E-02  4.8495E-02  2.7820E-02
  8  0.0000E+00  2.6666E-02  2.6057E-02  1.4676E-02  1.8565E-02  8.7169E-03  0.0000E+00  3.2175E-03  2.7344E-02
  9  0.0000E+00  3.4595E-02  2.8681E-02  6.5129E-02  2.9531E-02  5.3820E-02  4.7686E-03  2.8837E-02  0.0000E+00
 10  0.0000E+00  2.3453E-02  3.0574E-02  2.6028E-02  2.9337E-02  1.6241E-02  4.1902E-03  1.7177E-02  4.7303E-03
 11  0.0000E+00  3.1861E-02  1.8972E-02  1.1690E-02  0.0000E+00  0.0000E+00  1.5464E-02  0.0000E+00  2.0576E-02
 12  0.0000E+00  4.0693E-02  2.7340E-02  0.0000E+00  0.0000E+00  0.0000E+00  0.0000E+00  0.0000E+00  3.9702E-02
 13  0.0000E+00  2.8696E-01  2.8174E-01  0.0000E+00  3.9699E-02  5.4970E-01  2.2352E-01  2.6230E-02  0.0000E+00
 14  0.0000E+00  2.1963E-01  0.0000E+00  0.0000E+00  0.0000E+00  5.9041E-01  0.0000E+00  0.0000E+00  0.0000E+00
 15  0.0000E+00  3.1731E-01  0.0000E+00  0.0000E+00  0.0000E+00  0.0000E+00  3.4111E-01  0.0000E+00  3.8678E-01
 16  0.0000E+00  1.6772E+00  0.0000E+00  0.0000E+00  2.7684E-01  0.0000E+00  9.3644E-01  3.2130E+00  2.2526E-01
 17  0.0000E+00  5.2328E-01  7.9000E-02  0.0000E+00  0.0000E+00  4.4525E-01  1.0372E+00  0.0000E+00  0.0000E+00
 18  0.0000E+00  1.0684E-02  1.2904E-02  1.5202E-02  9.5779E-03  7.9323E-03  0.0000E+00  1.0396E-02  1.2380E-02
 19  1.9704E-03  1.3770E-03  1.3136E-03  2.9822E-03  3.1726E-04  1.2044E-03  3.4827E-03  0.0000E+00  0.0000E+00
 20  0.0000E+00  8.1862E-04  0.0000E+00  2.3051E-03  0.0000E+00  8.2942E-04  0.0000E+00  1.9888E-03  0.0000E+00
 21  0.0000E+00  2.0606E-03  1.8410E-03  0.0000E+00  1.0175E-03  2.0408E-03  7.2255E-04  0.0000E+00  2.1064E-03
 22  0.0000E+00  2.6330E-03  1.0665E-02  0.0000E+00  0.0000E+00  4.7378E-03  0.0000E+00  4.3927E-03  0.0000E+00
 23  3.5823E-03  2.5132E-03  0.0000E+00  0.0000E+00  1.1280E-04  8.3751E-03  1.0181E-02  2.7016E-03  0.0000E+00
 24  2.2598E-02  1.7348E-02  2.2679E-02  1.5620E-02  2.2722E-02  4.5863E-02  5.8054E-03  0.0000E+00  3.0013E-02
 25  1.2778E-02  1.1231E-02  3.1608E-03  9.1309E-03  0.0000E+00  1.2812E-02  1.7497E-02  2.0724E-02  2.0845E-02
 26  1.6296E-02  6.4360E-02  6.5065E-02  2.9591E-02  6.3950E-02  6.6399E-02  3.8101E-02  4.6834E-02  5.2484E-02
 27  0.0000E+00  6.1199E-02  4.8529E-02  5.5435E-02  4.8455E-02  3.4785E-02  2.2863E-01  1.1268E-01  2.5213E-02
 28  0.0000E+00  1.9516E-01  3.2072E-01  4.8484E-02  1.3462E-01  1.1276E-01  0.0000E+00  4.2099E-01  0.0000E+00
 29  3.7366E-05  1.3839E-01  1.7995E-01  0.0000E+00  0.0000E+00  3.5588E-02  1.9485E-01  0.0000E+00  0.0000E+00
 30  0.0000E+00  1.0754E-01  0.0000E+00  0.0000E+00  6.8174E-02  2.6996E-01  0.0000E+00  6.0524E-02  0.0000E+00
 31  0.0000E+00  2.1002E-01  4.1078E-01  0.0000E+00  0.0000E+00  0.0000E+00  0.0000E+00  0.0000E+00  0.0000E+00
 32  0.0000E+00  2.0913E-01  0.0000E+00  0.0000E+00  0.0000E+00  0.0000E+00  0.0000E+00  0.0000E+00  4.0430E-01
 33  0.0000E+00  2.7955E-01  0.0000E+00  0.0000E+00  0.0000E+00  0.0000E+00  0.0000E+00  0.0000E+00  7.7324E-01
 34  3.5148E-03  6.1015E+00  5.4041E+00  6.6358E+00  5.5773E+00  7.5755E+00  5.5595E+00  4.7334E+00  6.3992E+00
 35  0.0000E+00  2.1627E-03  9.7433E-04  0.0000E+00  3.5063E-04  1.9276E-05  1.5080E-03  2.4128E-03  0.0000E+00
 36  0.0000E+00  2.3232E-04  0.0000E+00  0.0000E+00  0.0000E+00  0.0000E+00  0.0000E+00  1.3591E-03  3.7424E-04
 37  4.6354E-03  6.4053E-03  5.0171E-03  3.5572E-03  8.9725E-03  6.2998E-03  8.2377E-03  4.9665E-03  7.2807E-03
 38  5.7994E-02  3.1127E-02  3.5563E-02  3.8329E-02  2.7530E-02  2.9441E-02  3.9184E-02  3.7803E-02  2.7932E-02
 39  2.6848E-02  2.9037E-02  2.9308E-02  4.0695E-02  3.1874E-02  3.3402E-02  3.6767E-02  2.3134E-02  3.9183E-02
 40  1.8072E-02  2.1012E-02  3.4195E-02  2.8483E-02  2.2648E-02  2.8303E-02  2.4672E-02  1.4267E-02  4.1477E-02
 41  2.2437E-02  3.3037E-02  3.4879E-02  3.8802E-02  3.1282E-02  2.5196E-02  4.7121E-02  4.1183E-02  0.0000E+00
 42  1.8164E-01  1.5709E-01  1.3818E-01  1.6076E-01  2.1439E-01  9.4042E-02  1.6978E-01  1.5108E-01  1.5941E-01
 43  1.2837E-01  1.5770E-01  1.5281E-01  1.7564E-01  0.0000E+00  1.5307E-01  1.9710E-01  1.4523E-01  1.8961E-01
 44  1.1523E-01  3.1691E-01  6.9318E-02  3.7880E-01  5.5195E-01  1.6921E-01  1.3294E-01  1.9568E-01  1.7163E-01
 45  0.0000E+00  2.1906E-01  2.2952E-01  1.7848E-03  0.0000E+00  0.0000E+00  7.6527E-02  1.6388E-01  6.5377E-01
 46  0.0000E+00  5.6055E-01  0.0000E+00  2.6758E-01  0.0000E+00  8.7336E-01  3.0284E-02  3.8509E-01  0.0000E+00
 47  0.0000E+00  1.9192E+00  2.3560E+00  1.2175E+00  1.9136E+00  7.1741E-01  0.0000E+00  1.9335E+00  3.7257E-01
 48  1.4492E-03  8.4307E-01  9.9656E-01  6.8289E-01  0.0000E+00  6.4069E-01  2.1572E+00  0.0000E+00  0.0000E+00
 49  4.0479E-01  1.9485E+00  0.0000E+00  1.5453E+00  1.8665E+00  1.5580E+00  3.9029E+00  0.0000E+00  3.6770E-02
 50  3.4383E+01  3.1891E+01  3.2343E+01  3.6568E+01  3.2861E+01  3.1743E+01  2.7288E+01  3.1583E+01  3.2702E+01
 51  0.0000E+00  5.2383E-04  0.0000E+00  7.2267E-04  0.0000E+00  0.0000E+00  8.1066E-04  0.0000E+00  0.0000E+00
 52  1.3340E-04  6.8242E-04  3.8123E-04  1.2979E-03  2.9379E-03  0.0000E+00  9.0221E-04  9.3892E-04  9.1568E-04
 53  0.0000E+00  1.1600E-03  2.9215E-03  7.8837E-05  0.0000E+00  0.0000E+00  2.2051E-04  2.3432E-03  0.0000E+00
 54  0.0000E+00  1.8271E-03  0.0000E+00  0.0000E+00  0.0000E+00  0.0000E+00  0.0000E+00  0.0000E+00  1.0853E-03
 55  0.0000E+00  1.9397E-03  0.0000E+00  1.3275E-03  0.0000E+00  0.0000E+00  0.0000E+00  0.0000E+00  0.0000E+00
 56  0.0000E+00  5.9687E-03  5.8416E-03  1.0128E-02  1.6773E-02  1.2103E-02  0.0000E+00  3.1205E-03  3.8478E-04
 57  0.0000E+00  6.4358E-03  1.6015E-02  0.0000E+00  0.0000E+00  3.5519E-03  9.5460E-03  9.0668E-03  2.4064E-02
 58  8.7324E-04  5.4645E-02  7.0631E-02  5.7433E-02  5.6378E-02  0.0000E+00  5.2491E-02  5.4387E-02  9.4454E-02
 59  4.9825E-01  1.7169E-01  3.6362E-01  1.5601E-01  1.7262E-01  4.4147E-01  1.4138E-01  3.4634E-01  3.2030E-01
 60  2.3119E+00  1.4703E+00  1.5389E+00  1.6707E+00  1.3441E+00  1.5664E+00  2.1587E+00  1.6020E+00  1.5932E+00
 61  2.2274E+00  3.7108E+00  3.3169E+00  4.7664E+00  3.3165E+00  3.3702E+00  3.0153E+00  3.5142E+00  3.8470E+00
 62  0.0000E+00  1.5001E+00  1.6467E+00  1.6127E+00  2.2911E+00  1.0283E+00  1.1231E+00  1.4906E+00  1.7991E+00
 63  2.5472E+00  2.6951E+00  4.2287E+00  2.8626E+00  3.4504E+00  2.5715E+00  3.0488E+00  3.0982E+00  2.9929E+00
 64  2.9966E+01  2.2094E+01  2.3119E+01  2.3358E+01  2.0708E+01  2.5353E+01  2.5377E+01  2.2321E+01  2.5952E+01
 65  1.5905E+01  1.2520E+01  1.7985E+01  1.1839E+01  1.3008E+01  1.3525E+01  1.4518E+01  1.1093E+01  1.2069E+01
 66  1.1076E+01  6.9656E+00  4.2569E+00  5.5251E+00  1.1725E+01  6.1447E+00  7.7437E+00  1.2999E+01  8.4142E+00

# AV, chi2 & Mass for <> & i_chain = 1 ...  7 solutions
AV       0.1739      0.2395      0.2294      0.2377      0.2117      0.2350      0.2420      0.2384      0.2421
chi2 3.7219E-01  3.8517E-01  3.8194E-01  3.8172E-01  3.8125E-01  3.8209E-01  3.8072E-01  3.8265E-01  3.8149E-01
Mass 1.3767E-12  1.2123E-12  1.2103E-12  1.2336E-12  1.2877E-12  1.2394E-12  1.2654E-12  1.2627E-12  1.2643E-12
-123.05                                  [v0_min (km/s) before EX0s...]
 163.13                                  [vd_min (km/s) before EX0s...]


## Synthetic spectrum (Best Model) ##l_obs f_obs f_syn wei
 3478    [Nl_obs]
 3741.00    0.37565   0.66504    0.000
 3742.00    0.45331   0.64557    0.000
 3743.00    0.50915   0.61828    0.000
 3744.00    0.49129   0.58620    0.000
 3745.00    0.43167   0.55229    6.604
 3746.00    0.38037   0.52182    7.006
 3747.00    0.35312   0.50190    7.283
 3748.00    0.35294   0.49835    7.323
 3749.00    0.38649   0.51395    7.252
 3750.00    0.45167   0.54718    7.168
 3751.00    0.53075   0.59084    7.000
 3752.00    0.60239   0.63411    6.752
 3753.00    0.65044   0.66735    6.575
 3754.00    0.66978   0.68639    6.522
 3755.00    0.66873   0.69275    6.490
 3756.00    0.66561   0.69140    6.413
 3757.00    0.68205   0.68829    6.325
 3758.00    0.72098   0.68787    6.241
 3759.00    0.76240   0.69064    6.131
 3760.00    0.78867   0.69357    6.050
 3761.00    0.79553   0.69280    6.113
 3762.00    0.79138   0.68539    6.281
 3763.00    0.78890   0.67076    6.348
 3764.00    0.77802   0.65035    6.333
 3765.00    0.73376   0.62607    6.486
 3766.00    0.67187   0.60052    6.732
 3767.00    0.63966   0.57889    6.674
 3768.00    0.63543   0.56717    6.417
 3769.00    0.61658   0.56847    6.448
 3770.00    0.58699   0.58272    6.796
 3771.00    0.59073   0.60785    7.059
 3772.00    0.63633   0.63968    7.012
 3773.00    0.69335   0.67304    6.822
 3774.00    0.72922   0.70461    6.756
 3775.00    0.72687   0.73407    6.986
 3776.00    0.70225   0.76182    7.402
 3777.00    0.68737   0.78712    7.674
 3778.00    0.69187   0.80868    7.697
 3779.00    0.70638   0.82554    7.633
 3780.00    0.72190   0.83660    7.586
 3781.00    0.73568   0.84001    7.580
 3782.00    0.75439   0.83466    7.633
 3783.00    0.78213   0.82139    7.735
 3784.00    0.80319   0.80215    7.800
 3785.00    0.79767   0.77969    7.785
 3786.00    0.76594   0.75773    7.850
 3787.00    0.72608   0.73924    8.110
 3788.00    0.70534   0.72370    8.291
 3789.00    0.72042   0.70756    8.082
 3790.00    0.75729   0.68710    7.705
 3791.00    0.78499   0.66011    7.495
 3792.00    0.77437   0.62634    7.528
 3793.00    0.71765   0.58816    7.709
 3794.00    0.64240   0.55125    7.795
 3795.00    0.57915   0.52334    7.718
 3796.00    0.53426   0.51117    7.821
 3797.00    0.51265   0.51828    8.284
 3798.00    0.53438   0.54446    8.634
 3799.00    0.60513   0.58517    8.396
 3800.00    0.69653   0.63191    7.913
 3801.00    0.77123   0.67546    7.601
 3802.00    0.80373   0.71003    7.533
 3803.00    0.79638   0.73490    7.625
 3804.00    0.78239   0.75295    7.694
 3805.00    0.78891   0.76831    7.627
 3806.00    0.81601   0.78415    7.485
 3807.00    0.84112   0.80073    7.423
 3808.00    0.83054   0.81481    7.606
 3809.00    0.78017   0.82169    8.024
 3810.00    0.72580   0.81889    8.395
 3811.00    0.70099   0.80792    8.503
 3812.00    0.71614   0.79329    8.437
 3813.00    0.75273   0.77978    8.333
 3814.00    0.77276   0.76937    8.242
 3815.00    0.76005   0.76083    8.215
 3816.00    0.72879   0.75234    8.305
 3817.00    0.69938   0.74379    8.444
 3818.00    0.68718   0.73633    8.468
 3819.00    0.69499   0.73093    8.376
 3820.00    0.71535   0.72755    8.336
 3821.00    0.74333   0.72420    8.436
 3822.00    0.77467   0.71756    8.656
 3823.00    0.79146   0.70563    8.889
 3824.00    0.77213   0.68974    9.000
 3825.00    0.72314   0.67270    8.964
 3826.00    0.67132   0.65554    8.857
 3827.00    0.63081   0.63635    8.700
 3828.00    0.59892   0.61243    8.518
 3829.00    0.56312   0.58258    8.496
 3830.00    0.51433   0.54806    8.784
 3831.00    0.46737   0.51294    9.102
 3832.00    0.44335   0.48324    9.013
 3833.00    0.43518   0.46478    8.791
 3834.00    0.42623   0.46094    8.892
 3835.00    0.42664   0.47179    9.084
 3836.00    0.45412   0.49489    8.897
 3837.00    0.50018   0.52681    8.532
 3838.00    0.54238   0.56418    8.374
 3839.00    0.56645   0.60414    8.387
 3840.00    0.56841   0.64396    8.404
 3841.00    0.55367   0.68081    8.442
 3842.00    0.53531   0.71245    8.580
 3843.00    0.53155   0.73759    8.786
 3844.00    0.55704   0.75608    8.925
 3845.00    0.61378   0.76897    8.836
 3846.00    0.68565   0.77805    8.560
 3847.00    0.73803   0.78522    0.000
 3848.00    0.75286   0.79172    0.000
 3849.00    0.75364   0.79798    0.000
 3850.00    0.76509   0.80377    0.000
 3851.00    0.78279   0.80800    0.000
 3852.00    0.79363   0.80921    0.000
 3853.00    0.79253   0.80693    0.000
 3854.00    0.78690   0.80228    0.000
 3855.00    0.79438   0.79729    0.000
 3856.00    0.81629   0.79394    0.000
 3857.00    0.82798   0.79385    0.000
 3858.00    0.81457   0.79767    0.000
 3859.00    0.78704   0.80499    0.000
 3860.00    0.76097   0.81454    0.000
 3861.00    0.74465   0.82389    0.000
 3862.00    0.73727   0.83026    0.000
 3863.00    0.73206   0.83248    0.000
 3864.00    0.73222   0.83142    0.000
 3865.00    0.75003   0.82829    0.000
 3866.00    0.77759   0.82341    0.000
 3867.00    0.78841   0.81632    0.000
 3868.00    0.78274   0.80712    0.000
 3869.00    0.78842   0.79733    0.000
 3870.00    0.81154   0.78941    0.000
 3871.00    0.83064   0.78524    0.000
 3872.00    0.82842   0.78449    0.000
 3873.00    0.80304   0.78416    0.000
 3874.00    0.77144   0.78052    0.000
 3875.00    0.75745   0.77151    0.000
 3876.00    0.76104   0.75775    0.000
 3877.00    0.76177   0.74187    0.000
 3878.00    0.74436   0.72634    0.000
 3879.00    0.70614   0.71151    0.000
 3880.00    0.65956   0.69515    0.000
 3881.00    0.62361   0.67409   10.321
 3882.00    0.60673   0.64676   10.249
 3883.00    0.60708   0.61382   10.104
 3884.00    0.61860   0.57790   10.014
 3885.00    0.63443   0.54429   10.031
 3886.00    0.65033   0.52055   10.070
 3887.00    0.66481   0.51348   10.024
 3888.00    0.67802   0.52536    9.958
 3889.00    0.68702   0.55312    9.991
 3890.00    0.68040   0.59025   10.123
 3891.00    0.65319   0.62933   10.312
 3892.00    0.62439   0.66460   10.575
 3893.00    0.61769   0.69365   10.890
 3894.00    0.63780   0.71701   11.041
 3895.00    0.67794   0.73643   10.862
 3896.00    0.73012   0.75354   10.526
 3897.00    0.78312   0.76903   10.244
 3898.00    0.82067   0.78290   10.016
 3899.00    0.83270   0.79508    9.828
 3900.00    0.82467   0.80497    9.779
 3901.00    0.81112   0.81189    9.896
 3902.00    0.80795   0.81634   10.015
 3903.00    0.81751   0.82056   10.046
 3904.00    0.82296   0.82794   10.149
 3905.00    0.82302   0.84039   10.346
 3906.00    0.84764   0.85713   10.319
 3907.00    0.90380   0.87554   10.025
 3908.00    0.95059   0.89177    9.937
 3909.00    0.95628   0.90269   10.246
 3910.00    0.92796   0.90751   10.588
 3911.00    0.88788   0.90713   10.657
 3912.00    0.85697   0.90305   10.599
 3913.00    0.84089   0.89635   10.591
 3914.00    0.82789   0.88750   10.630
 3915.00    0.80841   0.87688   10.657
 3916.00    0.78365   0.86504   10.634
 3917.00    0.76392   0.85332   10.611
 3918.00    0.76321   0.84376   10.689
 3919.00    0.78233   0.83784   10.800
 3920.00    0.80661   0.83543   10.742
 3921.00    0.81941   0.83458   10.609
 3922.00    0.81120   0.83199   10.713
 3923.00    0.79245   0.82432   10.991
 3924.00    0.78476   0.80986   11.028
 3925.00    0.78587   0.78886   10.806
 3926.00    0.77395   0.76259   10.666
 3927.00    0.74417   0.73258   10.636
 3928.00    0.70845   0.70028   10.526
 3929.00    0.67239   0.66772   10.453
 3930.00    0.63641   0.63862   10.614
 3931.00    0.60999   0.61795   10.587
 3932.00    0.60375   0.61049    9.996
 3933.00    0.60839   0.61883    9.917
 3934.00    0.60842   0.64199   11.771
 3935.00    0.61362   0.67527   15.539
 3936.00    0.64291   0.71172   16.756
 3937.00    0.68877   0.74493   14.676
 3938.00    0.72975   0.77091   13.412
 3939.00    0.75818   0.78863   13.156
 3940.00    0.77600   0.79965   12.970
 3941.00    0.78345   0.80699   12.769
 3942.00    0.78421   0.81379   12.755
 3943.00    0.79254   0.82213   12.621
 3944.00    0.81430   0.83204   12.195
 3945.00    0.82624   0.84211   12.098
 3946.00    0.81035   0.85055   12.628
 3947.00    0.78977   0.85623   12.645
 3948.00    0.78759   0.85950   11.424
 3949.00    0.78598   0.86145   10.378
 3950.00    0.76600   0.86212   10.258
 3951.00    0.74437   0.86065   10.512
 3952.00    0.74369   0.85649   10.532
 3953.00    0.76572   0.84972   10.541
 3954.00    0.79849   0.84059   10.831
 3955.00    0.82481   0.82864   11.144
 3956.00    0.83197   0.81304   11.156
 3957.00    0.81783   0.79304   10.956
 3958.00    0.78803   0.76759   10.797
 3959.00    0.75227   0.73587   10.856
 3960.00    0.71434   0.69850    0.000
 3961.00    0.66850   0.65729    0.000
 3962.00    0.61169   0.61377    0.000
 3963.00    0.55131   0.56847    0.000
 3964.00    0.50917   0.52183    0.000
 3965.00    0.51437   0.47649    0.000
 3966.00    0.56378   0.43805    0.000
 3967.00    0.61492   0.41315    0.000
 3968.00    0.63283   0.40707    0.000
 3969.00    0.61053   0.42174    0.000
 3970.00    0.56840   0.45491    0.000
 3971.00    0.54490   0.50114    0.000
 3972.00    0.56648   0.55386    0.000
 3973.00    0.63597   0.60745    0.000
 3974.00    0.73082   0.65843    0.000
 3975.00    0.81386   0.70499    0.000
 3976.00    0.86532   0.74588    0.000
 3977.00    0.88835   0.78003    0.000
 3978.00    0.89781   0.80690    0.000
 3979.00    0.90854   0.82677    0.000
 3980.00    0.91557   0.84113    0.000
 3981.00    0.90592   0.85262   10.382
 3982.00    0.89514   0.86395   10.808
 3983.00    0.91151   0.87665   10.622
 3984.00    0.94733   0.89044   10.073
 3985.00    0.97021   0.90387    9.832
 3986.00    0.96365   0.91560   10.027
 3987.00    0.93610   0.92519   10.408
 3988.00    0.92138   0.93309   10.553
 3989.00    0.94636   0.93967   10.246
 3990.00    0.98266   0.94466    9.992
 3991.00    0.99081   0.94742   10.259
 3992.00    0.99227   0.94719   10.620
 3993.00    1.02301   0.94418   10.357
 3994.00    1.06074   0.94042    9.780
 3995.00    1.06763   0.93910    9.494
 3996.00    1.05213   0.94276    9.570
 3997.00    1.03963   0.95151    9.804
 3998.00    1.03234   0.96251    9.899
 3999.00    1.02243   0.97148    9.742
 4000.00    1.01008   0.97458    9.664
 4001.00    1.00307   0.97026    9.861
 4002.00    1.01278   0.96046    9.959
 4003.00    1.03547   0.94980    9.746
 4004.00    1.04117   0.94298    9.795
 4005.00    1.01612   0.94275   10.424
 4006.00    0.99084   0.94928   10.914
 4007.00    0.98743   0.96019   10.675
 4008.00    0.98602   0.97178   10.504
 4009.00    0.97374   0.98156   10.887
 4010.00    0.97290   0.98929   11.154
 4011.00    0.99809   0.99557   10.851
 4012.00    1.03340   1.00073   10.638
 4013.00    1.06267   1.00493   10.863
 4014.00    1.08510   1.00843   11.067
 4015.00    1.10180   1.01146   10.930
 4016.00    1.10895   1.01411   10.757
 4017.00    1.10084   1.01566   10.810
 4018.00    1.07374   1.01477   11.060
 4019.00    1.03510   1.01027   11.335
 4020.00    1.00371   1.00170   11.414
 4021.00    0.99445   0.99040   11.274
 4022.00    1.01075   0.97967   11.105
 4023.00    1.04056   0.97274   10.996
 4024.00    1.06170   0.97046   10.884
 4025.00    1.06378   0.97085   10.735
 4026.00    1.05183   0.97001   10.581
 4027.00    1.03399   0.96414   10.480
 4028.00    1.01604   0.95228   10.479
 4029.00    0.99734   0.93758   10.543
 4030.00    0.97533   0.92595   10.588
 4031.00    0.95958   0.92298   10.615
 4032.00    0.96661   0.93134   10.683
 4033.00    0.99966   0.94940   10.749
 4034.00    1.04806   0.97245   10.708
 4035.00    1.09655   0.99493   10.571
 4036.00    1.12938   1.01187   10.438
 4037.00    1.13438   1.02023   10.374
 4038.00    1.10665   1.01930   10.410
 4039.00    1.05353   1.01006   10.571
 4040.00    0.99182   0.99421   10.835
 4041.00    0.94115   0.97390   11.039
 4042.00    0.91468   0.95266   11.035
 4043.00    0.90756   0.93576   10.976
 4044.00    0.91056   0.92856   11.024
 4045.00    0.93016   0.93383   10.917
 4046.00    0.96994   0.94966   10.480
 4047.00    1.00557   0.96977   10.197
 4048.00    1.01343   0.98649   10.425
 4049.00    1.00529   0.99466   10.729
 4050.00    1.00000   0.99379   10.587
 4051.00    0.99065   0.98645   10.413
 4052.00    0.96759   0.97592   10.665
 4053.00    0.94261   0.96542   11.036
 4054.00    0.93120   0.95745   11.040
 4055.00    0.93486   0.95306   10.780
 4056.00    0.94521   0.95184   10.571
 4057.00    0.95029   0.95185   10.534
 4058.00    0.94770   0.95016   10.621
 4059.00    0.95053   0.94468   10.671
 4060.00    0.96011   0.93549   10.661
 4061.00    0.95303   0.92526   10.832
 4062.00    0.92531   0.91825   11.228
 4063.00    0.91223   0.91764   11.423
 4064.00    0.93218   0.92348   11.228
 4065.00    0.96003   0.93282   11.078
 4066.00    0.96924   0.94107   11.230
 4067.00    0.95472   0.94470   11.491
 4068.00    0.92645   0.94340   11.669
 4069.00    0.90163   0.93909   11.803
 4070.00    0.88660   0.93352   11.935
 4071.00    0.87381   0.92746   12.004
 4072.00    0.86321   0.92069   11.976
 4073.00    0.86590   0.91260   11.892
 4074.00    0.88299   0.90376   11.835
 4075.00    0.90184   0.89721   11.878
 4076.00    0.91175   0.89754   11.964
 4077.00    0.91113   0.90691   11.929
 4078.00    0.91184   0.92256   11.733
 4079.00    0.93008   0.93834   11.506
 4080.00    0.95715   0.94852   11.432
 4081.00    0.96577   0.95115   11.652
 4082.00    0.94964   0.94868   12.089
 4083.00    0.92796   0.94551   12.413
 4084.00    0.92949   0.94510   12.267
 4085.00    0.97139   0.94786   11.625
 4086.00    1.02311   0.95124   11.070
 4087.00    1.03195   0.95178   11.142
 4088.00    0.99077   0.94696   11.639
 4089.00    0.93216   0.93592   11.919
 4090.00    0.89043   0.91917   11.898
 4091.00    0.88232   0.89751   11.954
 4092.00    0.88816   0.87121    0.000
 4093.00    0.87749   0.84029    0.000
 4094.00    0.85331   0.80526    0.000
 4095.00    0.83439   0.76700    0.000
 4096.00    0.82020   0.72686    0.000
 4097.00    0.79839   0.68745    0.000
 4098.00    0.76192   0.65285    0.000
 4099.00    0.71801   0.62846    0.000
 4100.00    0.69428   0.61984    0.000
 4101.00    0.71150   0.62995    0.000
 4102.00    0.75441   0.65706    0.000
 4103.00    0.79604   0.69502    0.000
 4104.00    0.82542   0.73535    0.000
 4105.00    0.84114   0.77091    0.000
 4106.00    0.84320   0.79867    0.000
 4107.00    0.83723   0.81927    0.000
 4108.00    0.83694   0.83542    0.000
 4109.00    0.84969   0.85048    0.000
 4110.00    0.86721   0.86662    0.000
 4111.00    0.88539   0.88399    0.000
 4112.00    0.91574   0.90088    0.000
 4113.00    0.96134   0.91466   10.213
 4114.00    1.00336   0.92304   10.097
 4115.00    1.02282   0.92529   10.744
 4116.00    1.01402   0.92288   11.441
 4117.00    0.98105   0.91877   11.518
 4118.00    0.93468   0.91598   11.373
 4119.00    0.88895   0.91652   11.472
 4120.00    0.85837   0.92096   11.795
 4121.00    0.85287   0.92802   12.084
 4122.00    0.87421   0.93497   12.033
 4123.00    0.91070   0.93921   11.696
 4124.00    0.93928   0.93910   11.458
 4125.00    0.94201   0.93428   11.417
 4126.00    0.91522   0.92567   11.357
 4127.00    0.87780   0.91520   11.222
 4128.00    0.86277   0.90528   11.174
 4129.00    0.88071   0.89819   11.254
 4130.00    0.91549   0.89598   11.339
 4131.00    0.94909   0.90006   11.341
 4132.00    0.97006   0.91076   11.267
 4133.00    0.97484   0.92666   11.198
 4134.00    0.96718   0.94462   11.234
 4135.00    0.95602   0.96051   11.396
 4136.00    0.95024   0.97080   11.616
 4137.00    0.94856   0.97290   11.756
 4138.00    0.94186   0.96553   11.710
 4139.00    0.92346   0.94997   11.609
 4140.00    0.89506   0.93009   11.666
 4141.00    0.87310   0.91198   11.837
 4142.00    0.87586   0.90178   11.925
 4143.00    0.89890   0.90215   11.913
 4144.00    0.92260   0.91108   11.921
 4145.00    0.93224   0.92330   12.025
 4146.00    0.92688   0.93301   12.204
 4147.00    0.92650   0.93704   12.315
 4148.00    0.95298   0.93602   12.224
 4149.00    1.00300   0.93226   12.016
 4150.00    1.05495   0.92763   11.859
 4151.00    1.08325   0.92338   11.823
 4152.00    1.07220   0.92040   11.918
 4153.00    1.02889   0.91959   12.149
 4154.00    0.97097   0.92202   12.480
 4155.00    0.91225   0.92825   12.781
 4156.00    0.86571   0.93768   12.940
 4157.00    0.84643   0.94863   13.007
 4158.00    0.85792   0.95923   13.042
 4159.00    0.88179   0.96806   12.973
 4160.00    0.89859   0.97408   12.768
 4161.00    0.90477   0.97676   12.567
 4162.00    0.90421   0.97614   12.501
 4163.00    0.90069   0.97272   12.599
 4164.00    0.89791   0.96730   12.804
 4165.00    0.89865   0.96091   12.993
 4166.00    0.89723   0.95415   13.059
 4167.00    0.87856   0.94624   12.990
 4168.00    0.84148   0.93588   12.905
 4169.00    0.80772   0.92300   12.992
 4170.00    0.79537   0.90933   13.193
 4171.00    0.80562   0.89787   13.132
 4172.00    0.83114   0.89120   12.777
 4173.00    0.86138   0.89003   12.571
 4174.00    0.88630   0.89299   12.679
 4175.00    0.89933   0.89793   12.850
 4176.00    0.90260   0.90336   12.875
 4177.00    0.90624   0.90896   12.773
 4178.00    0.91810   0.91486   12.651
 4179.00    0.93930   0.92103   12.599
 4180.00    0.96345   0.92705   12.579
 4181.00    0.97981   0.93224   12.479
 4182.00    0.98395   0.93583   12.361
 4183.00    0.97839   0.93739   12.409
 4184.00    0.96475   0.93713   12.572
 4185.00    0.94428   0.93612   12.621
 4186.00    0.92551   0.93629   12.610
 4187.00    0.92086   0.93913   12.759
 4188.00    0.93372   0.94493   12.873
 4189.00    0.95525   0.95243   12.584
 4190.00    0.96516   0.95876   12.244
 4191.00    0.94544   0.96072   12.437
 4192.00    0.90686   0.95645   12.948
 4193.00    0.87513   0.94606   13.073
 4194.00    0.85584   0.93144   12.888
 4195.00    0.84168   0.91580   12.927
 4196.00    0.83596   0.90279   13.078
 4197.00    0.84744   0.89491   12.924
 4198.00    0.87634   0.89255   12.556
 4199.00    0.91498   0.89478   12.283
 4200.00    0.95204   0.90078   12.107
 4201.00    0.97420   0.90995   11.940
 4202.00    0.96830   0.92150   11.897
 4203.00    0.93496   0.93456   12.095
 4204.00    0.90263   0.94774   12.404
 4205.00    0.90075   0.95908   12.553
 4206.00    0.92879   0.96723   12.370
 4207.00    0.96367   0.97199   11.975
 4208.00    0.97361   0.97366   11.786
 4209.00    0.94851   0.97259   12.034
 4210.00    0.92216   0.96886   12.464
 4211.00    0.92506   0.96284   12.678
 4212.00    0.94540   0.95618   12.579
 4213.00    0.95985   0.95187   12.338
 4214.00    0.96050   0.95303   12.207
 4215.00    0.95418   0.96079   12.273
 4216.00    0.95711   0.97291   12.366
 4217.00    0.97041   0.98445   12.385
 4218.00    0.96990   0.98968   12.471
 4219.00    0.94356   0.98421   12.675
 4220.00    0.90938   0.96675   12.785
 4221.00    0.88311   0.93935   12.744
 4222.00    0.86311   0.90692   12.801
 4223.00    0.84986   0.87670   12.978
 4224.00    0.85395   0.85691   12.920
 4225.00    0.88384   0.85345   12.607
 4226.00    0.93872   0.86688   12.479
 4227.00    1.00452   0.89166   12.607
 4228.00    1.05672   0.91862   12.586
 4229.00    1.07803   0.93912   12.342
 4230.00    1.06515   0.94851   12.248
 4231.00    1.02739   0.94774   12.410
 4232.00    0.98290   0.94157   12.574
 4233.00    0.94861   0.93500   12.598
 4234.00    0.93556   0.93144   12.546
 4235.00    0.94533   0.93238   12.433
 4236.00    0.97048   0.93758   12.223
 4237.00    0.99886   0.94625   12.042
 4238.00    1.01748   0.95770   12.101
 4239.00    1.01889   0.97067   12.430
 4240.00    1.00460   0.98335   12.861
 4241.00    0.98856   0.99360   13.104
 4242.00    0.98698   0.99902   12.962
 4243.00    0.99593   0.99764   12.729
 4244.00    0.99938   0.98919   12.839
 4245.00    0.99372   0.97538   13.233
 4246.00    0.98503   0.95918   13.516
 4247.00    0.97571   0.94405   13.540
 4248.00    0.96295   0.93285   13.440
 4249.00    0.94050   0.92671   13.394
 4250.00    0.90707   0.92509   13.516
 4251.00    0.87724   0.92678   13.775
 4252.00    0.86676   0.93085   14.044
 4253.00    0.87125   0.93618   14.197
 4254.00    0.87888   0.94088   14.200
 4255.00    0.88938   0.94298   14.192
 4256.00    0.90418   0.94171   14.265
 4257.00    0.91341   0.93852   14.234
 4258.00    0.90826   0.93719   13.978
 4259.00    0.89508   0.94190   13.776
 4260.00    0.88912   0.95440   13.794
 4261.00    0.90567   0.97222   13.684
 4262.00    0.94731   0.98962   13.236
 4263.00    0.99516   1.00053   12.862
 4264.00    1.02801   1.00091   12.841
 4265.00    1.03794   0.98995   12.933
 4266.00    1.02392   0.96962   12.927
 4267.00    0.98690   0.94353   13.015
 4268.00    0.93549   0.91613   -2.000
 4269.00    0.88876   0.89241   -2.000
 4270.00    0.86758   0.87682   -2.000
 4271.00    0.88609   0.87214   -2.000
 4272.00    0.93574   0.87881   -2.000
 4273.00    0.98265   0.89492   -2.000
 4274.00    1.00242   0.91638   -2.000
 4275.00    0.99637   0.93782   -2.000
 4276.00    0.97781   0.95454   -2.000
 4277.00    0.96228   0.96399   -2.000
 4278.00    0.95703   0.96610   -2.000
 4279.00    0.95887   0.96297   -2.000
 4280.00    0.96451   0.95750   -2.000
 4281.00    0.97288   0.95160   -2.000
 4282.00    0.97778   0.94558   -2.000
 4283.00    0.96976   0.93838   -2.000
 4284.00    0.95218   0.92876   13.462
 4285.00    0.93969   0.91646   13.551
 4286.00    0.93636   0.90295   13.525
 4287.00    0.93358   0.89134   13.426
 4288.00    0.92462   0.88513   13.374
 4289.00    0.90891   0.88599   13.502
 4290.00    0.89202   0.89250   13.736
 4291.00    0.88191   0.90069   13.863
 4292.00    0.88048   0.90586   13.922
 4293.00    0.88378   0.90445   14.078
 4294.00    0.88735   0.89510   14.117
 4295.00    0.88804   0.87878   13.743
 4296.00    0.88530   0.85829   13.396
 4297.00    0.87977   0.83745   13.662
 4298.00    0.87042   0.82003   14.279
 4299.00    0.85595   0.80871   14.500
 4300.00    0.83792   0.80387   14.378
 4301.00    0.81909   0.80358   14.445
 4302.00    0.80023   0.80459   14.648
 4303.00    0.78448   0.80404   14.615
 4304.00    0.78352   0.80112   14.310
 4305.00    0.80436   0.79764   13.959
 4306.00    0.83232   0.79695   13.786
 4307.00    0.84828   0.80214   13.882
 4308.00    0.85168   0.81458   14.102
 4309.00    0.85466   0.83338   14.224
 4310.00    0.87145   0.85652   14.163
 4311.00    0.90473   0.88232   13.960
 4312.00    0.93561   0.90984   13.713
 4313.00    0.95190   0.93814   13.512
 4314.00    0.97166   0.96500   13.397
 4315.00    1.00825   0.98671   13.362
 4316.00    1.04206   0.99952   13.354
 4317.00    1.05025   1.00116   13.341
 4318.00    1.03072   0.99146   13.351
 4319.00    0.99210   0.97188   13.424
 4320.00    0.94541   0.94508   13.567
 4321.00    0.90475   0.91492   13.711
 4322.00    0.88600   0.88680   13.715
 4323.00    0.89418   0.86709   13.612
 4324.00    0.91825   0.86065   13.641
 4325.00    0.94581   0.86799   13.595
 4326.00    0.97091   0.88453   12.776
 4327.00    0.99085   0.90291   11.487
 4328.00    1.00301   0.91663   10.720
 4329.00    0.99855   0.92245   10.686
 4330.00    0.96552   0.91992    0.000
 4331.00    0.91340   0.90938    0.000
 4332.00    0.87335   0.89013    0.000
 4333.00    0.85809   0.86055    0.000
 4334.00    0.85453   0.82018    0.000
 4335.00    0.85491   0.77201    0.000
 4336.00    0.86339   0.72317    0.000
 4337.00    0.87970   0.68309    0.000
 4338.00    0.89513   0.66016    0.000
 4339.00    0.89729   0.65866    0.000
 4340.00    0.87780   0.67752    0.000
 4341.00    0.84861   0.71101    0.000
 4342.00    0.83367   0.75161    0.000
 4343.00    0.83779   0.79280    0.000
 4344.00    0.84971   0.82982    0.000
 4345.00    0.86705   0.85945    0.000
 4346.00    0.89296   0.87976    0.000
 4347.00    0.91711   0.89004    0.000
 4348.00    0.92388   0.89159    0.000
 4349.00    0.91545   0.88868    0.000
 4350.00    0.90757   0.88735    0.000
 4351.00    0.91383   0.89247   13.462
 4352.00    0.93535   0.90528   13.020
 4353.00    0.95030   0.92320   13.103
 4354.00    0.93900   0.94183   13.492
 4355.00    0.92151   0.95743   13.733
 4356.00    0.92666   0.96890   13.522
 4357.00    0.94415   0.97798   13.245
 4358.00    0.95162   0.98742   13.331
 4359.00    0.95483   0.99870   13.566
 4360.00    0.96902   1.01119   13.574
 4361.00    0.99267   1.02262   13.480
 4362.00    1.01682   1.03012   13.490
 4363.00    1.03754   1.03152   13.421
 4364.00    1.05109   1.02653   13.156
 4365.00    1.04920   1.01710   13.049
 4366.00    1.02954   1.00641   13.328
 4367.00    1.00396   0.99701   13.658
 4368.00    0.98460   0.98960   13.733
 4369.00    0.97286   0.98308   13.843
 4370.00    0.96659   0.97592   14.212
 4371.00    0.96606   0.96804   14.482
 4372.00    0.97361   0.96152   14.310
 4373.00    0.99154   0.95953   13.892
 4374.00    1.01248   0.96357   13.584
 4375.00    1.01706   0.97159   13.621
 4376.00    0.99679   0.97829   13.990
 4377.00    0.96364   0.97748   14.377
 4378.00    0.92941   0.96501   14.539
 4379.00    0.89688   0.94101   14.546
 4380.00    0.87241   0.91038   14.553
 4381.00    0.86812   0.88130   14.647
 4382.00    0.88368   0.86192   14.807
 4383.00    0.90310   0.85678   14.923
 4384.00    0.91568   0.86494   14.946
 4385.00    0.92172   0.88132   14.946
 4386.00    0.92087   0.89998   15.024
 4387.00    0.91147   0.91681   15.227
 4388.00    0.90318   0.93041   15.358
 4389.00    0.91450   0.94124   15.078
 4390.00    0.95118   0.95040   14.484
 4391.00    1.00143   0.95881   14.028
 4392.00    1.04228   0.96723   13.992
 4393.00    1.05173   0.97607   14.417
 4394.00    1.03462   0.98480   14.927
 4395.00    1.01417   0.99156   14.936
 4396.00    0.99616   0.99408   14.687
 4397.00    0.97333   0.99120   14.864
 4398.00    0.95361   0.98344   15.256
 4399.00    0.95278   0.97230   15.133
 4400.00    0.96786   0.95927   14.778
 4401.00    0.98333   0.94578   14.931
 4402.00    0.99249   0.93377   15.373
 4403.00    0.99609   0.92595   15.354
 4404.00    0.99354   0.92492   14.907
 4405.00    0.98476   0.93182   14.579
 4406.00    0.97517   0.94578   14.603
 4407.00    0.97229   0.96411   14.935
 4408.00    0.97986   0.98259   15.335
 4409.00    0.99549   0.99641   15.527
 4410.00    1.00940   1.00183   15.492
 4411.00    1.01203   0.99796   15.394
 4412.00    1.00323   0.98774   15.378
 4413.00    0.98942   0.97695   15.481
 4414.00    0.97900   0.97160   15.569
 4415.00    0.97779   0.97467   15.514
 4416.00    0.98507   0.98468   15.372
 4417.00    0.99485   0.99685   15.218
 4418.00    0.99851   1.00612   15.002
 4419.00    0.99450   1.00978   14.745
 4420.00    0.99457   1.00849   14.639
 4421.00    1.00811   1.00507   14.693
 4422.00    1.03017   1.00233   14.544
 4423.00    1.04750   1.00144   14.094
 4424.00    1.04606   1.00189   13.797
 4425.00    1.02852   1.00242   13.896
 4426.00    1.01995   1.00189   14.119
 4427.00    1.03386   0.99972   14.142
 4428.00    1.05556   0.99579   13.915
 4429.00    1.06736   0.99024   13.642
 4430.00    1.06287   0.98349   13.626
 4431.00    1.04575   0.97672   13.879
 4432.00    1.02657   0.97221   14.046
 4433.00    1.01351   0.97278   14.019
 4434.00    1.00818   0.98000   14.118
 4435.00    1.00680   0.99236   14.406
 4436.00    1.00250   1.00530   14.532
 4437.00    0.99192   1.01342   14.423
 4438.00    0.97671   1.01362   14.421
 4439.00    0.95937   1.00711   14.664
 4440.00    0.94294   0.99879   14.978
 4441.00    0.93485   0.99443   15.171
 4442.00    0.94391   0.99735   15.178
 4443.00    0.96800   1.00688   15.088
 4444.00    0.99516   1.01924   15.067
 4445.00    1.01644   1.03003   15.158
 4446.00    1.02916   1.03621   15.271
 4447.00    1.03574   1.03681   15.303
 4448.00    1.04125   1.03215   15.193
 4449.00    1.04874   1.02286   15.005
 4450.00    1.05754   1.00963   14.878
 4451.00    1.06212   0.99351   14.931
 4452.00    1.05554   0.97635   15.209
 4453.00    1.03633   0.96060   15.595
 4454.00    1.00713   0.94832   15.886
 4455.00    0.97016   0.94025   16.027
 4456.00    0.93070   0.93583   16.096
 4457.00    0.90330   0.93422   16.150
 4458.00    0.90162   0.93527   16.221
 4459.00    0.92226   0.93950   16.364
 4460.00    0.95046   0.94719   16.568
 4461.00    0.97145   0.95735    0.000
 4462.00    0.97863   0.96767    0.000
 4463.00    0.98083   0.97546    0.000
 4464.00    0.99010   0.97902    0.000
 4465.00    1.00712   0.97859    0.000
 4466.00    1.02614   0.97625    0.000
 4467.00    1.04179   0.97510    0.000
 4468.00    1.04841   0.97810    0.000
 4469.00    1.03970   0.98692    0.000
 4470.00    1.01852   1.00124    0.000
 4471.00    1.00344   1.01880    0.000
 4472.00    1.01090   1.03629    0.000
 4473.00    1.04060   1.05032    0.000
 4474.00    1.07880   1.05796    0.000
 4475.00    1.10405   1.05724    0.000
 4476.00    1.10476   1.04781    0.000
 4477.00    1.08836   1.03189    0.000
 4478.00    1.06398   1.01461    0.000
 4479.00    1.03317   1.00243    0.000
 4480.00    1.00187   1.00024    0.000
 4481.00    0.98501   1.00870    0.000
 4482.00    0.99200   1.02368   17.450
 4483.00    1.01951   1.03841   17.240
 4484.00    1.05498   1.04692   16.684
 4485.00    1.08161   1.04675   16.480
 4486.00    1.09191   1.03963   16.803
 4487.00    1.09061   1.02983   17.164
 4488.00    1.08210   1.02148   17.244
 4489.00    1.06674   1.01640   17.216
 4490.00    1.04688   1.01395   17.253
 4491.00    1.02875   1.01263   17.342
 4492.00    1.02111   1.01193   17.385
 4493.00    1.03092   1.01292   17.294
 4494.00    1.05218   1.01719   17.170
 4495.00    1.06961   1.02516   17.217
 4496.00    1.07872   1.03568   17.398
 4497.00    1.08671   1.04695   17.469
 4498.00    1.09952   1.05801   17.331
 4499.00    1.11697   1.06919   17.088
 4500.00    1.12973   1.08103   16.876
 4501.00    1.12613   1.09303   16.744
 4502.00    1.10774   1.10323   16.498
 4503.00    1.08712   1.10947   15.956
 4504.00    1.07639   1.11088   15.402
 4505.00    1.08294   1.10850   15.205
 4506.00    1.10589   1.10431   15.258
 4507.00    1.13463   1.09972   15.238
 4508.00    1.14803   1.09474   15.113
 4509.00    1.12960   1.08850   15.103
 4510.00    1.08987   1.08046   15.479
 4511.00    1.05335   1.07123   16.380
 4512.00    1.03512   1.06247   17.439
 4513.00    1.03643   1.05595   18.046
 4514.00    1.04407   1.05269   18.256
 4515.00    1.04495   1.05260   18.445
 4516.00    1.04243   1.05467   18.493
 4517.00    1.04495   1.05721   18.178
 4518.00    1.05195   1.05822   17.716
 4519.00    1.05776   1.05583   17.432
 4520.00    1.05713   1.04889   17.449
 4521.00    1.04841   1.03725   17.736
 4522.00    1.03543   1.02177   18.126
 4523.00    1.02273   1.00401   18.414
 4524.00    1.01166   0.98603   18.483
 4525.00    1.00250   0.97023   18.343
 4526.00    0.99641   0.95884   18.129
 4527.00    0.99656   0.95311   17.979
 4528.00    1.00789   0.95274   17.952
 4529.00    1.03100   0.95603   17.970
 4530.00    1.05852   0.96112   17.834
 4531.00    1.07806   0.96729   17.581
 4532.00    1.07672   0.97538   17.561
 4533.00    1.05551   0.98671   17.885
 4534.00    1.03276   1.00117   18.222
 4535.00    1.02186   1.01650   18.327
 4536.00    1.02186   1.02922   18.304
 4537.00    1.02762   1.03687   18.211
 4538.00    1.03551   1.03936   17.945
 4539.00    1.04583   1.03853   17.601
 4540.00    1.06108   1.03646   17.475
 4541.00    1.07561   1.03416   17.647
 4542.00    1.07702   1.03142   17.941
 4543.00    1.06530   1.02759   18.227
 4544.00    1.05324   1.02237   18.494
 4545.00    1.04607   1.01615   18.644
 4546.00    1.03861   1.00979   18.543
 4547.00    1.02699   1.00436   18.364
 4548.00    1.01271   1.00053   18.445
 4549.00    1.00337   0.99831   18.701
 4550.00    1.00737   0.99739    0.000
 4551.00    1.02044   0.99788    0.000
 4552.00    1.03047   1.00082    0.000
 4553.00    1.03558   1.00757    0.000
 4554.00    1.04316   1.01862    0.000
 4555.00    1.05924   1.03274    0.000
 4556.00    1.08476   1.04717    0.000
 4557.00    1.11312   1.05871    0.000
 4558.00    1.13305   1.06495    0.000
 4559.00    1.13472   1.06502    0.000
 4560.00    1.11499   1.05992    0.000
 4561.00    1.08377   1.05237    0.000
 4562.00    1.05836   1.04596    0.000
 4563.00    1.05328   1.04374    0.000
 4564.00    1.07181   1.04658    0.000
 4565.00    1.09773   1.05271    0.000
 4566.00    1.11008   1.05883    0.000
 4567.00    1.10258   1.06221    0.000
 4568.00    1.08134   1.06226    0.000
 4569.00    1.05896   1.06063    0.000
 4570.00    1.04678   1.05962    0.000
 4571.00    1.04759   1.06038    0.000
 4572.00    1.05759   1.06215    0.000
 4573.00    1.06943   1.06285    0.000
 4574.00    1.07593   1.06040    0.000
 4575.00    1.07323   1.05378    0.000
 4576.00    1.06032   1.04352    0.000
 4577.00    1.03857   1.03149    0.000
 4578.00    1.01269   1.02010    0.000
 4579.00    0.99087   1.01147    0.000
 4580.00    0.98064   1.00670    0.000
 4581.00    0.98560   1.00591    0.000
 4582.00    1.00269   1.00867    0.000
 4583.00    1.02197   1.01438    0.000
 4584.00    1.03409   1.02222    0.000
 4585.00    1.03457   1.03080    0.000
 4586.00    1.02285   1.03812    0.000
 4587.00    1.00222   1.04219    0.000
 4588.00    0.98260   1.04190    0.000
 4589.00    0.97853   1.03769    0.000
 4590.00    0.99476   1.03124    0.000
 4591.00    1.02191   1.02470    0.000
 4592.00    1.04495   1.01972    0.000
 4593.00    1.05077   1.01708    0.000
 4594.00    1.04192   1.01668    0.000
 4595.00    1.03420   1.01784    0.000
 4596.00    1.03166   1.01967    0.000
 4597.00    1.02539   1.02141    0.000
 4598.00    1.01568   1.02277    0.000
 4599.00    1.01273   1.02396    0.000
 4600.00    1.01908   1.02553    0.000
 4601.00    1.02803   1.02825    0.000
 4602.00    1.03304   1.03301    0.000
 4603.00    1.03099   1.04053    0.000
 4604.00    1.02395   1.05094    0.000
 4605.00    1.01741   1.06310    0.000
 4606.00    1.01567   1.07474    0.000
 4607.00    1.01996   1.08328    0.000
 4608.00    1.02700   1.08714    0.000
 4609.00    1.03177   1.08664    0.000
 4610.00    1.03327   1.08362    0.000
 4611.00    1.03606   1.08031    0.000
 4612.00    1.05066   1.07813    0.000
 4613.00    1.08233   1.07722    0.000
 4614.00    1.11511   1.07689    0.000
 4615.00    1.12908   1.07649    0.000
 4616.00    1.12699   1.07603    0.000
 4617.00    1.12115   1.07605    0.000
 4618.00    1.11256   1.07709    0.000
 4619.00    1.09822   1.07905    0.000
 4620.00    1.08240   1.08112    0.000
 4621.00    1.07264   1.08229    0.000
 4622.00    1.07362   1.08192    0.000
 4623.00    1.08402   1.08007    0.000
 4624.00    1.09476   1.07734    0.000
 4625.00    1.09804   1.07453    0.000
 4626.00    1.09492   1.07226    0.000
 4627.00    1.08875   1.07071    0.000
 4628.00    1.07950   1.06940    0.000
 4629.00    1.06635   1.06746    0.000
 4630.00    1.05028   1.06399    0.000
 4631.00    1.03486   1.05864    0.000
 4632.00    1.02580   1.05179    0.000
 4633.00    1.02588   1.04423    0.000
 4634.00    1.03227   1.03686    0.000
 4635.00    1.04165   1.03051    0.000
 4636.00    1.05280   1.02591    0.000
 4637.00    1.06403   1.02355    0.000
 4638.00    1.07199   1.02313    0.000
 4639.00    1.07355   1.02333    0.000
 4640.00    1.06722   1.02206    0.000
 4641.00    1.05520   1.01745    0.000
 4642.00    1.04262   1.00902    0.000
 4643.00    1.03082   0.99832    0.000
 4644.00    1.01609   0.98848    0.000
 4645.00    0.99607   0.98292    0.000
 4646.00    0.97274   0.98378    0.000
 4647.00    0.95394   0.99088    0.000
 4648.00    0.94986   1.00180    0.000
 4649.00    0.96059   1.01299    0.000
 4650.00    0.97588   1.02146    0.000
 4651.00    0.98630   1.02608    0.000
 4652.00    0.98837   1.02806    0.000
 4653.00    0.98865   1.03019    0.000
 4654.00    0.99895   1.03515    0.000
 4655.00    1.02221   1.04381    0.000
 4656.00    1.05160   1.05438    0.000
 4657.00    1.07665   1.06323    0.000
 4658.00    1.08851   1.06659    0.000
 4659.00    1.08738   1.06232    0.000
 4660.00    1.07897   1.05048    0.000
 4661.00    1.06501   1.03289    0.000
 4662.00    1.04500   1.01221    0.000
 4663.00    1.02228   0.99146    0.000
 4664.00    1.00362   0.97402    0.000
 4665.00    0.99666   0.96318    0.000
 4666.00    1.00614   0.96115    0.000
 4667.00    1.02918   0.96785    0.000
 4668.00    1.05712   0.98071    0.000
 4669.00    1.07916   0.99590    0.000
 4670.00    1.08683   1.00998    0.000
 4671.00    1.07880   1.02111    0.000
 4672.00    1.06010   1.02883    0.000
 4673.00    1.04010   1.03326    0.000
 4674.00    1.02680   1.03437    0.000
 4675.00    1.02151   1.03212    0.000
 4676.00    1.02228   1.02711    0.000
 4677.00    1.02742   1.02095    0.000
 4678.00    1.03353   1.01578    0.000
 4679.00    1.03415   1.01335    0.000
 4680.00    1.02600   1.01418    0.000
 4681.00    1.01358   1.01742    0.000
 4682.00    1.00546   1.02141    0.000
 4683.00    1.01024   1.02456    0.000
 4684.00    1.02902   1.02604    0.000
 4685.00    1.05203   1.02584    0.000
 4686.00    1.06872   1.02457    0.000
 4687.00    1.07409   1.02312    0.000
 4688.00    1.06772   1.02236    0.000
 4689.00    1.05282   1.02296    0.000
 4690.00    1.03548   1.02520    0.000
 4691.00    1.02262   1.02860    0.000
 4692.00    1.01479   1.03173    0.000
 4693.00    1.00570   1.03271    0.000
 4694.00    0.99470   1.03005    0.000
 4695.00    0.98912   1.02348    0.000
 4696.00    0.99145   1.01405    0.000
 4697.00    0.99639   1.00374    0.000
 4698.00    0.99980   0.99463    0.000
 4699.00    1.00097   0.98819    0.000
 4700.00    0.99887   0.98490    0.000
 4701.00    0.99062   0.98437    0.000
 4702.00    0.97097   0.98554    0.000
 4703.00    0.93713   0.98724    0.000
 4704.00    0.90236   0.98869    0.000
 4705.00    0.88803   0.99000    0.000
 4706.00    0.89459   0.99190    0.000
 4707.00    0.90719   0.99494    0.000
 4708.00    0.92619   0.99885    0.000
 4709.00    0.96075   1.00275    0.000
 4710.00    1.00027   1.00608    0.000
 4711.00    1.02296   1.00936    0.000
 4712.00    1.02459   1.01407    0.000
 4713.00    1.01693   1.02156    0.000
 4714.00    1.01435   1.03220    0.000
 4715.00    1.02524   1.04490    0.000
 4716.00    1.04261   1.05754    0.000
 4717.00    1.05435   1.06801    0.000
 4718.00    1.06044   1.07505    0.000
 4719.00    1.06458   1.07853    0.000
 4720.00    1.05980   1.07888    0.000
 4721.00    1.04051   1.07619    0.000
 4722.00    1.01915   1.06988    0.000
 4723.00    1.01056   1.05926    0.000
 4724.00    1.01222   1.04469    0.000
 4725.00    1.01405   1.02819    0.000
 4726.00    1.01168   1.01283    0.000
 4727.00    1.00770   1.00176    0.000
 4728.00    1.01062   0.99695    0.000
 4729.00    1.02487   0.99831    0.000
 4730.00    1.04282   1.00405    0.000
 4731.00    1.05480   1.01168    0.000
 4732.00    1.05779   1.01896    0.000
 4733.00    1.05362   1.02489    0.000
 4734.00    1.04684   1.02978    0.000
 4735.00    1.04414   1.03415    0.000
 4736.00    1.05245   1.03816    0.000
 4737.00    1.06940   1.04179    0.000
 4738.00    1.08073   1.04501    0.000
 4739.00    1.08074   1.04791    0.000
 4740.00    1.08082   1.05064    0.000
 4741.00    1.08788   1.05344    0.000
 4742.00    1.09509   1.05654    0.000
 4743.00    1.09628   1.05987    0.000
 4744.00    1.09225   1.06299    0.000
 4745.00    1.08594   1.06529    0.000
 4746.00    1.07935   1.06619    0.000
 4747.00    1.07127   1.06511    0.000
 4748.00    1.05848   1.06167    0.000
 4749.00    1.04413   1.05603    0.000
 4750.00    1.03596   1.04900    0.000
 4751.00    1.02950   1.04183    0.000
 4752.00    1.01218   1.03585    0.000
 4753.00    0.99419   1.03209    0.000
 4754.00    1.00260   1.03080    0.000
 4755.00    1.03570   1.03126    0.000
 4756.00    1.06531   1.03194    0.000
 4757.00    1.07859   1.03090    0.000
 4758.00    1.08030   1.02660    0.000
 4759.00    1.07059   1.01877    0.000
 4760.00    1.04552   1.00867    0.000
 4761.00    1.01071   0.99837   19.395
 4762.00    0.97991   0.99018   19.875
 4763.00    0.96556   0.98628   20.451
 4764.00    0.97230   0.98779   20.370
 4765.00    0.98930   0.99421   19.838
 4766.00    0.99910   1.00374   19.610
 4767.00    0.99517   1.01395   19.875
 4768.00    0.98209   1.02297   20.395
 4769.00    0.97069   1.03048   20.810
 4770.00    0.97190   1.03730   20.876
 4771.00    0.98892   1.04413   20.798
 4772.00    1.01704   1.05083   20.825
 4773.00    1.04548   1.05672   20.701
 4774.00    1.06612   1.06107   20.194
 4775.00    1.08292   1.06300   19.744
 4776.00    1.10005   1.06192   19.741
 4777.00    1.10852   1.05803   19.906
 4778.00    1.09935   1.05195   19.900
 4779.00    1.07791   1.04433   19.979
 4780.00    1.05606   1.03611   20.371
 4781.00    1.04285   1.02855   20.662
 4782.00    1.03950   1.02236   20.503
 4783.00    1.03692   1.01767   20.292
 4784.00    1.02690   1.01483   20.463
 4785.00    1.01050   1.01417   20.958
 4786.00    0.99316   1.01572   21.386
 4787.00    0.98043   1.01981   21.228
 4788.00    0.97681   1.02679   20.518
 4789.00    0.98482   1.03644   19.990
 4790.00    1.00365   1.04782   20.000
 4791.00    1.02886   1.05905   20.213
 4792.00    1.05513   1.06761   20.320
 4793.00    1.07763   1.07137   20.378
 4794.00    1.09093   1.06981   20.467
 4795.00    1.08958   1.06420   20.515
 4796.00    1.07335   1.05711   20.501
 4797.00    1.04939   1.05141   20.513
 4798.00    1.03048   1.04887   20.596
 4799.00    1.03032   1.04919   20.694
 4800.00    1.04918   1.05036   20.746
 4801.00    1.07245   1.05009   20.722
 4802.00    1.08669   1.04729   20.636
 4803.00    1.08611   1.04254   20.534
 4804.00    1.07390   1.03731   20.441
 4805.00    1.05999   1.03315   20.354
 4806.00    1.05331   1.03125   20.271
 4807.00    1.05798   1.03187   20.224
 4808.00    1.06978   1.03437   20.343
 4809.00    1.07897   1.03787   20.744
 4810.00    1.07962   1.04191   21.160
 4811.00    1.07195   1.04643   21.128
 4812.00    1.06154   1.05153   20.835
 4813.00    1.05546   1.05719   20.841
 4814.00    1.05440   1.06290   21.152
 4815.00    1.05497   1.06765   21.381
 4816.00    1.05730   1.07011   21.416
 4817.00    1.06350   1.06904   21.381
 4818.00    1.07218   1.06382   21.282
 4819.00    1.07813   1.05493   21.113
 4820.00    1.07355   1.04409   21.106
 4821.00    1.05425   1.03399   21.444
 4822.00    1.02822   1.02722   21.776
 4823.00    1.00889   1.02450   21.646
 4824.00    1.00406   1.02432   21.292
 4825.00    1.01255   1.02466   21.195
 4826.00    1.02263   1.02420   21.439
 4827.00    1.02375   1.02268   21.769
 4828.00    1.01939   1.02049   21.726
 4829.00    1.01785   1.01832   21.186
 4830.00    1.02103   1.01722   20.766
 4831.00    1.02727   1.01771   20.906
 4832.00    1.03520   1.01898   21.200
 4833.00    1.04323   1.01952   21.137
 4834.00    1.04878   1.01826   20.847
 4835.00    1.04787   1.01481   20.685
 4836.00    1.03565   1.00943   20.824
 4837.00    1.01242   1.00317   21.236
 4838.00    0.98696   0.99767   21.689
 4839.00    0.96776   0.99403   21.938
 4840.00    0.95685   0.99228   21.911
 4841.00    0.95151   0.99193   21.734
 4842.00    0.94678   0.99228   21.641
 4843.00    0.94184   0.99198   21.611
 4844.00    0.94213   0.98952   21.337
 4845.00    0.95043   0.98445   21.075
 4846.00    0.96306   0.97752   21.567
 4847.00    0.97521   0.96988   21.700
 4848.00    0.98354   0.96160    0.000
 4849.00    0.98455   0.95130    0.000
 4850.00    0.97535   0.93766    0.000
 4851.00    0.95925   0.92010    0.000
 4852.00    0.94554   0.89864    0.000
 4853.00    0.93967   0.87427    0.000
 4854.00    0.94262   0.84838    0.000
 4855.00    0.96136   0.82117    0.000
 4856.00    1.00593   0.79250    0.000
 4857.00    1.06892   0.76435    0.000
 4858.00    1.12559   0.74115    0.000
 4859.00    1.15339   0.72848    0.000
 4860.00    1.14026   0.73037    0.000
 4861.00    1.09080   0.74608    0.000
 4862.00    1.02336   0.77086    0.000
 4863.00    0.95925   0.79933    0.000
 4864.00    0.91514   0.82641    0.000
 4865.00    0.89251   0.84811    0.000
 4866.00    0.88119   0.86276    0.000
 4867.00    0.87113   0.87098    0.000
 4868.00    0.85915   0.87476    0.000
 4869.00    0.85612   0.87748    0.000
 4870.00    0.87488   0.88322    0.000
 4871.00    0.90816   0.89382    0.000
 4872.00    0.93626   0.90810    0.000
 4873.00    0.94539   0.92422    0.000
 4874.00    0.93491   0.94079    0.000
 4875.00    0.92243   0.95630   20.282
 4876.00    0.92589   0.96921   20.539
 4877.00    0.94000   0.97848   20.546
 4878.00    0.95027   0.98290   20.140
 4879.00    0.95307   0.98220   19.635
 4880.00    0.95036   0.97796   19.353
 4881.00    0.94164   0.97170   19.197
 4882.00    0.92944   0.96413   18.974
 4883.00    0.92449   0.95623   18.704
 4884.00    0.93384   0.94940   18.491
 4885.00    0.95033   0.94454   18.395
 4886.00    0.96370   0.94184   18.396
 4887.00    0.97073   0.94173   18.389
 4888.00    0.97235   0.94551   18.308
 4889.00    0.97093   0.95523   18.220
 4890.00    0.97092   0.97236   18.208
 4891.00    0.97858   0.99493   18.282
 4892.00    0.99549   1.01830   18.357
 4893.00    1.01535   1.03808   18.285
 4894.00    1.03141   1.05115   18.171
 4895.00    1.04105   1.05659   18.426
 4896.00    1.04530   1.05544   19.063
 4897.00    1.04715   1.04985   19.400
 4898.00    1.04481   1.04279   19.184
 4899.00    1.03152   1.03705   19.082
 4900.00    1.01047   1.03366   19.425
 4901.00    0.99677   1.03254   19.839
 4902.00    0.99564   1.03334   20.051
 4903.00    0.99767   1.03473   20.211
 4904.00    0.99824   1.03433   20.420
 4905.00    1.00149   1.03028   20.578
 4906.00    1.00668   1.02295   20.654
 4907.00    1.00713   1.01468   20.732
 4908.00    1.00369   1.00842   20.797
 4909.00    1.00445   1.00646   20.757
 4910.00    1.01041   1.00883   20.715
 4911.00    1.01503   1.01297   20.875
 4912.00    1.01516   1.01514   21.065
 4913.00    1.01018   1.01191   20.912
 4914.00    0.99264   1.00095   20.693
 4915.00    0.95508   0.98242   21.013
 4916.00    0.91086   0.95960   21.734
 4917.00    0.88435   0.93807   22.168
 4918.00    0.88072   0.92348   22.289
 4919.00    0.88931   0.91918   22.569
 4920.00    0.90296   0.92525   22.851
 4921.00    0.92002   0.93898   22.656
 4922.00    0.94109   0.95732   22.228
 4923.00    0.96545   0.97831   22.132
 4924.00    0.98664   1.00016   22.432
 4925.00    0.99840   1.02018   22.820
 4926.00    1.00413   1.03589   22.921
 4927.00    1.01091   1.04578   22.590
 4928.00    1.01962   1.04882   22.203
 4929.00    1.02734   1.04518   22.131
 4930.00    1.03204   1.03626   22.194
 4931.00    1.03285   1.02405   22.135
 4932.00    1.02965   1.01132   22.180
 4933.00    1.02367   1.00030   22.565
 4934.00    1.01783   0.99132   22.998
 4935.00    1.01351   0.98463   23.118
 4936.00    1.00794   0.98191   23.054
 4937.00    0.99991   0.98534   23.012
 4938.00    0.99438   0.99542   22.864
 4939.00    0.99547   1.00988   22.574
 4940.00    1.00087   1.02494    0.000
 4941.00    1.00528   1.03788    0.000
 4942.00    1.00436   1.04753    0.000
 4943.00    1.00051   1.05381    0.000
 4944.00    1.00471   1.05789    0.000
 4945.00    1.02229   1.06132    0.000
 4946.00    1.04552   1.06440    0.000
 4947.00    1.06413   1.06632    0.000
 4948.00    1.07194   1.06605    0.000
 4949.00    1.06720   1.06257    0.000
 4950.00    1.05233   1.05489    0.000
 4951.00    1.03204   1.04280    0.000
 4952.00    1.01207   1.02742    0.000
 4953.00    0.99756   1.01087    0.000
 4954.00    0.99173   0.99579    0.000
 4955.00    0.99349   0.98548    0.000
 4956.00    0.99812   0.98355    0.000
 4957.00    1.00345   0.99082    0.000
 4958.00    1.01071   1.00319    0.000
 4959.00    1.01942   1.01480    0.000
 4960.00    1.02639   1.02199    0.000
 4961.00    1.02801   1.02377    0.000
 4962.00    1.02201   1.02062    0.000
 4963.00    1.01021   1.01426    0.000
 4964.00    0.99877   1.00765    0.000
 4965.00    0.99659   1.00362    0.000
 4966.00    1.00946   1.00335    0.000
 4967.00    1.02768   1.00676    0.000
 4968.00    1.03433   1.01306    0.000
 4969.00    1.02948   1.02092    0.000
 4970.00    1.02501   1.02869    0.000
 4971.00    1.02350   1.03447    0.000
 4972.00    1.02052   1.03668    0.000
 4973.00    1.01658   1.03434    0.000
 4974.00    1.01427   1.02710    0.000
 4975.00    1.00986   1.01538    0.000
 4976.00    0.99736   1.00011    0.000
 4977.00    0.97684   0.98269    0.000
 4978.00    0.95334   0.96497    0.000
 4979.00    0.93302   0.94872    0.000
 4980.00    0.91987   0.93598    0.000
 4981.00    0.91233   0.92949    0.000
 4982.00    0.90798   0.93112    0.000
 4983.00    0.90931   0.94007    0.000
 4984.00    0.91914   0.95334    0.000
 4985.00    0.93501   0.96752    0.000
 4986.00    0.95181   0.97951    0.000
 4987.00    0.96510   0.98751    0.000
 4988.00    0.97227   0.99176    0.000
 4989.00    0.97326   0.99376    0.000
 4990.00    0.96963   0.99505    0.000
 4991.00    0.96364   0.99622    0.000
 4992.00    0.95785   0.99680    0.000
 4993.00    0.95472   0.99633    0.000
 4994.00    0.95574   0.99396    0.000
 4995.00    0.96069   0.98853    0.000
 4996.00    0.96654   0.97987    0.000
 4997.00    0.96780   0.96880    0.000
 4998.00    0.96271   0.95686    0.000
 4999.00    0.95639   0.94583    0.000
 5000.00    0.95678   0.93684    0.000
 5001.00    0.97076   0.93012    0.000
 5002.00    0.99667   0.92565    0.000
 5003.00    1.02264   0.92347    0.000
 5004.00    1.03653   0.92408    0.000
 5005.00    1.03202   0.92780    0.000
 5006.00    1.01346   0.93318    0.000
 5007.00    0.99345   0.93686    0.000
 5008.00    0.97570   0.93591    0.000
 5009.00    0.95334   0.92999    0.000
 5010.00    0.92680   0.92083    0.000
 5011.00    0.90606   0.91114    0.000
 5012.00    0.89602   0.90374    0.000
 5013.00    0.89429   0.90022    0.000
 5014.00    0.89892   0.90058    0.000
 5015.00    0.90855   0.90352    0.000
 5016.00    0.91633   0.90781    0.000
 5017.00    0.91327   0.91337    0.000
 5018.00    0.90038   0.92019    0.000
 5019.00    0.88812   0.92736    0.000
 5020.00    0.88779   0.93417    0.000
 5021.00    0.90557   0.94077    0.000
 5022.00    0.93470   0.94733    0.000
 5023.00    0.96094   0.95320    0.000
 5024.00    0.97613   0.95800    0.000
 5025.00    0.98025   0.96247    0.000
 5026.00    0.97998   0.96791    0.000
 5027.00    0.98242   0.97530    0.000
 5028.00    0.98563   0.98372    0.000
 5029.00    0.98255   0.99080   24.155
 5030.00    0.96930   0.99471   24.276
 5031.00    0.94769   0.99405   24.611
 5032.00    0.92657   0.98772   24.648
 5033.00    0.91400   0.97574   24.020
 5034.00    0.90782   0.96001   23.503
 5035.00    0.90279   0.94365   23.781
 5036.00    0.89992   0.92899   24.328
 5037.00    0.90279   0.91725   24.355
 5038.00    0.91257   0.91057   24.071
 5039.00    0.92754   0.91167   23.982
 5040.00    0.94359   0.92183   24.079
 5041.00    0.95989   0.93913   24.130
 5042.00    0.98212   0.95799   23.992
 5043.00    1.00832   0.97268   23.722
 5044.00    1.02014   0.98031   23.586
 5045.00    1.00699   0.98031   23.681
 5046.00    0.98212   0.97438   23.725
 5047.00    0.96246   0.96653   23.458
 5048.00    0.95414   0.96108   22.944
 5049.00    0.95400   0.96025   22.495
 5050.00    0.95317   0.96408   22.478
 5051.00    0.94948   0.97171   22.716
 5052.00    0.95135   0.98175   22.388
 5053.00    0.96082   0.99227   21.554
 5054.00    0.96799   1.00176   21.349
 5055.00    0.96902   1.00978   21.930
 5056.00    0.97183   1.01623   22.088
 5057.00    0.98155   1.02038   21.450
 5058.00    0.99482   1.02118   21.084
 5059.00    1.00419   1.01809   21.313
 5060.00    1.00184   1.01096   21.452
 5061.00    0.98581   1.00018   21.388
 5062.00    0.96130   0.98737   21.784
 5063.00    0.93703   0.97520   22.577
 5064.00    0.92201   0.96650   22.804
 5065.00    0.91983   0.96212   22.341
 5066.00    0.92799   0.96052   22.051
 5067.00    0.94111   0.96050   22.229
 5068.00    0.95293   0.96156   22.554
 5069.00    0.95893   0.96260   22.818
 5070.00    0.95802   0.96240   23.057
 5071.00    0.95459   0.96112   23.341
 5072.00    0.95425   0.95927   23.668
 5073.00    0.95374   0.95578   23.822
 5074.00    0.94519   0.94960   23.587
 5075.00    0.92914   0.94126   23.202
 5076.00    0.91430   0.93175   23.052
 5077.00    0.91209   0.92210   23.054
 5078.00    0.92862   0.91470   22.909
 5079.00    0.95370   0.91275   22.654
 5080.00    0.97057   0.91690   22.524
 5081.00    0.97357   0.92502   22.619
 5082.00    0.96753   0.93503   22.928
 5083.00    0.96245   0.94592   23.401
 5084.00    0.96612   0.95656   23.883
 5085.00    0.97599   0.96580   24.034
 5086.00    0.98454   0.97354   23.716
 5087.00    0.98715   0.98030   23.406
 5088.00    0.98299   0.98606   23.500
 5089.00    0.97476   0.99008   23.688
 5090.00    0.96472   0.99167   23.600
 5091.00    0.95147   0.99015   23.497
 5092.00    0.93646   0.98466   23.705
 5093.00    0.92907   0.97509   24.083
 5094.00    0.93565   0.96299   24.261
 5095.00    0.95070   0.95093   23.964
 5096.00    0.96478   0.94144   23.421
 5097.00    0.97139   0.93633   23.384
 5098.00    0.96807   0.93636   24.118
 5099.00    0.95672   0.94061   24.826
 5100.00    0.94291   0.94595   24.739
 5101.00    0.93420   0.94925   24.108
 5102.00    0.93303   0.94935   23.504
 5103.00    0.93423   0.94686   23.262
 5104.00    0.93481   0.94302   23.460
 5105.00    0.93824   0.93907   23.939
 5106.00    0.94804   0.93640   24.370
 5107.00    0.96395   0.93659   24.374
 5108.00    0.98041   0.94011   24.064
 5109.00    0.98820   0.94653   24.031
 5110.00    0.98358   0.95544   24.402
 5111.00    0.97118   0.96536   24.679
 5112.00    0.95927   0.97457   24.608
 5113.00    0.95642   0.98228   24.430
 5114.00    0.96661   0.98757   24.287
 5115.00    0.98708   0.98953   24.102
 5116.00    1.00760   0.98744   23.895
 5117.00    1.01440   0.98063   23.784
 5118.00    1.00230   0.96948   23.744
 5119.00    0.97568   0.95552   23.673
 5120.00    0.94124   0.94077   23.762
 5121.00    0.90668   0.92714   24.279
 5122.00    0.88253   0.91615   24.759
 5123.00    0.87750   0.90914   24.365
 5124.00    0.88735   0.90644   23.521
 5125.00    0.89944   0.90698   23.226
 5126.00    0.90751   0.90981   23.399
 5127.00    0.91221   0.91463   23.384
 5128.00    0.91628   0.92114   23.257
 5129.00    0.92289   0.92867   23.385
 5130.00    0.93434   0.93601   23.267
 5131.00    0.94819   0.94155   22.378
 5132.00    0.95215   0.94439   21.653
 5133.00    0.93467   0.94452   22.088
 5134.00    0.90130   0.94193   23.192
 5135.00    0.86993   0.93644   23.710
 5136.00    0.86037   0.92959   23.383
 5137.00    0.88080   0.92349   22.774
 5138.00    0.91412   0.91905   22.253
 5139.00    0.93559   0.91668   21.962
 5140.00    0.93477   0.91505   21.966
 5141.00    0.91617   0.91293   22.250
 5142.00    0.89610   0.91163   22.694
 5143.00    0.88964   0.91130   23.092
 5144.00    0.89874   0.91042   23.208
 5145.00    0.91681   0.90911   23.001
 5146.00    0.93412   0.90833   22.761
 5147.00    0.94125   0.90830   22.737
 5148.00    0.93227   0.90875   22.886
 5149.00    0.91007   0.90937   23.058
 5150.00    0.88819   0.91094   23.139
 5151.00    0.87725   0.91481   23.137
 5152.00    0.87658   0.92141   23.188
 5153.00    0.88197   0.93038   23.352
 5154.00    0.89096   0.94074   23.509
 5155.00    0.90286   0.95035   23.592
 5156.00    0.91824   0.95685   23.681
 5157.00    0.93644   0.95833   23.777
 5158.00    0.95406   0.95367   23.731
 5159.00    0.96412   0.94275   23.606
 5160.00    0.95755   0.92531   23.724
 5161.00    0.93131   0.90181   24.190
 5162.00    0.89112   0.87447   24.756
 5163.00    0.84740   0.84542   25.151
 5164.00    0.81155   0.81691   25.283
 5165.00    0.78844   0.79243   25.290
 5166.00    0.77571   0.77529   25.440
 5167.00    0.77096   0.76731   25.764
 5168.00    0.77331   0.76782   26.052
 5169.00    0.78085   0.77400   26.249
 5170.00    0.79084   0.78375   26.457
 5171.00    0.80282   0.79822   26.538
 5172.00    0.81735   0.81943   26.230
 5173.00    0.83064   0.84468   25.774
 5174.00    0.83678   0.86689   25.644
 5175.00    0.83623   0.88071   25.727
 5176.00    0.83400   0.88494   25.572
 5177.00    0.83153   0.87995   25.285
 5178.00    0.82650   0.86717   25.338
 5179.00    0.81623   0.85031   25.892
 5180.00    0.80026   0.83435   26.714
 5181.00    0.78352   0.82388   27.157
 5182.00    0.77438   0.82276   26.712
 5183.00    0.78012   0.83345   25.977
 5184.00    0.80351   0.85301   25.735
 5185.00    0.83888   0.87362   25.732
 5186.00    0.87532   0.88923   25.342
 5187.00    0.90214   0.89802   24.620
 5188.00    0.91258   0.90120   24.037
 5189.00    0.90744   0.90019   23.975
 5190.00    0.89323   0.89627    0.000
 5191.00    0.87902   0.89355    0.000
 5192.00    0.87318   0.89591    0.000
 5193.00    0.88008   0.90237    0.000
 5194.00    0.89954   0.91043    0.000
 5195.00    0.92666   0.91937    0.000
 5196.00    0.95234   0.92778    0.000
 5197.00    0.96476   0.93319    0.000
 5198.00    0.95744   0.93394    0.000
 5199.00    0.93521   0.92897    0.000
 5200.00    0.90721   0.91840    0.000
 5201.00    0.88089   0.90380    0.000
 5202.00    0.86046   0.88754    0.000
 5203.00    0.84662   0.87199    0.000
 5204.00    0.83921   0.86046    0.000
 5205.00    0.83888   0.85635    0.000
 5206.00    0.84585   0.85993    0.000
 5207.00    0.85890   0.86935    0.000
 5208.00    0.87470   0.88361    0.000
 5209.00    0.88844   0.90050    0.000
 5210.00    0.89903   0.91647    0.000
 5211.00    0.91006   0.92921   23.716
 5212.00    0.92192   0.93788   23.118
 5213.00    0.92992   0.94307   23.218
 5214.00    0.93191   0.94671   24.057
 5215.00    0.93068   0.95112   24.248
 5216.00    0.93066   0.95683   23.491
 5217.00    0.93500   0.96181   23.053
 5218.00    0.94009   0.96311   23.321
 5219.00    0.93721   0.95872   23.656
 5220.00    0.92376   0.94853   23.837
 5221.00    0.90474   0.93375   24.248
 5222.00    0.88598   0.91694   24.779
 5223.00    0.87120   0.90182   24.853
 5224.00    0.85960   0.89193   24.678
 5225.00    0.84853   0.88936   25.018
 5226.00    0.84116   0.89472   25.758
 5227.00    0.84371   0.90626   26.024
 5228.00    0.85492   0.91878   25.584
 5229.00    0.86814   0.92830   24.955
 5230.00    0.88056   0.93481   24.599
 5231.00    0.89341   0.93934   24.665
 5232.00    0.90877   0.94416   24.811
 5233.00    0.92793   0.95165   24.604
 5234.00    0.94985   0.96151   24.299
 5235.00    0.97119   0.97218   24.385
 5236.00    0.98711   0.98170   24.757
 5237.00    0.99339   0.98864   24.977
 5238.00    0.98957   0.99280   24.854
 5239.00    0.97949   0.99458   24.522
 5240.00    0.97107   0.99409   24.304
 5241.00    0.97089   0.99089   24.199
 5242.00    0.97778   0.98519   23.453
 5243.00    0.98494   0.97772   21.933
 5244.00    0.98376   0.96835   20.998
 5245.00    0.96992   0.95738   21.369
 5246.00    0.94879   0.94748   21.976
 5247.00    0.92968   0.94140   21.608
 5248.00    0.91967   0.93871   20.923
 5249.00    0.92166   0.93838   20.715
 5250.00    0.93337   0.94137   20.611
 5251.00    0.94969   0.94758   20.181
 5252.00    0.96475   0.95508   19.725
 5253.00    0.97379   0.96236   19.577
 5254.00    0.97470   0.96890   19.693
 5255.00    0.97057   0.97395   19.881
 5256.00    0.96965   0.97449   19.954
 5257.00    0.97478   0.96740   19.811
 5258.00    0.97796   0.95221   19.511
 5259.00    0.96779   0.93062   19.320
 5260.00    0.93635   0.90544   19.622
 5261.00    0.89127   0.87992   20.405
 5262.00    0.85640   0.85726   21.040
 5263.00    0.84500   0.83979   21.117
 5264.00    0.85026   0.82838   20.949
 5265.00    0.86124   0.82328   20.875
 5266.00    0.87070   0.82421   20.951
 5267.00    0.87671   0.82871   21.081
 5268.00    0.88163   0.83571   21.135
 5269.00    0.88628   0.84818   21.175
 5270.00    0.88951   0.86681   21.421
 5271.00    0.89386   0.88702   21.820
 5272.00    0.90433   0.90518   22.025
 5273.00    0.91870   0.92116   21.920
 5274.00    0.92838   0.93511   21.693
 5275.00    0.92916   0.94720   21.454
 5276.00    0.92348   0.95668   21.247
 5277.00    0.91784   0.96149   21.318
 5278.00    0.91891   0.96158   21.927
 5279.00    0.92621   0.95961   22.663
 5280.00    0.93531   0.95891   22.682
 5281.00    0.94801   0.96179   22.085
 5282.00    0.96905   0.96901   21.656
 5283.00    0.99539   0.98049   21.718
 5284.00    1.01897   0.99497   22.151
 5285.00    1.03550   1.00890   22.575
 5286.00    1.04376   1.01892   22.626
 5287.00    1.04183   1.02436   22.490
 5288.00    1.02976   1.02591   22.576
 5289.00    1.01415   1.02359   22.904
 5290.00    1.00241   1.01676   23.257
 5291.00    0.99404   1.00573   23.522
 5292.00    0.98463   0.99197   23.745
 5293.00    0.97247   0.97744   24.109
 5294.00    0.95894   0.96363   24.657
 5295.00    0.94751   0.95198   24.951
 5296.00    0.94060   0.94491   24.659
 5297.00    0.93654   0.94491   24.252
 5298.00    0.93431   0.95213   24.188
 5299.00    0.93786   0.96326   24.230
 5300.00    0.95053   0.97535   24.100
 5301.00    0.96967   0.98800   24.044
 5302.00    0.98864   1.00082   24.184
 5303.00    0.99962   1.01210   24.047
 5304.00    1.00035   1.02031   23.511
 5305.00    0.99766   1.02525   23.325
 5306.00    0.99668   1.02792   23.875
 5307.00    0.99440   1.02946   24.527
 5308.00    0.98876   1.02975   24.484
 5309.00    0.98381   1.02789   23.657
 5310.00    0.98320   1.02376   22.617
 5311.00    0.98634   1.01809   22.114
 5312.00    0.99060   1.01183   22.277
 5313.00    0.99297   1.00598   22.521
 5314.00    0.99211   1.00083   22.389
 5315.00    0.98875   0.99623   21.991
 5316.00    0.98303   0.99247   21.636
 5317.00    0.97409   0.98910   21.593
 5318.00    0.96384   0.98435   21.941
 5319.00    0.95676   0.97678   22.522
 5320.00    0.95346   0.96590   22.926
 5321.00    0.94942   0.95192   22.719
 5322.00    0.93993   0.93582   22.337
 5323.00    0.92317   0.91977   22.739
 5324.00    0.90463   0.90684   23.786
 5325.00    0.89445   0.89827   24.175
 5326.00    0.89613   0.89423   23.628
 5327.00    0.90611   0.89706   23.146
 5328.00    0.92184   0.90929   23.082
 5329.00    0.94185   0.92808   23.148
 5330.00    0.96067   0.94701   23.289
 5331.00    0.97128   0.96210   23.637
 5332.00    0.97318   0.97263   23.918
 5333.00    0.97174   0.97892   23.689
 5334.00    0.97306   0.98057   23.211
 5335.00    0.98059   0.97774   23.085
 5336.00    0.99142   0.97239   23.414
 5337.00    1.00024   0.96679   23.918
 5338.00    1.00716   0.96202   24.269
 5339.00    1.01492   0.95929   24.235
 5340.00    1.02225   0.96021   23.845
 5341.00    1.02410   0.96396   23.357
 5342.00    1.01382   0.96748   23.136
 5343.00    0.98935   0.96936   23.429
 5344.00    0.96029   0.97013   24.139
 5345.00    0.94019   0.97140   24.945
 5346.00    0.93582   0.97465   25.500
 5347.00    0.94728   0.97990   25.537
 5348.00    0.96980   0.98750   25.008
 5349.00    0.99676   0.99822   24.219
 5350.00    1.02275   1.01091   -2.000
 5351.00    1.04459   1.02313   -2.000
 5352.00    1.06157   1.03353   -2.000
 5353.00    1.07273   1.04198   -2.000
 5354.00    1.07483   1.04771   -2.000
 5355.00    1.06675   1.04958   -2.000
 5356.00    1.05245   1.04759   -2.000
 5357.00    1.03574   1.04225   -2.000
 5358.00    1.01705   1.03416   -2.000
 5359.00    0.99888   1.02400   -2.000
 5360.00    0.98800   1.01254   -2.000
 5361.00    0.98466   1.00086   -2.000
 5362.00    0.97871   0.98975   -2.000
 5363.00    0.96613   0.97871   -2.000
 5364.00    0.95572   0.96758   -2.000
 5365.00    0.95366   0.95739   22.809
 5366.00    0.95680   0.94888   22.499
 5367.00    0.96056   0.94288   22.443
 5368.00    0.96310   0.94030   22.675
 5369.00    0.96611   0.94214   23.075
 5370.00    0.97356   0.94980   23.413
 5371.00    0.98572   0.96325   23.457
 5372.00    0.99832   0.97921   23.098
 5373.00    1.00814   0.99308   22.519
 5374.00    1.01446   1.00266   22.085
 5375.00    1.01676   1.00769   22.030
 5376.00    1.01436   1.00911   22.383
 5377.00    1.00784   1.00857   22.898
 5378.00    0.99889   1.00673   23.155
 5379.00    0.98882   1.00386   23.135
 5380.00    0.97866   1.00103   23.178
 5381.00    0.97030   0.99891   23.317
 5382.00    0.96646   0.99719   23.344
 5383.00    0.96964   0.99572   23.348
 5384.00    0.98030   0.99363   23.565
 5385.00    0.99376   0.98951   23.756
 5386.00    1.00213   0.98336   23.566
 5387.00    0.99941   0.97592   23.510
 5388.00    0.98465   0.96765   24.289
 5389.00    0.96525   0.95911   25.306
 5390.00    0.95128   0.95111   25.306
 5391.00    0.94530   0.94423   24.704
 5392.00    0.94341   0.93858   24.641
 5393.00    0.93963   0.93432   25.064
 5394.00    0.93078   0.93168   25.346
 5395.00    0.92182   0.93038   25.421
 5396.00    0.92000   0.93057   25.571
 5397.00    0.92652   0.93263   25.866
 5398.00    0.93653   0.93411   26.138
 5399.00    0.94100   0.93211   26.073
 5400.00    0.93426   0.92701   25.653
 5401.00    0.92117   0.92019   25.486
 5402.00    0.90972   0.91193   25.889
 5403.00    0.90302   0.90385   26.132
 5404.00    0.90046   0.89937   25.694
 5405.00    0.89980   0.90078   25.399
 5406.00    0.90028   0.90750   25.807
 5407.00    0.90454   0.91680   26.124
 5408.00    0.91432   0.92673   25.692
 5409.00    0.92741   0.93791   25.178
 5410.00    0.94044   0.95113   25.095
 5411.00    0.95107   0.96455   25.041
 5412.00    0.95828   0.97552   24.695
 5413.00    0.96244   0.98329   24.362
 5414.00    0.96458   0.98886   24.302
 5415.00    0.96602   0.99291   24.415
 5416.00    0.96852   0.99446   24.498
 5417.00    0.97392   0.99276   24.406
 5418.00    0.98211   0.98913   24.168
 5419.00    0.99065   0.98539   23.964
 5420.00    0.99809   0.98277   23.786
 5421.00    1.00443   0.98091   23.443
 5422.00    1.00686   0.97799   23.065
 5423.00    0.99992   0.97416   23.074
 5424.00    0.98310   0.97121   23.471
 5425.00    0.96201   0.96820   23.786
 5426.00    0.94226   0.96287   23.880
 5427.00    0.92700   0.95454   24.069
 5428.00    0.91612   0.94511   24.379
 5429.00    0.90775   0.93867   24.502
 5430.00    0.90311   0.93682   24.465
 5431.00    0.90552   0.93746   24.588
 5432.00    0.91417   0.94028   24.802
 5433.00    0.92422   0.94691   24.748
 5434.00    0.93117   0.95779   24.516
 5435.00    0.93448   0.97170   24.506
 5436.00    0.94275   0.98638   24.744
 5437.00    0.96586   0.99910   24.904
 5438.00    0.99693   1.00710   24.659
 5439.00    1.01892   1.00872   24.017
 5440.00    1.02372   1.00432   23.614
 5441.00    1.01403   0.99588   24.054
 5442.00    0.99992   0.98543   24.986
 5443.00    0.99194   0.97464   25.475
 5444.00    0.99133   0.96539   25.226
 5445.00    0.99243   0.95969   24.711
 5446.00    0.98851   0.95898   24.638
 5447.00    0.97668   0.96233   25.354
 5448.00    0.96279   0.96562   26.200
 5449.00    0.95470   0.96596   26.287
 5450.00    0.95360   0.96367   25.971
 5451.00    0.95594   0.96016   25.929
 5452.00    0.95719   0.95671   25.954
 5453.00    0.95621   0.95423   25.665
 5454.00    0.95865   0.95374   25.284
 5455.00    0.96861   0.95647   25.073
 5456.00    0.98138   0.96145   24.836
 5457.00    0.99061   0.96576   24.383
 5458.00    0.99469   0.96740   23.880
 5459.00    0.99333   0.96641   23.533
 5460.00    0.98505   0.96447   -2.000
 5461.00    0.97126   0.96305   -2.000
 5462.00    0.95886   0.96293   -2.000
 5463.00    0.95574   0.96477   -2.000
 5464.00    0.96688   0.96750   -2.000
 5465.00    0.98945   0.96906   -2.000
 5466.00    1.01192   0.96887   -2.000
 5467.00    1.02538   0.96715   -2.000
 5468.00    1.02887   0.96322   -2.000
 5469.00    1.02333   0.95658   -2.000
 5470.00    1.00968   0.94845   -2.000
 5471.00    0.99534   0.94033   -2.000
 5472.00    0.99378   0.93281   -2.000
 5473.00    1.00892   0.92684   -2.000
 5474.00    1.03178   0.92269   -2.000
 5475.00    1.05414   0.92013   -2.000
 5476.00    1.07269   0.92090   -2.000
 5477.00    1.08340   0.92621   -2.000
 5478.00    1.08112   0.93360   -2.000
 5479.00    1.06500   0.93985   -2.000
 5480.00    1.03925   0.94474   -2.000
 5481.00    1.00960   0.95008   -2.000
 5482.00    0.98158   0.95604   -2.000
 5483.00    0.95882   0.96105   -2.000
 5484.00    0.94388   0.96409   24.234
 5485.00    0.94153   0.96484   24.652
 5486.00    0.95446   0.96405   24.743
 5487.00    0.97229   0.96375   24.558
 5488.00    0.97910   0.96484   24.455
 5489.00    0.97483   0.96608   24.714
 5490.00    0.97109   0.96671   25.334
 5491.00    0.97415   0.96684   25.703
 5492.00    0.98288   0.96663   25.221
 5493.00    0.99114   0.96665   24.656
 5494.00    0.99236   0.96681   24.979
 5495.00    0.98593   0.96596   25.595
 5496.00    0.97569   0.96405   25.318
 5497.00    0.96604   0.96248   24.552
 5498.00    0.96068   0.96113   24.303
 5499.00    0.96174   0.95790   24.615
 5500.00    0.96808   0.95290   25.002
 5501.00    0.97378   0.94863   25.059
 5502.00    0.97247   0.94630   24.725
 5503.00    0.96267   0.94506   24.404
 5504.00    0.94772   0.94374   24.439
 5505.00    0.93456   0.94189   24.656
 5506.00    0.92850   0.94060   24.747
 5507.00    0.92866   0.94008   24.679
 5508.00    0.93129   0.93897   24.499
 5509.00    0.93326   0.93719   24.154
 5510.00    0.93264   0.93600   23.777
 5511.00    0.92922   0.93667   23.797
 5512.00    0.92605   0.94043   24.220
 5513.00    0.92973   0.94713   24.204
 5514.00    0.94324   0.95539   23.372
 5515.00    0.96195   0.96399   22.563
 5516.00    0.97983   0.97203   22.387
 5517.00    0.99356   0.97868   22.675
 5518.00    1.00171   0.98265   22.781
 5519.00    1.00397   0.98312   22.067
 5520.00    1.00055   0.98052   21.686
 5521.00    0.99176   0.97552   24.141
 5522.00    0.97764   0.96898   26.830
 5523.00    0.95856   0.96216   19.778
 5524.00    0.93861   0.95601   12.621
 5525.00    0.92551   0.95121   10.204
 5526.00    0.92405   0.94822   10.324
 5527.00    0.93347   0.94758   11.060
 5528.00    0.94793   0.94977   10.940
 5529.00    0.95928   0.95368    9.999
 5530.00    0.96547   0.95713    9.703
 5531.00    0.97099   0.95925   11.942
 5532.00    0.97891   0.96077   19.548
 5533.00    0.98878   0.96258   29.134
 5534.00    0.99819   0.96516   26.324
 5535.00    1.00410   0.96876   23.251
 5536.00    1.00507   0.97248   24.088
 5537.00    1.00153   0.97538   25.351
 5538.00    0.99502   0.97776   25.255
 5539.00    0.98775   0.97954   24.998
 5540.00    0.98201   0.98017   25.112
 5541.00    0.97948   0.97995   25.177
 5542.00    0.97994   0.98001   25.029
 5543.00    0.98235   0.98145   24.833
 5544.00    0.98725   0.98427   24.746
 5545.00    0.99516   0.98756   24.786
 5546.00    1.00340   0.99092   24.748
 5547.00    1.00752   0.99375   24.447
 5548.00    1.00452   0.99491   24.114
 5549.00    0.99459   0.99420   24.050
 5550.00    0.98270   0.99212   24.152
 5551.00    0.97526   0.98896   24.127
 5552.00    0.97538   0.98528   23.854
 5553.00    0.98230   0.98200   23.428
 5554.00    0.99165   0.97961   23.088
 5555.00    0.99919   0.97768   22.996
 5556.00    1.00465   0.97527   23.048
 5557.00    1.00859   0.97235   23.023
 5558.00    1.00896   0.96936   22.775
 5559.00    1.00313   0.96588   22.406
 5560.00    0.99032   0.96169   22.325
 5561.00    0.97374   0.95735   22.634
 5562.00    0.96141   0.95352   22.733
 5563.00    0.95879   0.95058   22.308
 5564.00    0.96343   0.94846   22.021
 5565.00    0.96881   0.94707   22.315
 5566.00    0.96815   0.94634   22.765
 5567.00    0.95951   0.94641   22.937
 5568.00    0.94815   0.94742   22.983
 5569.00    0.94116   0.94941   23.051
 5570.00    0.94372   0.95210   22.939
 5571.00    0.95682   0.95459   22.597
 5572.00    0.97637   0.95716   22.282
 5573.00    0.99431   0.96100   21.978
 5574.00    1.00092   0.96497   21.331
 5575.00    0.99231   0.96742   20.497
 5576.00    0.97317   0.96868   20.091
 5577.00    0.95284   0.96877   20.109
 5578.00    0.94127   0.96700   19.902
 5579.00    0.94049   0.96299   19.364
 5580.00    0.94373   0.95598   19.057
 5581.00    0.94431   0.94615   19.216
 5582.00    0.93907   0.93515   19.592
 5583.00    0.92834   0.92402   19.739
 5584.00    0.91605   0.91363   19.493
 5585.00    0.90998   0.90524   20.019
 5586.00    0.91775   0.90007   22.733
 5587.00    0.93593   0.89910   23.144
 5588.00    0.95271   0.90207   16.217
 5589.00    0.96207   0.90830   11.176
 5590.00    0.96570   0.91633    9.779
 5591.00    0.96885   0.92355   10.131
 5592.00    0.97575   0.92860   10.482
 5593.00    0.98219   0.93196   10.255
 5594.00    0.97854   0.93420   10.087
 5595.00    0.95859   0.93478   10.372
 5596.00    0.92485   0.93258   11.039
 5597.00    0.89389   0.92890   11.309
 5598.00    0.88352   0.92735   10.726
 5599.00    0.89099   0.92935   10.938
 5600.00    0.90378   0.93419   14.277
 5601.00    0.92046   0.94164   22.382
 5602.00    0.94342   0.95163   26.609
 5603.00    0.96532   0.96328   23.086
 5604.00    0.97644   0.97438   21.963
 5605.00    0.97599   0.98288   23.192
 5606.00    0.97005   0.98801   23.786
 5607.00    0.96687   0.98945   23.540
 5608.00    0.97014   0.98658   23.686
 5609.00    0.97327   0.97953   24.077
 5610.00    0.96987   0.97049   24.150
 5611.00    0.96360   0.96135   24.127
 5612.00    0.95959   0.95206   24.316
 5613.00    0.95650   0.94261   24.432
 5614.00    0.95103   0.93497   24.287
 5615.00    0.94235   0.93239   24.330
 5616.00    0.93275   0.93458   24.836
 5617.00    0.92695   0.93728   25.347
 5618.00    0.92602   0.93774   25.341
 5619.00    0.92440   0.93713   24.865
 5620.00    0.91816   0.93721   24.380
 5621.00    0.90961   0.93751   24.436
 5622.00    0.90193   0.93726   25.102
 5623.00    0.89645   0.93759   25.719
 5624.00    0.89575   0.94072   25.659
 5625.00    0.90402   0.94717   24.967
 5626.00    0.92074   0.95468   24.268
 5627.00    0.93898   0.96112   24.301
 5628.00    0.95208   0.96594   24.951
 5629.00    0.95648   0.96858   25.155
 5630.00    0.95080   0.96832   24.687
 5631.00    0.93591   0.96525   24.493
 5632.00    0.91703   0.96055   24.742
 5633.00    0.90256   0.95547   24.636
 5634.00    0.89774   0.95047   24.056
 5635.00    0.90295   0.94564   23.681
 5636.00    0.91554   0.94189   23.669
 5637.00    0.93112   0.94010   23.616
 5638.00    0.94534   0.93997   23.314
 5639.00    0.95482   0.94062   22.923
 5640.00    0.95796   0.94168   22.785
 5641.00    0.95513   0.94389   23.164
 5642.00    0.94845   0.94712   23.721
 5643.00    0.94113   0.95019   23.797
 5644.00    0.93637   0.95283   23.586
 5645.00    0.93624   0.95541   23.750
 5646.00    0.94018   0.95782   24.124
 5647.00    0.94513   0.95927   24.088
 5648.00    0.94653   0.95891   23.823
 5649.00    0.94098   0.95731   23.898
 5650.00    0.93006   0.95547   24.218
 5651.00    0.91849   0.95215   24.357
 5652.00    0.91001   0.94559   24.365
 5653.00    0.90696   0.93723   24.459
 5654.00    0.91040   0.93013   24.389
 5655.00    0.91930   0.92499   23.847
 5656.00    0.92949   0.92021   23.080
 5657.00    0.93590   0.91608   22.433
 5658.00    0.93548   0.91585   21.874
 5659.00    0.92866   0.92023   21.361
 5660.00    0.92037   0.92557   21.151
 5661.00    0.91746   0.92961   21.460
 5662.00    0.92545   0.93369   22.161
 5663.00    0.94393   0.93886   22.915
 5664.00    0.96342   0.94379   23.338
 5665.00    0.97318   0.94732   23.352
 5666.00    0.96862   0.95026   23.397
 5667.00    0.95395   0.95424   23.721
 5668.00    0.94225   0.95934   23.908
 5669.00    0.94287   0.96448   23.642
 5670.00    0.95343   0.96941   23.254
 5671.00    0.96847   0.97427   23.067
 5672.00    0.98522   0.97807   23.032
 5673.00    1.00236   0.97950   22.960
 5674.00    1.01819   0.97870   22.676
 5675.00    1.02680   0.97664   22.112
 5676.00    1.01858   0.97313   21.349
 5677.00    0.99404   0.96788   20.612
 5678.00    0.96724   0.96207   20.168
 5679.00    0.94880   0.95697   20.047
 5680.00    0.93910   0.95219   20.041
 5681.00    0.93383   0.94722   20.029
 5682.00    0.92795   0.94336   20.090
 5683.00    0.92068   0.94211   20.409
 5684.00    0.91579   0.94298   21.148
 5685.00    0.91599   0.94469   22.028
 5686.00    0.92161   0.94737   22.357
 5687.00    0.93349   0.95168   22.271
 5688.00    0.95193   0.95718   22.687
 5689.00    0.97098   0.96262   23.671
 5690.00    0.98133   0.96689   24.299
 5691.00    0.98276   0.96941   24.119
 5692.00    0.98285   0.96945   23.577
 5693.00    0.98502   0.96698   23.198
 5694.00    0.98757   0.96286   23.247
 5695.00    0.98822   0.95756   23.563
 5696.00    0.98566   0.95128   23.765
 5697.00    0.98051   0.94476   23.803
 5698.00    0.97424   0.93925   23.892
 5699.00    0.96690   0.93468   24.078
 5700.00    0.95905   0.92987   24.213
 5701.00    0.95570   0.92499   24.084
 5702.00    0.96130   0.92054   23.622
 5703.00    0.97102   0.91599   23.124
 5704.00    0.97650   0.91097   22.877
 5705.00    0.97627   0.90598   22.707
 5706.00    0.97417   0.90238   22.384
 5707.00    0.97496   0.90169   22.163
 5708.00    0.98049   0.90444   22.274
 5709.00    0.98622   0.91047   22.330
 5710.00    0.98721   0.91882   21.994
 5711.00    0.98517   0.92847   21.772
 5712.00    0.98409   0.93915   22.097
 5713.00    0.98499   0.94977   22.462
 5714.00    0.98724   0.95902   22.301
 5715.00    0.99031   0.96680   21.995
 5716.00    0.99387   0.97339   21.966
 5717.00    0.99767   0.97888   21.934
 5718.00    1.00133   0.98336   21.643
 5719.00    1.00421   0.98660   21.392
 5720.00    1.00614   0.98823   21.397
 5721.00    1.00773   0.98807   21.422
 5722.00    1.00938   0.98654   21.361
 5723.00    1.01053   0.98444   21.549
 5724.00    1.01004   0.98199   22.060
 5725.00    1.00656   0.97864   22.356
 5726.00    0.99993   0.97507   22.277
 5727.00    0.99214   0.97338   22.472
 5728.00    0.98881   0.97394   23.087
 5729.00    0.99748   0.97488   23.261
 5730.00    1.01589   0.97522   22.696
 5731.00    1.02973   0.97601   22.228
 5732.00    1.02794   0.97791   22.407
 5733.00    1.01031   0.97977   23.115
 5734.00    0.98911   0.98050   23.793
 5735.00    0.98365   0.98023   23.685
 5736.00    0.99804   0.97948   22.982
 5737.00    1.01838   0.97858   22.638
 5738.00    1.03143   0.97789   22.784
 5739.00    1.03145   0.97780   22.775
 5740.00    1.02059   0.97808    0.000
 5741.00    1.00603   0.97785    0.000
 5742.00    0.99172   0.97666    0.000
 5743.00    0.97857   0.97543    0.000
 5744.00    0.97076   0.97478    0.000
 5745.00    0.97342   0.97363    0.000
 5746.00    0.98331   0.97058    0.000
 5747.00    0.99142   0.96611    0.000
 5748.00    0.99356   0.96222    0.000
 5749.00    0.99056   0.95999    0.000
 5750.00    0.98421   0.95885    0.000
 5751.00    0.97678   0.95806    0.000
 5752.00    0.97174   0.95784    0.000
 5753.00    0.97275   0.95895    0.000
 5754.00    0.98173   0.96126    0.000
 5755.00    0.99826   0.96321    0.000
 5756.00    1.01910   0.96324    0.000
 5757.00    1.03941   0.96156    0.000
 5758.00    1.05463   0.95980    0.000
 5759.00    1.06239   0.95928    0.000
 5760.00    1.06450   0.96014    0.000
 5761.00    1.06360   0.96250    0.000
 5762.00    1.05919   0.96686    0.000
 5763.00    1.04974   0.97294    0.000
 5764.00    1.03573   0.97873    0.000
 5765.00    1.02069   0.98246    0.000
 5766.00    1.01126   0.98399    0.000
 5767.00    1.01096   0.98390    0.000
 5768.00    1.01511   0.98256    0.000
 5769.00    1.01818   0.98023    0.000
 5770.00    1.01991   0.97744    0.000
 5771.00    1.02057   0.97468    0.000
 5772.00    1.01734   0.97197   -2.000
 5773.00    1.00657   0.96867   -2.000
 5774.00    0.98586   0.96389   -2.000
 5775.00    0.95539   0.95721   -2.000
 5776.00    0.91885   0.94891   -2.000
 5777.00    0.88457   0.94003   -2.000
 5778.00    0.86435   0.93107   -2.000
 5779.00    0.86336   0.92201   -2.000
 5780.00    0.87619   0.91438   -2.000
 5781.00    0.89570   0.91101   -2.000
 5782.00    0.91738   0.91232   -2.000
 5783.00    0.93827   0.91609   -2.000
 5784.00    0.95611   0.92096   -2.000
 5785.00    0.96858   0.92721   -2.000
 5786.00    0.97410   0.93478   -2.000
 5787.00    0.97622   0.94244   -2.000
 5788.00    0.98204   0.94899   -2.000
 5789.00    0.99084   0.95427   -2.000
 5790.00    0.99432   0.95877   -2.000
 5791.00    0.99057   0.96276   -2.000
 5792.00    0.98539   0.96588    0.000
 5793.00    0.98238   0.96853    0.000
 5794.00    0.98167   0.97163    0.000
 5795.00    0.98480   0.97458    0.000
 5796.00    0.99362   0.97661    0.000
 5797.00    1.00450   0.97842    0.000
 5798.00    1.00993   0.98048    0.000
 5799.00    1.00546   0.98173    0.000
 5800.00    0.99187   0.98136    0.000
 5801.00    0.97601   0.97988    0.000
 5802.00    0.96621   0.97781    0.000
 5803.00    0.96352   0.97544    0.000
 5804.00    0.96461   0.97375    0.000
 5805.00    0.96971   0.97358    0.000
 5806.00    0.98105   0.97444    0.000
 5807.00    0.99803   0.97538    0.000
 5808.00    1.01612   0.97603    0.000
 5809.00    1.02667   0.97624    0.000
 5810.00    1.02259   0.97561    0.000
 5811.00    1.00583   0.97434    0.000
 5812.00    0.98506   0.97365    0.000
 5813.00    0.97103   0.97411    0.000
 5814.00    0.97008   0.97523    0.000
 5815.00    0.97797   0.97708    0.000
 5816.00    0.98719   0.98024    0.000
 5817.00    0.99510   0.98422    0.000
 5818.00    1.00157   0.98763    0.000
 5819.00    1.00602   0.98997    0.000
 5820.00    1.00831   0.99156    0.000
 5821.00    1.00958   0.99240    0.000
 5822.00    1.01066   0.99263    0.000
 5823.00    1.01091   0.99282    0.000
 5824.00    1.00915   0.99327    0.000
 5825.00    1.00473   0.99345    0.000
 5826.00    1.00002   0.99306    0.000
 5827.00    1.00083   0.99246    0.000
 5828.00    1.00942   0.99161    0.000
 5829.00    1.02117   0.98998    0.000
 5830.00    1.03217   0.98787    0.000
 5831.00    1.04261   0.98629    0.000
 5832.00    1.05152   0.98502    0.000
 5833.00    1.05508   0.98355    0.000
 5834.00    1.05231   0.98292    0.000
 5835.00    1.04702   0.98408    0.000
 5836.00    1.04351   0.98603    0.000
 5837.00    1.04376   0.98751    0.000
 5838.00    1.04385   0.98872    0.000
 5839.00    1.03542   0.98987    0.000
 5840.00    1.01604   0.99009    0.000
 5841.00    0.99148   0.98857    0.000
 5842.00    0.96998   0.98552    0.000
 5843.00    0.95893   0.98165    0.000
 5844.00    0.96078   0.97745    0.000
 5845.00    0.97249   0.97296    0.000
 5846.00    0.98772   0.96808    0.000
 5847.00    0.99836   0.96270    0.000
 5848.00    0.99714   0.95711    0.000
 5849.00    0.98078   0.95200    0.000
 5850.00    0.95560   0.94716    0.000
 5851.00    0.93382   0.94141    0.000
 5852.00    0.92280   0.93493    0.000
 5853.00    0.92360   0.93013    0.000
 5854.00    0.93300   0.92831    0.000
 5855.00    0.94600   0.92798    0.000
 5856.00    0.95960   0.92806    0.000
 5857.00    0.97117   0.92923    0.000
 5858.00    0.97510   0.93273    0.000
 5859.00    0.96864   0.93782    0.000
 5860.00    0.96121   0.94242    0.000
 5861.00    0.96593   0.94533    0.000
 5862.00    0.98582   0.94773    0.000
 5863.00    1.01323   0.95113    0.000
 5864.00    1.03248   0.95473    0.000
 5865.00    1.03205   0.95735    0.000
 5866.00    1.01770   0.95927    0.000
 5867.00    1.00252   0.96127    0.000
 5868.00    0.99429   0.96303    0.000
 5869.00    0.99496   0.96378    0.000
 5870.00    1.00152   0.96311    0.000
 5871.00    1.00912   0.96108    0.000
 5872.00    1.01385   0.95839    0.000
 5873.00    1.01332   0.95553    0.000
 5874.00    1.00692   0.95202    0.000
 5875.00    0.99520   0.94768    0.000
 5876.00    0.97960   0.94362    0.000
 5877.00    0.96481   0.94027    0.000
 5878.00    0.95905   0.93603    0.000
 5879.00    0.96589   0.93000    0.000
 5880.00    0.97948   0.92272    0.000
 5881.00    0.98899   0.91377    0.000
 5882.00    0.98290   0.90110    0.000
 5883.00    0.95630   0.88272    0.000
 5884.00    0.91425   0.85875    0.000
 5885.00    0.86820   0.83325    0.000
 5886.00    0.83226   0.81130    0.000
 5887.00    0.81464   0.79299    0.000
 5888.00    0.81423   0.77726    0.000
 5889.00    0.82315   0.76668    0.000
 5890.00    0.83060   0.76280    0.000
 5891.00    0.83300   0.76523    0.000
 5892.00    0.83502   0.77375    0.000
 5893.00    0.83981   0.78582    0.000
 5894.00    0.84695   0.79852    0.000
 5895.00    0.85750   0.81359    0.000
 5896.00    0.87440   0.83383    0.000
 5897.00    0.89860   0.85638    0.000
 5898.00    0.92744   0.87650    0.000
 5899.00    0.95333   0.89312    0.000
 5900.00    0.96734   0.90690    0.000
 5901.00    0.96859   0.91787   23.176
 5902.00    0.96337   0.92605   23.161
 5903.00    0.95806   0.93191   23.120
 5904.00    0.95628   0.93566   23.414
 5905.00    0.95668   0.93796   23.863
 5906.00    0.95526   0.93989   23.972
 5907.00    0.95044   0.94113   23.802
 5908.00    0.94339   0.94039   23.774
 5909.00    0.93678   0.93788   24.003
 5910.00    0.93326   0.93541   24.297
 5911.00    0.93342   0.93335   24.332
 5912.00    0.93648   0.93149   23.971
 5913.00    0.94181   0.93016   23.632
 5914.00    0.94884   0.93033   23.679
 5915.00    0.95678   0.93238   23.727
 5916.00    0.96404   0.93526   23.304
 5917.00    0.96774   0.93798   22.738
 5918.00    0.96514   0.94056   22.508
 5919.00    0.95551   0.94304   22.582
 5920.00    0.94090   0.94481   22.757
 5921.00    0.92661   0.94568   23.006
 5922.00    0.91847   0.94589   23.293
 5923.00    0.91996   0.94552   23.381
 5924.00    0.92924   0.94426   23.175
 5925.00    0.93777   0.94236   22.993
 5926.00    0.93891   0.94100   23.068
 5927.00    0.93442   0.94031   23.230
 5928.00    0.92968   0.93935   23.361
 5929.00    0.92948   0.93803   23.687
 5930.00    0.93596   0.93797   24.234
 5931.00    0.94763   0.93968   24.485
 5932.00    0.96119   0.94120   24.188
 5933.00    0.97277   0.94176   23.827
 5934.00    0.97840   0.94263   23.857
 5935.00    0.97525   0.94397   24.344
 5936.00    0.96651   0.94454   24.974
 5937.00    0.96179   0.94445   25.131
 5938.00    0.96690   0.94459   24.725
 5939.00    0.97959   0.94469   24.391
 5940.00    0.99329   0.94445   24.457
 5941.00    1.00045   0.94457   24.696
 5942.00    0.99885   0.94499   24.787
 5943.00    0.99249   0.94454   24.564
 5944.00    0.98557   0.94316   24.192
 5945.00    0.98024   0.94214   24.009
 5946.00    0.97689   0.94117   23.955
 5947.00    0.97405   0.93865   23.680
 5948.00    0.96786   0.93546   23.360
 5949.00    0.95411   0.93424   23.514
 5950.00    0.93417   0.93451   24.004
 5951.00    0.91450   0.93375   24.143
 5952.00    0.90088   0.93242   23.871
 5953.00    0.89573   0.93297   23.700
 5954.00    0.89570   0.93541   23.731
 5955.00    0.89490   0.93799   23.743
 5956.00    0.89300   0.94047   23.828
 5957.00    0.89432   0.94368   24.197
 5958.00    0.90236   0.94757   24.547
 5959.00    0.91730   0.95118   24.380
 5960.00    0.93361   0.95366   23.943
 5961.00    0.94441   0.95517   23.788
 5962.00    0.94914   0.95665   23.894
 5963.00    0.95102   0.95816   23.997
 5964.00    0.95134   0.95930   24.228
 5965.00    0.95030   0.96038   24.809
 5966.00    0.94925   0.96186   25.469
 5967.00    0.94991   0.96312   25.769
 5968.00    0.95283   0.96338   25.774
 5969.00    0.95657   0.96245   25.738
 5970.00    0.95713   0.96015   25.580
 5971.00    0.95199   0.95648   25.246
 5972.00    0.94403   0.95216   25.074
 5973.00    0.93673   0.94786   25.288
 5974.00    0.92940   0.94385   25.550
 5975.00    0.92097   0.94054   25.510
 5976.00    0.91379   0.93822   25.340
 5977.00    0.91156   0.93655   25.252
 5978.00    0.91692   0.93467   25.097
 5979.00    0.92707   0.93241   24.761
 5980.00    0.93226   0.93068   24.428
 5981.00    0.92739   0.92982   24.196
 5982.00    0.91892   0.92900   23.904
 5983.00    0.91444   0.92853   23.540
 5984.00    0.91600   0.93007   23.403
 5985.00    0.92242   0.93347   23.622
 5986.00    0.93117   0.93659   23.944
 5987.00    0.93894   0.93904   24.002
 5988.00    0.94255   0.94199   23.594
 5989.00    0.94178   0.94490   23.102
 5990.00    0.94012   0.94627   23.282
 5991.00    0.94168   0.94615   23.997
 5992.00    0.94926   0.94548   23.995
 5993.00    0.96216   0.94427   23.088
 5994.00    0.97618   0.94237   22.511
 5995.00    0.98707   0.94025   22.651
 5996.00    0.99246   0.93821   22.887
 5997.00    0.99350   0.93606   22.899
 5998.00    0.99422   0.93401   22.944
 5999.00    0.99739   0.93272   23.133
 6000.00    1.00282   0.93174   23.320
 6001.00    1.00653   0.92994   23.505
 6002.00    1.00284   0.92728   23.821
 6003.00    0.99062   0.92477   24.128
 6004.00    0.97313   0.92340   24.165
 6005.00    0.95331   0.92321   24.248
 6006.00    0.93421   0.92314   24.904
 6007.00    0.92211   0.92247   25.617
 6008.00    0.92234   0.92213   25.296
 6009.00    0.92945   0.92312   24.402
 6010.00    0.93250   0.92404   24.112
 6011.00    0.92850   0.92296   24.396
 6012.00    0.92189   0.92077   24.556
 6013.00    0.91901   0.91967   24.434
 6014.00    0.92369   0.91925   24.294
 6015.00    0.93216   0.91779   24.220
 6016.00    0.93787   0.91629   24.126
 6017.00    0.93953   0.91646   23.902
 6018.00    0.93892   0.91758   23.574
 6019.00    0.93657   0.91870   23.434
 6020.00    0.93329   0.92103   23.621
 6021.00    0.93256   0.92496   23.669
 6022.00    0.93744   0.92909   23.266
 6023.00    0.94686   0.93324   23.076
 6024.00    0.95735   0.93821   23.624
 6025.00    0.96532   0.94321   24.277
 6026.00    0.96893   0.94710   24.253
 6027.00    0.96935   0.95065   23.929
 6028.00    0.96810   0.95445   23.959
 6029.00    0.96502   0.95752   24.432
 6030.00    0.96000   0.95939   25.035
 6031.00    0.95469   0.96084   25.219
 6032.00    0.95222   0.96215   24.867
 6033.00    0.95642   0.96274   24.635
 6034.00    0.96797   0.96246   24.775
 6035.00    0.98238   0.96180   24.626
 6036.00    0.99414   0.96119   23.929
 6037.00    0.99956   0.96064   23.386
 6038.00    0.99787   0.96042   23.359
 6039.00    0.99147   0.96087   23.454
 6040.00    0.98471   0.96184   23.289
 6041.00    0.98215   0.96313   22.883
 6042.00    0.98421   0.96487   22.490
 6043.00    0.98627   0.96665   22.384
 6044.00    0.98393   0.96762   22.431
 6045.00    0.97563   0.96793   22.168
 6046.00    0.96362   0.96785   21.804
 6047.00    0.95294   0.96671   22.142
 6048.00    0.94641   0.96423   23.180
 6049.00    0.94348   0.96133   23.891
 6050.00    0.94254   0.95850   23.839
 6051.00    0.94215   0.95528   23.672
 6052.00    0.94227   0.95200   23.719
 6053.00    0.94449   0.94976   23.790
 6054.00    0.95173   0.94870   23.808
 6055.00    0.96567   0.94808   23.918
 6056.00    0.98070   0.94745   24.276
 6057.00    0.98693   0.94683   24.927
 6058.00    0.98057   0.94614   25.575
 6059.00    0.96467   0.94507   25.789
 6060.00    0.94538   0.94326   25.734
 6061.00    0.92960   0.94177   25.860
 6062.00    0.92203   0.94236   25.926
 6063.00    0.92393   0.94485   25.463
 6064.00    0.93225   0.94796   24.926
 6065.00    0.94238   0.95214   25.001
 6066.00    0.95295   0.95792   25.458
 6067.00    0.96419   0.96371   25.575
 6068.00    0.97441   0.96778   25.100
 6069.00    0.98008   0.97006   24.309
 6070.00    0.97696   0.97086   23.649
 6071.00    0.96291   0.97006   23.469
 6072.00    0.94115   0.96747   23.853
 6073.00    0.91929   0.96302   24.550
 6074.00    0.90729   0.95747   24.812
 6075.00    0.91065   0.95221   24.223
 6076.00    0.92393   0.94720   23.600
 6077.00    0.93742   0.94169   23.697
 6078.00    0.94453   0.93701   24.286
 6079.00    0.94419   0.93471   24.746
 6080.00    0.94155   0.93334   24.690
 6081.00    0.94046   0.93155   24.282
 6082.00    0.93824   0.93070   24.211
 6083.00    0.93331   0.93140   24.697
 6084.00    0.93039   0.93174   24.943
 6085.00    0.93267   0.93083   24.527
 6086.00    0.93684   0.93022   24.301
 6087.00    0.93840   0.93064   24.883
 6088.00    0.93548   0.93086   25.923
 6089.00    0.93009   0.93076   26.685
 6090.00    0.92757   0.93198   26.597
 6091.00    0.93084   0.93435   25.893
 6092.00    0.93799   0.93602   25.471
 6093.00    0.94608   0.93675   25.545
 6094.00    0.95290   0.93711   25.462
 6095.00    0.95565   0.93658   25.134
 6096.00    0.95105   0.93426   25.282
 6097.00    0.93801   0.92976   25.877
 6098.00    0.91864   0.92420   25.891
 6099.00    0.89734   0.92045   25.184
 6100.00    0.88001   0.91920   24.720
 6101.00    0.87223   0.91844   24.715
 6102.00    0.87762   0.91850   24.570
 6103.00    0.89469   0.92162   24.103
 6104.00    0.91696   0.92715   23.700
 6105.00    0.93639   0.93246   23.632
 6106.00    0.94659   0.93620   23.935
 6107.00    0.94841   0.93892   24.492
 6108.00    0.94846   0.94177   25.073
 6109.00    0.95186   0.94450   25.474
 6110.00    0.95905   0.94554   25.615
 6111.00    0.96307   0.94459   25.629
 6112.00    0.95504   0.94300   25.698
 6113.00    0.93624   0.94113   25.690
 6114.00    0.91579   0.93763   25.236
 6115.00    0.90153   0.93218   24.064
 6116.00    0.89677   0.92623   22.413
 6117.00    0.89804   0.92050   21.161
 6118.00    0.89974   0.91542   20.922
 6119.00    0.90193   0.91248   21.440
 6120.00    0.90733   0.91148   22.116
 6121.00    0.91532   0.91120   22.742
 6122.00    0.92318   0.91268   23.315
 6123.00    0.92885   0.91626   23.531
 6124.00    0.93097   0.91972   23.255
 6125.00    0.92881   0.92230   23.123
 6126.00    0.92362   0.92472   23.649
 6127.00    0.91995   0.92607   24.321
 6128.00    0.92120   0.92528   24.464
 6129.00    0.92533   0.92263   24.425
 6130.00    0.92973   0.91822   24.644
 6131.00    0.93553   0.91152   24.706
 6132.00    0.94310   0.90292   24.298
 6133.00    0.94816   0.89495   24.004
 6134.00    0.94569   0.89063   24.186
 6135.00    0.93363   0.88975   24.282
 6136.00    0.91627   0.89031   23.799
 6137.00    0.90483   0.89332   23.026
 6138.00    0.90572   0.90065   22.295
 6139.00    0.91406   0.90989   21.620
 6140.00    0.92275   0.91680   21.174
 6141.00    0.92821   0.92143   21.417
 6142.00    0.92954   0.92583   22.473
 6143.00    0.92762   0.92915   23.793
 6144.00    0.92439   0.92973   24.642
 6145.00    0.92181   0.92844   24.696
 6146.00    0.91921   0.92677   24.266
 6147.00    0.91338   0.92512   24.032
 6148.00    0.90434   0.92354   24.319
 6149.00    0.89678   0.92173   24.957
 6150.00    0.89561   0.91937   25.529
 6151.00    0.90355   0.91701   25.579
 6152.00    0.91936   0.91417   25.150
 6153.00    0.93719   0.90898   24.754
 6154.00    0.94680   0.90165   24.643
 6155.00    0.93755   0.89367   24.722
 6156.00    0.90974   0.88417   24.806
 6157.00    0.87427   0.87263   24.786
 6158.00    0.84184   0.86222   24.872
 6159.00    0.81897   0.85544   25.404
 6160.00    0.80585   0.85100   26.162
 6161.00    0.79863   0.84807   26.527
 6162.00    0.79604   0.84868   26.575
 6163.00    0.79882   0.85319   26.772
 6164.00    0.80543   0.85776   26.581
 6165.00    0.81333   0.86020   25.231
 6166.00    0.82313   0.86371   23.566
 6167.00    0.83636   0.86938   22.723
 6168.00    0.85035   0.87362   22.673
 6169.00    0.86075   0.87641   22.950
 6170.00    0.86708   0.88152   23.562
 6171.00    0.87039   0.88800   24.672
 6172.00    0.86887   0.89242   25.816
 6173.00    0.86180   0.89605   26.296
 6174.00    0.85555   0.90078   26.348
 6175.00    0.85746   0.90471   26.235
 6176.00    0.86726   0.90702   -2.000
 6177.00    0.87944   0.90964   -2.000
 6178.00    0.88768   0.91204   -2.000
 6179.00    0.88992   0.91244   -2.000
 6180.00    0.89243   0.91162   -2.000
 6181.00    0.90065   0.91019   -2.000
 6182.00    0.91062   0.90668   -2.000
 6183.00    0.91746   0.90112   -2.000
 6184.00    0.92288   0.89551   -2.000
 6185.00    0.92752   0.89044   -2.000
 6186.00    0.92527   0.88477   -2.000
 6187.00    0.91354   0.87944   20.465
 6188.00    0.89970   0.87767   20.980
 6189.00    0.88931   0.87948   21.170
 6190.00    0.87937   0.88162   21.992
 6191.00    0.86998   0.88426   24.043
 6192.00    0.86994   0.88938   25.992
 6193.00    0.88287   0.89516   26.413
 6194.00    0.90082   0.89855   26.210
 6195.00    0.91492   0.90000   26.293
 6196.00    0.92102   0.90166   26.283
 6197.00    0.91809   0.90386   26.068
 6198.00    0.90769   0.90553   26.263
 6199.00    0.89573   0.90680   26.770
 6200.00    0.89062   0.90893   26.527
 6201.00    0.89275   0.91181   25.576
 6202.00    0.89396   0.91398   25.190
 6203.00    0.89190   0.91470   25.664
 6204.00    0.89159   0.91426   26.131
 6205.00    0.89157   0.91235   25.926
 6206.00    0.88384   0.90843   25.106
 6207.00    0.86894   0.90291   23.967
 6208.00    0.85590   0.89620   22.814
 6209.00    0.84835   0.88826   21.951
 6210.00    0.84339   0.88013   21.651
 6211.00    0.83969   0.87297   22.096
 6212.00    0.83820   0.86706   23.322
 6213.00    0.83879   0.86296   24.823
 6214.00    0.84041   0.86074   25.628
 6215.00    0.84355   0.85962   25.730
 6216.00    0.84963   0.85982   25.969
 6217.00    0.85880   0.86176   26.460
 6218.00    0.87018   0.86420   26.734
 6219.00    0.88330   0.86607   26.715
 6220.00    0.89753   0.86790   26.652
 6221.00    0.91082   0.86993   26.585
 6222.00    0.91947   0.87072   26.453
 6223.00    0.91843   0.86970   26.378
 6224.00    0.90575   0.86796   26.483
 6225.00    0.88837   0.86513   26.595
 6226.00    0.87643   0.86116   26.467
 6227.00    0.87462   0.85830   26.145
 6228.00    0.88102   0.85756   25.848
 6229.00    0.88757   0.85763   25.766
 6230.00    0.88710   0.85944   25.911
 6231.00    0.88071   0.86328   25.992
 6232.00    0.87378   0.86674   25.680
 6233.00    0.87085   0.86887   24.945
 6234.00    0.87373   0.86984   23.991
 6235.00    0.88022   0.86831   23.119
 6236.00    0.88487   0.86469   22.639
 6237.00    0.88052   0.86115   22.839
 6238.00    0.86414   0.85704   23.665
 6239.00    0.84121   0.85225   24.403
 6240.00    0.82348   0.84990   24.466
 6241.00    0.82521   0.84985   24.172
 6242.00    0.85019   0.84978   23.751
 6243.00    0.88498   0.85107   22.875
 6244.00    0.91071   0.85418   21.950
 6245.00    0.91269   0.85641   22.244
 6246.00    0.89179   0.85725   24.264
 6247.00    0.86623   0.85716   26.939
 6248.00    0.84898   0.85482   28.497
 6249.00    0.83864   0.85066   28.346
 6250.00    0.83255   0.84605   27.376
 6251.00    0.83183   0.84117   26.852
 6252.00    0.83533   0.83658   27.084
 6253.00    0.83816   0.83328   27.446
 6254.00    0.83632   0.83198   27.477
 6255.00    0.82930   0.83349   27.246
 6256.00    0.82222   0.83745   26.824
 6257.00    0.82317   0.84203   26.221
 6258.00    0.83244   0.84811   25.805
 6259.00    0.84242   0.85613   26.052
 6260.00    0.84805   0.86274   26.603
 6261.00    0.84916   0.86678   26.450
 6262.00    0.84768   0.87101   25.636
 6263.00    0.84636   0.87516   25.036
 6264.00    0.84747   0.87678   24.766
 6265.00    0.85229   0.87737   24.437
 6266.00    0.86055   0.87905   24.194
 6267.00    0.87052   0.88090   24.491
 6268.00    0.87966   0.88215   25.268
 6269.00    0.88585   0.88346   26.033
 6270.00    0.88936   0.88483   26.440
 6271.00    0.89163   0.88591   26.490
 6272.00    0.89237   0.88636   26.518
 6273.00    0.89095   0.88597   26.868
 6274.00    0.88942   0.88519   27.442
 6275.00    0.89002   0.88416   27.902
 6276.00    0.89107   0.88266   28.167
 6277.00    0.88883   0.88170   28.331
 6278.00    0.88109   0.88198   28.406
 6279.00    0.86934   0.88315   28.357
 6280.00    0.86057   0.88526    0.000
 6281.00    0.86114   0.88808    0.000
 6282.00    0.86986   0.89142    0.000
 6283.00    0.87994   0.89492    0.000
 6284.00    0.88285   0.89777    0.000
 6285.00    0.87614   0.89942    0.000
 6286.00    0.86969   0.89977    0.000
 6287.00    0.87343   0.89906    0.000
 6288.00    0.88653   0.89714    0.000
 6289.00    0.90238   0.89394    0.000
 6290.00    0.91396   0.89046    0.000
 6291.00    0.91767   0.88701    0.000
 6292.00    0.91532   0.88270    0.000
 6293.00    0.90934   0.87819    0.000
 6294.00    0.89988   0.87482    0.000
 6295.00    0.88816   0.87241    0.000
 6296.00    0.87806   0.87006    0.000
 6297.00    0.87182   0.86801    0.000
 6298.00    0.86819   0.86758    0.000
 6299.00    0.86629   0.86936    0.000
 6300.00    0.86690   0.87198    0.000
 6301.00    0.86822   0.87447    0.000
 6302.00    0.86585   0.87804    0.000
 6303.00    0.86167   0.88286    0.000
 6304.00    0.86452   0.88662    0.000
 6305.00    0.87677   0.88859    0.000
 6306.00    0.89109   0.88942    0.000
 6307.00    0.89974   0.88863    0.000
 6308.00    0.89883   0.88637    0.000
 6309.00    0.89034   0.88336    0.000
 6310.00    0.88022   0.87866    0.000
 6311.00    0.87066   0.87307    0.000
 6312.00    0.86031   0.86956    0.000
 6313.00    0.85182   0.86691    0.000
 6314.00    0.85069   0.86323    0.000
 6315.00    0.85659   0.86207    0.000
 6316.00    0.86361   0.86464    0.000
 6317.00    0.86652   0.86746    0.000
 6318.00    0.86390   0.87026    0.000
 6319.00    0.86114   0.87531    0.000
 6320.00    0.86503   0.88146    0.000
 6321.00    0.87187   0.88633   26.963
 6322.00    0.87315   0.89029   27.192
 6323.00    0.87021   0.89371   28.038
 6324.00    0.87016   0.89655   28.405
 6325.00    0.87460   0.89846   28.189
 6326.00    0.88055   0.89850   27.967
 6327.00    0.88488   0.89741   27.750
 6328.00    0.88546   0.89612   27.336
 6329.00    0.88162   0.89414   26.987
 6330.00    0.87342   0.89072   27.078
 6331.00    0.86066   0.88605   27.623
 6332.00    0.84546   0.88202   28.269
 6333.00    0.83500   0.87981   28.348
 6334.00    0.83521   0.87799   27.635
 6335.00    0.84378   0.87588   27.003
 6336.00    0.85420   0.87577   27.078
 6337.00    0.86093   0.87734   27.254
 6338.00    0.86288   0.87789   26.650
 6339.00    0.86546   0.87744   25.194
 6340.00    0.87269   0.87768   23.490
 6341.00    0.88113   0.87898   22.262
 6342.00    0.88626   0.87987   21.807
 6343.00    0.88750   0.88058   21.940
 6344.00    0.88562   0.88286   22.330
 6345.00    0.88085   0.88606   22.653
 6346.00    0.87426   0.88815   22.869
 6347.00    0.86843   0.88936   23.337
 6348.00    0.86466   0.89043   24.073
 6349.00    0.86157   0.89001   24.408
 6350.00    0.85599   0.88688   24.424
 6351.00    0.84491   0.88231   25.441
 6352.00    0.83189   0.87796   27.685
 6353.00    0.82723   0.87261   28.859
 6354.00    0.83355   0.86526   27.909
 6355.00    0.84184   0.85855   27.137
 6356.00    0.84401   0.85407   27.504
 6357.00    0.83814   0.84989   27.928
 6358.00    0.82714   0.84617   27.930
 6359.00    0.81730   0.84552   28.239
 6360.00    0.81565   0.84787   28.679
 6361.00    0.82693   0.85144   28.071
 6362.00    0.84743   0.85616   26.833
 6363.00    0.86695   0.86258   26.504
 6364.00    0.88045   0.87002   27.095
 6365.00    0.88983   0.87684   27.320
 6366.00    0.89899   0.88249   26.746
 6367.00    0.91092   0.88781   26.099
 6368.00    0.92409   0.89310   25.995
 6369.00    0.93392   0.89722   26.565
 6370.00    0.93811   0.89959   27.066
 6371.00    0.93704   0.90121   26.410
 6372.00    0.93190   0.90267   24.947
 6373.00    0.92525   0.90287   23.686
 6374.00    0.92251   0.90141   22.722
 6375.00    0.92674   0.89995   21.854
 6376.00    0.92936   0.89884   21.456
 6377.00    0.91924   0.89718   22.004
 6378.00    0.89939   0.89612   23.355
 6379.00    0.88213   0.89617   24.865
 6380.00    0.87757   0.89616   25.898
 6381.00    0.88857   0.89646   26.136
 6382.00    0.90664   0.89780   25.793
 6383.00    0.91976   0.89889   25.406
 6384.00    0.92256   0.89884   25.492
 6385.00    0.91636   0.89824   26.135
 6386.00    0.90706   0.89711   26.532
 6387.00    0.89913   0.89519   26.097
 6388.00    0.89003   0.89216   25.745
 6389.00    0.87664   0.88816   26.242
 6390.00    0.86161   0.88547   26.859
 6391.00    0.84882   0.88447   26.790
 6392.00    0.83915   0.88277   26.657
 6393.00    0.83327   0.88128   27.122
 6394.00    0.83384   0.88205   27.764
 6395.00    0.84261   0.88234   27.911
 6396.00    0.85813   0.88097   27.458
 6397.00    0.87653   0.88226   26.757
 6398.00    0.89242   0.88543   26.298
 6399.00    0.90097   0.88663   26.327
 6400.00    0.89953   0.88767   26.725
 6401.00    0.88966   0.89024   27.212
 6402.00    0.87743   0.89196   27.482
 6403.00    0.86913   0.89111   27.495
 6404.00    0.86864   0.88935   27.506
 6405.00    0.87615   0.88889   27.297
 6406.00    0.88820   0.88799   26.171
 6407.00    0.90044   0.88514   24.348
 6408.00    0.90937   0.88362   22.817
 6409.00    0.91437   0.88447   21.977
 6410.00    0.91751   0.88434   21.735
 6411.00    0.91977   0.88362   22.131
 6412.00    0.92011   0.88436   23.361
 6413.00    0.91707   0.88465   25.086
 6414.00    0.90981   0.88377   26.158
 6415.00    0.89955   0.88334   26.080
 6416.00    0.88952   0.88310   25.567
 6417.00    0.88362   0.88286   25.149
 6418.00    0.88457   0.88439   24.885
 6419.00    0.89054   0.88757   24.757
 6420.00    0.89675   0.89043   24.789
 6421.00    0.90140   0.89334   25.103
 6422.00    0.90454   0.89678   25.827
 6423.00    0.90277   0.89890   26.797
 6424.00    0.89197   0.89897   27.480
 6425.00    0.87499   0.89806   27.166
 6426.00    0.85896   0.89581   25.632
 6427.00    0.84761   0.89260   23.735
 6428.00    0.84207   0.89054   22.393
 6429.00    0.84434   0.88946   21.841
 6430.00    0.85503   0.88844   22.044
 6431.00    0.86910   0.88807   23.012
 6432.00    0.87874   0.88885   24.649
 6433.00    0.87863   0.89006   26.322
 6434.00    0.86903   0.89035   27.133
 6435.00    0.85835   0.89053   27.076
 6436.00    0.85498   0.89280   26.749
 6437.00    0.85774   0.89599   26.443
 6438.00    0.86158   0.89821   26.248
 6439.00    0.86470   0.90082   26.274
 6440.00    0.86685   0.90406   26.459
 6441.00    0.86685   0.90541   26.371
 6442.00    0.86323   0.90396   25.786
 6443.00    0.85514   0.90125   25.144
 6444.00    0.84395   0.89728   24.917
 6445.00    0.83419   0.89077   25.198
 6446.00    0.83147   0.88405   25.829
 6447.00    0.84008   0.88025   26.436
 6448.00    0.85871   0.87768   26.550
 6449.00    0.87856   0.87597   25.862
 6450.00    0.89067   0.87725   24.647
 6451.00    0.89111   0.88002   23.633
 6452.00    0.88234   0.88249   23.156
 6453.00    0.87247   0.88593   23.044
 6454.00    0.86780   0.88945   23.199
 6455.00    0.86884   0.89077   23.791
 6456.00    0.87128   0.89152   24.867
 6457.00    0.86846   0.89230   26.120
 6458.00    0.85990   0.89069   27.101
 6459.00    0.85270   0.88870   27.486
 6460.00    0.85068   0.88920   27.443
 6461.00    0.85169   0.88979   27.522
 6462.00    0.85534   0.88981   27.743
 6463.00    0.86416   0.89169   27.559
 6464.00    0.87670   0.89435   27.034
 6465.00    0.88767   0.89563   26.824
 6466.00    0.89643   0.89684   26.974
 6467.00    0.90688   0.89780   26.921
 6468.00    0.91888   0.89771   26.516
 6469.00    0.92766   0.89812   26.119
 6470.00    0.92929   0.89853   26.008
 6471.00    0.92241   0.89777   26.261
 6472.00    0.90847   0.89758   26.781
 6473.00    0.89172   0.89820   27.333
 6474.00    0.87880   0.89700   27.662
 6475.00    0.87552   0.89470   27.537
 6476.00    0.88053   0.89325   26.785
 6477.00    0.88732   0.89105   25.575
 6478.00    0.89048   0.88754   24.660
 6479.00    0.88772   0.88523   24.642
 6480.00    0.88101   0.88451   25.129
 6481.00    0.87404   0.88377   25.375
 6482.00    0.86798   0.88313   25.583
 6483.00    0.86309   0.88294   26.300
 6484.00    0.86190   0.88205   27.075
 6485.00    0.86608   0.87921   27.093
 6486.00    0.87184   0.87371   26.673
 6487.00    0.87362   0.86563   26.514
 6488.00    0.86920   0.85602   26.580
 6489.00    0.85875   0.84481   26.659
 6490.00    0.84306   0.83226   27.055
 6491.00    0.82473   0.82151   27.914
 6492.00    0.80917   0.81410   28.402
 6493.00    0.80049   0.80974   27.981
 6494.00    0.79795   0.80938   27.747
 6495.00    0.80054   0.81314   28.459
 6496.00    0.81067   0.82040   29.084
 6497.00    0.82986   0.83002   28.697
 6498.00    0.85504   0.84044   28.244
 6499.00    0.88045   0.85087   28.259
 6500.00    0.89952   0.86078   27.614
 6501.00    0.90756   0.86912   26.153
 6502.00    0.90384   0.87559   25.551
 6503.00    0.89432   0.88075   26.329
 6504.00    0.89093   0.88416   26.938
 6505.00    0.89837   0.88609   26.288
 6506.00    0.90874   0.88761   25.389
 6507.00    0.91412   0.88832   25.056
 6508.00    0.91279   0.88764   25.129
 6509.00    0.90630   0.88671   25.366
 6510.00    0.89743   0.88578   25.753
 6511.00    0.88844   0.88361   26.194
 6512.00    0.88065   0.88104   26.464
 6513.00    0.87549   0.87967   26.675
 6514.00    0.87446   0.87848   27.263
 6515.00    0.87721   0.87738   28.070
 6516.00    0.88152   0.87797   28.263
 6517.00    0.88561   0.87971   27.807
 6518.00    0.88902   0.88127   27.537
 6519.00    0.89263   0.88277   27.645
 6520.00    0.89709   0.88446   27.681
 6521.00    0.89829   0.88568   27.645
 6522.00    0.89045   0.88571   27.930
 6523.00    0.87698   0.88497   28.341
 6524.00    0.86695   0.88430   28.244
 6525.00    0.86048   0.88342   27.670
 6526.00    0.85206   0.88206   27.157
 6527.00    0.84528   0.88104   26.862
 6528.00    0.84891   0.88067    0.000
 6529.00    0.86315   0.88040    0.000
 6530.00    0.88161   0.88035    0.000
 6531.00    0.89994   0.88111    0.000
 6532.00    0.91557   0.88231    0.000
 6533.00    0.92459   0.88319    0.000
 6534.00    0.92350   0.88388    0.000
 6535.00    0.91254   0.88450    0.000
 6536.00    0.89570   0.88418    0.000
 6537.00    0.87989   0.88254    0.000
 6538.00    0.87147   0.87989    0.000
 6539.00    0.87223   0.87611    0.000
 6540.00    0.88320   0.87165    0.000
 6541.00    0.90918   0.86687    0.000
 6542.00    0.95227   0.86164    0.000
 6543.00    1.00464   0.85697    0.000
 6544.00    1.05178   0.85322    0.000
 6545.00    1.07738   0.84958    0.000
 6546.00    1.07191   0.84589    0.000
 6547.00    1.03946   0.84217    0.000
 6548.00    0.99109   0.83782    0.000
 6549.00    0.93859   0.83250    0.000
 6550.00    0.89304   0.82617    0.000
 6551.00    0.86382   0.81837    0.000
 6552.00    0.85693   0.80909    0.000
 6553.00    0.87621   0.79887    0.000
 6554.00    0.93853   0.78696    0.000
 6555.00    1.07839   0.77193    0.000
 6556.00    1.31575   0.75623    0.000
 6557.00    1.63423   0.74310    0.000
 6558.00    1.97051   0.73012    0.000
 6559.00    2.22116   0.71880    0.000
 6560.00    2.30205   0.71629    0.000
 6561.00    2.18231   0.72052    0.000
 6562.00    1.89890   0.72683    0.000
 6563.00    1.54860   0.73883    0.000
 6564.00    1.22908   0.75571    0.000
 6565.00    1.00656   0.77026    0.000
 6566.00    0.89103   0.78246    0.000
 6567.00    0.84300   0.79450    0.000
 6568.00    0.82898   0.80348    0.000
 6569.00    0.83537   0.80946    0.000
 6570.00    0.84854   0.81505    0.000
 6571.00    0.85312   0.82015    0.000
 6572.00    0.84658   0.82496    0.000
 6573.00    0.84070   0.83022    0.000
 6574.00    0.85355   0.83538    0.000
 6575.00    0.90361   0.84041    0.000
 6576.00    1.00084   0.84516    0.000
 6577.00    1.13994   0.84887    0.000
 6578.00    1.29087   0.85198    0.000
 6579.00    1.41167   0.85473    0.000
 6580.00    1.47871   0.85692    0.000
 6581.00    1.48510   0.85888    0.000
 6582.00    1.42583   0.86033    0.000
 6583.00    1.30572   0.86128    0.000
 6584.00    1.15697   0.86189    0.000
 6585.00    1.02414   0.86102    0.000
 6586.00    0.93512   0.85856    0.000
 6587.00    0.89411   0.85614    0.000
 6588.00    0.87957   0.85319    0.000
 6589.00    0.86585   0.84898    0.000
 6590.00    0.85153   0.84607    0.000
 6591.00    0.84736   0.84522    0.000
 6592.00    0.85658   0.84491    0.000
 6593.00    0.87191   0.84609    0.000
 6594.00    0.87644   0.84934    0.000
 6595.00    0.86148   0.85295    0.000
 6596.00    0.84295   0.85642    0.000
 6597.00    0.83912   0.85990    0.000
 6598.00    0.84882   0.86232    0.000
 6599.00    0.86180   0.86341    0.000
 6600.00    0.87007   0.86355    0.000
 6601.00    0.87276   0.86232    0.000
 6602.00    0.87749   0.85998    0.000
 6603.00    0.88706   0.85788    0.000
 6604.00    0.89180   0.85628    0.000
 6605.00    0.88633   0.85489    0.000
 6606.00    0.87921   0.85462    0.000
 6607.00    0.87874   0.85614    0.000
 6608.00    0.88430   0.85870    0.000
 6609.00    0.89016   0.86148   27.319
 6610.00    0.88918   0.86472   27.656
 6611.00    0.87906   0.86848   28.363
 6612.00    0.86467   0.87169   28.453
 6613.00    0.85335   0.87384   27.694
 6614.00    0.85171   0.87557   27.038
 6615.00    0.86161   0.87688   26.934
 6616.00    0.87946   0.87699   26.983
 6617.00    0.89998   0.87586   26.666
 6618.00    0.91744   0.87427   25.833
 6619.00    0.92419   0.87243   25.202
 6620.00    0.91339   0.86970   25.798
 6621.00    0.88937   0.86656   27.247
 6622.00    0.86605   0.86416   27.657
 6623.00    0.85151   0.86187   26.860
 6624.00    0.84521   0.85925   26.619
 6625.00    0.84415   0.85714   27.344
 6626.00    0.84538   0.85514   28.075
 6627.00    0.84754   0.85265   28.169
 6628.00    0.85083   0.85061   27.818
 6629.00    0.85588   0.84896   27.654
 6630.00    0.86246   0.84747   28.158
 6631.00    0.86750   0.84724   28.768
 6632.00    0.86856   0.84801   28.439
 6633.00    0.87096   0.84885   27.530
 6634.00    0.88150   0.85062   27.025
 6635.00    0.89494   0.85277   26.818
 6636.00    0.90100   0.85366   26.383
 6637.00    0.89970   0.85435   26.025
 6638.00    0.89697   0.85539   26.253
 6639.00    0.89421   0.85517   26.723
 6640.00    0.88936   0.85443   26.814
 6641.00    0.88062   0.85486   26.735
 6642.00    0.86920   0.85541   26.916
 6643.00    0.86170   0.85540   27.035
 6644.00    0.86248   0.85613   26.675
 6645.00    0.86528   0.85750   26.220
 6646.00    0.86243   0.85832   26.213
 6647.00    0.85561   0.85873   26.704
 6648.00    0.85122   0.85940   27.415
 6649.00    0.85436   0.85979   27.892
 6650.00    0.86471   0.85949   27.827
 6651.00    0.87435   0.85916   27.392
 6652.00    0.87765   0.85868   26.974
 6653.00    0.87839   0.85736   26.881
 6654.00    0.87813   0.85581   27.102
 6655.00    0.86875   0.85410   27.204
 6656.00    0.84623   0.85122   26.957
 6657.00    0.81921   0.84808   26.721
 6658.00    0.79826   0.84552   26.847
 6659.00    0.78866   0.84248   27.325
 6660.00    0.79077   0.83972   27.784
 6661.00    0.80097   0.83873   27.610
 6662.00    0.81346   0.83857   26.880
 6663.00    0.82210   0.83898   26.479
 6664.00    0.82467   0.84093   26.687
 6665.00    0.82404   0.84373   26.895
 6666.00    0.82434   0.84644   26.796
 6667.00    0.82852   0.84895   26.763
 6668.00    0.83630   0.85087   26.919
 6669.00    0.84417   0.85186   26.949
 6670.00    0.84833   0.85138   26.915
 6671.00    0.84656   0.84922   27.281
 6672.00    0.84000   0.84667   27.879
 6673.00    0.83278   0.84382   27.886
 6674.00    0.82888   0.84018   27.331
 6675.00    0.82963   0.83779   27.093
 6676.00    0.83003   0.83753   27.508
 6677.00    0.82367   0.83775   28.233
 6678.00    0.81827   0.83897   28.618
 6679.00    0.82883   0.84217   28.104
 6680.00    0.85129   0.84551   26.989
 6681.00    0.86758   0.84811   26.058
 6682.00    0.87150   0.85088   25.731
 6683.00    0.86954   0.85325   25.976
 6684.00    0.87013   0.85450   26.171
 6685.00    0.87735   0.85516   25.761
 6686.00    0.88380   0.85544   25.636
 6687.00    0.87941   0.85505   26.756
 6688.00    0.86819   0.85401   27.521
 6689.00    0.86032   0.85243   26.256
 6690.00    0.85526   0.85061   26.516
 6691.00    0.84605   0.84859   30.979
 6692.00    0.82945   0.84629   29.065
 6693.00    0.80921   0.84447   18.221
 6694.00    0.79754   0.84341   12.728
 6695.00    0.80345   0.84262   11.632
 6696.00    0.81912   0.84242    0.000
 6697.00    0.82876   0.84279    0.000
 6698.00    0.82078   0.84313    0.000
 6699.00    0.79008   0.84346    0.000
 6700.00    0.73976   0.84357    0.000
 6701.00    0.68678   0.84337    0.000
 6702.00    0.66420   0.84328    0.000
 6703.00    0.69320   0.84280    0.000
 6704.00    0.76006   0.84191    0.000
 6705.00    0.83038   0.84122    0.000
 6706.00    0.86633   0.83991    0.000
 6707.00    0.85965   0.83769    0.000
 6708.00    0.84821   0.83540    0.000
 6709.00    0.86729   0.83260    0.000
 6710.00    0.91808   0.82902    0.000
 6711.00    0.98230   0.82577    0.000
 6712.00    1.03523   0.82327    0.000
 6713.00    1.06049   0.82123    0.000
 6714.00    1.05659   0.82020    0.000
 6715.00    1.02797   0.82081    0.000
 6716.00    0.98117   0.82259    0.000
 6717.00    0.92954   0.82489    0.000
 6718.00    0.89138   0.82772    0.000
 6719.00    0.87212   0.83083    0.000
 6720.00    0.86087   0.83362    0.000
 6721.00    0.84793   0.83586    0.000
 6722.00    0.83267   0.83756    0.000
 6723.00    0.82553   0.83905    0.000
 6724.00    0.84252   0.84036    0.000
 6725.00    0.88548   0.84120    0.000
 6726.00    0.93871   0.84190    0.000
 6727.00    0.97961   0.84267    0.000
 6728.00    0.98850   0.84302    0.000
 6729.00    0.96574   0.84289    0.000
 6730.00    0.92834   0.84254    0.000
 6731.00    0.88917   0.84175    0.000
 6732.00    0.85576   0.84050    0.000
 6733.00    0.84004   0.83901    0.000
 6734.00    0.84977   0.83738    0.000
 6735.00    0.86653   0.83559    0.000
 6736.00    0.86473   0.83379    0.000
 6737.00    0.85647   0.83232    0.000
 6738.00    0.87046   0.83107    0.000
 6739.00    0.89969   0.82968    0.000
 6740.00    0.91953   0.82860    0.000
 6741.00    0.93187   0.82796    0.000
 6742.00    0.95050   0.82697    0.000
 6743.00    0.96887   0.82580    0.000
 6744.00    0.97302   0.82518    0.000
 6745.00    0.96532   0.82465    0.000
 6746.00    0.95420   0.82381    0.000
 6747.00    0.93763   0.82375    0.000
 6748.00    0.91350   0.82464    0.000
 6749.00    0.89280   0.82545    0.000
 6750.00    0.88545   0.82706    0.000
 6751.00    0.88447   0.82996    0.000
 6752.00    0.87811   0.83269    0.000
 6753.00    0.86323   0.83560   21.964
 6754.00    0.84529   0.83909   22.641
 6755.00    0.83593   0.84185   22.492
 6756.00    0.84267   0.84386   21.691
 6757.00    0.86100   0.84550   20.747
 6758.00    0.87997   0.84597   20.066
 6759.00    0.88808   0.84542   19.808
 6760.00    0.88159   0.84424   20.025
 6761.00    0.86890   0.84224   20.707
 6762.00    0.86237   0.83989   21.594
 6763.00    0.87098   0.83758   22.058
 6764.00    0.88988   0.83528   22.000
 6765.00    0.89997   0.83374   22.204
 6766.00    0.89766   0.83325   22.630
 6767.00    0.90263   0.83333   21.935
 6768.00    0.91549   0.83441   20.284
 6769.00    0.90911   0.83673   19.410
 6770.00    0.88558   0.83935   19.675
 6771.00    0.88503   0.84192   20.097
 6772.00    0.91291   0.84474   20.232
 6773.00    0.92868   0.84695   20.750
 6774.00    0.91897   0.84788   21.998
 6775.00    0.90993   0.84798   23.452
 6776.00    0.91144   0.84695   24.175
 6777.00    0.90808   0.84443   23.527
 6778.00    0.89375   0.84131   22.103
 6779.00    0.87750   0.83787   20.998
 6780.00    0.86717   0.83415   20.447
 6781.00    0.86485   0.83127   20.160
 6782.00    0.86804   0.82943   20.117
 6783.00    0.87148   0.82821   20.546
 6784.00    0.87077   0.82824   21.510
 6785.00    0.86419   0.82922   22.748
 6786.00    0.85475   0.83001   23.494
 6787.00    0.84713   0.83091   22.946
 6788.00    0.84086   0.83199   21.553
 6789.00    0.83360   0.83230   20.205
 6790.00    0.82978   0.83220   18.913
 6791.00    0.83566   0.83251   17.601
 6792.00    0.84848   0.83265   16.919
 6793.00    0.86011   0.83275   17.461
 6794.00    0.86572   0.83349   18.991
 6795.00    0.86436   0.83440   20.694
 6796.00    0.85782   0.83524   22.153
 6797.00    0.84995   0.83613   23.448
 6798.00    0.84584   0.83690   24.446
 6799.00    0.84869   0.83744   24.925
 6800.00    0.85627   0.83740   25.054
 6801.00    0.86321   0.83717   25.136
 6802.00    0.86431   0.83709   25.208
 6803.00    0.85816   0.83633   24.998
 6804.00    0.85011   0.83554   24.052
 6805.00    0.84678   0.83537   22.444
 6806.00    0.85082   0.83471   20.965
 6807.00    0.86214   0.83408   20.121
 6808.00    0.87879   0.83408   19.870
 6809.00    0.89164   0.83388   20.108
 6810.00    0.88321   0.83386   20.872
 6811.00    0.85109   0.83419   21.981
 6812.00    0.82105   0.83456   22.659
 6813.00    0.81752   0.83530   22.180
 6814.00    0.84357   0.83615   20.706
 6815.00    0.88353   0.83703   18.951
 6816.00    0.91040   0.83819   17.562
 6817.00    0.91397   0.83929   16.860
 6818.00    0.90942   0.84027   16.982
 6819.00    0.90052   0.84120   17.958
 6820.00    0.86951   0.84181   19.667
 6821.00    0.82121   0.84198   21.772
 6822.00    0.79228   0.84178   23.592
 6823.00    0.79978   0.84133   24.550
 6824.00    0.82601   0.84061   24.741
 6825.00    0.84967   0.83976   24.569
 6826.00    0.85958   0.83923   24.356
 6827.00    0.85727   0.83888   24.165
 6828.00    0.85337   0.83862   23.906
 6829.00    0.85302   0.83840   23.733
 6830.00    0.85351   0.83789   23.945
 6831.00    0.85182   0.83697   24.312
 6832.00    0.84645   0.83529   24.216
 6833.00    0.83597   0.83266   23.746
 6834.00    0.82122   0.82958   23.468
 6835.00    0.81145   0.82611   23.175
 6836.00    0.81484   0.82250   22.350
 6837.00    0.81389   0.81966   21.608
 6838.00    0.78583   0.81781   21.902
 6839.00    0.75597   0.81715   22.979
 6840.00    0.76830   0.81793   23.680
 6841.00    0.80823   0.81990   23.543
 6842.00    0.82911   0.82258   22.972
 6843.00    0.82522   0.82550   22.230
 6844.00    0.81978   0.82830   21.376
 6845.00    0.82417   0.83042   20.501
 6846.00    0.83449   0.83156   19.824
 6847.00    0.83758   0.83189   19.753
 6848.00    0.82555   0.83105   20.547
 6849.00    0.81284   0.82929   21.773
 6850.00    0.81405   0.82738   22.667
 6851.00    0.81500   0.82477   23.231
 6852.00    0.79955   0.82194   23.918
 6853.00    0.78259   0.82012   24.733
 6854.00    0.78255   0.81839   25.293
 6855.00    0.79032   0.81680   25.171
 6856.00    0.79057   0.81666   24.473
 6857.00    0.78488   0.81696   24.056
 6858.00    0.78224   0.81711   24.402
 6859.00    0.78822   0.81806   24.948
 6860.00    0.80161   0.81930   25.104
 6861.00    0.81372   0.81984   25.194
 6862.00    0.81949   0.82012   25.419
 6863.00    0.82446   0.82049   25.142
 6864.00    0.83306   0.82026   24.257
 6865.00    0.84178   0.81952   23.773
 6866.00    0.85058   0.81915   24.044
 6867.00    0.86722   0.81904   24.162
 6868.00    0.88865   0.81881   23.483
 6869.00    0.89524   0.81899   22.494
 6870.00    0.87965   0.81983   21.775
 6871.00    0.85773   0.82077   21.543
 6872.00    0.84385   0.82163   21.773
 6873.00    0.84021   0.82265   22.231
 6874.00    0.84567   0.82365   22.423
 6875.00    0.85846   0.82410   21.823
 6876.00    0.87033   0.82413   20.852
 6877.00    0.86902   0.82414   20.526
 6878.00    0.85664   0.82415   20.999
 6879.00    0.84931   0.82405   21.595
 6880.00    0.85174   0.82442   22.069
 6881.00    0.85476   0.82582   22.863
 6882.00    0.85527   0.82757   23.940
 6883.00    0.85828   0.82954   24.561
 6884.00    0.86400   0.83241   24.529
 6885.00    0.86750   0.83526   24.406
 6886.00    0.86764   0.83733   24.491
 6887.00    0.86596   0.83937   24.676
 6888.00    0.85813   0.84104   24.759
 6889.00    0.83790   0.84154   24.637
 6890.00    0.80999   0.84167   24.541
 6891.00    0.78934   0.84176   24.703
 6892.00    0.79325   0.84130   24.652
 6893.00    0.82667   0.84076   23.883
 6894.00    0.85965   0.84057   23.234
 6895.00    0.85793   0.84056   23.660
 6896.00    0.83952   0.84065   24.455
 6897.00    0.84062   0.84095   24.249
 6898.00    0.84976   0.84164   23.589
 6899.00    0.83904   0.84234   23.675
 6900.00    0.82141   0.84299   24.264
 6901.00    0.82379   0.84383   24.492
 6902.00    0.84226   0.84441   24.316
 6903.00    0.85784   0.84480   24.176
 6904.00    0.86229   0.84498   24.224
 6905.00    0.85765   0.84440   24.344
 6906.00    0.85162   0.84360   24.276
 6907.00    0.85013   0.84235   23.889
 6908.00    0.85058   0.84027   23.413
 6909.00    0.84593   0.83852   23.087
 6910.00    0.83010   0.83683   22.877
 6911.00    0.80736   0.83497   22.584
 6912.00    0.79720   0.83430   21.967
 6913.00    0.81096   0.83419   21.070
 6914.00    0.83561   0.83416   20.303
 6915.00    0.85354   0.83501   20.009
 6916.00    0.85744   0.83585   20.314
 6917.00    0.84806   0.83617   21.126
 6918.00    0.83168   0.83622   22.062
 6919.00    0.81806   0.83575   22.737
 6920.00    0.81714   0.83477   23.091
 6921.00    0.82699   0.83358   23.334
 6922.00    0.83194   0.83249   23.773
 6923.00    0.82692   0.83171   24.342
 6924.00    0.82500   0.83134   24.465
 6925.00    0.83333   0.83146   23.895
 6926.00    0.84456   0.83191   23.065
 6927.00    0.85014   0.83240   22.500
 6928.00    0.84621   0.83318   22.514
 6929.00    0.83289   0.83399   22.937
 6930.00    0.81454   0.83450   23.180
 6931.00    0.80155   0.83539   23.076
 6932.00    0.80534   0.83641   23.007
 6933.00    0.82089   0.83707   23.030
 6934.00    0.83099   0.83790   22.818
 6935.00    0.83595   0.83854   22.334
 6936.00    0.84988   0.83844   21.895
 6937.00    0.86593   0.83807   21.835
 6938.00    0.86285   0.83722   22.326
 6939.00    0.84500   0.83558   23.046
 6940.00    0.83515   0.83414   23.341
 6941.00    0.83509   0.83279   23.184
 6942.00    0.83066   0.83116   23.063
 6943.00    0.82142   0.83051   23.056
 6944.00    0.81887   0.83028   22.935
 6945.00    0.83033   0.82964   22.690
 6946.00    0.85262   0.82980   22.474
 6947.00    0.86744   0.83007   22.354
 6948.00    0.85758   0.82966   22.299
 6949.00    0.83342   0.82991   22.233
 6950.00    0.81620   0.83053   22.113
 6951.00    0.80753   0.83092   22.028
 6952.00    0.80085   0.83207   22.040
 6953.00    0.80232   0.83375   21.979
 6954.00    0.81879   0.83529   21.687
 6955.00    0.84004   0.83718   21.322
 6956.00    0.85071   0.83911   21.141
 6957.00    0.84621   0.84057   21.239
 6958.00    0.83177   0.84211   21.608
 6959.00    0.81883   0.84329   22.189
 6960.00    0.81674   0.84396   22.816
 6961.00    0.82540   0.84489   23.177
 6962.00    0.83766   0.84538   23.157
 6963.00    0.84330   0.84548   23.115
 6964.00    0.83819   0.84587   23.324
 6965.00    0.82990   0.84555   23.557
 6966.00    0.82414   0.84470   23.579
 6967.00    0.81602   0.84376   23.516
 6968.00    0.80441   0.84157   23.439
 6969.00    0.79965   0.83848   23.133
 6970.00    0.80651   0.83508   22.597
 6971.00    0.81533   0.83079   22.201
 6972.00    0.81604   0.82592   22.050
 6973.00    0.80659   0.82169   21.828
 6974.00    0.79192   0.81863   21.604
 6975.00    0.78137   0.81638   21.969
 6976.00    0.78000   0.81601   22.878
 6977.00    0.78604   0.81809   23.246
 6978.00    0.79813   0.82112   22.725
 6979.00    0.81766   0.82511   22.303
 6980.00    0.84445   0.82994   22.383
 6981.00    0.87355   0.83418   22.477
 6982.00    0.89055   0.83768   22.329
 6983.00    0.87827   0.84036   22.187
 6984.00    0.84426   0.84206   22.216
 6985.00    0.81705   0.84307   22.358
 6986.00    0.80497   0.84348   22.531
 6987.00    0.79537   0.84368   22.641
 6988.00    0.78937   0.84374   22.445
 6989.00    0.80040   0.84361   21.767
 6990.00    0.82382   0.84338   21.052
 6991.00    0.83958   0.84272   20.892
 6992.00    0.83785   0.84183   21.107
 6993.00    0.82201   0.84054   21.092
 6994.00    0.80125   0.83867   20.965
 6995.00    0.78628   0.83685   21.232
 6996.00    0.78404   0.83495   21.625
 6997.00    0.79438   0.83292   21.487
 6998.00    0.80637   0.83134   21.091
 6999.00    0.80702   0.83017   21.117
 7000.00    0.79688   0.82932   21.500
 7001.00    0.78695   0.82886   -2.000
 7002.00    0.78921   0.82879   -2.000
 7003.00    0.80691   0.82914   -2.000
 7004.00    0.82400   0.82956   -2.000
 7005.00    0.82188   0.82986   -2.000
 7006.00    0.80272   0.83016   -2.000
 7007.00    0.78394   0.82987   -2.000
 7008.00    0.78649   0.82907   -2.000
 7009.00    0.81439   0.82806   -2.000
 7010.00    0.83714   0.82626   -2.000
 7011.00    0.82784   0.82462   -2.000
 7012.00    0.80087   0.82371   -2.000
 7013.00    0.78341   0.82268   -2.000
 7014.00    0.78540   0.82246   -2.000
 7015.00    0.79712   0.82346   -2.000
 7016.00    0.79341   0.82433   -2.000
 7017.00    0.76792   0.82524   -2.000
 7018.00    0.75278   0.82633   -2.000
 7019.00    0.76689   0.82697   -2.000
 7020.00    0.78453   0.82735   -2.000
 7021.00    0.78321   0.82768   -2.000
 7022.00    0.77296   0.82821   -2.000
 7023.00    0.77129   0.82912   -2.000
 7024.00    0.78585   0.83032   -2.000
 7025.00    0.80948   0.83184   -2.000
 7026.00    0.82239   0.83339   -2.000
 7027.00    0.81516   0.83500   -2.000
 7028.00    0.79792   0.83631   -2.000
 7029.00    0.78807   0.83688   -2.000
 7030.00    0.80031   0.83768   -2.000
 7031.00    0.83092   0.83836   -2.000
 7032.00    0.85839   0.83821   -2.000
 7033.00    0.87104   0.83907   -2.000
 7034.00    0.87340   0.84079   -2.000
 7035.00    0.86895   0.84213   -2.000
 7036.00    0.85822   0.84459   -2.000
 7037.00    0.85266   0.84813   -2.000
 7038.00    0.87039   0.85119   -2.000
 7039.00    0.91025   0.85423   -2.000
 7040.00    0.95058   0.85747   -2.000
 7041.00    0.96780   0.85969   -2.000
 7042.00    0.95013   0.86100   -2.000
 7043.00    0.91754   0.86166   -2.000
 7044.00    0.90255   0.86097   -2.000
 7045.00    0.89671   0.85925   -2.000
 7046.00    0.87081   0.85625   -2.000
 7047.00    0.84147   0.85183   -2.000
 7048.00    0.84700   0.84693   -2.000
 7049.00    0.87599   0.84119   -2.000
 7050.00    0.88871   0.83511   -2.000
 7051.00    0.87820   0.82968   -2.000
 7052.00    0.86185   0.82469   -2.000
 7053.00    0.85029   0.82034   -2.000
 7054.00    0.84500   0.81675   -2.000
 7055.00    0.84233   0.81412   -2.000
 7056.00    0.83695   0.81202   -2.000
 7057.00    0.82586   0.80991   -2.000
 7058.00    0.81005   0.80865   -2.000
 7059.00    0.79566   0.80758   -2.000
 7060.00    0.78970   0.80602   -2.000
 7061.00    0.79473   0.80520   -2.000
 7062.00    0.80662   0.80439   -2.000
 7063.00    0.81413   0.80344   -2.000
 7064.00    0.81304   0.80369   -2.000
 7065.00    0.81748   0.80429   -2.000
 7066.00    0.83678   0.80523   -2.000
 7067.00    0.85644   0.80750   -2.000
 7068.00    0.85881   0.81018   -2.000
 7069.00    0.84142   0.81280   -2.000
 7070.00    0.81743   0.81571   -2.000
 7071.00    0.81086   0.81831   -2.000
 7072.00    0.82792   0.82032   -2.000
 7073.00    0.84376   0.82151   -2.000
 7074.00    0.84325   0.82190   -2.000
 7075.00    0.84114   0.82143   -2.000
 7076.00    0.84465   0.81955   -2.000
 7077.00    0.83721   0.81668   -2.000
 7078.00    0.81110   0.81260   -2.000
 7079.00    0.78095   0.80740   -2.000
 7080.00    0.76171   0.80228   -2.000
 7081.00    0.75751   0.79637   -2.000
 7082.00    0.76244   0.79043   -2.000
 7083.00    0.76417   0.78597   -2.000
 7084.00    0.75633   0.78148   -2.000
 7085.00    0.74428   0.77790   -2.000
 7086.00    0.74719   0.77600   -2.000
 7087.00    0.78372   0.77405   -2.000
 7088.00    0.82339   0.77325   -2.000
 7089.00    0.80566   0.77346   -2.000
 7090.00    0.74852   0.77362   -2.000
 7091.00    0.73353   0.77476   -2.000
 7092.00    0.76835   0.77621   -2.000
 7093.00    0.79278   0.77791   -2.000
 7094.00    0.79670   0.77991   -2.000
 7095.00    0.81343   0.78170   -2.000
 7096.00    0.83050   0.78356   -2.000
 7097.00    0.80937   0.78499   -2.000
 7098.00    0.77343   0.78617   -2.000
 7099.00    0.77817   0.78715   -2.000
 7100.00    0.81474   0.78739   -2.000
 7101.00    0.83448   0.78723   -2.000
 7102.00    0.82841   0.78693   -2.000
 7103.00    0.81794   0.78629   -2.000
 7104.00    0.81489   0.78512   -2.000
 7105.00    0.81922   0.78386   -2.000
 7106.00    0.82608   0.78295   -2.000
 7107.00    0.82659   0.78216   -2.000
 7108.00    0.80851   0.78153   -2.000
 7109.00    0.77343   0.78143   -2.000
 7110.00    0.75544   0.78193   -2.000
 7111.00    0.77227   0.78251   -2.000
 7112.00    0.77171   0.78314   -2.000
 7113.00    0.71995   0.78388   -2.000
 7114.00    0.69374   0.78422   -2.000
 7115.00    0.75609   0.78435   -2.000
 7116.00    0.83414   0.78379   -2.000
 7117.00    0.84428   0.78291   -2.000
 7118.00    0.80990   0.78211   -2.000
 7119.00    0.78461   0.78026   -2.000
 7120.00    0.78098   0.77831   -2.000
 7121.00    0.79208   0.77654   -2.000
 7122.00    0.81156   0.77421   -2.000
 7123.00    0.82665   0.77195   -2.000
 7124.00    0.81724   0.76960   -2.000
 7125.00    0.78865   0.76767   -2.000
 7126.00    0.78180   0.76669   -2.000
 7127.00    0.80275   0.76584   -2.000
 7128.00    0.79875   0.76606   -2.000
 7129.00    0.76349   0.76753   -2.000
 7130.00    0.76623   0.76910   -2.000
 7131.00    0.80011   0.77161   -2.000
 7132.00    0.75443   0.77437   -2.000
 7133.00    0.64588   0.77624   -2.000
 7134.00    0.65212   0.77845   -2.000
 7135.00    0.79609   0.78040   -2.000
 7136.00    0.89462   0.78096   -2.000
 7137.00    0.88538   0.78134   -2.000
 7138.00    0.88340   0.78169   -2.000
 7139.00    0.92217   0.78086   -2.000
 7140.00    0.91831   0.77988   -2.000
 7141.00    0.86135   0.77891   -2.000
 7142.00    0.82926   0.77695   -2.000
 7143.00    0.84803   0.77584   -2.000
 7144.00    0.87530   0.77529   -2.000
 7145.00    0.87267   0.77423   -2.000
 7146.00    0.82883   0.77487   -2.000
 7147.00    0.76527   0.77659   -2.000
 7148.00    0.72084   0.77819   -2.000
 7149.00    0.71475   0.78053   -2.000
 7150.00    0.74194   0.78322   -2.000
 7151.00    0.78212   0.78580   -2.000
 7152.00    0.81480   0.78750   -2.000
 7153.00    0.84277   0.78852   -2.000
 7154.00    0.87372   0.78940   -2.000
 7155.00    0.88226   0.78899   -2.000
 7156.00    0.84457   0.78792   -2.000
 7157.00    0.80061   0.78661   -2.000
 7158.00    0.79778   0.78453   -2.000
 7159.00    0.79871   0.78280   -2.000
 7160.00    0.75512   0.78172   -2.000
 7161.00    0.71842   0.78080   -2.000
 7162.00    0.74800   0.78086   -2.000
 7163.00    0.78804   0.78229   -2.000
 7164.00    0.77431   0.78439   -2.000
 7165.00    0.76225   0.78711   -2.000
 7166.00    0.81095   0.79021   -2.000
 7167.00    0.85853   0.79289   -2.000
 7168.00    0.83849   0.79526   -2.000
 7169.00    0.79260   0.79712   -2.000
 7170.00    0.76956   0.79764   -2.000
 7171.00    0.73775   0.79748   -2.000
 7172.00    0.68127   0.79689   -2.000
 7173.00    0.66758   0.79504   -2.000
 7174.00    0.72253   0.79297   -2.000
 7175.00    0.75756   0.79114   -2.000
 7176.00    0.73868   0.78895   -2.000
 7177.00    0.77139   0.78710   -2.000
 7178.00    0.88066   0.78526   -2.000
 7179.00    0.91570   0.78363   -2.000
 7180.00    0.82044   0.78277   -2.000
 7181.00    0.74164   0.78114   -2.000
 7182.00    0.75466   0.77939   -2.000
 7183.00    0.76139   0.77819   -2.000
 7184.00    0.71728   0.77633   -2.000
 7185.00    0.70295   0.77510   -2.000
 7186.00    0.74118   0.77451   -2.000
 7187.00    0.75206   0.77395   -2.000
 7188.00    0.70740   0.77462   -2.000
 7189.00    0.66687   0.77573   -2.000
 7190.00    0.67419   0.77676   -2.000
 7191.00    0.72199   0.77826   -2.000
 7192.00    0.76928   0.78024   -2.000
 7193.00    0.76927   0.78190   -2.000
 7194.00    0.73261   0.78302   -2.000
 7195.00    0.71535   0.78435   -2.000
 7196.00    0.73048   0.78533   -2.000
 7197.00    0.74541   0.78590   -2.000
 7198.00    0.74093   0.78612   -2.000
 7199.00    0.72303   0.78560   -2.000
 7200.00    0.71243   0.78497   -2.000
 7201.00    0.72313   0.78378   -2.000
 7202.00    0.72409   0.78251   -2.000
 7203.00    0.68035   0.78143   -2.000
 7204.00    0.64699   0.77995   -2.000
 7205.00    0.70400   0.77977   -2.000
 7206.00    0.80843   0.78038   -2.000
 7207.00    0.85736   0.78099   -2.000
 7208.00    0.83526   0.78279   -2.000
 7209.00    0.78906   0.78460   -2.000
 7210.00    0.75232   0.78611   -2.000
 7211.00    0.73556   0.78809   -2.000
 7212.00    0.73020   0.78983   -2.000
 7213.00    0.72548   0.79111   -2.000
 7214.00    0.72809   0.79247   -2.000
 7215.00    0.74314   0.79368   -2.000
 7216.00    0.75112   0.79454   -2.000
 7217.00    0.73826   0.79528   -2.000
 7218.00    0.72834   0.79611   -2.000
