###################################################################
## OUTPUT of StarlightChains_v04.for    [Cid@UFSC - 01/Apr/2007] ##
###################################################################

## Some input info
2009az.txt                               [arq_obs]
Base.CB07.vall.4m                        [arq_base]
Masks.EmLines.NEW.gm                     [arq_masks]
StCv04.C11.config                        [arq_config]
   66                                    [N_base]
    0                                    [N_YAV_components = # of components with extra extinction!]
    0                                    [i_FitPowerLaw (1/0 = Yes/No)]
-9.99                                    [alpha_PowerLaw]
CCM                                      [red_law_option]
 1.458241                                [q_norm = A(l_norm)/A(V)]

## (Re)Sampling Parameters
 3741.00                                 [l_ini (A)]
 7218.00                                 [l_fin (A)]
    1.00                                 [dl    (A)]     (OBS: dl_cushion =    50.00 A)

## Normalization info
 4020.00                                 [l_norm (A) - for base]
 4010.00                                 [llow_norm (A) - window for f_obs]
 4060.00                                 [lupp_norm (A) - window for f_obs]
4.698921E-17                             [fobs_norm (in input units)]

## S/N
 3691.00                                 [llow_SN (A) - window for S/N]
 7268.00                                 [lupp_SN (A) - window for S/N]
   4.428                                 [S/N in S/N window]
   3.126                                 [S/N in norm. window]
  17.557                                 [S/N_err in S/N window]
  12.395                                 [S/N_err in norm. window]
  1.0000                                 [fscale_chi2]

## etc...
    -2007351                             [idum_orig]
  2384                                   [NOl_eff]
  2379                                   [Nl_eff]
     5    NSIGMA                         [Ntot_cliped & clip_method]
  1951810                                [Nglobal_steps]
   7                                     [N_chains]
  28                                     [NEX0s_base = N_base in EX0s-fits]
 0   0   1        0   2.0   2.062E+01    [Clip-Bug, RC-Crash & Burn-In warning-flags, n_censored_weights, wei_nsig_threshold & wei_limit]
    18     17.782     17.271      0.511  [idt_all, wdt_TotTime, wdt_UsrTime & wdt_SysTime (sec)]

## Synthesis Results - Best model ##

 4.62570E-01                             [chi2/Nl_eff]
     3.51349                             [adev (%)]

   107.06126                             [sum-of-x (%)]
 9.24800E-17                             [Flux_tot (units of input spectrum!)]
 5.96046E-12                             [Mini_tot (???)]
 3.03860E-12                             [Mcor_tot (???)]

-134.78                                  [v0_min  (km/s)]
 170.52                                  [vd_min  (km/s)]
 0.4533                                  [AV_min  (mag)]
 0.0000                                  [YAV_min (mag)]

# j     x_j(%)      Mini_j(%)     Mcor_j(%)     age_j(yr)     Z_j      (L/M)_j    YAV?  Mstars   component_j        a/Fe...       SSP_chi2r SSP_adev(%)   SSP_AV   SSP_x(%)
  1      3.9955     5.2928E-03    1.0382E-02    1.000000E+06  0.00400  1.094E-02    0   1.0000   age020_m42            0.0000     1.8937E+00     7.3221   4.0000    92.4795
  2      0.0000     0.0000E+00    0.0000E+00    3.160000E+06  0.00400  4.007E-02    0   0.9999   age045_m42            0.0000     1.7326E+00     6.5708   3.2993    97.6838
  3      0.0000     0.0000E+00    0.0000E+00    5.010000E+06  0.00400  2.539E-02    0   0.9488   age055_m42            0.0000     1.7687E+00     6.8357   3.6149    95.4798
  4      0.0000     0.0000E+00    0.0000E+00    6.610000E+06  0.00400  2.620E-02    0   0.9220   age061_m42            0.0000     1.6889E+00     6.5698   3.2180    98.2623
  5      0.8913     9.7711E-04    1.6986E-03    1.000000E+07  0.00400  1.322E-02    0   0.8862   age070_m42            0.0000     1.6849E+00     7.1454   2.8758   103.1260
  6      1.5747     2.8950E-03    4.8673E-03    1.445000E+07  0.00400  7.883E-03    0   0.8571   age078_m42            0.0000     1.7538E+00     7.2858   3.2107   100.1928
  7      2.4507     6.7636E-03    1.0845E-02    2.512000E+07  0.00400  5.251E-03    0   0.8174   age090_m42            0.0000     1.7169E+00     7.2958   2.7347   104.2004
  8      2.5519     1.0135E-02    1.5608E-02    4.000000E+07  0.00400  3.649E-03    0   0.7851   age104_m42            0.0000     1.6313E+00     7.0469   2.5122   104.8218
  9      0.0000     0.0000E+00    0.0000E+00    5.500000E+07  0.00400  3.098E-03    0   0.7629   age110_m42            0.0000     1.6043E+00     6.7528   2.6940   103.5378
 10      0.0000     0.0000E+00    0.0000E+00    1.015200E+08  0.00400  2.228E-03    0   0.7207   age116_m42            0.0000     1.5801E+00     6.6488   2.7324   102.8966
 11      0.0000     0.0000E+00    0.0000E+00    2.861200E+08  0.00400  1.093E-03    0   0.6648   age125_m42            0.0000     1.6478E+00     7.0401   2.1441   107.1360
 12      0.0000     0.0000E+00    0.0000E+00    5.088000E+08  0.00400  6.597E-04    0   0.6365   age130_m42            0.0000     1.4734E+00     6.6641   2.1596   106.7535
 13      0.0000     0.0000E+00    0.0000E+00    1.434000E+09  0.00400  2.132E-04    0   0.5798   age139_m42            0.0000     8.8026E-01     5.1141   1.1890   108.6305
 14      0.0000     0.0000E+00    0.0000E+00    4.250000E+09  0.00400  5.895E-05    0   0.5377   age158_m42            0.0000     6.8690E-01     4.0422   0.7828   102.8850
 15      0.0000     0.0000E+00    0.0000E+00    7.500000E+09  0.00400  3.510E-05    0   0.5212   age171_m42            0.0000     6.6007E-01     4.0503   0.6123   101.5075
 16      0.0000     0.0000E+00    0.0000E+00    1.300000E+10  0.00400  2.005E-05    0   0.5034   age193_m42            0.0000     6.7830E-01     4.2326   0.4646   100.2950
 17      0.0000     0.0000E+00    0.0000E+00    1.800000E+10  0.00400  1.525E-05    0   0.4967   age213_m42            0.0000     6.6809E-01     4.1812   0.4358   100.0677
 18      3.9230     4.5923E-03    9.0082E-03    1.000000E+06  0.00800  1.238E-02    0   1.0000   age020_m52            0.0000     1.8856E+00     7.3034   4.0000    92.4979
 19      0.0000     0.0000E+00    0.0000E+00    3.160000E+06  0.00800  3.074E-02    0   0.9966   age045_m52            0.0000     1.8559E+00     7.1863   3.9424    92.4595
 20      0.0000     0.0000E+00    0.0000E+00    5.010000E+06  0.00800  2.668E-02    0   0.9443   age055_m52            0.0000     1.7449E+00     6.8967   3.6938    94.7574
 21      0.0096     6.5264E-06    1.1748E-05    6.610000E+06  0.00800  2.136E-02    0   0.9177   age061_m52            0.0000     1.3713E+00     6.5319   2.3725   104.3741
 22      0.0000     0.0000E+00    0.0000E+00    1.000000E+07  0.00800  1.215E-02    0   0.8827   age070_m52            0.0000     1.7537E+00     7.5163   3.0415   103.6013
 23      4.2871     7.1274E-03    1.1957E-02    1.445000E+07  0.00800  8.717E-03    0   0.8552   age078_m52            0.0000     1.6784E+00     7.1560   3.1723   101.7294
 24      2.3350     6.0514E-03    9.6885E-03    2.512000E+07  0.00800  5.592E-03    0   0.8162   age090_m52            0.0000     1.6643E+00     7.2533   2.7959   105.5929
 25      3.1103     1.1570E-02    1.7795E-02    4.000000E+07  0.00800  3.896E-03    0   0.7841   age104_m52            0.0000     1.6247E+00     7.0433   2.7214   105.8399
 26      0.0000     0.0000E+00    0.0000E+00    1.015200E+08  0.00800  2.148E-03    0   0.7226   age116_m52            0.0000     1.5379E+00     6.6681   2.6867   104.3789
 27      0.0000     0.0000E+00    0.0000E+00    2.861200E+08  0.00800  9.925E-04    0   0.6683   age125_m52            0.0000     1.3712E+00     6.5160   2.2240   107.7477
 28      0.0000     0.0000E+00    0.0000E+00    9.047900E+08  0.00800  3.141E-04    0   0.6138   age135_m52            0.0000     9.9164E-01     5.3991   1.4538   110.8272
 29      0.0000     0.0000E+00    0.0000E+00    1.434000E+09  0.00800  1.719E-04    0   0.5853   age139_m52            0.0000     7.6240E-01     4.4739   0.8732   108.6281
 30      0.0000     0.0000E+00    0.0000E+00    2.500000E+09  0.00800  7.872E-05    0   0.5600   age150_m52            0.0000     6.2518E-01     4.0536   0.6431   103.9079
 31      0.0000     0.0000E+00    0.0000E+00    4.250000E+09  0.00800  4.336E-05    0   0.5426   age158_m52            0.0000     6.5388E-01     4.1205   0.6287   102.8935
 32      0.0000     0.0000E+00    0.0000E+00    6.250000E+09  0.00800  3.159E-05    0   0.5319   age166_m52            0.0000     6.7460E-01     4.3637   0.4494   101.9067
 33      0.0000     0.0000E+00    0.0000E+00    1.300000E+10  0.00800  1.361E-05    0   0.5073   age193_m52            0.0000     7.2468E-01     4.8632   0.0090   100.0091
 34      0.0013     1.9687E-03    1.9270E-03    1.800000E+10  0.00800  9.886E-06    0   0.4990   age213_m52            0.0000     8.6257E-01     5.4971  -0.0719    98.3912
 35      2.2845     2.1443E-03    4.2061E-03    1.000000E+06  0.02000  1.544E-02    0   1.0000   age020_m62            0.0000     1.8893E+00     7.3193   4.0000    92.5378
 36      0.0209     8.0651E-06    1.5596E-05    3.160000E+06  0.02000  3.762E-02    0   0.9858   age045_m62            0.0000     1.8874E+00     7.3080   3.9551    92.6550
 37      0.0000     0.0000E+00    0.0000E+00    5.010000E+06  0.02000  3.296E-02    0   0.9342   age055_m62            0.0000     1.7055E+00     6.6037   3.5825    96.3291
 38      6.4533     8.1043E-03    1.4087E-02    8.710000E+06  0.02000  1.154E-02    0   0.8861   age067_m62            0.0000     2.6681E+00    10.2921   2.3829   111.9747
 39      0.0000     0.0000E+00    0.0000E+00    1.445000E+07  0.02000  7.663E-03    0   0.8472   age078_m62            0.0000     1.9155E+00     8.2227   2.6534   107.7389
 40      2.0166     6.4486E-03    1.0245E-02    2.512000E+07  0.02000  4.532E-03    0   0.8099   age090_m62            0.0000     2.0272E+00     8.4189   2.6415   107.6890
 41      0.8893     4.7156E-03    7.0254E-03    5.500000E+07  0.02000  2.733E-03    0   0.7595   age110_m62            0.0000     1.5576E+00     6.9263   2.7022   105.1417
 42      0.0000     0.0000E+00    0.0000E+00    1.609000E+08  0.02000  1.369E-03    0   0.6985   age120_m62            0.0000     1.4716E+00     6.6867   2.5735   106.4987
 43      0.0000     0.0000E+00    0.0000E+00    2.861200E+08  0.02000  9.013E-04    0   0.6714   age125_m62            0.0000     1.3656E+00     6.5890   2.3355   108.8976
 44      0.0000     0.0000E+00    0.0000E+00    5.088000E+08  0.02000  5.028E-04    0   0.6449   age130_m62            0.0000     1.1918E+00     6.1132   1.9956   109.9689
 45      0.0000     0.0000E+00    0.0000E+00    9.047900E+08  0.02000  2.428E-04    0   0.6179   age135_m62            0.0000     8.1753E-01     4.8078   1.4233   108.7077
 46      0.0000     0.0000E+00    0.0000E+00    1.434000E+09  0.02000  1.263E-04    0   0.5908   age139_m62            0.0000     6.4599E-01     4.2125   0.9843   106.8574
 47      0.0000     0.0000E+00    0.0000E+00    2.500000E+09  0.02000  5.985E-05    0   0.5673   age150_m62            0.0000     6.5484E-01     4.2915   0.6495   103.9952
 48     13.9172     6.1660E+00    6.6137E+00    4.250000E+09  0.02000  3.271E-05    0   0.5468   age158_m62            0.0000     7.1952E-01     4.8092   0.3782   101.6054
 49     11.0227     1.1746E+01    1.1905E+01    1.000000E+10  0.02000  1.360E-05    0   0.5167   age181_m62            0.0000     9.4408E-01     5.9123   0.0693    99.5291
 50      1.9986     4.0657E+00    3.9980E+00    1.800000E+10  0.02000  7.124E-06    0   0.5013   age213_m62            0.0000     1.2057E+00     6.8807  -0.1048    97.2776
 51      0.0000     0.0000E+00    0.0000E+00    1.000000E+06  0.05000  2.592E-02    0   0.9998   age020_m72            0.0000     1.9042E+00     7.3995   4.0000    92.1739
 52      0.0000     0.0000E+00    0.0000E+00    3.160000E+06  0.05000  4.845E-02    0   0.9577   age045_m72            0.0000     1.8284E+00     6.9973   3.8456    93.5584
 53      0.0000     0.0000E+00    0.0000E+00    5.010000E+06  0.05000  3.072E-02    0   0.9147   age055_m72            0.0000     1.9402E+00     7.9031   3.2934   101.4258
 54      0.0000     0.0000E+00    0.0000E+00    6.610000E+06  0.05000  1.455E-02    0   0.8877   age061_m72            0.0000     4.9286E+00    13.2245   2.4205   114.6930
 55      0.0000     0.0000E+00    0.0000E+00    1.000000E+07  0.05000  9.074E-03    0   0.8524   age070_m72            0.0000     2.4324E+00     8.6333   3.5048   100.4781
 56      0.0000     0.0000E+00    0.0000E+00    2.512000E+07  0.05000  4.250E-03    0   0.7902   age090_m72            0.0000     2.1375E+00     8.0757   3.1810   103.0223
 57      0.0000     0.0000E+00    0.0000E+00    4.000000E+07  0.05000  3.087E-03    0   0.7618   age104_m72            0.0000     2.2035E+00     8.2075   2.9394   105.3349
 58      0.0000     0.0000E+00    0.0000E+00    1.015200E+08  0.05000  1.700E-03    0   0.7096   age116_m72            0.0000     1.6194E+00     7.0659   2.7022   106.7934
 59      0.0000     0.0000E+00    0.0000E+00    2.861200E+08  0.05000  7.384E-04    0   0.6633   age125_m72            0.0000     1.2266E+00     6.2561   2.2203   109.5722
 60      1.6948     6.4314E-02    8.0387E-02    5.088000E+08  0.05000  3.819E-04    0   0.6372   age130_m72            0.0000     8.9176E-01     5.1678   1.7562   109.8950
 61      0.0000     0.0000E+00    0.0000E+00    9.047900E+08  0.05000  1.676E-04    0   0.6110   age135_m72            0.0000     7.1775E-01     4.4965   1.1021   106.0437
 62      0.0000     0.0000E+00    0.0000E+00    1.434000E+09  0.05000  8.837E-05    0   0.5874   age139_m72            0.0000     6.3387E-01     4.4035   0.6521   105.3556
 63      0.0000     0.0000E+00    0.0000E+00    2.500000E+09  0.05000  4.233E-05    0   0.5598   age150_m72            0.0000     7.8361E-01     5.1344   0.3901   101.9373
 64     18.0927     1.8272E+01    1.8814E+01    6.250000E+09  0.05000  1.435E-05    0   0.5249   age166_m72            0.0000     1.0227E+00     6.2031  -0.0160    98.6013
 65     16.1361     3.5905E+01    3.5469E+01    1.300000E+10  0.05000  6.513E-06    0   0.5036   age193_m72            0.0000     1.3931E+00     7.4582  -0.2511    97.6882
 66      7.4040     2.3702E+01    2.2991E+01    1.800000E+10  0.05000  4.527E-06    0   0.4945   age213_m72            0.0000     1.6731E+00     8.2472  -0.3817    96.2502


## Synthesis Results - Average & Chains ##

# j      x_j: min, <> & last-chain-values for 1 ...  7 chains
  1      3.9955      2.3399      2.1627      1.9344      2.6116      2.9381      3.5411      2.3824      2.5086
  2      0.0000      0.2132      0.0000      0.0000      0.0000      0.0000      0.0000      0.5860      0.4002
  3      0.0000      0.8632      0.3523      1.2461      0.3915      0.7071      0.7454      0.0000      1.0970
  4      0.0000      0.2211      0.0000      0.3901      0.0000      0.4393      0.0000      0.7052      0.0000
  5      0.8913      0.1816      0.0000      0.2332      0.5563      0.1571      0.1804      0.0000      0.2701
  6      1.5747      1.3342      2.5126      1.4485      1.2336      1.6811      1.8237      1.4882      0.0122
  7      2.4507      1.0442      1.5528      2.0971      1.0077      0.8370      1.4216      1.2453      0.6351
  8      2.5519      1.5860      1.4315      1.3468      1.9570      1.6107      1.6460      1.9848      1.7610
  9      0.0000      0.1208      0.4782      0.0000      0.0000      0.0000      0.0000      0.0210      0.2333
 10      0.0000      0.1517      0.6970      0.0000      0.0000      0.0000      0.0000      0.0000      0.0538
 11      0.0000      0.1131      0.0000      0.0000      0.0000      0.0000      0.0029      0.0228      0.0000
 12      0.0000      0.3752      0.0000      0.0000      0.0000      0.2679      0.0000      0.2255      0.0000
 13      0.0000      0.5737      1.7202      1.2118      0.1938      1.1370      1.3872      0.5860      0.0000
 14      0.0000      0.8123      0.0000      0.2161      0.0000      0.9423      0.1471      0.6438      0.0000
 15      0.0000      0.9451      1.4210      1.5917      0.3132      1.0755      0.0000      0.3887      0.0000
 16      0.0000      0.6055      0.0000      0.0378      0.4141      0.0000      0.0000      0.0000      0.6843
 17      0.0000      0.5402      0.0405      0.0000      0.0000      0.0000      0.3128      0.0000      0.0000
 18      3.9230      2.9231      2.1142      2.5930      2.9929      3.2627      3.2999      3.7065      3.2678
 19      0.0000      0.0883      0.6856      0.0000      0.0000      0.0000      0.0000      0.0000      0.2177
 20      0.0000      0.2447      0.5401      0.0000      0.0000      0.3645      0.0000      0.0000      0.0000
 21      0.0096      0.3894      0.5423      1.2583      0.6581      0.0000      0.2339      0.4847      0.8581
 22      0.0000      0.1337      0.0000      0.0673      0.0000      0.0000      0.0000      0.0000      0.5195
 23      4.2871      2.5599      2.6611      1.5107      2.4169      3.0524      2.8170      2.7615      3.8985
 24      2.3350      1.4781      1.2374      1.9361      2.2423      1.8225      0.0000      1.7902      2.3471
 25      3.1103      2.1784      1.6893      1.5357      2.2564      1.3530      2.8448      2.6052      3.4113
 26      0.0000      0.1750      0.0000      0.0000      0.0000      0.0674      1.2610      0.1648      0.0000
 27      0.0000      0.1552      0.0068      0.0000      0.0000      0.0000      0.0000      0.3934      0.0000
 28      0.0000      0.2057      0.0000      0.1005      0.0452      0.1854      0.0000      0.6933      0.0000
 29      0.0000      0.4253      0.0000      0.0000      0.0348      0.0000      0.9532      0.0000      0.0000
 30      0.0000      0.6357      0.0000      0.4670      0.0000      0.0000      0.0000      0.0000      0.5600
 31      0.0000      0.5264      0.0000      0.1344      0.0000      0.0000      0.3120      0.0000      0.0000
 32      0.0000      0.5470      0.5785      0.6549      0.0000      0.0000      0.2343      0.0826      0.0000
 33      0.0000      0.9038      2.3905      0.0000      0.0000      0.0000      0.0000      0.0000      0.0000
 34      0.0013      7.3752      5.8116      7.8706      5.8850      6.6204      7.1333      7.4559      8.2202
 35      2.2845      2.2435      1.5320      3.1967      3.1354      2.3940      3.5612      2.5705      1.9721
 36      0.0209      0.1221      0.0681      0.0000      0.8221      1.0379      0.0000      0.0000      0.0000
 37      0.0000      0.1000      0.3767      0.0000      0.0000      0.0000      0.0000      0.6018      0.0000
 38      6.4533      2.7549      3.1024      3.8257      3.3990      2.6937      3.3739      2.4082      3.2923
 39      0.0000      0.1905      0.0000      0.3051      0.0000      0.0000      0.0000      0.0000      0.0000
 40      2.0166      2.1705      3.0836      2.7637      2.2925      2.2235      2.6339      1.8631      2.9596
 41      0.8893      1.1498      1.3155      1.0411      1.9720      1.5062      0.0000      2.0661      1.8013
 42      0.0000      0.1777      0.4563      0.7285      0.0000      0.0000      0.0000      0.0000      0.0000
 43      0.0000      0.2677      0.0000      0.5520      0.0000      1.0695      0.4325      0.3933      0.0000
 44      0.0000      0.2667      0.0000      0.0000      0.2953      0.0000      0.5985      0.0000      0.0000
 45      0.0000      0.2139      0.1004      0.0000      1.0280      0.0000      0.0245      0.0000      0.0000
 46      0.0000      0.4311      0.0000      0.0000      0.0835      0.9691      0.0000      1.6034      0.0000
 47      0.0000      0.6903      0.0000      0.6122      0.0000      0.2372      0.0000      0.0000      0.0000
 48     13.9172     11.2003     12.3044     10.3084     13.0381     10.3434     13.1062      9.8234     12.0678
 49     11.0227      8.9434     10.0140      9.0156      9.7325     10.4422     10.8930     10.7882      9.6171
 50      1.9986      1.8665      2.4652      1.5591      2.4748      0.2513      1.9758      1.5245      2.7289
 51      0.0000      0.1061      0.0000      0.0000      0.0000      0.4449      0.1549      0.0000      0.0053
 52      0.0000      0.2162      0.0000      0.0667      0.0000      0.3664      0.0000      0.0000      0.0000
 53      0.0000      1.3522      0.7519      1.4099      1.5751      1.1959      0.2200      1.7442      0.8795
 54      0.0000      2.5380      2.5065      2.0107      2.6752      2.9314      2.9607      2.8458      2.6558
 55      0.0000      0.1492      1.0252      0.0000      0.0000      0.0000      0.0000      0.0000      0.0000
 56      0.0000      0.1587      0.1153      0.0000      0.0000      0.4454      0.3451      0.0000      0.2734
 57      0.0000      0.2557      0.8902      0.0000      0.0000      0.0000      0.4805      0.0000      0.0000
 58      0.0000      0.0790      0.3614      0.2164      0.0000      0.0000      0.0000      0.0000      0.0000
 59      0.0000      0.2615      0.5452      0.4508      0.0139      0.6315      0.0000      0.0572      0.4193
 60      1.6948      0.2116      0.0000      0.7282      0.5737      0.0000      0.0000      0.0000      0.3202
 61      0.0000      0.4677      0.0000      0.5180      1.3459      0.0000      0.0000      0.7950      0.0000
 62      0.0000      1.3123      0.0000      2.5954      0.0000      1.6167      0.0000      0.5183      1.4538
 63      0.0000      4.5995      6.7931      4.4435      5.3876      3.2582      4.4824      2.9698      3.4955
 64     18.0927     12.6228     12.1414     12.1495     15.2822     16.1521     13.6048     14.7252     13.8650
 65     16.1361     11.4498     11.7454     13.0352     11.0218     12.3010     11.2032     13.6527     12.4543
 66      7.4040      5.0954      4.4818      5.3196      5.4872      5.9520      6.1971      5.0865      5.1672

# j      m_j: min, <> & last-chain-values for 1 ...  7 chains
  1  1.0382E-02  6.8296E-03  6.3444E-03  5.5411E-03  7.5310E-03  8.3731E-03  9.9176E-03  6.6361E-03  6.9680E-03
  2  0.0000E+00  1.6987E-04  0.0000E+00  0.0000E+00  0.0000E+00  0.0000E+00  0.0000E+00  4.4565E-04  3.0345E-04
  3  0.0000E+00  1.0300E-03  4.2252E-04  1.4592E-03  4.6153E-04  8.2384E-04  8.5342E-04  0.0000E+00  1.2457E-03
  4  0.0000E+00  2.4847E-04  0.0000E+00  4.3022E-04  0.0000E+00  4.8200E-04  0.0000E+00  7.5624E-04  0.0000E+00
  5  1.6986E-03  3.8866E-04  0.0000E+00  4.8981E-04  1.1765E-03  3.2824E-04  3.7048E-04  0.0000E+00  5.5024E-04
  6  4.8673E-03  4.6322E-03  8.7676E-03  4.9355E-03  4.2313E-03  5.6987E-03  6.0754E-03  4.9307E-03  4.0310E-05
  7  1.0845E-02  5.1904E-03  7.7574E-03  1.0230E-02  4.9488E-03  4.0620E-03  6.7803E-03  5.9071E-03  3.0040E-03
  8  1.5608E-02  1.0896E-02  9.8849E-03  9.0805E-03  1.3283E-02  1.0804E-02  1.0851E-02  1.3013E-02  1.1513E-02
  9  0.0000E+00  9.5008E-04  3.7795E-03  0.0000E+00  0.0000E+00  0.0000E+00  0.0000E+00  1.5790E-04  1.7461E-03
 10  0.0000E+00  1.5669E-03  7.2359E-03  0.0000E+00  0.0000E+00  0.0000E+00  0.0000E+00  0.0000E+00  5.2834E-04
 11  0.0000E+00  2.1966E-03  0.0000E+00  0.0000E+00  0.0000E+00  0.0000E+00  5.3472E-05  4.2274E-04  0.0000E+00
 12  0.0000E+00  1.1560E-02  0.0000E+00  0.0000E+00  0.0000E+00  8.0596E-03  0.0000E+00  6.6289E-03  0.0000E+00
 13  0.0000E+00  4.9815E-02  1.5014E-01  1.0327E-01  1.6631E-02  9.6404E-02  1.1559E-01  4.8562E-02  0.0000E+00
 14  0.0000E+00  2.3658E-01  0.0000E+00  6.1783E-02  0.0000E+00  2.6796E-01  4.1114E-02  1.7894E-01  0.0000E+00
 15  0.0000E+00  4.4813E-01  6.7718E-01  7.4066E-01  1.4673E-01  4.9788E-01  0.0000E+00  1.7587E-01  0.0000E+00
 16  0.0000E+00  4.8545E-01  0.0000E+00  2.9716E-02  3.2802E-01  0.0000E+00  0.0000E+00  0.0000E+00  5.2210E-01
 17  0.0000E+00  5.6179E-01  4.2294E-02  0.0000E+00  0.0000E+00  0.0000E+00  3.1213E-01  0.0000E+00  0.0000E+00
 18  9.0082E-03  7.5396E-03  5.4809E-03  6.5638E-03  7.6269E-03  8.2165E-03  8.1672E-03  9.1237E-03  8.0209E-03
 19  0.0000E+00  9.1391E-05  7.1336E-04  0.0000E+00  0.0000E+00  0.0000E+00  0.0000E+00  0.0000E+00  2.1443E-04
 20  0.0000E+00  2.7659E-04  6.1349E-04  0.0000E+00  0.0000E+00  4.0217E-04  0.0000E+00  0.0000E+00  0.0000E+00
 21  1.1748E-05  5.3422E-04  7.4771E-04  1.6942E-03  8.9199E-04  0.0000E+00  3.0791E-04  6.3461E-04  1.1203E-03
 22  0.0000E+00  3.1023E-04  0.0000E+00  1.5324E-04  0.0000E+00  0.0000E+00  0.0000E+00  0.0000E+00  1.1468E-03
 23  1.1957E-02  8.0194E-03  8.3788E-03  4.6447E-03  7.4805E-03  9.3363E-03  8.4679E-03  8.2560E-03  1.1622E-02
 24  9.6885E-03  6.8888E-03  5.7965E-03  8.8557E-03  1.0325E-02  8.2935E-03  0.0000E+00  7.9625E-03  1.0410E-02
 25  1.7795E-02  1.3999E-02  1.0911E-02  9.6855E-03  1.4327E-02  8.4897E-03  1.7543E-02  1.5978E-02  2.0863E-02
 26  0.0000E+00  1.8802E-03  0.0000E+00  0.0000E+00  0.0000E+00  7.0659E-04  1.2998E-02  1.6891E-03  0.0000E+00
 27  0.0000E+00  3.3362E-03  1.4789E-04  0.0000E+00  0.0000E+00  0.0000E+00  0.0000E+00  8.0730E-03  0.0000E+00
 28  0.0000E+00  1.2833E-02  0.0000E+00  6.1556E-03  2.7843E-03  1.1293E-02  0.0000E+00  4.1286E-02  0.0000E+00
 29  0.0000E+00  4.6243E-02  0.0000E+00  0.0000E+00  3.7332E-03  0.0000E+00  9.9438E-02  0.0000E+00  0.0000E+00
 30  0.0000E+00  1.4441E-01  0.0000E+00  1.0411E-01  0.0000E+00  0.0000E+00  0.0000E+00  0.0000E+00  1.2106E-01
 31  0.0000E+00  2.1034E-01  0.0000E+00  5.2706E-02  0.0000E+00  0.0000E+00  1.1962E-01  0.0000E+00  0.0000E+00
 32  0.0000E+00  2.9410E-01  3.1261E-01  3.4554E-01  0.0000E+00  0.0000E+00  1.2089E-01  4.2387E-02  0.0000E+00
 33  0.0000E+00  1.0757E+00  2.8596E+00  0.0000E+00  0.0000E+00  0.0000E+00  0.0000E+00  0.0000E+00  0.0000E+00
 34  1.9270E-03  1.1887E+01  9.4143E+00  1.2450E+01  9.3712E+00  1.0418E+01  1.1032E+01  1.1468E+01  1.2608E+01
 35  4.2061E-03  4.6397E-03  3.1845E-03  6.4881E-03  6.4065E-03  4.8340E-03  7.0671E-03  5.0734E-03  3.8812E-03
 36  1.5596E-05  1.0214E-04  5.7241E-05  0.0000E+00  6.7960E-04  8.4795E-04  0.0000E+00  0.0000E+00  0.0000E+00
 37  0.0000E+00  9.0499E-05  3.4264E-04  0.0000E+00  0.0000E+00  0.0000E+00  0.0000E+00  5.1979E-04  0.0000E+00
 38  1.4087E-02  6.7547E-03  7.6453E-03  9.2057E-03  8.2338E-03  6.4485E-03  7.9378E-03  5.6351E-03  7.6819E-03
 39  0.0000E+00  6.7249E-04  0.0000E+00  1.0571E-03  0.0000E+00  0.0000E+00  0.0000E+00  0.0000E+00  0.0000E+00
 40  1.0245E-02  1.2385E-02  1.7686E-02  1.5478E-02  1.2925E-02  1.2388E-02  1.4422E-02  1.0146E-02  1.6072E-02
 41  7.0254E-03  1.0203E-02  1.1732E-02  9.0665E-03  1.7289E-02  1.3050E-02  0.0000E+00  1.7497E-02  1.5211E-02
 42  0.0000E+00  2.8950E-03  7.4724E-03  1.1649E-02  0.0000E+00  0.0000E+00  0.0000E+00  0.0000E+00  0.0000E+00
 43  0.0000E+00  6.3683E-03  0.0000E+00  1.2887E-02  0.0000E+00  2.4838E-02  9.8724E-03  8.9282E-03  0.0000E+00
 44  0.0000E+00  1.0923E-02  0.0000E+00  0.0000E+00  1.1950E-02  0.0000E+00  2.3522E-02  0.0000E+00  0.0000E+00
 45  0.0000E+00  1.7381E-02  8.1967E-03  0.0000E+00  8.2537E-02  0.0000E+00  1.9133E-03  0.0000E+00  0.0000E+00
 46  0.0000E+00  6.4388E-02  0.0000E+00  0.0000E+00  1.2316E-02  1.4134E-01  0.0000E+00  2.2856E-01  0.0000E+00
 47  0.0000E+00  2.0894E-01  0.0000E+00  1.8186E-01  0.0000E+00  7.0092E-02  0.0000E+00  0.0000E+00  0.0000E+00
 48  6.6137E+00  5.9786E+00  6.6013E+00  5.4002E+00  6.8760E+00  5.3907E+00  6.7129E+00  5.0042E+00  6.1301E+00
 49  1.1905E+01  1.0850E+01  1.2210E+01  1.0734E+01  1.1665E+01  1.2369E+01  1.2680E+01  1.2490E+01  1.1103E+01
 50  3.9980E+00  4.1939E+00  5.5674E+00  3.4382E+00  5.4941E+00  5.5128E-01  4.2600E+00  3.2692E+00  5.8351E+00
 51  0.0000E+00  1.3073E-04  0.0000E+00  0.0000E+00  0.0000E+00  5.3505E-04  1.8304E-04  0.0000E+00  6.1852E-06
 52  0.0000E+00  1.3643E-04  0.0000E+00  4.1324E-05  0.0000E+00  2.2580E-04  0.0000E+00  0.0000E+00  0.0000E+00
 53  0.0000E+00  1.2856E-03  7.1855E-04  1.3155E-03  1.4795E-03  1.1102E-03  2.0072E-04  1.5826E-03  7.9573E-04
 54  0.0000E+00  4.9443E-03  4.9077E-03  3.8443E-03  5.1491E-03  5.5758E-03  5.5345E-03  5.2909E-03  4.9236E-03
 55  0.0000E+00  4.4759E-04  3.0906E-03  0.0000E+00  0.0000E+00  0.0000E+00  0.0000E+00  0.0000E+00  0.0000E+00
 56  0.0000E+00  9.4204E-04  6.8778E-04  0.0000E+00  0.0000E+00  2.5816E-03  1.9659E-03  0.0000E+00  1.5445E-03
 57  0.0000E+00  2.0151E-03  7.0499E-03  0.0000E+00  0.0000E+00  0.0000E+00  3.6332E-03  0.0000E+00  0.0000E+00
 58  0.0000E+00  1.0532E-03  4.8414E-03  2.8312E-03  0.0000E+00  0.0000E+00  0.0000E+00  0.0000E+00  0.0000E+00
 59  0.0000E+00  7.5002E-03  1.5718E-02  1.2691E-02  3.9458E-04  1.7685E-02  0.0000E+00  1.5667E-03  1.1446E-02
 60  8.0387E-02  1.1271E-02  0.0000E+00  3.8073E-02  3.0196E-02  0.0000E+00  0.0000E+00  0.0000E+00  1.6233E-02
 61  0.0000E+00  5.4439E-02  0.0000E+00  5.9178E-02  1.5479E-01  0.0000E+00  0.0000E+00  8.8318E-02  0.0000E+00
 62  0.0000E+00  2.7854E-01  0.0000E+00  5.4063E-01  0.0000E+00  3.3503E-01  0.0000E+00  1.0499E-01  2.9365E-01
 63  0.0000E+00  1.9423E+00  2.8831E+00  1.8415E+00  2.2478E+00  1.3434E+00  1.8163E+00  1.1969E+00  1.4047E+00
 64  1.8814E+01  1.4743E+01  1.4253E+01  1.3927E+01  1.7635E+01  1.8420E+01  1.5248E+01  1.6414E+01  1.5411E+01
 65  3.5469E+01  2.8270E+01  2.9147E+01  3.1586E+01  2.6886E+01  2.9654E+01  2.6542E+01  3.2170E+01  2.9263E+01
 66  2.2991E+01  1.7773E+01  1.5712E+01  1.8210E+01  1.8910E+01  2.0270E+01  2.0741E+01  1.6932E+01  1.7151E+01

# AV, chi2 & Mass for <> & i_chain = 1 ...  7 solutions
AV       0.4533      0.4844      0.4843      0.4829      0.4821      0.4843      0.4711      0.4788      0.4721
chi2 4.6257E-01  4.7424E-01  4.7251E-01  4.7168E-01  4.7017E-01  4.7049E-01  4.7071E-01  4.7121E-01  4.7114E-01
Mass 3.0386E-12  2.8205E-12  2.8060E-12  2.8681E-12  2.8459E-12  2.8885E-12  2.8874E-12  2.9334E-12  2.9152E-12
-134.78                                  [v0_min (km/s) before EX0s...]
 170.52                                  [vd_min (km/s) before EX0s...]


## Synthetic spectrum (Best Model) ##l_obs f_obs f_syn wei
 3478    [Nl_obs]
 3741.00    0.77424   0.63469    0.000
 3742.00    0.78492   0.60896    0.000
 3743.00    0.76551   0.57872    0.000
 3744.00    0.72153   0.54922    0.000
 3745.00    0.66198   0.52417    6.202
 3746.00    0.59953   0.50747    6.220
 3747.00    0.54634   0.50347    5.830
 3748.00    0.51167   0.51528    5.560
 3749.00    0.50358   0.54360    5.622
 3750.00    0.52773   0.58440    5.827
 3751.00    0.57654   0.62830    5.951
 3752.00    0.62908   0.66444    5.940
 3753.00    0.67514   0.68564    5.885
 3754.00    0.72017   0.69028    5.932
 3755.00    0.76030   0.68164    6.083
 3756.00    0.77783   0.66701    6.177
 3757.00    0.76369   0.65476    6.203
 3758.00    0.72561   0.65016    6.337
 3759.00    0.68579   0.65245    6.550
 3760.00    0.67049   0.65614    6.580
 3761.00    0.68205   0.65622    6.412
 3762.00    0.70015   0.65145    6.298
 3763.00    0.70874   0.64332    6.335
 3764.00    0.70130   0.63433    6.457
 3765.00    0.67481   0.62673    6.581
 3766.00    0.63138   0.62217    6.656
 3767.00    0.58529   0.62304    6.705
 3768.00    0.55655   0.63104    6.785
 3769.00    0.55471   0.64514    6.867
 3770.00    0.57464   0.66322    6.892
 3771.00    0.59595   0.68373    6.937
 3772.00    0.60210   0.70432    7.098
 3773.00    0.61091   0.72271    7.239
 3774.00    0.64799   0.73885    7.162
 3775.00    0.70022   0.75434    6.996
 3776.00    0.73819   0.77036    6.963
 3777.00    0.75630   0.78650    7.049
 3778.00    0.76311   0.80134    7.128
 3779.00    0.76231   0.81308    7.147
 3780.00    0.75329   0.81911    7.122
 3781.00    0.73476   0.81689    7.093
 3782.00    0.70919   0.80535    7.118
 3783.00    0.68623   0.78509    7.265
 3784.00    0.67441   0.75854    7.494
 3785.00    0.67317   0.73003    7.551
 3786.00    0.67499   0.70496    7.347
 3787.00    0.66900   0.68715    7.245
 3788.00    0.65126   0.67569    7.439
 3789.00    0.63063   0.66648    7.617
 3790.00    0.61476   0.65517    7.515
 3791.00    0.60113   0.63861    7.373
 3792.00    0.58673   0.61588    7.413
 3793.00    0.57445   0.58975    7.564
 3794.00    0.57151   0.56555    7.699
 3795.00    0.58679   0.54884    7.765
 3796.00    0.62268   0.54425    7.772
 3797.00    0.67171   0.55439    7.771
 3798.00    0.72101   0.57920    7.789
 3799.00    0.75794   0.61492    7.811
 3800.00    0.78397   0.65381    7.807
 3801.00    0.81294   0.68757    7.762
 3802.00    0.84104   0.71145    7.765
 3803.00    0.84557   0.72523    7.904
 3804.00    0.82271   0.73194    7.788
 3805.00    0.79361   0.73623    6.961
 3806.00    0.77963   0.74178    6.238
 3807.00    0.79119   0.74909    6.530
 3808.00    0.82040   0.75485    7.782
 3809.00    0.84624   0.75382    8.515
 3810.00    0.85383   0.74303    8.101
 3811.00    0.83920   0.72387    7.953
 3812.00    0.80821   0.70062    8.314
 3813.00    0.77305   0.67796    8.449
 3814.00    0.74548   0.65873    8.185
 3815.00    0.73263   0.64284    7.983
 3816.00    0.73209   0.62902    8.069
 3817.00    0.73563   0.61691    8.376
 3818.00    0.73739   0.60715    8.530
 3819.00    0.73329   0.60103    8.221
 3820.00    0.71791   0.59893    7.888
 3821.00    0.68985   0.59831    8.011
 3822.00    0.65947   0.59503    8.388
 3823.00    0.63814   0.58740    8.459
 3824.00    0.62322   0.57753    8.061
 3825.00    0.60619   0.56860    7.561
 3826.00    0.58476   0.56127    7.483
 3827.00    0.56167   0.55332    7.992
 3828.00    0.54140   0.54185    8.353
 3829.00    0.52651   0.52560    7.864
 3830.00    0.51456   0.50584    7.373
 3831.00    0.50069   0.48595    7.569
 3832.00    0.48065   0.47035    8.254
 3833.00    0.45437   0.46255    8.859
 3834.00    0.42796   0.46332    8.954
 3835.00    0.40815   0.47145    8.693
 3836.00    0.39842   0.48549    8.713
 3837.00    0.40248   0.50473    9.244
 3838.00    0.42539   0.52949    9.665
 3839.00    0.46474   0.55958    9.432
 3840.00    0.50753   0.59249    8.986
 3841.00    0.54385   0.62435    8.837
 3842.00    0.57282   0.65129    9.137
 3843.00    0.59335   0.67056    9.722
 3844.00    0.60164   0.68199   10.019
 3845.00    0.60249   0.68718    9.731
 3846.00    0.61063   0.68816    9.276
 3847.00    0.63429   0.68715    0.000
 3848.00    0.66918   0.68583    0.000
 3849.00    0.70201   0.68499    0.000
 3850.00    0.71687   0.68461    0.000
 3851.00    0.71116   0.68328    0.000
 3852.00    0.69477   0.67871    0.000
 3853.00    0.67104   0.67012    0.000
 3854.00    0.63775   0.65920    0.000
 3855.00    0.60605   0.64824    0.000
 3856.00    0.59398   0.63956    0.000
 3857.00    0.59736   0.63581    0.000
 3858.00    0.59743   0.63879    0.000
 3859.00    0.59470   0.64870    0.000
 3860.00    0.60256   0.66351    0.000
 3861.00    0.61828   0.67870    0.000
 3862.00    0.62927   0.68935    0.000
 3863.00    0.63553   0.69287    0.000
 3864.00    0.64270   0.68989    0.000
 3865.00    0.64349   0.68271    0.000
 3866.00    0.62827   0.67332    0.000
 3867.00    0.60562   0.66306    0.000
 3868.00    0.59204   0.65370    0.000
 3869.00    0.59349   0.64785    0.000
 3870.00    0.60785   0.64783    0.000
 3871.00    0.63117   0.65412    0.000
 3872.00    0.65649   0.66406    0.000
 3873.00    0.67233   0.67257    0.000
 3874.00    0.67194   0.67482    0.000
 3875.00    0.66204   0.66921    0.000
 3876.00    0.65206   0.65830    0.000
 3877.00    0.64333   0.64656    0.000
 3878.00    0.63309   0.63727    0.000
 3879.00    0.61919   0.63112    0.000
 3880.00    0.60330   0.62597    0.000
 3881.00    0.59229   0.61851   10.747
 3882.00    0.59132   0.60686   10.355
 3883.00    0.59884   0.59102   10.033
 3884.00    0.60724   0.57284   10.088
 3885.00    0.60519   0.55715   10.498
 3886.00    0.58838   0.55143   10.914
 3887.00    0.56437   0.56102   10.719
 3888.00    0.54497   0.58501   10.097
 3889.00    0.54067   0.61797    9.975
 3890.00    0.55488   0.65293   10.512
 3891.00    0.58350   0.68328   10.825
 3892.00    0.62496   0.70553   10.402
 3893.00    0.68005   0.72023    9.864
 3894.00    0.73416   0.73008    9.697
 3895.00    0.76005   0.73756    9.974
 3896.00    0.75307   0.74415   10.453
 3897.00    0.73375   0.74995   10.604
 3898.00    0.71438   0.75425   10.302
 3899.00    0.69447   0.75696    9.978
 3900.00    0.68026   0.75800   10.027
 3901.00    0.68356   0.75717   10.607
 3902.00    0.70316   0.75527   11.201
 3903.00    0.72716   0.75566   10.819
 3904.00    0.75059   0.76209    9.932
 3905.00    0.77577   0.77533    9.617
 3906.00    0.80360   0.79389    9.972
 3907.00    0.83160   0.81454   10.533
 3908.00    0.85425   0.83287   10.774
 3909.00    0.86808   0.84594   10.483
 3910.00    0.88005   0.85312   10.124
 3911.00    0.89799   0.85491   10.195
 3912.00    0.91322   0.85157   10.526
 3913.00    0.91166   0.84301   10.605
 3914.00    0.89399   0.82951   10.310
 3915.00    0.86858   0.81171    9.934
 3916.00    0.83863   0.79060    9.867
 3917.00    0.80738   0.76848   10.291
 3918.00    0.78576   0.74828   10.863
 3919.00    0.78157   0.73246   10.992
 3920.00    0.78741   0.72210   10.598
 3921.00    0.79078   0.71571   10.067
 3922.00    0.78534   0.70931    9.812
 3923.00    0.76860   0.69841    9.976
 3924.00    0.73851   0.68062   10.306
 3925.00    0.69057   0.65616   10.437
 3926.00    0.61788   0.62750   10.246
 3927.00    0.52910   0.59797    9.973
 3928.00    0.45676   0.57021   10.079
 3929.00    0.41962   0.54629   10.686
 3930.00    0.40193   0.52803   11.207
 3931.00    0.38974   0.51733   11.102
 3932.00    0.39057   0.51595   10.701
 3933.00    0.41006   0.52490   10.480
 3934.00    0.44053   0.54375   10.610
 3935.00    0.47383   0.57011   10.913
 3936.00    0.50737   0.60003   10.885
 3937.00    0.53979   0.62899   10.483
 3938.00    0.56973   0.65332   10.250
 3939.00    0.59939   0.67149   10.401
 3940.00    0.63435   0.68458   10.705
 3941.00    0.67675   0.69579   10.901
 3942.00    0.72394   0.70880   10.859
 3943.00    0.77271   0.72547   10.514
 3944.00    0.81985   0.74533    9.926
 3945.00    0.85906   0.76644    9.403
 3946.00    0.88235   0.78603    9.269
 3947.00    0.88656   0.80214    9.532
 3948.00    0.87444   0.81471    9.944
 3949.00    0.85235   0.82412   10.244
 3950.00    0.82858   0.83001   10.317
 3951.00    0.81068   0.83183   10.404
 3952.00    0.80237   0.82984   10.818
 3953.00    0.79873   0.82486   11.221
 3954.00    0.79158   0.81675   10.932
 3955.00    0.78124   0.80406   10.265
 3956.00    0.77158   0.78562    9.917
 3957.00    0.75809   0.76079    9.932
 3958.00    0.73088   0.72884    9.744
 3959.00    0.68309   0.69025    8.449
 3960.00    0.62040   0.64763    0.000
 3961.00    0.57058   0.60446    0.000
 3962.00    0.55463   0.56301    0.000
 3963.00    0.55039   0.52326    0.000
 3964.00    0.52504   0.48483    0.000
 3965.00    0.47753   0.44997    0.000
 3966.00    0.43100   0.42350    0.000
 3967.00    0.41726   0.41067    0.000
 3968.00    0.45119   0.41508    0.000
 3969.00    0.51063   0.43729    0.000
 3970.00    0.56519   0.47484    0.000
 3971.00    0.60336   0.52309    0.000
 3972.00    0.63191   0.57667    0.000
 3973.00    0.67097   0.63112    0.000
 3974.00    0.73319   0.68355    0.000
 3975.00    0.81029   0.73195    0.000
 3976.00    0.88326   0.77452    0.000
 3977.00    0.93296   0.80975    0.000
 3978.00    0.95815   0.83658    0.000
 3979.00    0.97921   0.85505    0.000
 3980.00    1.00068   0.86696    0.000
 3981.00    1.00143   0.87558    8.048
 3982.00    0.98750   0.88440    9.087
 3983.00    1.00124   0.89546   10.054
 3984.00    1.04550   0.90841    9.737
 3985.00    1.07170   0.92144    9.257
 3986.00    1.06949   0.93265    9.262
 3987.00    1.07905   0.94133    9.356
 3988.00    1.10242   0.94783    9.204
 3989.00    1.09612   0.95235    8.884
 3990.00    1.05498   0.95514    8.662
 3991.00    1.01741   0.95598    8.766
 3992.00    0.99762   0.95399    9.121
 3993.00    0.98030   0.94974    9.395
 3994.00    0.96208   0.94600    9.529
 3995.00    0.95485   0.94656    9.751
 3996.00    0.96591   0.95380    9.998
 3997.00    0.99192   0.96688    9.980
 3998.00    1.01741   0.98205    9.836
 3999.00    1.02658   0.99375    9.916
 4000.00    1.02661   0.99664   10.107
 4001.00    1.03460   0.98897   10.052
 4002.00    1.04624   0.97396    9.831
 4003.00    1.04620   0.95781    9.778
 4004.00    1.03407   0.94687   10.000
 4005.00    1.01874   0.94562   10.385
 4006.00    1.00382   0.95467   10.612
 4007.00    0.98967   0.97003   10.429
 4008.00    0.97906   0.98630   10.095
 4009.00    0.97652   1.00057    9.942
 4010.00    0.98627   1.01252    9.935
 4011.00    1.00627   1.02243    9.932
 4012.00    1.02342   1.03028    9.956
 4013.00    1.02895   1.03595   10.056
 4014.00    1.03322   1.03958   10.139
 4015.00    1.04985   1.04175   10.090
 4016.00    1.07990   1.04284    9.908
 4017.00    1.11270   1.04261    9.711
 4018.00    1.13020   1.04051    9.671
 4019.00    1.12607   1.03542    9.790
 4020.00    1.11665   1.02674    9.779
 4021.00    1.11565   1.01629    9.552
 4022.00    1.11789   1.00751    9.472
 4023.00    1.11233   1.00285    9.716
 4024.00    1.09293   1.00217   10.007
 4025.00    1.06896   1.00243   10.111
 4026.00    1.06288   0.99838   10.144
 4027.00    1.07035   0.98545   10.159
 4028.00    1.05287   0.96350   10.004
 4029.00    1.00080   0.93785    9.815
 4030.00    0.95032   0.91741   10.007
 4031.00    0.92724   0.91075   10.435
 4032.00    0.92817   0.92156   10.270
 4033.00    0.94359   0.94725    9.605
 4034.00    0.96714   0.98120    9.389
 4035.00    0.99497   1.01477    9.785
 4036.00    1.02386   1.03998   10.212
 4037.00    1.04664   1.05186   10.249
 4038.00    1.05316   1.04921   10.033
 4039.00    1.03719   1.03354    9.837
 4040.00    1.00000   1.00736    9.850
 4041.00    0.95408   0.97433   10.085
 4042.00    0.91569   0.94059   10.407
 4043.00    0.88619   0.91470   10.602
 4044.00    0.86078   0.90532   10.515
 4045.00    0.85522   0.91683   10.309
 4046.00    0.88869   0.94558   10.259
 4047.00    0.94140   0.98095   10.371
 4048.00    0.97576   1.01067   10.467
 4049.00    0.98629   1.02725   10.441
 4050.00    0.98906   1.02969   10.315
 4051.00    0.99152   1.02092   10.240
 4052.00    0.99412   1.00556   10.356
 4053.00    0.99919   0.98862   10.626
 4054.00    1.00697   0.97397   10.897
 4055.00    1.00953   0.96386   11.029
 4056.00    0.99958   0.95851   10.972
 4057.00    0.98102   0.95540   10.818
 4058.00    0.96045   0.95075   10.708
 4059.00    0.93731   0.94168   10.721
 4060.00    0.90973   0.92819   10.869
 4061.00    0.88117   0.91438   11.088
 4062.00    0.85847   0.90668   11.283
 4063.00    0.84896   0.90975   11.382
 4064.00    0.85388   0.92330   11.312
 4065.00    0.86504   0.94166   11.010
 4066.00    0.87784   0.95716   10.624
 4067.00    0.89814   0.96523   10.497
 4068.00    0.92178   0.96596   10.702
 4069.00    0.92678   0.96202   10.841
 4070.00    0.91061   0.95658   10.597
 4071.00    0.90432   0.95173   10.134
 4072.00    0.92361   0.94754    9.777
 4073.00    0.94846   0.94245    9.763
 4074.00    0.95916   0.93639   10.022
 4075.00    0.95533   0.93376   10.143
 4076.00    0.95613   0.94052    9.949
 4077.00    0.98776   0.95862    9.721
 4078.00    1.03478   0.98376    9.674
 4079.00    1.04478   1.00785    9.808
 4080.00    1.01659   1.02437    9.991
 4081.00    1.00573   1.03214   10.031
 4082.00    1.03300   1.03516    9.909
 4083.00    1.06978   1.03944    9.791
 4084.00    1.08775   1.04878    9.804
 4085.00    1.07996   1.06222    9.966
 4086.00    1.07389   1.07524   10.151
 4087.00    1.10455   1.08283   10.168
 4088.00    1.14235   1.08189   10.050
 4089.00    1.12602   1.07221    9.977
 4090.00    1.07301   1.05548    9.929
 4091.00    1.04890   1.03340    9.834
 4092.00    1.05670   1.00675    0.000
 4093.00    1.05545   0.97623    0.000
 4094.00    1.03507   0.94278    0.000
 4095.00    1.00881   0.90768    0.000
 4096.00    0.97798   0.87289    0.000
 4097.00    0.93937   0.84068    0.000
 4098.00    0.90442   0.81402    0.000
 4099.00    0.88658   0.79750    0.000
 4100.00    0.88136   0.79593    0.000
 4101.00    0.88150   0.81154    0.000
 4102.00    0.89757   0.84179    0.000
 4103.00    0.93574   0.87934    0.000
 4104.00    0.97267   0.91520    0.000
 4105.00    0.98692   0.94300    0.000
 4106.00    0.99123   0.96062    0.000
 4107.00    1.00363   0.96968    0.000
 4108.00    1.01897   0.97455    0.000
 4109.00    1.02350   0.97997    0.000
 4110.00    1.01028   0.98876    0.000
 4111.00    0.98723   1.00080    0.000
 4112.00    0.97848   1.01339    0.000
 4113.00    0.99579   1.02277   10.802
 4114.00    1.02251   1.02596   10.969
 4115.00    1.04039   1.02240   10.966
 4116.00    1.04613   1.01436   10.750
 4117.00    1.04206   1.00554   10.468
 4118.00    1.03065   0.99944   10.396
 4119.00    1.01658   0.99837   10.635
 4120.00    1.00693   1.00239   11.023
 4121.00    1.00684   1.00923   11.292
 4122.00    1.01508   1.01577   11.238
 4123.00    1.01485   1.01927   11.003
 4124.00    0.98158   1.01770   10.969
 4125.00    0.92669   1.01025   11.135
 4126.00    0.89584   0.99754   11.113
 4127.00    0.90314   0.98156   10.915
 4128.00    0.92299   0.96492   10.956
 4129.00    0.93928   0.95064   11.215
 4130.00    0.95580   0.94212   11.233
 4131.00    0.97926   0.94251   10.963
 4132.00    1.01050   0.95313   10.791
 4133.00    1.03560   0.97214   10.880
 4134.00    1.03624   0.99452   11.144
 4135.00    1.01848   1.01396   11.407
 4136.00    1.00282   1.02485   11.487
 4137.00    0.98924   1.02345   11.364
 4138.00    0.96775   1.00907   11.156
 4139.00    0.95239   0.98442   10.974
 4140.00    0.96326   0.95575   10.895
 4141.00    0.98490   0.93177   10.986
 4142.00    0.98791   0.91991   11.239
 4143.00    0.97382   0.92268   11.438
 4144.00    0.96063   0.93640   11.351
 4145.00    0.95203   0.95313   11.106
 4146.00    0.94405   0.96525   10.987
 4147.00    0.93940   0.96964   11.134
 4148.00    0.94446   0.96771   11.502
 4149.00    0.96307   0.96251   11.775
 4150.00    0.99034   0.95678   11.651
 4151.00    1.00823   0.95233   11.289
 4152.00    1.00297   0.95029   11.012
 4153.00    0.98197   0.95188   10.991
 4154.00    0.96620   0.95831   11.182
 4155.00    0.97886   0.97008   11.275
 4156.00    1.01852   0.98618   11.129
 4157.00    1.04567   1.00433   11.083
 4158.00    1.04184   1.02175   11.260
 4159.00    1.04423   1.03560   11.186
 4160.00    1.07548   1.04372   10.731
 4161.00    1.10426   1.04511   10.524
 4162.00    1.10587   1.04013   10.870
 4163.00    1.09361   1.03035   11.401
 4164.00    1.07759   1.01844   11.661
 4165.00    1.04742   1.00725   11.584
 4166.00    1.00565   0.99788   11.303
 4167.00    0.97674   0.98896   10.961
 4168.00    0.96909   0.97832   10.731
 4169.00    0.96490   0.96492   10.792
 4170.00    0.95139   0.95012   11.167
 4171.00    0.93302   0.93738   11.662
 4172.00    0.92693   0.93013   11.910
 4173.00    0.95125   0.92960   11.603
 4174.00    0.99363   0.93437   11.051
 4175.00    1.01860   0.94169   10.855
 4176.00    1.02098   0.94948   11.070
 4177.00    1.02433   0.95687   11.316
 4178.00    1.03125   0.96385   11.393
 4179.00    1.02607   0.97077   11.397
 4180.00    1.01565   0.97779   11.436
 4181.00    1.02065   0.98450   11.529
 4182.00    1.03347   0.98976   11.566
 4183.00    1.03123   0.99220   11.423
 4184.00    1.02103   0.99145   11.184
 4185.00    1.02686   0.98922   11.049
 4186.00    1.04885   0.98851   11.114
 4187.00    1.07038   0.99175   11.334
 4188.00    1.08260   0.99920   11.466
 4189.00    1.08378   1.00815   11.304
 4190.00    1.07212   1.01420   11.085
 4191.00    1.04854   1.01353   11.150
 4192.00    1.02138   1.00442   11.517
 4193.00    0.99823   0.98753   11.953
 4194.00    0.97549   0.96600   12.105
 4195.00    0.94880   0.94473   11.828
 4196.00    0.92543   0.92849   11.486
 4197.00    0.91446   0.91987   11.396
 4198.00    0.91573   0.91910   11.425
 4199.00    0.92701   0.92550   11.382
 4200.00    0.95072   0.93830   11.363
 4201.00    0.98504   0.95649   11.474
 4202.00    1.01771   0.97853   11.590
 4203.00    1.04237   1.00209   11.540
 4204.00    1.06841   1.02391   11.298
 4205.00    1.09621   1.04094   11.045
 4206.00    1.10450   1.05166   11.097
 4207.00    1.08590   1.05604   11.474
 4208.00    1.06344   1.05494   11.692
 4209.00    1.04818   1.04941   11.466
 4210.00    1.02291   1.04047   11.146
 4211.00    0.99086   1.02992   10.989
 4212.00    0.98799   1.02110   10.906
 4213.00    1.01534   1.01856   10.788
 4214.00    1.02512   1.02601   10.636
 4215.00    1.00366   1.04331   10.534
 4216.00    0.99017   1.06536   10.590
 4217.00    1.00544   1.08350   10.805
 4218.00    1.03231   1.08879   11.042
 4219.00    1.04932   1.07551   11.133
 4220.00    1.04447   1.04290   10.990
 4221.00    1.01842   0.99518   10.747
 4222.00    0.98214   0.94109   10.656
 4223.00    0.94740   0.89289   10.797
 4224.00    0.92245   0.86314   11.073
 4225.00    0.90866   0.85998   11.302
 4226.00    0.90323   0.88321   11.312
 4227.00    0.90772   0.92410   11.132
 4228.00    0.92679   0.96876   10.939
 4229.00    0.96110   1.00414   10.844
 4230.00    1.00625   1.02325   10.882
 4231.00    1.05390   1.02701   11.054
 4232.00    1.09241   1.02127   11.297
 4233.00    1.10791   1.01315   11.401
 4234.00    1.09372   1.00839   11.181
 4235.00    1.06427   1.01008   10.805
 4236.00    1.04607   1.01888   10.560
 4237.00    1.06046   1.03415   10.566
 4238.00    1.10931   1.05433   10.794
 4239.00    1.16157   1.07698   11.083
 4240.00    1.18289   1.09914   11.256
 4241.00    1.17225   1.11724   11.324
 4242.00    1.14960   1.12715   11.361
 4243.00    1.13613   1.12553   11.313
 4244.00    1.13731   1.11152   11.138
 4245.00    1.13147   1.08749   10.941
 4246.00    1.10374   1.05858   10.869
 4247.00    1.07373   1.03125   11.016
 4248.00    1.05992   1.01060   11.358
 4249.00    1.05159   0.99860   11.672
 4250.00    1.03407   0.99439   11.730
 4251.00    1.00838   0.99604   11.515
 4252.00    0.98408   1.00183   11.175
 4253.00    0.97234   1.00983   10.895
 4254.00    0.97898   1.01736   10.756
 4255.00    1.00085   1.02163   10.718
 4256.00    1.02898   1.02141   10.806
 4257.00    1.05310   1.01908   11.137
 4258.00    1.07480   1.02058   -2.000
 4259.00    1.10896   1.03197   -2.000
 4260.00    1.16036   1.05494   -2.000
 4261.00    1.21410   1.08461   -2.000
 4262.00    1.24198   1.11178   -2.000
 4263.00    1.21545   1.12724   -2.000
 4264.00    1.14188   1.12525   -2.000
 4265.00    1.06410   1.10502   -2.000
 4266.00    1.01231   1.06985   -2.000
 4267.00    0.98982   1.02571   -2.000
 4268.00    0.98144   0.98032   -2.000
 4269.00    0.96746   0.94214   -2.000
 4270.00    0.95326   0.91840   -2.000
 4271.00    0.95968   0.91333   -2.000
 4272.00    0.97887   0.92727   -2.000
 4273.00    0.98604   0.95636   -2.000
 4274.00    0.99090   0.99316   10.874
 4275.00    1.02078   1.02880   10.713
 4276.00    1.06270   1.05599   10.586
 4277.00    1.08133   1.07110   10.608
 4278.00    1.07456   1.07488   10.744
 4279.00    1.06421   1.07136   10.885
 4280.00    1.06259   1.06485   10.999
 4281.00    1.06937   1.05758   11.119
 4282.00    1.07618   1.04923   11.251
 4283.00    1.07391   1.03813   11.346
 4284.00    1.06159   1.02308   11.289
 4285.00    1.04261   1.00465   11.051
 4286.00    1.01846   0.98552   10.845
 4287.00    0.99146   0.97017   10.906
 4288.00    0.96828   0.96295   11.298
 4289.00    0.95438   0.96556   11.878
 4290.00    0.94809   0.97560   12.196
 4291.00    0.94509   0.98736   11.981
 4292.00    0.94349   0.99392   11.682
 4293.00    0.94645   0.99002   11.657
 4294.00    0.96123   0.97384   11.671
 4295.00    0.97633   0.94724   11.536
 4296.00    0.95223   0.91515   11.533
 4297.00    0.88749   0.88381   11.837
 4298.00    0.85045   0.85886   12.156
 4299.00    0.87095   0.84324   12.216
 4300.00    0.88711   0.83602   12.146
 4301.00    0.86033   0.83319   12.071
 4302.00    0.82895   0.82997   11.911
 4303.00    0.81758   0.82329   11.664
 4304.00    0.80065   0.81376   11.509
 4305.00    0.77127   0.80554   11.564
 4306.00    0.76207   0.80438   11.808
 4307.00    0.78406   0.81542   12.098
 4308.00    0.81277   0.84107   12.199
 4309.00    0.84269   0.88059   12.040
 4310.00    0.89591   0.93125   11.770
 4311.00    0.97385   0.98959   11.514
 4312.00    1.05170   1.05186   11.309
 4313.00    1.11791   1.11334   11.172
 4314.00    1.17748   1.16781   11.109
 4315.00    1.22304   1.20846   11.090
 4316.00    1.23748   1.22991   11.073
 4317.00    1.22342   1.22988   11.089
 4318.00    1.19768   1.20924   11.195
 4319.00    1.15925   1.17149   11.281
 4320.00    1.09720   1.12250   11.193
 4321.00    1.02439   1.07085   11.099
 4322.00    0.96948   1.02770   11.279
 4323.00    0.94658   1.00434   11.637
 4324.00    0.95478   1.00742   11.813
 4325.00    0.98814   1.03528   11.693
 4326.00    1.03712   1.07833   11.464
 4327.00    1.08815   1.12375   11.407
 4328.00    1.12883   1.16140   11.715
 4329.00    1.15541   1.18667   12.318
 4330.00    1.16889   1.19910    0.000
 4331.00    1.16846   1.19891    0.000
 4332.00    1.15300   1.18468    0.000
 4333.00    1.12391   1.15425    0.000
 4334.00    1.08507   1.10792    0.000
 4335.00    1.04255   1.05123    0.000
 4336.00    1.00493   0.99498    0.000
 4337.00    0.98307   0.95185    0.000
 4338.00    0.98283   0.93149    0.000
 4339.00    0.99913   0.93715    0.000
 4340.00    1.02186   0.96500    0.000
 4341.00    1.04198   1.00657    0.000
 4342.00    1.05759   1.05263    0.000
 4343.00    1.07666   1.09598    0.000
 4344.00    1.10629   1.13177    0.000
 4345.00    1.14471   1.15676    0.000
 4346.00    1.17913   1.16844    0.000
 4347.00    1.18891   1.16600    0.000
 4348.00    1.16916   1.15194    0.000
 4349.00    1.13930   1.13316    0.000
 4350.00    1.11748   1.11873    0.000
 4351.00    1.10834   1.11571   11.878
 4352.00    1.10873   1.12556   12.189
 4353.00    1.11329   1.14420   12.158
 4354.00    1.12461   1.16507   11.691
 4355.00    1.15244   1.18298   11.282
 4356.00    1.19451   1.19666   11.221
 4357.00    1.23564   1.20835   11.482
 4358.00    1.26965   1.22127   11.834
 4359.00    1.30057   1.23690   11.938
 4360.00    1.32246   1.25381   11.820
 4361.00    1.32264   1.26832   11.821
 4362.00    1.30819   1.27634   11.953
 4363.00    1.29976   1.27526   11.957
 4364.00    1.29736   1.26525   11.878
 4365.00    1.28415   1.24928   11.954
 4366.00    1.25545   1.23155   12.005
 4367.00    1.22066   1.21513   11.690
 4368.00    1.19262   1.20049   11.339
 4369.00    1.17827   1.18601   11.478
 4370.00    1.16622   1.17038   11.988
 4371.00    1.14172   1.15480   12.344
 4372.00    1.11523   1.14311   12.450
 4373.00    1.10731   1.13933   12.526
 4374.00    1.11807   1.14417   12.482
 4375.00    1.13249   1.15304   12.189
 4376.00    1.13514   1.15723   11.963
 4377.00    1.11742   1.14783   12.110
 4378.00    1.08377   1.12025   12.436
 4379.00    1.04506   1.07710   12.592
 4380.00    1.00997   1.02818   12.619
 4381.00    0.98401   0.98694   12.662
 4382.00    0.96977   0.96477   12.577
 4383.00    0.96879   0.96597   12.290
 4384.00    0.98299   0.98622   12.115
 4385.00    1.01125   1.01607   12.242
 4386.00    1.04659   1.04626   12.402
 4387.00    1.07850   1.07184   12.325
 4388.00    1.09664   1.09242   12.133
 4389.00    1.10317   1.10996   12.057
 4390.00    1.11703   1.12662   12.200
 4391.00    1.14355   1.14377   12.449
 4392.00    1.16031   1.16199   12.457
 4393.00    1.15373   1.18074   12.147
 4394.00    1.13798   1.19779   11.901
 4395.00    1.13365   1.20950   11.885
 4396.00    1.15225   1.21238   11.889
 4397.00    1.18086   1.20488   11.857
 4398.00    1.18577   1.18788   12.036
 4399.00    1.16020   1.16362   12.445
 4400.00    1.13316   1.13486   12.713
 4401.00    1.11906   1.10519   12.624
 4402.00    1.10703   1.07978   12.350
 4403.00    1.09750   1.06474   12.059
 4404.00    1.10655   1.06493   11.799
 4405.00    1.13550   1.08173   11.633
 4406.00    1.16892   1.11220   11.625
 4407.00    1.19904   1.14982   11.699
 4408.00    1.22897   1.18596   11.696
 4409.00    1.26113   1.21218   11.654
 4410.00    1.29128   1.22303   11.720
 4411.00    1.30263   1.21890   11.746
 4412.00    1.27828   1.20623   11.440
 4413.00    1.23082   1.19492   10.902
 4414.00    1.19164   1.19323   10.454
 4415.00    1.17676   1.20345   10.227
 4416.00    1.18302   1.22106   10.203
 4417.00    1.19469   1.23789   10.290
 4418.00    1.20010   1.24708   10.362
 4419.00    1.21533   1.24665   10.319
 4420.00    1.25901   1.23957   10.113
 4421.00    1.31068   1.23103    9.763
 4422.00    1.33420   1.22524    9.428
 4423.00    1.31768   1.22359    9.450
 4424.00    1.27268   1.22494   10.031
 4425.00    1.22553   1.22697   10.777
 4426.00    1.20115   1.22750   11.037
 4427.00    1.20603   1.22524   10.960
 4428.00    1.22593   1.21988   11.045
 4429.00    1.22883   1.21154   11.377
 4430.00    1.19889   1.20087   11.784
 4431.00    1.16288   1.19016   12.023
 4432.00    1.14810   1.18365   11.985
 4433.00    1.14861   1.18595   11.845
 4434.00    1.15518   1.19902   11.731
 4435.00    1.17660   1.21970   11.526
 4436.00    1.21409   1.24061   11.207
 4437.00    1.24622   1.25394   10.990
 4438.00    1.25356   1.25619   11.032
 4439.00    1.23489   1.25038   11.307
 4440.00    1.20663   1.24409   11.649
 4441.00    1.19725   1.24477   11.790
 4442.00    1.22288   1.25544   11.678
 4443.00    1.27623   1.27352   11.565
 4444.00    1.33468   1.29299   11.476
 4445.00    1.36980   1.30800   11.162
 4446.00    1.36960   1.31532   10.786
 4447.00    1.34468   1.31383   10.851
 4448.00    1.31513   1.30365   11.345
 4449.00    1.29795   1.28556   11.631
 4450.00    1.28298   1.26068   11.495
 4451.00    1.24264   1.23110   11.399
 4452.00    1.18751   1.20046   11.500
 4453.00    1.15861   1.17315   11.560
 4454.00    1.15606   1.15245   11.528
 4455.00    1.14485   1.13909   11.567
 4456.00    1.12190   1.13201   11.691
 4457.00    1.11337   1.13024   11.776
 4458.00    1.12740   1.13402   11.836
 4459.00    1.15112   1.14415   11.963
 4460.00    1.16850   1.16065   12.044
 4461.00    1.17065   1.18148    0.000
 4462.00    1.16732   1.20241    0.000
 4463.00    1.17551   1.21900    0.000
 4464.00    1.19638   1.22909    0.000
 4465.00    1.21989   1.23357    0.000
 4466.00    1.23840   1.23563    0.000
 4467.00    1.24900   1.23944    0.000
 4468.00    1.25380   1.24879    0.000
 4469.00    1.26125   1.26545    0.000
 4470.00    1.28671   1.28844    0.000
 4471.00    1.33699   1.31443    0.000
 4472.00    1.39367   1.33908    0.000
 4473.00    1.43120   1.35811    0.000
 4474.00    1.43845   1.36811    0.000
 4475.00    1.41933   1.36693    0.000
 4476.00    1.38974   1.35438    0.000
 4477.00    1.36293   1.33366    0.000
 4478.00    1.33845   1.31193    0.000
 4479.00    1.31705   1.29787    0.000
 4480.00    1.31133   1.29753    0.000
 4481.00    1.32966   1.31075    0.000
 4482.00    1.36479   1.33127   11.725
 4483.00    1.40202   1.34967   11.673
 4484.00    1.42554   1.35832   11.374
 4485.00    1.42156   1.35472   10.949
 4486.00    1.38302   1.34184   10.966
 4487.00    1.32551   1.32571   11.484
 4488.00    1.28579   1.31182   11.717
 4489.00    1.27198   1.30228   11.384
 4490.00    1.25352   1.29585   11.267
 4491.00    1.22724   1.29059   11.675
 4492.00    1.22965   1.28663   12.094
 4493.00    1.26420   1.28683   12.111
 4494.00    1.29068   1.29441   11.885
 4495.00    1.29657   1.30996   11.685
 4496.00    1.30721   1.33088   11.634
 4497.00    1.33027   1.35367   11.647
 4498.00    1.34784   1.37603   11.522
 4499.00    1.34995   1.39769   11.277
 4500.00    1.34400   1.41907   11.118
 4501.00    1.35122   1.43958   11.132
 4502.00    1.38912   1.45661   11.272
 4503.00    1.43274   1.46695   11.443
 4504.00    1.43920   1.46972   11.539
 4505.00    1.42184   1.46667   11.526
 4506.00    1.42785   1.46037   11.435
 4507.00    1.46051   1.45233   11.319
 4508.00    1.48688   1.44244   11.211
 4509.00    1.48165   1.42998   11.077
 4510.00    1.44343   1.41514   10.904
 4511.00    1.40610   1.39981   10.815
 4512.00    1.40400   1.38697   10.930
 4513.00    1.41923   1.37906   11.138
 4514.00    1.41652   1.37698   11.246
 4515.00    1.40018   1.38005   11.253
 4516.00    1.39435   1.38633   11.249
 4517.00    1.40880   1.39318   11.215
 4518.00    1.43634   1.39727   11.107
 4519.00    1.45611   1.39466   10.967
 4520.00    1.45244   1.38248   10.851
 4521.00    1.43121   1.36013   10.765
 4522.00    1.39282   1.32974   10.744
 4523.00    1.31185   1.29528   10.914
 4524.00    1.19585   1.26110   11.296
 4525.00    1.12371   1.23192   11.622
 4526.00    1.13932   1.21191   11.641
 4527.00    1.18198   1.20296   11.448
 4528.00    1.19746   1.20403   11.244
 4529.00    1.20847   1.21185   11.122
 4530.00    1.24083   1.22290   11.063
 4531.00    1.27957   1.23563   10.970
 4532.00    1.30569   1.25065   10.818
 4533.00    1.31784   1.26953   10.702
 4534.00    1.32516   1.29254   10.701
 4535.00    1.33821   1.31678   10.824
 4536.00    1.34669   1.33724   11.049
 4537.00    1.32258   1.34965   11.327
 4538.00    1.27708   1.35380   11.484
 4539.00    1.26298   1.35285   11.293
 4540.00    1.28861   1.35015   10.888
 4541.00    1.30859   1.34729   10.656
 4542.00    1.31006   1.34396   10.625
 4543.00    1.32176   1.33945   10.524
 4544.00    1.34473   1.33404   10.354
 4545.00    1.35014   1.32876   10.348
 4546.00    1.33746   1.32412   10.436
 4547.00    1.33304   1.32027   10.370
 4548.00    1.34242   1.31737   10.429
 4549.00    1.34947   1.31588   11.020
 4550.00    1.34437   1.31622    0.000
 4551.00    1.33018   1.31917    0.000
 4552.00    1.32174   1.32679    0.000
 4553.00    1.33137   1.34103    0.000
 4554.00    1.34325   1.36166    0.000
 4555.00    1.33505   1.38573    0.000
 4556.00    1.32271   1.40825    0.000
 4557.00    1.33455   1.42413    0.000
 4558.00    1.35935   1.43037    0.000
 4559.00    1.36926   1.42697    0.000
 4560.00    1.36398   1.41660    0.000
 4561.00    1.35885   1.40374    0.000
 4562.00    1.36120   1.39335    0.000
 4563.00    1.37101   1.38961    0.000
 4564.00    1.38534   1.39381    0.000
 4565.00    1.39833   1.40333    0.000
 4566.00    1.40246   1.41312    0.000
 4567.00    1.40909   1.41894    0.000
 4568.00    1.45950   1.42012    0.000
 4569.00    1.53901   1.41926    0.000
 4570.00    1.52243   1.41942    0.000
 4571.00    1.37623   1.42198    0.000
 4572.00    1.28874   1.42531    0.000
 4573.00    1.37195   1.42528    0.000
 4574.00    1.47410   1.41874    0.000
 4575.00    1.46707   1.40552    0.000
 4576.00    1.41892   1.38763    0.000
 4577.00    1.40510   1.36843    0.000
 4578.00    1.40233   1.35198    0.000
 4579.00    1.38118   1.34151    0.000
 4580.00    1.35384   1.33815    0.000
 4581.00    1.33832   1.34087    0.000
 4582.00    1.33955   1.34777    0.000
 4583.00    1.35141   1.35772    0.000
 4584.00    1.36197   1.37030    0.000
 4585.00    1.36878   1.38421    0.000
 4586.00    1.38130   1.39656    0.000
 4587.00    1.40638   1.40360    0.000
 4588.00    1.44088   1.40258    0.000
 4589.00    1.46628   1.39364    0.000
 4590.00    1.45838   1.37982    0.000
 4591.00    1.42102   1.36546    0.000
 4592.00    1.38363   1.35401    0.000
 4593.00    1.36596   1.34698    0.000
 4594.00    1.36967   1.34427    0.000
 4595.00    1.38252   1.34505    0.000
 4596.00    1.38936   1.34789    0.000
 4597.00    1.39319   1.35134    0.000
 4598.00    1.40437   1.35458    0.000
 4599.00    1.41017   1.35759    0.000
 4600.00    1.39350   1.36142    0.000
 4601.00    1.37749   1.36778    0.000
 4602.00    1.39665   1.37795    0.000
 4603.00    1.43655   1.39284    0.000
 4604.00    1.46208   1.41243    0.000
 4605.00    1.47421   1.43485    0.000
 4606.00    1.48817   1.45625    0.000
 4607.00    1.49311   1.47218    0.000
 4608.00    1.47643   1.47989    0.000
 4609.00    1.45901   1.47995    0.000
 4610.00    1.46744   1.47603    0.000
 4611.00    1.49812   1.47255    0.000
 4612.00    1.52599   1.47202    0.000
 4613.00    1.52112   1.47450    0.000
 4614.00    1.48473   1.47843    0.000
 4615.00    1.47294   1.48178    0.000
 4616.00    1.51660   1.48383    0.000
 4617.00    1.56186   1.48492    0.000
 4618.00    1.56509   1.48549    0.000
 4619.00    1.55998   1.48601    0.000
 4620.00    1.57725   1.48625    0.000
 4621.00    1.59260   1.48517    0.000
 4622.00    1.58228   1.48255    0.000
 4623.00    1.55691   1.47927    0.000
 4624.00    1.53547   1.47606    0.000
 4625.00    1.52769   1.47350    0.000
 4626.00    1.52862   1.47193    0.000
 4627.00    1.52039   1.47067    0.000
 4628.00    1.49221   1.46830    0.000
 4629.00    1.45163   1.46385    0.000
 4630.00    1.43017   1.45662    0.000
 4631.00    1.46570   1.44596    0.000
 4632.00    1.52736   1.43219    0.000
 4633.00    1.52695   1.41709    0.000
 4634.00    1.46179   1.40246    0.000
 4635.00    1.42070   1.38942    0.000
 4636.00    1.43816   1.37910    0.000
 4637.00    1.47269   1.37255    0.000
 4638.00    1.48429   1.36962    0.000
 4639.00    1.45987   1.36813    0.000
 4640.00    1.41708   1.36478    0.000
 4641.00    1.38678   1.35658    0.000
 4642.00    1.37088   1.34268    0.000
 4643.00    1.35048   1.32595    0.000
 4644.00    1.32516   1.31185    0.000
 4645.00    1.31110   1.30550    0.000
 4646.00    1.32015   1.30981    0.000
 4647.00    1.35053   1.32414    0.000
 4648.00    1.37922   1.34409    0.000
 4649.00    1.38925   1.36378    0.000
 4650.00    1.41205   1.37885    0.000
 4651.00    1.47123   1.38819    0.000
 4652.00    1.49768   1.39403    0.000
 4653.00    1.43006   1.40042    0.000
 4654.00    1.35419   1.41109    0.000
 4655.00    1.37156   1.42715    0.000
 4656.00    1.42938   1.44546    0.000
 4657.00    1.44045   1.45996    0.000
 4658.00    1.42782   1.46448    0.000
 4659.00    1.43597   1.45549    0.000
 4660.00    1.43550   1.43344    0.000
 4661.00    1.40096   1.40215    0.000
 4662.00    1.37561   1.36695    0.000
 4663.00    1.35111   1.33339    0.000
 4664.00    1.19896   1.30656    0.000
 4665.00    0.94284   1.29072    0.000
 4666.00    0.89683   1.28883    0.000
 4667.00    1.17733   1.30123    0.000
 4668.00    1.44978   1.32400    0.000
 4669.00    1.47221   1.35001    0.000
 4670.00    1.38142   1.37290    0.000
 4671.00    1.34322   1.38967    0.000
 4672.00    1.36497   1.40020    0.000
 4673.00    1.39531   1.40552    0.000
 4674.00    1.38975   1.40615    0.000
 4675.00    1.35356   1.40209    0.000
 4676.00    1.34032   1.39376    0.000
 4677.00    1.36881   1.38322    0.000
 4678.00    1.40523   1.37417    0.000
 4679.00    1.42837   1.36984    0.000
 4680.00    1.44426   1.37107    0.000
 4681.00    1.45016   1.37645    0.000
 4682.00    1.43211   1.38335    0.000
 4683.00    1.39603   1.38890    0.000
 4684.00    1.36680   1.39139    0.000
 4685.00    1.35910   1.39119    0.000
 4686.00    1.36959   1.38970    0.000
 4687.00    1.37909   1.38847    0.000
 4688.00    1.36926   1.38898    0.000
 4689.00    1.35741   1.39191    0.000
 4690.00    1.37510   1.39698    0.000
 4691.00    1.40901   1.40326    0.000
 4692.00    1.41859   1.40879    0.000
 4693.00    1.39179   1.41065    0.000
 4694.00    1.34593   1.40655    0.000
 4695.00    1.31027   1.39599    0.000
 4696.00    1.30726   1.38050    0.000
 4697.00    1.32926   1.36348    0.000
 4698.00    1.34905   1.34901    0.000
 4699.00    1.34108   1.33980    0.000
 4700.00    1.30506   1.33590    0.000
 4701.00    1.28762   1.33583    0.000
 4702.00    1.32289   1.33829    0.000
 4703.00    1.36717   1.34211    0.000
 4704.00    1.37108   1.34609    0.000
 4705.00    1.35767   1.34956    0.000
 4706.00    1.36726   1.35325    0.000
 4707.00    1.39897   1.35859    0.000
 4708.00    1.42552   1.36593    0.000
 4709.00    1.41561   1.37426    0.000
 4710.00    1.37613   1.38261    0.000
 4711.00    1.37105   1.39092    0.000
 4712.00    1.42511   1.40076    0.000
 4713.00    1.47082   1.41469    0.000
 4714.00    1.46425   1.43399    0.000
 4715.00    1.44762   1.45705    0.000
 4716.00    1.45571   1.47982    0.000
 4717.00    1.46923   1.49823    0.000
 4718.00    1.47528   1.51037    0.000
 4719.00    1.49073   1.51589    0.000
 4720.00    1.51086   1.51479    0.000
 4721.00    1.49992   1.50727    0.000
 4722.00    1.46167   1.49352    0.000
 4723.00    1.44716   1.47373    0.000
 4724.00    1.46155   1.44858    0.000
 4725.00    1.45235   1.42064    0.000
 4726.00    1.40222   1.39486    0.000
 4727.00    1.34777   1.37703    0.000
 4728.00    1.32855   1.37079    0.000
 4729.00    1.35950   1.37541    0.000
 4730.00    1.40274   1.38695    0.000
 4731.00    1.39696   1.40111    0.000
 4732.00    1.35467   1.41469    0.000
 4733.00    1.34350   1.42606    0.000
 4734.00    1.37969   1.43541    0.000
 4735.00    1.42742   1.44351    0.000
 4736.00    1.45499   1.45098    0.000
 4737.00    1.45216   1.45855    0.000
 4738.00    1.43804   1.46569    0.000
 4739.00    1.43830   1.47132    0.000
 4740.00    1.44320   1.47618    0.000
 4741.00    1.43128   1.48190    0.000
 4742.00    1.41845   1.48875    0.000
 4743.00    1.43596   1.49574    0.000
 4744.00    1.48656   1.50183    0.000
 4745.00    1.54669   1.50642    0.000
 4746.00    1.57988   1.50843    0.000
 4747.00    1.56630   1.50634    0.000
 4748.00    1.53312   1.49983    0.000
 4749.00    1.51336   1.49000    0.000
 4750.00    1.49943   1.47829    0.000
 4751.00    1.47685   1.46648    0.000
 4752.00    1.46010   1.45680    0.000
 4753.00    1.46468   1.45083    0.000
 4754.00    1.48043   1.44854    0.000
 4755.00    1.49010   1.44851    0.000
 4756.00    1.48638   1.44830    0.000
 4757.00    1.46876   1.44534    0.000
 4758.00    1.44152   1.43779    0.000
 4759.00    1.42262   1.42529    0.000
 4760.00    1.44135   1.40916    0.000
 4761.00    1.48494   1.39250   10.937
 4762.00    1.48517   1.37967   11.026
 4763.00    1.43178   1.37402   11.183
 4764.00    1.40714   1.37656   11.278
 4765.00    1.43112   1.38675   11.289
 4766.00    1.41701   1.40287   11.360
 4767.00    1.34370   1.42164   11.512
 4768.00    1.30016   1.43963   11.567
 4769.00    1.32925   1.45518   11.444
 4770.00    1.38473   1.46843   11.249
 4771.00    1.42556   1.48066   11.093
 4772.00    1.44538   1.49300   11.010
 4773.00    1.44535   1.50457   10.948
 4774.00    1.42966   1.51287   10.822
 4775.00    1.42189   1.51587   10.671
 4776.00    1.44953   1.51344   10.619
 4777.00    1.48821   1.50623   10.670
 4778.00    1.48532   1.49468   10.722
 4779.00    1.45795   1.48018   10.742
 4780.00    1.46905   1.46510   10.759
 4781.00    1.51601   1.45121   10.744
 4782.00    1.53738   1.43982   10.658
 4783.00    1.48248   1.43226   10.608
 4784.00    1.35686   1.42910   10.715
 4785.00    1.27355   1.42961   10.852
 4786.00    1.33986   1.43394   10.815
 4787.00    1.45681   1.44338   10.760
 4788.00    1.46539   1.45772   10.918
 4789.00    1.41770   1.47578   11.082
 4790.00    1.44275   1.49611   10.939
 4791.00    1.50582   1.51557   10.719
 4792.00    1.51600   1.53021   10.767
 4793.00    1.49994   1.53724   10.992
 4794.00    1.51471   1.53574   11.101
 4795.00    1.52794   1.52746   10.962
 4796.00    1.49872   1.51678   10.670
 4797.00    1.46966   1.50835   10.465
 4798.00    1.48416   1.50465   10.478
 4799.00    1.50533   1.50542   10.587
 4800.00    1.48904   1.50813   10.655
 4801.00    1.44992   1.50908   10.738
 4802.00    1.42372   1.50550   10.912
 4803.00    1.43111   1.49744   11.120
 4804.00    1.46333   1.48777   11.292
 4805.00    1.48155   1.48025   11.433
 4806.00    1.46989   1.47712   11.501
 4807.00    1.46135   1.47850   11.369
 4808.00    1.48202   1.48381   11.104
 4809.00    1.52147   1.49182   11.009
 4810.00    1.55961   1.50077   11.131
 4811.00    1.58034   1.50989   11.152
 4812.00    1.56220   1.51955   11.015
 4813.00    1.48728   1.52995   11.081
 4814.00    1.40094   1.54032   11.379
 4815.00    1.39897   1.54889   11.454
 4816.00    1.47300   1.55348   11.223
 4817.00    1.50387   1.55226   11.141
 4818.00    1.46333   1.54473   11.346
 4819.00    1.43778   1.53214   11.555
 4820.00    1.46159   1.51708   11.561
 4821.00    1.49029   1.50292   11.421
 4822.00    1.48934   1.49236   11.347
 4823.00    1.46195   1.48673   11.519
 4824.00    1.44810   1.48564   11.742
 4825.00    1.48741   1.48605   11.613
 4826.00    1.53361   1.48472   11.308
 4827.00    1.50163   1.48128   11.314
 4828.00    1.41377   1.47763   11.611
 4829.00    1.36199   1.47574   11.810
 4830.00    1.36905   1.47614   11.751
 4831.00    1.39515   1.47838   11.580
 4832.00    1.40224   1.48203   11.502
 4833.00    1.38462   1.48553   11.621
 4834.00    1.39556   1.48594   11.786
 4835.00    1.47625   1.48181   11.758
 4836.00    1.55083   1.47446   11.556
 4837.00    1.52974   1.46626   11.365
 4838.00    1.46275   1.45936   11.337
 4839.00    1.43906   1.45585   11.507
 4840.00    1.44544   1.45702   11.715
 4841.00    1.43452   1.46182   11.777
 4842.00    1.41644   1.46769   11.727
 4843.00    1.41836   1.47283   11.679
 4844.00    1.43568   1.47631   11.653
 4845.00    1.45382   1.47662   11.603
 4846.00    1.47100   1.47291   11.488
 4847.00    1.48365   1.46607   11.366
 4848.00    1.47629   1.45734    0.000
 4849.00    1.45261   1.44678    0.000
 4850.00    1.45004   1.43256    0.000
 4851.00    1.47113   1.41274    0.000
 4852.00    1.45260   1.38768    0.000
 4853.00    1.37795   1.35855    0.000
 4854.00    1.32680   1.32615    0.000
 4855.00    1.34084   1.29236    0.000
 4856.00    1.36424   1.25953    0.000
 4857.00    1.34471   1.22924    0.000
 4858.00    1.28616   1.20475    0.000
 4859.00    1.23741   1.19178    0.000
 4860.00    1.26245   1.19504    0.000
 4861.00    1.34466   1.21502    0.000
 4862.00    1.38562   1.24666    0.000
 4863.00    1.35449   1.28037    0.000
 4864.00    1.31522   1.30800    0.000
 4865.00    1.31756   1.32626    0.000
 4866.00    1.35996   1.33453    0.000
 4867.00    1.39878   1.33446    0.000
 4868.00    1.38250   1.33054    0.000
 4869.00    1.33611   1.32791    0.000
 4870.00    1.33611   1.33048    0.000
 4871.00    1.38614   1.34150    0.000
 4872.00    1.42615   1.36178    0.000
 4873.00    1.42878   1.38719    0.000
 4874.00    1.40794   1.41202    0.000
 4875.00    1.38733   1.43338   10.491
 4876.00    1.38346   1.45006   10.534
 4877.00    1.38752   1.46026   10.637
 4878.00    1.37988   1.46297   10.741
 4879.00    1.36076   1.45842   10.749
 4880.00    1.34497   1.44707   10.641
 4881.00    1.34464   1.43151   10.617
 4882.00    1.35651   1.41534   10.847
 4883.00    1.35043   1.39946   11.118
 4884.00    1.31022   1.38394   11.132
 4885.00    1.28353   1.37129   11.051
 4886.00    1.31553   1.36488   11.138
 4887.00    1.36906   1.36659   11.253
 4888.00    1.39173   1.37721   11.179
 4889.00    1.39320   1.39758   11.031
 4890.00    1.39834   1.42785   10.993
 4891.00    1.39756   1.46629   11.059
 4892.00    1.38137   1.50762   11.126
 4893.00    1.37104   1.54281   11.102
 4894.00    1.38606   1.56540   11.001
 4895.00    1.41776   1.57446   10.988
 4896.00    1.44484   1.57232   11.140
 4897.00    1.45040   1.56318   11.313
 4898.00    1.45049   1.55144   11.323
 4899.00    1.49670   1.54071   11.129
 4900.00    1.58161   1.53386   10.870
 4901.00    1.60838   1.53124   10.790
 4902.00    1.53984   1.53025   10.974
 4903.00    1.45543   1.52865   11.272
 4904.00    1.41961   1.52520   11.486
 4905.00    1.42497   1.51820   11.509
 4906.00    1.44108   1.50709   11.399
 4907.00    1.44300   1.49454   11.332
 4908.00    1.43076   1.48529   11.372
 4909.00    1.42817   1.48238   11.428
 4910.00    1.45103   1.48530   11.418
 4911.00    1.49303   1.49003   11.342
 4912.00    1.51976   1.49016   11.308
 4913.00    1.48983   1.48018   11.443
 4914.00    1.42127   1.45846   11.625
 4915.00    1.37655   1.42716   11.580
 4916.00    1.36900   1.39155   11.440
 4917.00    1.36724   1.35944   11.584
 4918.00    1.36905   1.33910   11.914
 4919.00    1.39425   1.33606   11.988
 4920.00    1.42843   1.35093   11.836
 4921.00    1.44113   1.37942   11.823
 4922.00    1.44607   1.41476   11.911
 4923.00    1.47200   1.45094   11.838
 4924.00    1.48979   1.48525   11.690
 4925.00    1.45907   1.51642   11.706
 4926.00    1.42364   1.54150   11.851
 4927.00    1.44828   1.55668   11.929
 4928.00    1.50413   1.56091   11.879
 4929.00    1.52729   1.55490   11.788
 4930.00    1.51942   1.54006   11.814
 4931.00    1.51158   1.51946   12.012
 4932.00    1.50440   1.49646   12.138
 4933.00    1.48902   1.47465   11.972
 4934.00    1.47673   1.45832   11.731
 4935.00    1.47695   1.44912   11.711
 4936.00    1.47431   1.44677   11.951
 4937.00    1.46020   1.45298   12.323
 4938.00    1.45972   1.46954   12.598
 4939.00    1.49013   1.49481   12.617
 4940.00    1.52851   1.52315    0.000
 4941.00    1.55209   1.54807    0.000
 4942.00    1.56870   1.56666    0.000
 4943.00    1.59614   1.57998    0.000
 4944.00    1.64296   1.58937    0.000
 4945.00    1.68783   1.59606    0.000
 4946.00    1.67910   1.60159    0.000
 4947.00    1.60406   1.60521    0.000
 4948.00    1.51621   1.60363    0.000
 4949.00    1.46533   1.59457    0.000
 4950.00    1.46122   1.57757    0.000
 4951.00    1.48233   1.55295    0.000
 4952.00    1.49069   1.52281    0.000
 4953.00    1.47352   1.49224    0.000
 4954.00    1.45123   1.46721    0.000
 4955.00    1.43890   1.45193    0.000
 4956.00    1.43608   1.44833    0.000
 4957.00    1.44550   1.45722    0.000
 4958.00    1.47188   1.47652    0.000
 4959.00    1.49757   1.49733    0.000
 4960.00    1.49258   1.50971    0.000
 4961.00    1.46472   1.51119    0.000
 4962.00    1.44992   1.50515    0.000
 4963.00    1.45015   1.49567    0.000
 4964.00    1.43886   1.48611    0.000
 4965.00    1.41201   1.48050    0.000
 4966.00    1.38924   1.48223    0.000
 4967.00    1.38984   1.49098    0.000
 4968.00    1.42051   1.50400    0.000
 4969.00    1.46275   1.51857    0.000
 4970.00    1.48766   1.53161    0.000
 4971.00    1.48559   1.54042    0.000
 4972.00    1.46786   1.54256    0.000
 4973.00    1.45964   1.53629    0.000
 4974.00    1.47473   1.52153    0.000
 4975.00    1.48358   1.49915    0.000
 4976.00    1.45404   1.47126    0.000
 4977.00    1.40726   1.44075    0.000
 4978.00    1.37566   1.41109    0.000
 4979.00    1.34751   1.38653    0.000
 4980.00    1.30487   1.36998    0.000
 4981.00    1.26881   1.36295    0.000
 4982.00    1.27074   1.36708    0.000
 4983.00    1.31886   1.38264    0.000
 4984.00    1.39116   1.40557    0.000
 4985.00    1.43823   1.42949    0.000
 4986.00    1.43786   1.45007    0.000
 4987.00    1.42926   1.46524    0.000
 4988.00    1.43549   1.47419    0.000
 4989.00    1.41761   1.47872    0.000
 4990.00    1.36956   1.48135    0.000
 4991.00    1.36352   1.48317    0.000
 4992.00    1.42275   1.48361    0.000
 4993.00    1.46676   1.48059    0.000
 4994.00    1.45022   1.47349    0.000
 4995.00    1.42096   1.46279    0.000
 4996.00    1.41295   1.44779    0.000
 4997.00    1.40519   1.42920    0.000
 4998.00    1.38812   1.40914    0.000
 4999.00    1.38164   1.38987    0.000
 5000.00    1.38040   1.37406    0.000
 5001.00    1.35327   1.36302    0.000
 5002.00    1.32466   1.35663    0.000
 5003.00    1.36374   1.35471    0.000
 5004.00    1.44831   1.35642    0.000
 5005.00    1.47496   1.36066    0.000
 5006.00    1.42854   1.36620    0.000
 5007.00    1.38526   1.37041    0.000
 5008.00    1.37791   1.36892    0.000
 5009.00    1.38382   1.35949    0.000
 5010.00    1.38971   1.34518    0.000
 5011.00    1.39401   1.33112    0.000
 5012.00    1.37562   1.32131    0.000
 5013.00    1.31711   1.31843    0.000
 5014.00    1.26365   1.32247    0.000
 5015.00    1.27467   1.33139    0.000
 5016.00    1.31615   1.34201    0.000
 5017.00    1.31666   1.35203    0.000
 5018.00    1.29152   1.36199    0.000
 5019.00    1.29550   1.37219    0.000
 5020.00    1.32182   1.38160    0.000
 5021.00    1.33570   1.39010    0.000
 5022.00    1.33993   1.39895    0.000
 5023.00    1.34951   1.40927    0.000
 5024.00    1.35113   1.42048    0.000
 5025.00    1.33386   1.43213    0.000
 5026.00    1.32627   1.44512    0.000
 5027.00    1.35814   1.45968    0.000
 5028.00    1.41837   1.47515    0.000
 5029.00    1.47440   1.48837   12.909
 5030.00    1.49632   1.49433   12.659
 5031.00    1.47292   1.49094   12.259
 5032.00    1.42137   1.47785   12.204
 5033.00    1.36675   1.45512   12.674
 5034.00    1.32503   1.42515   13.139
 5035.00    1.30039   1.39341   13.110
 5036.00    1.28606   1.36692   12.893
 5037.00    1.27667   1.35027   12.854
 5038.00    1.27509   1.34441   12.967
 5039.00    1.28554   1.35048   13.093
 5040.00    1.30838   1.36921   13.150
 5041.00    1.33537   1.39801   13.134
 5042.00    1.35135   1.43033   13.112
 5043.00    1.35328   1.45615   13.126
 5044.00    1.35486   1.46890   13.152
 5045.00    1.36675   1.46933   13.147
 5046.00    1.38812   1.46113   13.081
 5047.00    1.40881   1.44942   13.011
 5048.00    1.41539   1.44092   13.054
 5049.00    1.40837   1.44108   13.220
 5050.00    1.40106   1.45053   13.391
 5051.00    1.39668   1.46628   13.453
 5052.00    1.39012   1.48554   13.383
 5053.00    1.39433   1.50608   13.328
 5054.00    1.43141   1.52500   13.473
 5055.00    1.48988   1.53991   13.661
 5056.00    1.53387   1.54971   13.539
 5057.00    1.55163   1.55399   13.224
 5058.00    1.55313   1.55211   13.109
 5059.00    1.54001   1.54341   13.214
 5060.00    1.50808   1.52857   13.315
 5061.00    1.46473   1.50925   13.362
 5062.00    1.42146   1.48773   13.462
 5063.00    1.37550   1.46730   13.663
 5064.00    1.32610   1.45154   13.875
 5065.00    1.30372   1.44353   13.811
 5066.00    1.33460   1.44257   13.342
 5067.00    1.38549   1.44425   12.904
 5068.00    1.40782   1.44652   12.888
 5069.00    1.40434   1.44959   13.076
 5070.00    1.40082   1.45169   13.098
 5071.00    1.40278   1.44998   13.043
 5072.00    1.40896   1.44442   13.112
 5073.00    1.42924   1.43623   13.167
 5074.00    1.45920   1.42417   13.056
 5075.00    1.45851   1.40779   12.956
 5076.00    1.40302   1.39033   13.032
 5077.00    1.32838   1.37523   13.154
 5078.00    1.28145   1.36429   13.135
 5079.00    1.27790   1.36051   12.959
 5080.00    1.30739   1.36756   12.713
 5081.00    1.34370   1.38383   12.506
 5082.00    1.37184   1.40372   12.400
 5083.00    1.40134   1.42388   12.387
 5084.00    1.43606   1.44384   12.363
 5085.00    1.46006   1.46253   12.166
 5086.00    1.46664   1.47840   11.860
 5087.00    1.46976   1.49131   11.748
 5088.00    1.47669   1.50159   11.915
 5089.00    1.47843   1.50836   12.121
 5090.00    1.47172   1.50969   12.156
 5091.00    1.46500   1.50451   12.038
 5092.00    1.46047   1.49304   11.933
 5093.00    1.45021   1.47637   12.029
 5094.00    1.43072   1.45677   12.300
 5095.00    1.40574   1.43816   12.508
 5096.00    1.37710   1.42435   12.599
 5097.00    1.34556   1.41714   12.747
 5098.00    1.32307   1.41655   12.927
 5099.00    1.32598   1.42146   12.937
 5100.00    1.34651   1.42858   12.887
 5101.00    1.36033   1.43274   13.069
 5102.00    1.36507   1.43083   13.284
 5103.00    1.37495   1.42409   13.050
 5104.00    1.38667   1.41630   12.589
 5105.00    1.38247   1.41031   12.486
 5106.00    1.35316   1.40745   12.829
 5107.00    1.30893   1.40927   13.312
 5108.00    1.28875   1.41723   13.532
 5109.00    1.32310   1.43062   13.278
 5110.00    1.37176   1.44784   12.872
 5111.00    1.38012   1.46754   12.738
 5112.00    1.37753   1.48629   12.890
 5113.00    1.41620   1.50091   13.127
 5114.00    1.46865   1.51025   13.311
 5115.00    1.47680   1.51276   13.414
 5116.00    1.43128   1.50705   13.508
 5117.00    1.36424   1.49317   13.653
 5118.00    1.32589   1.47210   13.769
 5119.00    1.33801   1.44635   13.778
 5120.00    1.35430   1.41961   13.775
 5121.00    1.32887   1.39545   13.864
 5122.00    1.28081   1.37637   13.998
 5123.00    1.25208   1.36393   14.085
 5124.00    1.26379   1.35976   14.093
 5125.00    1.29851   1.36315   14.036
 5126.00    1.29985   1.37112   13.944
 5127.00    1.25294   1.38212   13.875
 5128.00    1.22610   1.39598   13.900
 5129.00    1.26321   1.41107   13.992
 5130.00    1.32477   1.42494   13.995
 5131.00    1.36813   1.43511   13.869
 5132.00    1.39120   1.43922   13.782
 5133.00    1.39865   1.43780   13.822
 5134.00    1.38592   1.43255   13.883
 5135.00    1.35583   1.42334   13.863
 5136.00    1.32392   1.41100   13.762
 5137.00    1.30516   1.39932   13.647
 5138.00    1.30532   1.39071   13.603
 5139.00    1.31158   1.38519   13.623
 5140.00    1.30180   1.38226   13.609
 5141.00    1.28917   1.37931   13.523
 5142.00    1.31145   1.37571   13.400
 5143.00    1.34582   1.37418   13.236
 5144.00    1.32520   1.37391   13.030
 5145.00    1.26571   1.37217   13.001
 5146.00    1.24946   1.37001   13.384
 5147.00    1.28036   1.36956   13.727
 5148.00    1.29545   1.37153   13.351
 5149.00    1.28485   1.37587   13.263
 5150.00    1.28630   1.38253   14.711
 5151.00    1.30951   1.39282   14.805
 5152.00    1.33683   1.40756   10.669
 5153.00    1.35779   1.42560    7.684
 5154.00    1.37365   1.44441    6.902
 5155.00    1.39252   1.46043    7.110
 5156.00    1.41706   1.46997    7.187
 5157.00    1.42746   1.46996    7.023
 5158.00    1.40452   1.45769    7.082
 5159.00    1.36561   1.43200    7.321
 5160.00    1.33677   1.39380    7.467
 5161.00    1.31008   1.34512    7.628
 5162.00    1.26303   1.29103    8.015
 5163.00    1.18953   1.23827    8.414
 5164.00    1.10976   1.18963    8.640
 5165.00    1.07137   1.14634    9.356
 5166.00    1.08783   1.11320   11.428
 5167.00    1.08784   1.09593   14.168
 5168.00    1.02950   1.09644   14.797
 5169.00    0.99271   1.11068   13.994
 5170.00    1.03401   1.13271   13.852
 5171.00    1.07848   1.16008   14.271
 5172.00    1.07193   1.19485   14.541
 5173.00    1.08191   1.23698   14.404
 5174.00    1.15352   1.27728   14.031
 5175.00    1.22336   1.30225   13.773
 5176.00    1.23497   1.30559   13.782
 5177.00    1.20511   1.29103   13.910
 5178.00    1.16916   1.26641   14.010
 5179.00    1.14594   1.23960   14.096
 5180.00    1.12878   1.21829   14.226
 5181.00    1.09416   1.20849   14.429
 5182.00    1.05816   1.21420   14.615
 5183.00    1.07865   1.23759   14.589
 5184.00    1.15561   1.27583   14.354
 5185.00    1.21897   1.31724   14.147
 5186.00    1.24255   1.34904   14.149
 5187.00    1.26378   1.36706   14.372
 5188.00    1.29981   1.37389   14.537
 5189.00    1.33029   1.37440   14.250
 5190.00    1.33688   1.37216    0.000
 5191.00    1.31818   1.37023    0.000
 5192.00    1.29503   1.37497    0.000
 5193.00    1.29707   1.38943    0.000
 5194.00    1.32632   1.40803    0.000
 5195.00    1.36218   1.42506    0.000
 5196.00    1.39402   1.43912    0.000
 5197.00    1.42165   1.44707    0.000
 5198.00    1.44018   1.44452    0.000
 5199.00    1.44251   1.43074    0.000
 5200.00    1.42980   1.40775    0.000
 5201.00    1.40764   1.37842    0.000
 5202.00    1.37636   1.34704    0.000
 5203.00    1.33451   1.31911    0.000
 5204.00    1.28699   1.29933    0.000
 5205.00    1.24775   1.29268    0.000
 5206.00    1.24057   1.30193    0.000
 5207.00    1.27862   1.32326    0.000
 5208.00    1.33990   1.35072    0.000
 5209.00    1.38976   1.38137    0.000
 5210.00    1.41090   1.41146    0.000
 5211.00    1.40739   1.43698   13.432
 5212.00    1.40315   1.45654   13.246
 5213.00    1.42031   1.47025   12.914
 5214.00    1.45843   1.47970   12.661
 5215.00    1.49538   1.48766   12.652
 5216.00    1.49529   1.49561   12.783
 5217.00    1.45396   1.50128   12.884
 5218.00    1.42389   1.49997   12.893
 5219.00    1.43326   1.48812   12.848
 5220.00    1.43877   1.46597   12.847
 5221.00    1.41460   1.43849   12.930
 5222.00    1.39958   1.41209   13.027
 5223.00    1.41509   1.39155   13.063
 5224.00    1.42723   1.38059   13.029
 5225.00    1.41893   1.38133   12.954
 5226.00    1.41776   1.39233   12.869
 5227.00    1.43408   1.41131   12.786
 5228.00    1.44272   1.43450   12.684
 5229.00    1.43981   1.45511   12.545
 5230.00    1.45429   1.47085   12.365
 5231.00    1.49052   1.48433   12.134
 5232.00    1.51783   1.49703   11.858
 5233.00    1.51820   1.51144   11.631
 5234.00    1.49971   1.52932   11.567
 5235.00    1.48174   1.54802   11.579
 5236.00    1.48304   1.56405   11.436
 5237.00    1.50254   1.57529   11.173
 5238.00    1.52482   1.58149   11.023
 5239.00    1.54918   1.58296   11.018
 5240.00    1.58075   1.57890   11.030
 5241.00    1.59079   1.56923   11.065
 5242.00    1.54652   1.55561   11.213
 5243.00    1.49477   1.53932   11.410
 5244.00    1.50872   1.52079   11.508
 5245.00    1.54933   1.50110   11.575
 5246.00    1.52939   1.48313   11.786
 5247.00    1.47535   1.47169   12.071
 5248.00    1.46847   1.46837   12.228
 5249.00    1.50316   1.46994   12.272
 5250.00    1.52469   1.47639   12.354
 5251.00    1.51903   1.49018   12.510
 5252.00    1.50579   1.50841   12.683
 5253.00    1.50941   1.52538   12.789
 5254.00    1.53823   1.53747   12.777
 5255.00    1.56612   1.54325   12.670
 5256.00    1.56332   1.54079   12.540
 5257.00    1.53167   1.52551   12.469
 5258.00    1.48503   1.49531   12.518
 5259.00    1.42714   1.45340   12.711
 5260.00    1.36618   1.40616   12.992
 5261.00    1.32675   1.36110   13.198
 5262.00    1.31946   1.32143   13.240
 5263.00    1.31948   1.28759   13.258
 5264.00    1.30765   1.26353   13.360
 5265.00    1.29837   1.25388   13.438
 5266.00    1.30493   1.25848   13.328
 5267.00    1.31812   1.27345   12.978
 5268.00    1.33205   1.29317   12.571
 5269.00    1.35719   1.31689   12.442
 5270.00    1.39622   1.35092   12.623
 5271.00    1.43519   1.39443   12.734
 5272.00    1.47175   1.43613   12.586
 5273.00    1.51977   1.46974   12.445
 5274.00    1.56104   1.49596   12.539
 5275.00    1.54479   1.51554   12.856
 5276.00    1.48070   1.52959   13.163
 5277.00    1.44695   1.53726   13.109
 5278.00    1.46911   1.53763   12.793
 5279.00    1.50208   1.53584   12.690
 5280.00    1.53152   1.53789   12.839
 5281.00    1.58317   1.54619   12.848
 5282.00    1.63948   1.56086   12.681
 5283.00    1.64874   1.58119   12.650
 5284.00    1.62500   1.60607   12.702
 5285.00    1.63075   1.63158   12.550
 5286.00    1.66095   1.65051   12.478
 5287.00    1.66208   1.65897   12.943
 5288.00    1.64500   1.65914   13.227
 5289.00    1.65696   1.65307   12.194
 5290.00    1.66975   1.63898   10.985
 5291.00    1.62924   1.61518   10.845
 5292.00    1.59033   1.58547   11.237
 5293.00    1.63421   1.55729   11.016
 5294.00    1.68768   1.53439   10.732
 5295.00    1.63425   1.51633   11.508
 5296.00    1.53012   1.50528   13.104
 5297.00    1.49828   1.50629   14.029
 5298.00    1.53490   1.52203   13.960
 5299.00    1.57880   1.54832   13.820
 5300.00    1.63218   1.57618   13.719
 5301.00    1.70520   1.60113   13.454
 5302.00    1.74038   1.62517   13.313
 5303.00    1.69979   1.64832   13.515
 5304.00    1.65665   1.66690   13.639
 5305.00    1.67794   1.67847   13.350
 5306.00    1.71255   1.68367   13.134
 5307.00    1.70046   1.68503   13.400
 5308.00    1.66979   1.68484   13.848
 5309.00    1.66320   1.68238   14.001
 5310.00    1.67593   1.67567   13.790
 5311.00    1.68518   1.66585   13.462
 5312.00    1.67661   1.65550   13.315
 5313.00    1.65628   1.64559   13.438
 5314.00    1.65052   1.63638   13.625
 5315.00    1.66385   1.62735   13.675
 5316.00    1.66353   1.61759   13.590
 5317.00    1.63476   1.60616   13.486
 5318.00    1.60198   1.59133   13.488
 5319.00    1.58029   1.57293   13.576
 5320.00    1.55667   1.55137   13.575
 5321.00    1.51743   1.52423   13.529
 5322.00    1.46214   1.49091   13.720
 5323.00    1.40764   1.45840   14.116
 5324.00    1.38193   1.43580   14.269
 5325.00    1.39742   1.42632   14.032
 5326.00    1.44207   1.42624   13.730
 5327.00    1.48375   1.43387   13.568
 5328.00    1.49074   1.45463   13.522
 5329.00    1.48610   1.49013   13.489
 5330.00    1.52449   1.52936   13.373
 5331.00    1.58756   1.56048   13.180
 5332.00    1.60661   1.58117   13.011
 5333.00    1.58672   1.59301   12.982
 5334.00    1.58606   1.59578   13.145
 5335.00    1.60279   1.58995   13.343
 5336.00    1.59182   1.58006   13.355
 5337.00    1.54933   1.57078   13.303
 5338.00    1.50739   1.56364   -2.000
 5339.00    1.49175   1.55795   -2.000
 5340.00    1.50568   1.55548   -2.000
 5341.00    1.51850   1.55958   -2.000
 5342.00    1.50523   1.56673   -2.000
 5343.00    1.50479   1.57063   -2.000
 5344.00    1.56050   1.57236   -2.000
 5345.00    1.63193   1.57633   -2.000
 5346.00    1.66335   1.58505   -2.000
 5347.00    1.67779   1.59815   -2.000
 5348.00    1.71033   1.61426   -2.000
 5349.00    1.72672   1.63493   -2.000
 5350.00    1.69571   1.66005   -2.000
 5351.00    1.66451   1.68496   -2.000
 5352.00    1.67965   1.70529   12.803
 5353.00    1.71330   1.72030   13.018
 5354.00    1.72790   1.73053   13.010
 5355.00    1.73171   1.73407   13.032
 5356.00    1.74072   1.72942   13.192
 5357.00    1.74849   1.71877   13.305
 5358.00    1.74513   1.70397   13.283
 5359.00    1.73107   1.68545   13.374
 5360.00    1.71025   1.66437   13.663
 5361.00    1.68551   1.64234   13.814
 5362.00    1.66015   1.62106   13.690
 5363.00    1.63892   1.60043   13.636
 5364.00    1.62763   1.57815   13.759
 5365.00    1.62995   1.55523   13.717
 5366.00    1.63376   1.53723   13.486
 5367.00    1.61436   1.52802   13.506
 5368.00    1.57477   1.52808   13.820
 5369.00    1.54935   1.53582   13.929
 5370.00    1.55058   1.55060   13.730
 5371.00    1.56158   1.57295   13.674
 5372.00    1.58339   1.60116   13.814
 5373.00    1.63178   1.62867   13.765
 5374.00    1.67478   1.64830   13.568
 5375.00    1.65455   1.65881   13.635
 5376.00    1.60439   1.66221   13.852
 5377.00    1.61593   1.66125   13.722
 5378.00    1.66976   1.65871   13.474
 5379.00    1.67090   1.65533   13.728
 5380.00    1.63366   1.65094   14.214
 5381.00    1.64520   1.64622   14.059
 5382.00    1.69648   1.64138   13.465
 5383.00    1.71188   1.63559   13.234
 5384.00    1.67526   1.62839   13.401
 5385.00    1.62308   1.61852   13.563
 5386.00    1.58822   1.60520   13.595
 5387.00    1.58267   1.58992   13.630
 5388.00    1.58721   1.57405   13.764
 5389.00    1.57485   1.55842   13.977
 5390.00    1.54589   1.54367   14.081
 5391.00    1.51707   1.52965   13.950
 5392.00    1.50076   1.51817   13.812
 5393.00    1.50156   1.51229   13.909
 5394.00    1.51579   1.51096   14.116
 5395.00    1.53413   1.51131   14.199
 5396.00    1.54539   1.51257   14.162
 5397.00    1.54433   1.51560   14.157
 5398.00    1.53786   1.51836   14.322
 5399.00    1.53308   1.51402   14.609
 5400.00    1.52674   1.50133   14.664
 5401.00    1.51181   1.48733   14.376
 5402.00    1.48482   1.47609   14.228
 5403.00    1.45551   1.46561   14.504
 5404.00    1.44901   1.45703   14.855
 5405.00    1.47404   1.45729   14.959
 5406.00    1.50715   1.47098   15.000
 5407.00    1.52923   1.49388   15.094
 5408.00    1.54470   1.51775   14.995
 5409.00    1.56075   1.53980   14.703
 5410.00    1.57621   1.56371   14.636
 5411.00    1.58703   1.59085   14.901
 5412.00    1.58991   1.61520   15.100
 5413.00    1.58454   1.63150   15.013
 5414.00    1.57608   1.64035   14.850
 5415.00    1.58040   1.64504   14.719
 5416.00    1.61603   1.64783   14.520
 5417.00    1.66773   1.64720   14.323
 5418.00    1.69182   1.64096   14.357
 5419.00    1.67890   1.63199   14.587
 5420.00    1.65885   1.62593   14.699
 5421.00    1.65137   1.62446   14.557
 5422.00    1.65580   1.62305   14.298
 5423.00    1.66608   1.61525   14.101
 5424.00    1.67258   1.60230   14.063
 5425.00    1.65640   1.59198   14.105
 5426.00    1.60620   1.58386   14.063
 5427.00    1.55702   1.57104   13.957
 5428.00    1.55546   1.55303   13.934
 5429.00    1.57394   1.53703   14.020
 5430.00    1.55633   1.53159   14.137
 5431.00    1.53089   1.53617   14.210
 5432.00    1.55801   1.54518   14.206
 5433.00    1.61134   1.55997   14.164
 5434.00    1.63006   1.58223   14.130
 5435.00    1.62547   1.60925   14.055
 5436.00    1.64127   1.63657   13.896
 5437.00    1.67808   1.65981   13.755
 5438.00    1.71131   1.67545   13.768
 5439.00    1.72638   1.67945   13.962
 5440.00    1.72026   1.67042   14.222
 5441.00    1.69792   1.65135   14.263
 5442.00    1.66908   1.62962   14.013
 5443.00    1.64465   1.61180   13.916
 5444.00    1.63101   1.59818   14.073
 5445.00    1.62542   1.58815   13.683
 5446.00    1.62142   1.58319   13.036
 5447.00    1.61549   1.58507   -2.000
 5448.00    1.62065   1.59043   -2.000
 5449.00    1.66358   1.59078   -2.000
 5450.00    1.69059   1.58387   -2.000
 5451.00    1.55483   1.57621   -2.000
 5452.00    1.36588   1.57311   -2.000
 5453.00    1.56645   1.57353   -2.000
 5454.00    2.06005   1.57504   -2.000
 5455.00    1.98895   1.57829   -2.000
 5456.00    1.27560   1.58545   -2.000
 5457.00    1.02611   1.59317   -2.000
 5458.00    1.50482   1.59624   -2.000
 5459.00    1.64240   1.59620   -2.000
 5460.00    1.18538   1.59545   -2.000
 5461.00    1.12930   1.59463   -2.000
 5462.00    1.68883   1.59505   -2.000
 5463.00    1.97183   1.59793   -2.000
 5464.00    1.70745   1.60230   -2.000
 5465.00    1.49208   1.60415   -2.000
 5466.00    1.56337   1.60205   -2.000
 5467.00    1.63605   1.59716   -2.000
 5468.00    1.60045   1.58853   -2.000
 5469.00    1.59421   1.57655   -2.000
 5470.00    1.64253   1.56258   -2.000
 5471.00    1.64765   1.54669   13.923
 5472.00    1.59362   1.53198   14.377
 5473.00    1.54382   1.52336   14.583
 5474.00    1.52887   1.52122   14.397
 5475.00    1.54082   1.52037   14.409
 5476.00    1.57005   1.51929   14.587
 5477.00    1.60752   1.52508   14.512
 5478.00    1.63606   1.53928   14.242
 5479.00    1.64005   1.55441   14.103
 5480.00    1.62307   1.56589   14.134
 5481.00    1.60252   1.57461   14.186
 5482.00    1.59681   1.58303   14.141
 5483.00    1.60850   1.59162   14.021
 5484.00    1.60764   1.59892   14.064
 5485.00    1.57707   1.60265   14.373
 5486.00    1.56335   1.60322   14.523
 5487.00    1.60441   1.60304   14.190
 5488.00    1.65165   1.60382   13.897
 5489.00    1.65241   1.60616   14.113
 5490.00    1.63373   1.60903   14.557
 5491.00    1.63994   1.61060   14.755
 5492.00    1.67145   1.60939   14.705
 5493.00    1.70392   1.60827   14.632
 5494.00    1.71125   1.61047   14.668
 5495.00    1.68940   1.61188   14.797
 5496.00    1.66704   1.60787   14.872
 5497.00    1.66397   1.60175   14.866
 5498.00    1.66752   1.59851   14.993
 5499.00    1.66555   1.59591   15.311
 5500.00    1.66382   1.58891   15.511
 5501.00    1.66357   1.57869   15.373
 5502.00    1.65303   1.57247   15.052
 5503.00    1.63088   1.57195   14.839
 5504.00    1.61295   1.57161   14.961
 5505.00    1.60722   1.56870   15.300
 5506.00    1.60618   1.56421   15.371
 5507.00    1.60402   1.56021   15.082
 5508.00    1.60244   1.55743   14.882
 5509.00    1.60438   1.55448   15.054
 5510.00    1.60981   1.55272   15.519
 5511.00    1.60997   1.55436   15.808
 5512.00    1.59325   1.56099   15.361
 5513.00    1.56825   1.57485   14.646
 5514.00    1.56030   1.59282   14.571
 5515.00    1.58228   1.61015   14.987
 5516.00    1.62697   1.62537   14.979
 5517.00    1.66925   1.63798   14.545
 5518.00    1.68178   1.64663   14.411
 5519.00    1.66781   1.64883   14.603
 5520.00    1.65048   1.64440   14.659
 5521.00    1.63588   1.63572   14.533
 5522.00    1.61633   1.62367   14.487
 5523.00    1.59095   1.60964   14.511
 5524.00    1.56666   1.59860   14.471
 5525.00    1.55293   1.59283   14.507
 5526.00    1.55664   1.59008   14.775
 5527.00    1.57581   1.58910   14.945
 5528.00    1.60344   1.59161   14.648
 5529.00    1.63428   1.59836   14.251
 5530.00    1.66482   1.60536   14.209
 5531.00    1.69189   1.61043   14.346
 5532.00    1.70844   1.61434   14.347
 5533.00    1.70082   1.61797   14.371
 5534.00    1.67155   1.62277   14.641
 5535.00    1.65866   1.62941   14.974
 5536.00    1.68619   1.63734   15.068
 5537.00    1.72098   1.64338   14.909
 5538.00    1.72700   1.64664   14.667
 5539.00    1.71188   1.65028   14.517
 5540.00    1.69380   1.65413   14.515
 5541.00    1.67454   1.65574   14.558
 5542.00    1.65522   1.65677   14.586
 5543.00    1.64680   1.66069   14.695
 5544.00    1.65645   1.66732   14.910
 5545.00    1.67957   1.67387   15.060
 5546.00    1.70837   1.67908   15.024
 5547.00    1.73680   1.68331   14.880
 5548.00    1.75815   1.68496   14.733
 5549.00    1.76541   1.68232   14.626
 5550.00    1.75963   1.67752   14.567
 5551.00    1.75057   1.67242   14.558
 5552.00    1.74159   1.66609   14.604
 5553.00    1.72752   1.65907   14.699
 5554.00    1.71257   1.65380   14.725
 5555.00    1.70948   1.65036   14.515
 5556.00    1.71113   1.64636   14.213
 5557.00    1.69283   1.63998   14.157
 5558.00    1.65244   1.63284   14.261
 5559.00    1.61277   1.62682   14.095
 5560.00    1.58976   1.61992   13.649
 5561.00    1.58489   1.61145   13.279
 5562.00    1.59116   1.60401   13.056
 5563.00    1.59797   1.59909   12.852
 5564.00    1.59868   1.59550   12.727
 5565.00    1.59354   1.59300   12.808
 5566.00    1.59138   1.59339   12.881
 5567.00    1.59835   1.59476   12.640
 5568.00    1.59629   1.59576   12.345
 5569.00    1.56894   1.59962   12.408
 5570.00    1.55340   1.60674   12.625
 5571.00    1.59467   1.61351   12.576
 5572.00    1.66040   1.61846   12.519
 5573.00    1.69058   1.62437   12.909
 5574.00    1.68820   1.63200   13.526
 5575.00    1.68534   1.63751   13.835
 5576.00    1.68205   1.63879   13.941
 5577.00    1.66640   1.63688   14.227
 5578.00    1.64739   1.63161   14.592
 5579.00    1.63953   1.62221   14.740
 5580.00    1.64159   1.60825   14.685
 5581.00    1.63594   1.58872   14.672
 5582.00    1.59433   1.56576   14.954
 5583.00    1.51801   1.54414   15.546
 5584.00    1.46533   1.52574   15.954
 5585.00    1.47573   1.51203   15.828
 5586.00    1.51365   1.50502   15.608
 5587.00    1.54162   1.50526   15.657
 5588.00    1.57129   1.51205   15.725
 5589.00    1.61097   1.52294   15.572
 5590.00    1.63446   1.53725   15.373
 5591.00    1.62771   1.55351   15.311
 5592.00    1.61242   1.56572   15.368
 5593.00    1.60802   1.57058   15.484
 5594.00    1.61176   1.57156   15.642
 5595.00    1.61242   1.57242   15.800
 5596.00    1.60048   1.57108   15.866
 5597.00    1.57928   1.56558   15.764
 5598.00    1.56579   1.56169   15.494
 5599.00    1.57252   1.56693   15.226
 5600.00    1.59912   1.58007   15.215
 5601.00    1.63009   1.59670   15.447
 5602.00    1.64317   1.61602   15.634
 5603.00    1.63931   1.63744   15.642
 5604.00    1.64239   1.65833   15.584
 5605.00    1.66621   1.67385   15.515
 5606.00    1.70381   1.68174   15.398
 5607.00    1.72804   1.68307   15.280
 5608.00    1.70983   1.67837   15.256
 5609.00    1.66222   1.66575   15.263
 5610.00    1.62589   1.64503   15.157
 5611.00    1.61108   1.62332   14.995
 5612.00    1.60146   1.60735   14.974
 5613.00    1.59044   1.59500   15.195
 5614.00    1.58426   1.58256   15.583
 5615.00    1.59245   1.57379   15.769
 5616.00    1.61727   1.57515   15.454
 5617.00    1.63976   1.58265   15.079
 5618.00    1.63767   1.58627   15.192
 5619.00    1.61602   1.58380   15.592
 5620.00    1.59451   1.58109   15.775
 5621.00    1.58313   1.58282   15.791
 5622.00    1.58107   1.58687   15.906
 5623.00    1.58056   1.59041   15.931
 5624.00    1.58034   1.59634   15.668
 5625.00    1.59820   1.60850   15.459
 5626.00    1.64160   1.62403   15.604
 5627.00    1.67913   1.63651   15.815
 5628.00    1.68320   1.64422   15.779
 5629.00    1.67006   1.64826   15.739
 5630.00    1.66381   1.64782   15.940
 5631.00    1.66355   1.64217   16.144
 5632.00    1.65816   1.63267   16.131
 5633.00    1.64120   1.62238   16.109
 5634.00    1.61766   1.61383   16.237
 5635.00    1.60461   1.60686   16.310
 5636.00    1.60764   1.60029   16.167
 5637.00    1.61024   1.59582   15.939
 5638.00    1.60412   1.59590   15.742
 5639.00    1.60308   1.59877   15.532
 5640.00    1.61721   1.60158   15.305
 5641.00    1.64020   1.60492   15.132
 5642.00    1.65812   1.61098   14.915
 5643.00    1.65841   1.61824   14.402
 5644.00    1.64791   1.62378   13.672
 5645.00    1.65156   1.62781   13.090
 5646.00    1.67608   1.63178   12.802
 5647.00    1.70290   1.63597   12.737
 5648.00    1.71667   1.63758   12.860
 5649.00    1.71332   1.63391   13.210
 5650.00    1.69121   1.62701   13.775
 5651.00    1.65232   1.62077   14.435
 5652.00    1.61412   1.61270   14.935
 5653.00    1.60014   1.59773   15.041
 5654.00    1.60622   1.58021   14.985
 5655.00    1.60723   1.57027   15.242
 5656.00    1.59517   1.56747   15.742
 5657.00    1.58017   1.56333   15.981
 5658.00    1.57171   1.55982   15.888
 5659.00    1.57374   1.56621   15.797
 5660.00    1.58375   1.57998   15.803
 5661.00    1.59547   1.59079   15.764
 5662.00    1.60410   1.59746   15.511
 5663.00    1.60857   1.60538   15.023
 5664.00    1.61350   1.61546   14.548
 5665.00    1.62610   1.62405   14.280
 5666.00    1.65096   1.63015   14.021
 5667.00    1.68547   1.63709   13.610
 5668.00    1.71538   1.64777   13.410
 5669.00    1.72635   1.65966   13.738
 5670.00    1.71854   1.66896   14.275
 5671.00    1.70472   1.67664   14.550
 5672.00    1.70461   1.68445   14.759
 5673.00    1.72633   1.68898   15.203
 5674.00    1.75051   1.68702   15.525
 5675.00    1.75393   1.68160   15.418
 5676.00    1.73251   1.67597   15.403
 5677.00    1.69800   1.66752   15.829
 5678.00    1.67116   1.65503   16.102
 5679.00    1.66201   1.64376   15.740
 5680.00    1.65838   1.63651   15.274
 5681.00    1.64938   1.62991   15.173
 5682.00    1.64035   1.62234   15.315
 5683.00    1.64061   1.61848   15.489
 5684.00    1.65468   1.62077   15.653
 5685.00    1.68032   1.62624   15.700
 5686.00    1.70867   1.63245   15.419
 5687.00    1.72918   1.64064   14.996
 5688.00    1.73430   1.65151   14.980
 5689.00    1.72836   1.66171   15.426
 5690.00    1.72681   1.66850   15.718
 5691.00    1.73587   1.67188   15.562
 5692.00    1.74649   1.67194   15.358
 5693.00    1.74506   1.66639   15.383
 5694.00    1.72192   1.65607   15.568
 5695.00    1.68489   1.64507   15.743
 5696.00    1.65473   1.63373   15.764
 5697.00    1.63644   1.62036   15.724
 5698.00    1.61973   1.60755   15.847
 5699.00    1.60580   1.59873   16.056
 5700.00    1.60594   1.59119   16.055
 5701.00    1.61822   1.58124   15.940
 5702.00    1.62826   1.57088   16.071
 5703.00    1.62534   1.56194   16.419
 5704.00    1.60892   1.55322   16.631
 5705.00    1.59359   1.54509   16.537
 5706.00    1.59749   1.54053   16.257
 5707.00    1.61885   1.54090   16.052
 5708.00    1.64394   1.54731   16.072
 5709.00    1.66798   1.56102   16.043
 5710.00    1.69148   1.57994   15.698
 5711.00    1.70901   1.60004   15.470
 5712.00    1.71564   1.62094   15.790
 5713.00    1.71788   1.64268   16.164
 5714.00    1.72451   1.66212   15.913
 5715.00    1.73330   1.67824   15.514
 5716.00    1.73715   1.69197   15.573
 5717.00    1.73334   1.70324   15.721
 5718.00    1.72498   1.71189   15.462
 5719.00    1.72072   1.71789   15.162
 5720.00    1.72683   1.72091   15.200
 5721.00    1.73998   1.72103   15.257
 5722.00    1.75079   1.71749   15.075
 5723.00    1.74875   1.71125   15.073
 5724.00    1.73132   1.70623   15.448
 5725.00    1.70954   1.70289   15.551
 5726.00    1.69664   1.69769   15.097
 5727.00    1.69953   1.69209   14.914
 5728.00    1.71928   1.69197   15.398
 5729.00    1.75171   1.69624   15.832
 5730.00    1.78650   1.69887   15.625
 5731.00    1.80870   1.69967   15.223
 5732.00    1.81042   1.70215   15.077
 5733.00    1.79587   1.70576   15.173
 5734.00    1.77510   1.70737   15.345
 5735.00    1.75926   1.70692   15.427
 5736.00    1.75417   1.70608   15.384
 5737.00    1.75757   1.70543   15.327
 5738.00    1.75967   1.70455   15.287
 5739.00    1.74917   1.70357   15.173
 5740.00    1.73375   1.70384    0.000
 5741.00    1.73574   1.70515    0.000
 5742.00    1.75383   1.70481    0.000
 5743.00    1.76385   1.70138    0.000
 5744.00    1.75943   1.69729    0.000
 5745.00    1.75456   1.69472    0.000
 5746.00    1.75672   1.69132    0.000
 5747.00    1.76325   1.68448    0.000
 5748.00    1.77108   1.67617    0.000
 5749.00    1.77819   1.67050    0.000
 5750.00    1.78132   1.66841    0.000
 5751.00    1.77691   1.66880    0.000
 5752.00    1.76403   1.67020    0.000
 5753.00    1.74699   1.67198    0.000
 5754.00    1.73861   1.67458    0.000
 5755.00    1.75162   1.67729    0.000
 5756.00    1.78372   1.67785    0.000
 5757.00    1.81648   1.67516    0.000
 5758.00    1.81918   1.67170    0.000
 5759.00    1.77545   1.67126   -2.000
 5760.00    1.71606   1.67584   -2.000
 5761.00    1.67861   1.68307   -2.000
 5762.00    1.65558   1.69161   -2.000
 5763.00    1.63261   1.70239   -2.000
 5764.00    1.63477   1.71394   -2.000
 5765.00    1.68073   1.72162   -2.000
 5766.00    1.73524   1.72438   -2.000
 5767.00    1.75554   1.72404   -2.000
 5768.00    1.73772   1.72156   -2.000
 5769.00    1.70711   1.71749   -2.000
 5770.00    1.70211   1.71219   -2.000
 5771.00    1.73715   1.70626   -2.000
 5772.00    1.78155   1.69989   -2.000
 5773.00    1.80722   1.69213   -2.000
 5774.00    1.81834   1.68171   -2.000
 5775.00    1.81841   1.66813   -2.000
 5776.00    1.79331   1.65037   -2.000
 5777.00    1.74128   1.62967   -2.000
 5778.00    1.68587   1.61138    0.000
 5779.00    1.64953   1.59710    0.000
 5780.00    1.63995   1.58435    0.000
 5781.00    1.65418   1.57595    0.000
 5782.00    1.68308   1.57826    0.000
 5783.00    1.72060   1.58881    0.000
 5784.00    1.76338   1.60100    0.000
 5785.00    1.79400   1.61418    0.000
 5786.00    1.78450   1.62955    0.000
 5787.00    1.73090   1.64539    0.000
 5788.00    1.65870   1.66000    0.000
 5789.00    1.60068   1.67214    0.000
 5790.00    1.58299   1.68167    0.000
 5791.00    1.60677   1.69081    0.000
 5792.00    1.65217   1.69929    0.000
 5793.00    1.70205   1.70448    0.000
 5794.00    1.74548   1.70917    0.000
 5795.00    1.77127   1.71667    0.000
 5796.00    1.77312   1.72319    0.000
 5797.00    1.76313   1.72633    0.000
 5798.00    1.76192   1.72942    0.000
 5799.00    1.77452   1.73236    0.000
 5800.00    1.79234   1.73128    0.000
 5801.00    1.80528   1.72743    0.000
 5802.00    1.80736   1.72421    0.000
 5803.00    1.80215   1.72118    0.000
 5804.00    1.79960   1.71795    0.000
 5805.00    1.80986   1.71698    0.000
 5806.00    1.83507   1.71876    0.000
 5807.00    1.86094   1.72056    0.000
 5808.00    1.87201   1.72081    0.000
 5809.00    1.86992   1.72077    0.000
 5810.00    1.86113   1.72060    0.000
 5811.00    1.84252   1.71874    0.000
 5812.00    1.81407   1.71655    0.000
 5813.00    1.79080   1.71791    0.000
 5814.00    1.78362   1.72263    0.000
 5815.00    1.78333   1.72759    0.000
 5816.00    1.77832   1.73329    0.000
 5817.00    1.76982   1.74114    0.000
 5818.00    1.76967   1.74871    0.000
 5819.00    1.79374   1.75332    0.000
 5820.00    1.83469   1.75630    0.000
 5821.00    1.85282   1.75907    0.000
 5822.00    1.83136   1.76046    0.000
 5823.00    1.80155   1.76048    0.000
 5824.00    1.79139   1.76096    0.000
 5825.00    1.79968   1.76213    0.000
 5826.00    1.81354   1.76167    0.000
 5827.00    1.82072   1.75939    0.000
 5828.00    1.82174   1.75753    0.000
 5829.00    1.82816   1.75558    0.000
 5830.00    1.83462   1.75111    0.000
 5831.00    1.81893   1.74644    0.000
 5832.00    1.78488   1.74516    0.000
 5833.00    1.76488   1.74477    0.000
 5834.00    1.77496   1.74309    0.000
 5835.00    1.80608   1.74415    0.000
 5836.00    1.84488   1.74926    0.000
 5837.00    1.87890   1.75367    0.000
 5838.00    1.89313   1.75550    0.000
 5839.00    1.87413   1.75684    0.000
 5840.00    1.82275   1.75707    0.000
 5841.00    1.75696   1.75396    0.000
 5842.00    1.71025   1.74757    0.000
 5843.00    1.71093   1.73924    0.000
 5844.00    1.74229   1.72990    0.000
 5845.00    1.76131   1.72010    0.000
 5846.00    1.74777   1.71026    0.000
 5847.00    1.70889   1.70032    0.000
 5848.00    1.67062   1.68921    0.000
 5849.00    1.65856   1.67692    0.000
 5850.00    1.67224   1.66621    0.000
 5851.00    1.69470   1.65759    0.000
 5852.00    1.71160   1.64771    0.000
 5853.00    1.71917   1.63717    0.000
 5854.00    1.72941   1.63160    0.000
 5855.00    1.74999   1.63238    0.000
 5856.00    1.76291   1.63517    0.000
 5857.00    1.75000   1.63873    0.000
 5858.00    1.71988   1.64403    0.000
 5859.00    1.68988   1.65201    0.000
 5860.00    1.66697   1.66151    0.000
 5861.00    1.65186   1.66954    0.000
 5862.00    1.64412   1.67405    0.000
 5863.00    1.64395   1.67870    0.000
 5864.00    1.65237   1.68620    0.000
 5865.00    1.66443   1.69320    0.000
 5866.00    1.66715   1.69767    0.000
 5867.00    1.65683   1.70167    0.000
 5868.00    1.64807   1.70535    0.000
 5869.00    1.66019   1.70673    0.000
 5870.00    1.70440   1.70625    0.000
 5871.00    1.76111   1.70385    0.000
 5872.00    1.78194   1.69820    0.000
 5873.00    1.75444   1.69117    0.000
 5874.00    1.71819   1.68489    0.000
 5875.00    1.69918   1.67696    0.000
 5876.00    1.68857   1.66623    0.000
 5877.00    1.67445   1.65671    0.000
 5878.00    1.65470   1.64862    0.000
 5879.00    1.63583   1.63635    0.000
 5880.00    1.62596   1.61789    0.000
 5881.00    1.61502   1.59455    0.000
 5882.00    1.57921   1.56497    0.000
 5883.00    1.51191   1.52811    0.000
 5884.00    1.42763   1.48346    0.000
 5885.00    1.34794   1.43166    0.000
 5886.00    1.28947   1.38279    0.000
 5887.00    1.24562   1.34778    0.000
 5888.00    1.19985   1.32248    0.000
 5889.00    1.16241   1.30437    0.000
 5890.00    1.15652   1.30031    0.000
 5891.00    1.17671   1.30687    0.000
 5892.00    1.20026   1.31974    0.000
 5893.00    1.22138   1.34629    0.000
 5894.00    1.24942   1.38190    0.000
 5895.00    1.29589   1.41491    0.000
 5896.00    1.36601   1.45158    0.000
 5897.00    1.45000   1.49707    0.000
 5898.00    1.52837   1.53886    0.000
 5899.00    1.58157   1.57111    0.000
 5900.00    1.60529   1.59883    0.000
 5901.00    1.62450   1.62122   17.344
 5902.00    1.65965   1.63619   17.146
 5903.00    1.69133   1.64764   16.883
 5904.00    1.69649   1.65693   16.806
 5905.00    1.68546   1.66180   16.890
 5906.00    1.67763   1.66356   17.040
 5907.00    1.67697   1.66540   17.274
 5908.00    1.67735   1.66558   17.564
 5909.00    1.66966   1.66154   17.703
 5910.00    1.65130   1.65551   17.628
 5911.00    1.63151   1.65161   17.607
 5912.00    1.62156   1.64936   17.759
 5913.00    1.62747   1.64822   17.790
 5914.00    1.64732   1.64903   17.487
 5915.00    1.67222   1.65269   17.013
 5916.00    1.69909   1.65881   16.668
 5917.00    1.73324   1.66505   16.704
 5918.00    1.76566   1.66987   17.098
 5919.00    1.77014   1.67438   17.468
 5920.00    1.74335   1.67864   17.412
 5921.00    1.71281   1.68054   16.857
 5922.00    1.69288   1.68061   16.319
 5923.00    1.67434   1.68018   16.524
 5924.00    1.65524   1.67899   17.413
 5925.00    1.64708   1.67620   18.017
 5926.00    1.65543   1.67245   17.890
 5927.00    1.67486   1.67064   17.627
 5928.00    1.69451   1.67102   17.574
 5929.00    1.70330   1.67054   17.617
 5930.00    1.69887   1.66878   17.620
 5931.00    1.68734   1.67007   17.578
 5932.00    1.67639   1.67457   17.690
 5933.00    1.67193   1.67684   18.124
 5934.00    1.67491   1.67709   18.405
 5935.00    1.67979   1.67963   17.901
 5936.00    1.67358   1.68245   17.275
 5937.00    1.64858   1.68195   17.501
 5938.00    1.62526   1.68167   18.268
 5939.00    1.63222   1.68365   18.499
 5940.00    1.66592   1.68450   18.070
 5941.00    1.70113   1.68394   17.628
 5942.00    1.71771   1.68485   17.492
 5943.00    1.71025   1.68590   17.630
 5944.00    1.69447   1.68355   17.769
 5945.00    1.69009   1.67902   17.653
 5946.00    1.69871   1.67663   17.395
 5947.00    1.71091   1.67513   17.246
 5948.00    1.71813   1.66984   17.296
 5949.00    1.71909   1.66381   17.493
 5950.00    1.72349   1.66357   17.676
 5951.00    1.73619   1.66558   17.709
 5952.00    1.74398   1.66423   17.620
 5953.00    1.73656   1.66381   17.529
 5954.00    1.72342   1.66889   17.544
 5955.00    1.71465   1.67582   17.645
 5956.00    1.70681   1.68181   17.638
 5957.00    1.69803   1.68859   17.518
 5958.00    1.69755   1.69613   17.631
 5959.00    1.71223   1.70297   18.030
 5960.00    1.73799   1.70885   18.157
 5961.00    1.76336   1.71271   17.778
 5962.00    1.77416   1.71489   17.443
 5963.00    1.76545   1.71829   17.529
 5964.00    1.74563   1.72204   17.911
 5965.00    1.72585   1.72427   18.222
 5966.00    1.71438   1.72645   18.084
 5967.00    1.71555   1.72913   17.684
 5968.00    1.72820   1.72911   17.654
 5969.00    1.74161   1.72617   18.018
 5970.00    1.73938   1.72164   18.106
 5971.00    1.71884   1.71468   17.766
 5972.00    1.69275   1.70564   17.523
 5973.00    1.67208   1.69736   17.530
 5974.00    1.66114   1.69049   17.504
 5975.00    1.66018   1.68431   17.339
 5976.00    1.66572   1.67942   17.176
 5977.00    1.66940   1.67596   17.116
 5978.00    1.66276   1.67325   17.153
 5979.00    1.64902   1.66986   17.195
 5980.00    1.63824   1.66571   17.134
 5981.00    1.63109   1.66392   16.976
 5982.00    1.62551   1.66559   16.807
 5983.00    1.63583   1.66719   16.663
 5984.00    1.67567   1.66937   16.523
 5985.00    1.72211   1.67621   16.346
 5986.00    1.74118   1.68522   16.174
 5987.00    1.73768   1.69102   16.257
 5988.00    1.73459   1.69534   16.782
 5989.00    1.73197   1.70093   17.419
 5990.00    1.72023   1.70458   17.661
 5991.00    1.70517   1.70410   17.635
 5992.00    1.69922   1.70185   17.718
 5993.00    1.70667   1.69926   17.862
 5994.00    1.72022   1.69536   17.878
 5995.00    1.72099   1.69063   17.850
 5996.00    1.69911   1.68654   17.969
 5997.00    1.67191   1.68326   18.325
 5998.00    1.65931   1.67937   18.796
 5999.00    1.66103   1.67521   18.961
 6000.00    1.66801   1.67251   18.615
 6001.00    1.67379   1.66961   18.150
 6002.00    1.67694   1.66516   17.886
 6003.00    1.68102   1.66088   17.718
 6004.00    1.68624   1.65771   17.589
 6005.00    1.68580   1.65621   17.701
 6006.00    1.67950   1.65712   18.005
 6007.00    1.67899   1.65833   17.971
 6008.00    1.68878   1.65760   17.415
 6009.00    1.69786   1.65697   16.832
 6010.00    1.69314   1.65840   16.592
 6011.00    1.66934   1.65899   16.708
 6012.00    1.64060   1.65546   16.985
 6013.00    1.63565   1.65106   17.115
 6014.00    1.65683   1.65054   17.024
 6015.00    1.67474   1.65056   16.941
 6016.00    1.67344   1.64789   16.978
 6017.00    1.66206   1.64755   17.045
 6018.00    1.65406   1.65196   17.074
 6019.00    1.65807   1.65670   17.094
 6020.00    1.67336   1.66110   17.227
 6021.00    1.69112   1.66959   17.579
 6022.00    1.70233   1.68036   17.927
 6023.00    1.70290   1.68925   17.879
 6024.00    1.70077   1.69832   17.668
 6025.00    1.70806   1.70952   17.849
 6026.00    1.71987   1.71891   18.256
 6027.00    1.72192   1.72528   18.249
 6028.00    1.71623   1.73233   17.902
 6029.00    1.71564   1.73931   17.738
 6030.00    1.72340   1.74350   17.763
 6031.00    1.73394   1.74596   17.714
 6032.00    1.74103   1.74830   17.674
 6033.00    1.74251   1.74971   17.838
 6034.00    1.74459   1.74964   18.018
 6035.00    1.75294   1.74866   17.926
 6036.00    1.75980   1.74794   17.709
 6037.00    1.75445   1.74808   17.609
 6038.00    1.73835   1.74853   17.485
 6039.00    1.71944   1.75013   17.198
 6040.00    1.70332   1.75343   17.040
 6041.00    1.69293   1.75700   17.241
 6042.00    1.68951   1.76018   17.515
 6043.00    1.69535   1.76405   17.495
 6044.00    1.71517   1.76688   17.250
 6045.00    1.74572   1.76685   17.042
 6046.00    1.76905   1.76589   17.037
 6047.00    1.77369   1.76417   17.260
 6048.00    1.76923   1.75972   17.586
 6049.00    1.76613   1.75308   17.839
 6050.00    1.76188   1.74711   17.903
 6051.00    1.75218   1.74161   17.794
 6052.00    1.73885   1.73548   17.671
 6053.00    1.72918   1.73040   17.667
 6054.00    1.73236   1.72769   17.810
 6055.00    1.74352   1.72611   18.029
 6056.00    1.74166   1.72450   18.195
 6057.00    1.72062   1.72275   18.334
 6058.00    1.69892   1.72014   18.634
 6059.00    1.69461   1.71777   18.921
 6060.00    1.71291   1.71664   18.638
 6061.00    1.74348   1.71526   17.944
 6062.00    1.76519   1.71622   17.629
 6063.00    1.76625   1.72296   17.832
 6064.00    1.75026   1.73243   18.026
 6065.00    1.73146   1.74146   17.917
 6066.00    1.72606   1.75233   17.670
 6067.00    1.73236   1.76424   17.467
 6068.00    1.73426   1.77253   17.367
 6069.00    1.72642   1.77662   17.313
 6070.00    1.71825   1.77755   17.177
 6071.00    1.72659   1.77459   16.877
 6072.00    1.75901   1.76826   16.484
 6073.00    1.78323   1.75999   16.352
 6074.00    1.75715   1.74881   16.799
 6075.00    1.69973   1.73617   17.497
 6076.00    1.66348   1.72627   17.738
 6077.00    1.66046   1.71768   17.611
 6078.00    1.67155   1.70772   17.733
 6079.00    1.68375   1.70122   18.277
 6080.00    1.69465   1.70010   18.970
 6081.00    1.70915   1.69837   19.236
 6082.00    1.72890   1.69541   18.791
 6083.00    1.73996   1.69534   18.345
 6084.00    1.73041   1.69702   18.561
 6085.00    1.71226   1.69628   19.085
 6086.00    1.70085   1.69382   19.239
 6087.00    1.69071   1.69377   19.035
 6088.00    1.67319   1.69613   18.833
 6089.00    1.65603   1.69711   18.787
 6090.00    1.65267   1.69821   18.859
 6091.00    1.66997   1.70298   18.875
 6092.00    1.70121   1.70772   18.711
 6093.00    1.72403   1.70929   18.439
 6094.00    1.72446   1.70954   18.214
 6095.00    1.71284   1.70746   18.153
 6096.00    1.70508   1.70196   18.170
 6097.00    1.70838   1.69577   17.932
 6098.00    1.71779   1.68746   17.338
 6099.00    1.71797   1.67857   16.688
 6100.00    1.70200   1.67608   16.159
 6101.00    1.67963   1.67813   15.678
 6102.00    1.66430   1.68016   15.283
 6103.00    1.66513   1.68545   15.161
 6104.00    1.68256   1.69549   15.278
 6105.00    1.70756   1.70585   15.351
 6106.00    1.72615   1.71496   15.429
 6107.00    1.72755   1.72180   15.947
 6108.00    1.72663   1.72633   16.821
 6109.00    1.75628   1.73074   17.223
 6110.00    1.81228   1.73391   17.009
 6111.00    1.85249   1.73307   17.000
 6112.00    1.85418   1.72856   17.521
 6113.00    1.82455   1.72284   18.243
 6114.00    1.77796   1.71575   18.830
 6115.00    1.72913   1.70437   19.185
 6116.00    1.69296   1.69164   19.425
 6117.00    1.67870   1.68209   19.718
 6118.00    1.67730   1.67317   19.903
 6119.00    1.67131   1.66618   19.630
 6120.00    1.66137   1.66600   18.907
 6121.00    1.65941   1.66840   18.011
 6122.00    1.66539   1.67052   17.105
 6123.00    1.67317   1.67742   16.288
 6124.00    1.68780   1.68621   15.719
 6125.00    1.71617   1.69108   15.512
 6126.00    1.74837   1.69478   15.615
 6127.00    1.76381   1.69733   15.904
 6128.00    1.74501   1.69482   16.323
 6129.00    1.69341   1.68739   16.795
 6130.00    1.64441   1.67621   17.090
 6131.00    1.63147   1.66290   17.053
 6132.00    1.64407   1.64912   16.907
 6133.00    1.65632   1.63562   16.926
 6134.00    1.66153   1.62628   17.097
 6135.00    1.66264   1.62615   17.347
 6136.00    1.65994   1.63302   17.770
 6137.00    1.65563   1.64199   18.347
 6138.00    1.65748   1.65522   18.675
 6139.00    1.66780   1.67367   18.537
 6140.00    1.67619   1.69030   18.381
 6141.00    1.67296   1.70035   18.556
 6142.00    1.65887   1.70712   18.857
 6143.00    1.64082   1.71291   19.066
 6144.00    1.62759   1.71447   19.297
 6145.00    1.62357   1.71171   19.599
 6146.00    1.62660   1.70811   19.739
 6147.00    1.63601   1.70362   19.566
 6148.00    1.65443   1.69847   19.203
 6149.00    1.67437   1.69445   18.761
 6150.00    1.67636   1.68917   18.245
 6151.00    1.65066   1.68132   17.727
 6152.00    1.60562   1.67335   17.335
 6153.00    1.56132   1.66293   17.026
 6154.00    1.54002   1.64529   16.652
 6155.00    1.54273   1.62457   16.399
 6156.00    1.54830   1.60510   16.673
 6157.00    1.53943   1.58365   17.441
 6158.00    1.51336   1.56178   18.121
 6159.00    1.48669   1.54625   18.302
 6160.00    1.48102   1.53898   17.996
 6161.00    1.48178   1.53609   -2.000
 6162.00    1.45080   1.53577   -2.000
 6163.00    1.38362   1.54163   -2.000
 6164.00    1.31198   1.55357   -2.000
 6165.00    1.27687   1.56304   -2.000
 6166.00    1.31024   1.56821   -2.000
 6167.00    1.41155   1.57831   -2.000
 6168.00    1.54844   1.59150   -2.000
 6169.00    1.66790   1.59918   -2.000
 6170.00    1.72343   1.60689   -2.000
 6171.00    1.71514   1.62086   -2.000
 6172.00    1.67537   1.63309   -2.000
 6173.00    1.63674   1.63947   17.475
 6174.00    1.61950   1.64781   17.587
 6175.00    1.62175   1.65793   17.788
 6176.00    1.63053   1.66307   18.281
 6177.00    1.63721   1.66620   18.856
 6178.00    1.63958   1.67117   19.146
 6179.00    1.64138   1.67243   19.065
 6180.00    1.64470   1.66833   18.769
 6181.00    1.64307   1.66341   18.480
 6182.00    1.62980   1.65669   18.364
 6183.00    1.60659   1.64553   18.459
 6184.00    1.58425   1.63186   18.544
 6185.00    1.58010   1.62008   18.120
 6186.00    1.59749   1.61166   17.303
 6187.00    1.61475   1.60395   17.048
 6188.00    1.61901   1.59900   17.722
 6189.00    1.62544   1.60238   18.505
 6190.00    1.64379   1.61058   18.546
 6191.00    1.66057   1.61715   18.109
 6192.00    1.66333   1.62522   17.732
 6193.00    1.65439   1.63621   17.606
 6194.00    1.64521   1.64461   17.599
 6195.00    1.64957   1.64921   17.398
 6196.00    1.66771   1.65253   17.118
 6197.00    1.68493   1.65653   17.321
 6198.00    1.69695   1.66120   18.165
 6199.00    1.71438   1.66517   19.139
 6200.00    1.73705   1.66921   19.660
 6201.00    1.74966   1.67444   19.573
 6202.00    1.74214   1.67893   19.263
 6203.00    1.71577   1.68001   19.299
 6204.00    1.67904   1.67777   19.686
 6205.00    1.64496   1.67308   19.874
 6206.00    1.62735   1.66426   19.475
 6207.00    1.63343   1.65126   18.630
 6208.00    1.64819   1.63677   17.964
 6209.00    1.64557   1.62095   18.029
 6210.00    1.62344   1.60424   18.565
 6211.00    1.60004   1.59012   18.751
 6212.00    1.58885   1.57891   18.332
 6213.00    1.59194   1.56996   17.724
 6214.00    1.59844   1.56574   17.400
 6215.00    1.59446   1.56541   17.608
 6216.00    1.58052   1.56630   18.153
 6217.00    1.56628   1.56951   18.537
 6218.00    1.55744   1.57505   18.380
 6219.00    1.55537   1.57991   17.771
 6220.00    1.55970   1.58312   17.362
 6221.00    1.56932   1.58604   17.624
 6222.00    1.58297   1.58811   18.207
 6223.00    1.59498   1.58584   18.410
 6224.00    1.59128   1.58050   18.036
 6225.00    1.56289   1.57634   17.341
 6226.00    1.52001   1.57088   16.634
 6227.00    1.48255   1.56513   16.095
 6228.00    1.46876   1.56520   15.741
 6229.00    1.48773   1.56864   15.625
 6230.00    1.53383   1.57213   15.954
 6231.00    1.58782   1.57953   16.867
 6232.00    1.62148   1.58816   18.181
 6233.00    1.62231   1.59126   19.400
 6234.00    1.60745   1.59220   19.867
 6235.00    1.59473   1.59109   19.443
 6236.00    1.58476   1.58311   18.796
 6237.00    1.57494   1.57369   18.498
 6238.00    1.56787   1.56759   18.666
 6239.00    1.56627   1.56001   19.035
 6240.00    1.56994   1.55345   19.036
 6241.00    1.57559   1.55496   18.573
 6242.00    1.57855   1.55810   18.195
 6243.00    1.58071   1.55968   18.111
 6244.00    1.58933   1.56577   18.051
 6245.00    1.59796   1.57108   18.056
 6246.00    1.58747   1.57046   18.542
 6247.00    1.55818   1.56862   19.366
 6248.00    1.53192   1.56401   19.669
 6249.00    1.51871   1.55375   19.320
 6250.00    1.51209   1.54292   19.096
 6251.00    1.50959   1.53281   19.236
 6252.00    1.51455   1.52286   19.398
 6253.00    1.52361   1.51743   19.497
 6254.00    1.52904   1.51638   19.739
 6255.00    1.53289   1.51891   20.076
 6256.00    1.54402   1.52794   20.226
 6257.00    1.56373   1.54086   20.119
 6258.00    1.58593   1.55284   19.926
 6259.00    1.60430   1.56722   19.831
 6260.00    1.61516   1.58369   19.870
 6261.00    1.61990   1.59415   19.725
 6262.00    1.62261   1.60097   19.145
 6263.00    1.62547   1.60944   18.595
 6264.00    1.62772   1.61499   18.587
 6265.00    1.62556   1.61649   18.882
 6266.00    1.61742   1.61969   18.969
 6267.00    1.61059   1.62413   18.891
 6268.00    1.61350   1.62679   18.918
 6269.00    1.62522   1.62954   18.985
 6270.00    1.63853   1.63244   18.950
 6271.00    1.64533   1.63395   18.938
 6272.00    1.64258   1.63500   19.115
 6273.00    1.63684   1.63468   19.430
 6274.00    1.63431   1.63253   19.701
 6275.00    1.63213   1.63090   19.757
 6276.00    1.62792   1.62957   19.617
 6277.00    1.62732   1.62832   19.570
 6278.00    1.63344   1.62959   19.818
 6279.00    1.63971   1.63319   20.242
 6280.00    1.64115   1.63801    0.000
 6281.00    1.64163   1.64476    0.000
 6282.00    1.64590   1.65217    0.000
 6283.00    1.65423   1.65902    0.000
 6284.00    1.66229   1.66487    0.000
 6285.00    1.66332   1.66805    0.000
 6286.00    1.65895   1.66842    0.000
 6287.00    1.66074   1.66631    0.000
 6288.00    1.67056   1.66214    0.000
 6289.00    1.67585   1.65597    0.000
 6290.00    1.67002   1.64752    0.000
 6291.00    1.65833   1.63926    0.000
 6292.00    1.64499   1.63161    0.000
 6293.00    1.63043   1.62306    0.000
 6294.00    1.61979   1.61588    0.000
 6295.00    1.62123   1.61090    0.000
 6296.00    1.63100   1.60713    0.000
 6297.00    1.63526   1.60543    0.000
 6298.00    1.62911   1.60583    0.000
 6299.00    1.61924   1.60905    0.000
 6300.00    1.61597   1.61568    0.000
 6301.00    1.62633   1.62296    0.000
 6302.00    1.64370   1.63002    0.000
 6303.00    1.65442   1.63876    0.000
 6304.00    1.65694   1.64664    0.000
 6305.00    1.65669   1.64999    0.000
 6306.00    1.64839   1.65093    0.000
 6307.00    1.62522   1.64995    0.000
 6308.00    1.60000   1.64392    0.000
 6309.00    1.59164   1.63606    0.000
 6310.00    1.59810   1.62898    0.000
 6311.00    1.60535   1.61892    0.000
 6312.00    1.60645   1.60904    0.000
 6313.00    1.60097   1.60531    0.000
 6314.00    1.59055   1.60254    0.000
 6315.00    1.57854   1.59924    0.000
 6316.00    1.57016   1.60342    0.000
 6317.00    1.57139   1.61204    0.000
 6318.00    1.58713   1.61891    0.000
 6319.00    1.61487   1.62843    0.000
 6320.00    1.64022   1.64087    0.000
 6321.00    1.65293   1.65126   18.428
 6322.00    1.65988   1.65979   18.319
 6323.00    1.66850   1.66744   18.204
 6324.00    1.67398   1.67277   18.169
 6325.00    1.67225   1.67610   18.206
 6326.00    1.66889   1.67764   18.182
 6327.00    1.66892   1.67585   18.054
 6328.00    1.67074   1.67235   17.973
 6329.00    1.67464   1.66763   17.995
 6330.00    1.68561   1.66090   17.976
 6331.00    1.69927   1.65384   17.899
 6332.00    1.69828   1.64629   17.984
 6333.00    1.67440   1.64036   18.329
 6334.00    1.63780   1.63810   18.767
 6335.00    1.60725   1.63607   19.124
 6336.00    1.60107   1.63479   19.325
 6337.00    1.62037   1.63723   19.266
 6338.00    1.64727   1.64015   18.875
 6339.00    1.66425   1.64149   18.492
 6340.00    1.66307   1.64344   18.649
 6341.00    1.64913   1.64652   19.190
 6342.00    1.63692   1.65074   19.331
 6343.00    1.63212   1.65505   19.068
 6344.00    1.63050   1.65904   19.138
 6345.00    1.62987   1.66467   19.520
 6346.00    1.63168   1.66945   19.515
 6347.00    1.63621   1.67047   19.079
 6348.00    1.64223   1.66911   18.801
 6349.00    1.64910   1.66566   19.035
 6350.00    1.65624   1.65880   19.753
 6351.00    1.66097   1.64805   20.377
 6352.00    1.65859   1.63529   20.233
 6353.00    1.64342   1.62319   19.861
 6354.00    1.61484   1.60993   20.130
 6355.00    1.58628   1.59531   20.606
 6356.00    1.57333   1.58476   20.227
 6357.00    1.57397   1.57849   19.062
 6358.00    1.57816   1.57345   17.836
 6359.00    1.58516   1.57287   16.884
 6360.00    1.60001   1.57900   16.315
 6361.00    1.62574   1.58879   16.241
 6362.00    1.65846   1.60108   16.655
 6363.00    1.68400   1.61601   17.207
 6364.00    1.69144   1.63229   17.453
 6365.00    1.68654   1.64857   17.321
 6366.00    1.68013   1.66304   17.080
 6367.00    1.67613   1.67529   17.122
 6368.00    1.67529   1.68603   17.615
 6369.00    1.67884   1.69450   18.263
 6370.00    1.68482   1.70002   18.714
 6371.00    1.68641   1.70277   18.996
 6372.00    1.68275   1.70366   19.200
 6373.00    1.68411   1.70348   19.199
 6374.00    1.69362   1.70101   19.032
 6375.00    1.69887   1.69694   19.054
 6376.00    1.69327   1.69450   19.331
 6377.00    1.68562   1.69264   19.421
 6378.00    1.68189   1.68998   19.230
 6379.00    1.67721   1.68993   19.275
 6380.00    1.66623   1.69173   19.625
 6381.00    1.64914   1.69233   19.633
 6382.00    1.63455   1.69388   19.130
 6383.00    1.63555   1.69595   18.719
 6384.00    1.64984   1.69552   18.732
 6385.00    1.65882   1.69357   19.028
 6386.00    1.65224   1.69041   19.300
 6387.00    1.63458   1.68501   19.262
 6388.00    1.61621   1.67933   19.021
 6389.00    1.60630   1.67356   18.898
 6390.00    1.60156   1.66684   18.672
 6391.00    1.59216   1.66331   17.866
 6392.00    1.58535   1.66251   16.874
 6393.00    1.59880   1.65940   16.419
 6394.00    1.62976   1.65830   16.505
 6395.00    1.65966   1.66204   16.741
 6396.00    1.67982   1.66320   17.087
 6397.00    1.69139   1.66332   17.732
 6398.00    1.69389   1.66938   18.439
 6399.00    1.68784   1.67506   18.725
 6400.00    1.68279   1.67699   18.775
 6401.00    1.68882   1.68105   19.017
 6402.00    1.70092   1.68452   19.067
 6403.00    1.70474   1.68451   18.489
 6404.00    1.68934   1.68231   18.075
 6405.00    1.65661   1.67854   18.597
 6406.00    1.62974   1.67694   19.409
 6407.00    1.63078   1.67506   19.380
 6408.00    1.65317   1.67065   18.812
 6409.00    1.67375   1.67094   18.451
 6410.00    1.67101   1.67338   18.172
 6411.00    1.64193   1.67171   17.647
 6412.00    1.61340   1.67166   16.971
 6413.00    1.60772   1.67359   16.416
 6414.00    1.61303   1.67193   16.190
 6415.00    1.61009   1.67019   16.367
 6416.00    1.59600   1.67123   16.853
 6417.00    1.58007   1.67215   17.493
 6418.00    1.57719   1.67400   18.148
 6419.00    1.59252   1.67961   18.664
 6420.00    1.61441   1.68658   18.875
 6421.00    1.63409   1.69195   18.684
 6422.00    1.65506   1.69731   18.171
 6423.00    1.67420   1.70193   17.741
 6424.00    1.67600   1.70186   17.978
 6425.00    1.65894   1.69919   18.862
 6426.00    1.64300   1.69668   19.446
 6427.00    1.64146   1.69211   19.200
 6428.00    1.65051   1.68761   18.755
 6429.00    1.66218   1.68637   18.607
 6430.00    1.67065   1.68570   18.715
 6431.00    1.67416   1.68569   18.823
 6432.00    1.67403   1.68744   18.658
 6433.00    1.66917   1.68950   18.297
 6434.00    1.65684   1.69267   18.055
 6435.00    1.64054   1.69553   17.883
 6436.00    1.63059   1.69872   17.492
 6437.00    1.63847   1.70562   17.032
 6438.00    1.67068   1.71215   16.920
 6439.00    1.71805   1.71632   17.166
 6440.00    1.76009   1.72096   17.458
 6441.00    1.78131   1.72295   17.655
 6442.00    1.77513   1.71943   17.832
 6443.00    1.74398   1.71152   18.074
 6444.00    1.69911   1.70157   18.416
 6445.00    1.65984   1.69107   18.816
 6446.00    1.64275   1.67875   19.195
 6447.00    1.64412   1.66959   19.517
 6448.00    1.64797   1.66758   19.755
 6449.00    1.64346   1.66682   19.803
 6450.00    1.63092   1.66925   19.614
 6451.00    1.62545   1.67828   19.384
 6452.00    1.63972   1.68613   19.303
 6453.00    1.66278   1.69210   19.264
 6454.00    1.67780   1.69987   19.083
 6455.00    1.68473   1.70417   18.781
 6456.00    1.68975   1.70344   18.519
 6457.00    1.69229   1.70344   18.480
 6458.00    1.69354   1.70303   18.642
 6459.00    1.70383   1.69865   18.609
 6460.00    1.72339   1.69674   18.166
 6461.00    1.72887   1.69951   17.690
 6462.00    1.70606   1.70029   17.483
 6463.00    1.67310   1.70197   17.410
 6464.00    1.65305   1.70779   17.343
 6465.00    1.65328   1.71098   17.417
 6466.00    1.66920   1.71197   17.754
 6467.00    1.68906   1.71492   18.291
 6468.00    1.70285   1.71557   18.871
 6469.00    1.70732   1.71423   19.317
 6470.00    1.70491   1.71559   19.526
 6471.00    1.70198   1.71577   19.536
 6472.00    1.70428   1.71332   19.459
 6473.00    1.71380   1.71289   19.416
 6474.00    1.72535   1.71197   19.477
 6475.00    1.72883   1.70684   19.625
 6476.00    1.72385   1.70179   19.705
 6477.00    1.72056   1.69839   19.513
 6478.00    1.72164   1.69302   19.189
 6479.00    1.71956   1.68784   19.107
 6480.00    1.70964   1.68621   19.214
 6481.00    1.69386   1.68545   19.094
 6482.00    1.67901   1.68406   18.741
 6483.00    1.67360   1.68293   18.512
 6484.00    1.68127   1.67977   18.463
 6485.00    1.69821   1.67238   18.392
 6486.00    1.71155   1.66085   18.281
 6487.00    1.70631   1.64399   18.264
 6488.00    1.68123   1.62237   18.342
 6489.00    1.64650   1.60001   18.429
 6490.00    1.61228   1.57724   18.566
 6491.00    1.58504   1.55561   18.826
 6492.00    1.56537   1.54172   19.042
 6493.00    1.55183   1.53508   19.000
 6494.00    1.54760   1.53491   18.855
 6495.00    1.55615   1.54419   18.920
 6496.00    1.57376   1.55920   19.269
 6497.00    1.59442   1.57845   19.713
 6498.00    1.61789   1.60082   19.831
 6499.00    1.64679   1.62172   19.434
 6500.00    1.68155   1.64177   19.063
 6501.00    1.71810   1.65977   19.156
 6502.00    1.74668   1.67299   19.326
 6503.00    1.76030   1.68363   19.137
 6504.00    1.76288   1.69190   18.928
 6505.00    1.76268   1.69660   18.974
 6506.00    1.76487   1.69931   18.809
 6507.00    1.76562   1.70141   18.222
 6508.00    1.75041   1.70169   17.893
 6509.00    1.71643   1.69961   18.192
 6510.00    1.68528   1.69767   18.575
 6511.00    1.67092   1.69564   18.614
 6512.00    1.66142   1.69131   18.726
 6513.00    1.64807   1.68808   19.129
 6514.00    1.64057   1.68764   19.285
 6515.00    1.64429   1.68668   19.022
 6516.00    1.64993   1.68733   18.995
 6517.00    1.65023   1.69126   19.378
 6518.00    1.64786   1.69482   19.476
 6519.00    1.65012   1.69827   19.111
 6520.00    1.66422   1.70175   19.001
 6521.00    1.68870   1.70369   19.304
 6522.00    1.71326   1.70493   19.376
 6523.00    1.73132   1.70447   19.012
 6524.00    1.74294   1.70281   18.701
 6525.00    1.74776   1.70209   18.669
 6526.00    1.74403   1.70079   18.751
 6527.00    1.73318   1.69931   18.781
 6528.00    1.72010   1.69955    0.000
 6529.00    1.70952   1.70059    0.000
 6530.00    1.70451   1.70210    0.000
 6531.00    1.70555   1.70464    0.000
 6532.00    1.71141   1.70804    0.000
 6533.00    1.72187   1.71162    0.000
 6534.00    1.73663   1.71404    0.000
 6535.00    1.75194   1.71546    0.000
 6536.00    1.76081   1.71575    0.000
 6537.00    1.75519   1.71294    0.000
 6538.00    1.73267   1.70798    0.000
 6539.00    1.70654   1.70172    0.000
 6540.00    1.69559   1.69291    0.000
 6541.00    1.70558   1.68427    0.000
 6542.00    1.72968   1.67635    0.000
 6543.00    1.75399   1.66766    0.000
 6544.00    1.76807   1.66134    0.000
 6545.00    1.77648   1.65627    0.000
 6546.00    1.78479   1.65011    0.000
 6547.00    1.78292   1.64469    0.000
 6548.00    1.76182   1.63826    0.000
 6549.00    1.73153   1.62966    0.000
 6550.00    1.70383   1.61981    0.000
 6551.00    1.67511   1.60783    0.000
 6552.00    1.64082   1.59340    0.000
 6553.00    1.60832   1.57555    0.000
 6554.00    1.58600   1.55542    0.000
 6555.00    1.57479   1.53435    0.000
 6556.00    1.57669   1.50846    0.000
 6557.00    1.59934   1.48327    0.000
 6558.00    1.64243   1.46759    0.000
 6559.00    1.69105   1.45336    0.000
 6560.00    1.73131   1.44511    0.000
 6561.00    1.75808   1.45597    0.000
 6562.00    1.76381   1.47221    0.000
 6563.00    1.73696   1.48856    0.000
 6564.00    1.68532   1.51549    0.000
 6565.00    1.63954   1.54157    0.000
 6566.00    1.61716   1.55837    0.000
 6567.00    1.61236   1.57491    0.000
 6568.00    1.62068   1.58882    0.000
 6569.00    1.64524   1.59561    0.000
 6570.00    1.68133   1.60254    0.000
 6571.00    1.71487   1.61052    0.000
 6572.00    1.73632   1.61659    0.000
 6573.00    1.74315   1.62469    0.000
 6574.00    1.73335   1.63360    0.000
 6575.00    1.70891   1.64061    0.000
 6576.00    1.69007   1.64846    0.000
 6577.00    1.70650   1.65511    0.000
 6578.00    1.76662   1.65945    0.000
 6579.00    1.85326   1.66454    0.000
 6580.00    1.93190   1.66821    0.000
 6581.00    1.96742   1.67066    0.000
 6582.00    1.95309   1.67384    0.000
 6583.00    1.90814   1.67419    0.000
 6584.00    1.86159   1.67282    0.000
 6585.00    1.83233   1.67123    0.000
 6586.00    1.80316   1.66538    0.000
 6587.00    1.75258   1.65720    0.000
 6588.00    1.70610   1.65080    0.000
 6589.00    1.69898   1.64350    0.000
 6590.00    1.71714   1.63589    0.000
 6591.00    1.72568   1.63369    0.000
 6592.00    1.71324   1.63484    0.000
 6593.00    1.68609   1.63644    0.000
 6594.00    1.65536   1.64246    0.000
 6595.00    1.63524   1.65042    0.000
 6596.00    1.64084   1.65644    0.000
 6597.00    1.67246   1.66278    0.000
 6598.00    1.70435   1.66761    0.000
 6599.00    1.71415   1.66856    0.000
 6600.00    1.70651   1.66776    0.000
 6601.00    1.69527   1.66537    0.000
 6602.00    1.68814   1.66084    0.000
 6603.00    1.68487   1.65586    0.000
 6604.00    1.67852   1.65268    0.000
 6605.00    1.66636   1.65140    0.000
 6606.00    1.65503   1.65157    0.000
 6607.00    1.65053   1.65476    0.000
 6608.00    1.65288   1.66072    0.000
 6609.00    1.65974   1.66777   18.434
 6610.00    1.66827   1.67499   18.194
 6611.00    1.67443   1.68205   18.111
 6612.00    1.67363   1.68914   18.259
 6613.00    1.66519   1.69435   18.459
 6614.00    1.65389   1.69711   18.344
 6615.00    1.64872   1.69895   17.956
 6616.00    1.65823   1.69894   17.722
 6617.00    1.67663   1.69666   17.722
 6618.00    1.68600   1.69253   17.689
 6619.00    1.67810   1.68724   17.657
 6620.00    1.66054   1.68221   17.895
 6621.00    1.65358   1.67577   18.158
 6622.00    1.67598   1.66904   17.868
 6623.00    1.71215   1.66477   17.293
 6624.00    1.72500   1.65944   17.176
 6625.00    1.70485   1.65365   17.553
 6626.00    1.66868   1.65004   17.948
 6627.00    1.63345   1.64513   18.186
 6628.00    1.61099   1.64013   18.400
 6629.00    1.60941   1.63796   18.565
 6630.00    1.62867   1.63579   18.557
 6631.00    1.65306   1.63465   18.448
 6632.00    1.66260   1.63724   18.409
 6633.00    1.65272   1.64005   18.472
 6634.00    1.62990   1.64220   18.569
 6635.00    1.60123   1.64665   18.625
 6636.00    1.57566   1.65010   18.565
 6637.00    1.56680   1.65015   18.325
 6638.00    1.58157   1.65153   17.931
 6639.00    1.60765   1.65330   17.565
 6640.00    1.62943   1.65185   17.394
 6641.00    1.64580   1.65154   17.440
 6642.00    1.66056   1.65367   17.613
 6643.00    1.67172   1.65454   17.747
 6644.00    1.67662   1.65528   17.689
 6645.00    1.67670   1.65740   17.411
 6646.00    1.67237   1.65946   17.078
 6647.00    1.65971   1.66045   17.015
 6648.00    1.63968   1.66085   17.362
 6649.00    1.62387   1.66166   17.880
 6650.00    1.62598   1.66152   18.237
 6651.00    1.65294   1.65987   18.283
 6652.00    1.68718   1.65883   18.130
 6653.00    1.68756   1.65670   18.079
 6654.00    1.65113   1.65214   18.217
 6655.00    1.63048   1.64813   18.295
 6656.00    1.64942   1.64347   18.115
 6657.00    1.67371   1.63599   17.735
 6658.00    1.67370   1.63000   17.347
 6659.00    1.65019   1.62592   17.166
 6660.00    1.61945   1.62038   17.318
 6661.00    1.60165   1.61785   17.778
 6662.00    1.60381   1.61952   18.190
 6663.00    1.61671   1.62126   17.989
 6664.00    1.62615   1.62523   17.346
 6665.00    1.62072   1.63163   16.995
 6666.00    1.60268   1.63744   17.165
 6667.00    1.58752   1.64295   17.570
 6668.00    1.59329   1.64687   17.745
 6669.00    1.62927   1.64797   17.382
 6670.00    1.67658   1.64759   16.908
 6671.00    1.70338   1.64415   16.972
 6672.00    1.70857   1.63773   17.463
 6673.00    1.71040   1.63300   17.776
 6674.00    1.70420   1.62813   17.842
 6675.00    1.67508   1.62196   18.001
 6676.00    1.63625   1.62146   18.145
 6677.00    1.61383   1.62425   17.935
 6678.00    1.61026   1.62575   17.466
 6679.00    1.61267   1.63076   16.916
 6680.00    1.61473   1.63786   16.004
 6681.00    1.61592   1.64282   14.660
 6682.00    1.61606   1.64733   13.515
 6683.00    1.61356   1.65179   12.963
 6684.00    1.60481   1.65437   12.764
 6685.00    1.59131   1.65528   12.602
 6686.00    1.58644   1.65563   12.510
 6687.00    1.59838   1.65458   12.606
 6688.00    1.61348   1.65231   12.849
 6689.00    1.61368   1.64927   13.196
 6690.00    1.59466   1.64488   13.786
 6691.00    1.56691   1.64108   14.681
 6692.00    1.55244   1.63738   15.539
 6693.00    1.56033   1.63309   16.030
 6694.00    1.57291   1.63154   16.391
 6695.00    1.58114   1.63093   16.824
 6696.00    1.60393   1.63020    0.000
 6697.00    1.64517   1.63162    0.000
 6698.00    1.67413   1.63258    0.000
 6699.00    1.67689   1.63302    0.000
 6700.00    1.67791   1.63415    0.000
 6701.00    1.69115   1.63366    0.000
 6702.00    1.70143   1.63306    0.000
 6703.00    1.70282   1.63310    0.000
 6704.00    1.70923   1.63087    0.000
 6705.00    1.71847   1.62828    0.000
 6706.00    1.70812   1.62601    0.000
 6707.00    1.68046   1.62065    0.000
 6708.00    1.66470   1.61458    0.000
 6709.00    1.66246   1.60895    0.000
 6710.00    1.64604   1.60150    0.000
 6711.00    1.61497   1.59457    0.000
 6712.00    1.59625   1.58963    0.000
 6713.00    1.59184   1.58653    0.000
 6714.00    1.57884   1.58529    0.000
 6715.00    1.54997   1.58662    0.000
 6716.00    1.51510   1.59134    0.000
 6717.00    1.47932   1.59697    0.000
 6718.00    1.44830   1.60292    0.000
 6719.00    1.44988   1.60953    0.000
 6720.00    1.50712   1.61552    0.000
 6721.00    1.57992   1.62086    0.000
 6722.00    1.61289   1.62486    0.000
 6723.00    1.63593   1.62772    0.000
 6724.00    1.70927   1.63100    0.000
 6725.00    1.81092   1.63352    0.000
 6726.00    1.88345   1.63478    0.000
 6727.00    1.92557   1.63627    0.000
 6728.00    1.96102   1.63723    0.000
 6729.00    1.98156   1.63680    0.000
 6730.00    1.96312   1.63576    0.000
 6731.00    1.89504   1.63394    0.000
 6732.00    1.79654   1.63120    0.000
 6733.00    1.72563   1.62814    0.000
 6734.00    1.72038   1.62459    0.000
 6735.00    1.74522   1.62102    0.000
 6736.00    1.74262   1.61768    0.000
 6737.00    1.68611   1.61449    0.000
 6738.00    1.59510   1.61242    0.000
 6739.00    1.53397   1.61024    0.000
 6740.00    1.53860   1.60769    0.000
 6741.00    1.57237   1.60654    0.000
 6742.00    1.60286   1.60531    0.000
 6743.00    1.64607   1.60316    0.000
 6744.00    1.70407   1.60150    0.000
 6745.00    1.73619   1.60102    0.000
 6746.00    1.72187   1.60074    0.000
 6747.00    1.68707   1.60008    0.000
 6748.00    1.65521   1.60261    0.000
 6749.00    1.62894   1.60645    0.000
 6750.00    1.62420   1.60937    0.000
 6751.00    1.66904   1.61613    0.000
 6752.00    1.73401   1.62357    0.000
 6753.00    1.73994   1.62927   12.971
 6754.00    1.69286   1.63681   13.058
 6755.00    1.68455   1.64323   13.144
 6756.00    1.72447   1.64684   13.252
 6757.00    1.73468   1.64997   13.585
 6758.00    1.70974   1.65101   14.129
 6759.00    1.71750   1.64913   14.575
 6760.00    1.76440   1.64649   14.635
 6761.00    1.79370   1.64259   14.284
 6762.00    1.77624   1.63742   13.825
 6763.00    1.72436   1.63299   13.585
 6764.00    1.66959   1.62895   13.491
 6765.00    1.64118   1.62587   13.311
 6766.00    1.63440   1.62564   13.192
 6767.00    1.62711   1.62695   13.441
 6768.00    1.62149   1.62933   13.990
 6769.00    1.63211   1.63442   14.476
 6770.00    1.65349   1.64075   14.629
 6771.00    1.67580   1.64625   14.320
 6772.00    1.71495   1.65146   13.467
 6773.00    1.77770   1.65609   12.331
 6774.00    1.81162   1.65781   11.569
 6775.00    1.77227   1.65692   11.490
 6776.00    1.71045   1.65450   11.733
 6777.00    1.69415   1.64911   11.872
 6778.00    1.71115   1.64193   12.161
 6779.00    1.71776   1.63511   12.968
 6780.00    1.70062   1.62800   13.968
 6781.00    1.67403   1.62190   14.540
 6782.00    1.66776   1.61888   14.737
 6783.00    1.69161   1.61727   14.891
 6784.00    1.71167   1.61708   14.953
 6785.00    1.70051   1.61961   14.813
 6786.00    1.67353   1.62198   14.588
 6787.00    1.65412   1.62346   14.353
 6788.00    1.64832   1.62590   13.991
 6789.00    1.65386   1.62761   13.456
 6790.00    1.66685   1.62737   12.889
 6791.00    1.68052   1.62816   12.465
 6792.00    1.68561   1.62973   12.314
 6793.00    1.67694   1.63009   12.467
 6794.00    1.65761   1.63187   12.834
 6795.00    1.64161   1.63439   13.250
 6796.00    1.64885   1.63602   13.479
 6797.00    1.67897   1.63832   13.271
 6798.00    1.70775   1.63981   12.551
 6799.00    1.71803   1.64082   11.675
 6800.00    1.71076   1.64152   11.114
 6801.00    1.69904   1.64047   10.979
 6802.00    1.69850   1.64044   11.142
 6803.00    1.70443   1.63997   11.538
 6804.00    1.69725   1.63763   12.186
 6805.00    1.67941   1.63754   13.003
 6806.00    1.67238   1.63727   13.719
 6807.00    1.68047   1.63545   14.051
 6808.00    1.69215   1.63584   13.930
 6809.00    1.70643   1.63619   13.664
 6810.00    1.72829   1.63609   13.625
 6811.00    1.74554   1.63739   13.741
 6812.00    1.74018   1.63838   13.699
 6813.00    1.71977   1.64027   13.524
 6814.00    1.70491   1.64285   13.453
 6815.00    1.69669   1.64472   13.520
 6816.00    1.68338   1.64748   13.617
 6817.00    1.66066   1.65020   13.693
 6818.00    1.63362   1.65237   13.726
 6819.00    1.61433   1.65456   13.657
 6820.00    1.61240   1.65581   13.446
 6821.00    1.62341   1.65634   13.160
 6822.00    1.63535   1.65625   12.956
 6823.00    1.63845   1.65559   13.054
 6824.00    1.62847   1.65469   13.473
 6825.00    1.60897   1.65318   13.720
 6826.00    1.59108   1.65227   13.335
 6827.00    1.59099   1.65216   12.625
 6828.00    1.61055   1.65155   12.055
 6829.00    1.62406   1.65085   11.779
 6830.00    1.61589   1.64957   11.752
 6831.00    1.60737   1.64715   11.808
 6832.00    1.61526   1.64356   11.872
 6833.00    1.62349   1.63777   12.090
 6834.00    1.61531   1.63100   12.567
 6835.00    1.59386   1.62450   13.169
 6836.00    1.56495   1.61764   13.681
 6837.00    1.52991   1.61235   13.971
 6838.00    1.51060   1.60958   14.012
 6839.00    1.54824   1.60904   13.868
 6840.00    1.62541   1.61145   13.633
 6841.00    1.65552   1.61591   13.391
 6842.00    1.61726   1.62172   13.263
 6843.00    1.58586   1.62765   13.363
 6844.00    1.60035   1.63276   13.563
 6845.00    1.62745   1.63705   13.505
 6846.00    1.64092   1.63867   13.177
 6847.00    1.64410   1.63805   12.936
 6848.00    1.64013   1.63627   12.905
 6849.00    1.62537   1.63204   12.935
 6850.00    1.60202   1.62713   12.947
 6851.00    1.57995   1.62221   12.961
 6852.00    1.57040   1.61603   12.894
 6853.00    1.57933   1.61183   12.642
 6854.00    1.59589   1.60920   12.375
 6855.00    1.60172   1.60595   12.366
 6856.00    1.59831   1.60547   12.557
 6857.00    1.59916   1.60685   12.674
 6858.00    1.60132   1.60749   12.649
 6859.00    1.59674   1.60929   12.575
 6860.00    1.60341   1.61204   12.402
 6861.00    1.64008   1.61356   12.070
 6862.00    1.67574   1.61399   11.779
 6863.00    1.66788   1.61474   11.766
 6864.00    1.63278   1.61487   12.027
 6865.00    1.61404   1.61348   12.377
 6866.00    1.62399   1.61288   12.565
 6867.00    1.65168   1.61335   12.485
 6868.00    1.68368   1.61327   12.398
 6869.00    1.70948   1.61394   12.498
 6870.00    1.72406   1.61639   12.468
 6871.00    1.71885   1.61900   12.162
 6872.00    1.67621   1.62097   12.210
 6873.00    1.61379   1.62322   12.849
 6874.00    1.61163   1.62570   12.865
 6875.00    1.66346   1.62715   12.072
 6876.00    1.58284   1.62759   12.892
 6877.00    1.32085   1.62812   -1.000
 6878.00    1.16445   1.62875   -1.000
 6879.00    1.28727   1.62948   -1.000
 6880.00    1.47502   1.63103    6.663
 6881.00    1.53343   1.63435    6.358
 6882.00    1.52864   1.63884    6.584
 6883.00    1.54501   1.64338    6.528
 6884.00    1.55400   1.64926    6.419
 6885.00    1.53413   1.65575    6.499
 6886.00    1.52344   1.66034    6.571
 6887.00    1.54053   1.66416    6.498
 6888.00    1.55754   1.66797    6.418
 6889.00    1.55871   1.66950    6.413
 6890.00    1.55803   1.66975    6.419
 6891.00    1.56301   1.67051    6.399
 6892.00    1.56645   1.67010    6.383
 6893.00    1.57072   1.66924    6.366
 6894.00    1.58739   1.66955    6.300
 6895.00    1.60713   1.67012    6.222
 6896.00    1.60298   1.67084    6.238
 6897.00    1.56896   1.67186    6.374
 6898.00    1.52388   1.67366    6.562
 6899.00    1.49035   1.67613    6.710
 6900.00    1.48555   1.67758    6.732
 6901.00    1.51356   1.67920    6.607
 6902.00    1.56393   1.68118    6.394
 6903.00    1.61291   1.68173    6.200
 6904.00    1.63368   1.68198    6.121
 6905.00    1.61575   1.68098    6.189
 6906.00    1.57080   1.67847    6.366
 6907.00    1.53462   1.67622    6.516
 6908.00    1.53644   1.67241    6.509
 6909.00    1.55132   1.66810    6.446
 6910.00    1.54119   1.66530    6.489
 6911.00    1.52411   1.66204    6.561
 6912.00    1.53390   1.66036    6.519
 6913.00    1.55492   1.66076    6.431
 6914.00    1.55942   1.66039    6.413
 6915.00    1.56069   1.66172    6.407
 6916.00    1.57862   1.66346    6.335
 6917.00    1.59715   1.66340    6.261
 6918.00    1.59372   1.66312    6.275
 6919.00    1.57191   1.66199    6.362
 6920.00    1.54432   1.66002    6.475
 6921.00    1.51585   1.65757    6.597
 6922.00    1.49975   1.65534    6.668
 6923.00    1.52486   1.65422    6.558
 6924.00    1.57791   1.65386    6.338
 6925.00    1.57856   1.65396    6.335
 6926.00    1.51677   1.65504    6.593
 6927.00    1.51073   1.65693    6.619
 6928.00    1.56264   1.65873    6.399
 6929.00    1.47310   1.66070    6.788
 6930.00    1.24278   1.66238   -1.000
 6931.00    1.19736   1.66445   -1.000
 6932.00    1.43366   1.66721    6.975
 6933.00    1.64247   1.66877    6.088
 6934.00    1.64249   1.67010    6.088
 6935.00    1.56272   1.67172    6.399
 6936.00    1.52683   1.67180    6.550
 6937.00    1.53515   1.67042    6.514
 6938.00    1.54792   1.66875    6.460
 6939.00    1.53065   1.66616    6.533
 6940.00    1.49052   1.66298    6.709
 6941.00    1.46927   1.66076    6.806
 6942.00    1.48331   1.65829    6.742
 6943.00    1.51505   1.65655    6.600
 6944.00    1.54277   1.65662    6.482
 6945.00    1.55150   1.65589    6.445
 6946.00    1.53765   1.65584    6.503
 6947.00    1.50980   1.65705    6.623
 6948.00    1.48741   1.65695    6.723
 6949.00    1.48977   1.65762    6.712
 6950.00    1.51425   1.65959    6.604
 6951.00    1.53884   1.66113    6.498
 6952.00    1.53672   1.66392    6.507
 6953.00    1.50069   1.66829    6.664
 6954.00    1.47708   1.67231    6.770
 6955.00    1.50972   1.67644    6.624
 6956.00    1.54868   1.68134    6.457
 6957.00    1.52670   1.68527    6.550
 6958.00    1.48245   1.68845    6.746
 6959.00    1.48887   1.69170    6.717
 6960.00    1.54178   1.69390    6.486
 6961.00    1.59629   1.69595    6.265
 6962.00    1.62573   1.69768    6.151
 6963.00    1.62226   1.69791    6.164
 6964.00    1.59064   1.69854    6.287
 6965.00    1.55069   1.69868    6.449
 6966.00    1.53623   1.69631    6.509
 6967.00    1.55788   1.69326    6.419
 6968.00    1.57732   1.68884    6.340
 6969.00    1.56638   1.68243    6.384
 6970.00    1.54811   1.67466    6.459
 6971.00    1.53525   1.66513    6.514
 6972.00    1.49421   1.65619    6.693
 6973.00    1.41977   1.64875    7.043
 6974.00    1.37179   1.64291    7.290
 6975.00    1.38678   1.63974    7.211
 6976.00    1.43356   1.64018    6.976
 6977.00    1.47123   1.64556    6.797
 6978.00    1.48313   1.65279    6.742
 6979.00    1.48007   1.66106    6.756
 6980.00    1.49089   1.67170    6.707
 6981.00    1.51823   1.68095    6.587
 6982.00    1.53181   1.68796    6.528
 6983.00    1.52108   1.69378    6.574
 6984.00    1.50606   1.69740    6.640
 6985.00    1.49766   1.69961    6.677
 6986.00    1.49048   1.70052    6.709
 6987.00    1.48818   1.70085    6.720
 6988.00    1.50238   1.70145    6.656
 6989.00    1.52393   1.70104    6.562
 6990.00    1.53091   1.70041    6.532
 6991.00    1.53252   1.69923    6.525
 6992.00    1.55496   1.69699    6.431
 6993.00    1.57920   1.69470    6.332
 6994.00    1.56200   1.69125    6.402
 6995.00    1.51479   1.68727    6.602
 6996.00    1.48545   1.68339    6.732
 6997.00    1.48689   1.67951    6.725
 6998.00    1.50001   1.67687    6.667
 6999.00    1.50592   1.67457    6.640
 7000.00    1.49614   1.67254    6.684
 7001.00    1.47902   1.67199   -2.000
 7002.00    1.47294   1.67242   -2.000
 7003.00    1.49362   1.67292   -2.000
 7004.00    1.53821   1.67336   -2.000
 7005.00    1.56973   1.67381   -2.000
 7006.00    1.56699   1.67418   -2.000
 7007.00    1.57940   1.67355   -2.000
 7008.00    1.60887   1.67098   -2.000
 7009.00    1.49556   1.66860   -2.000
 7010.00    1.20879   1.66661   -2.000
 7011.00    1.10474   1.66345   -2.000
 7012.00    1.40233   1.66125   -2.000
 7013.00    1.74039   1.66062   -2.000
 7014.00    1.78435   1.66135   -2.000
 7015.00    1.71492   1.66350   -2.000
 7016.00    1.76663   1.66503   -2.000
 7017.00    1.87747   1.66711   -2.000
 7018.00    1.93292   1.67057   -2.000
 7019.00    1.93941   1.67239   -2.000
 7020.00    1.93135   1.67302   -2.000
 7021.00    1.91296   1.67425   -2.000
 7022.00    1.90292   1.67594   -2.000
 7023.00    1.94579   1.67810   -2.000
 7024.00    2.02900   1.68040   -2.000
 7025.00    2.06572   1.68360   -2.000
 7026.00    2.01974   1.68759   -2.000
 7027.00    1.94459   1.69054   -2.000
 7028.00    1.89329   1.69343   -2.000
 7029.00    1.88066   1.69568   -2.000
 7030.00    1.89359   1.69639   -2.000
 7031.00    1.90570   1.69799   -2.000
 7032.00    1.91110   1.70002   -2.000
 7033.00    1.92356   1.70221   -2.000
 7034.00    1.93674   1.70594   -2.000
 7035.00    1.92849   1.71026   -2.000
 7036.00    1.90837   1.71641   -2.000
 7037.00    1.91260   1.72417   -2.000
 7038.00    1.95554   1.73106   -2.000
 7039.00    2.01863   1.73800   -2.000
 7040.00    2.05599   1.74529   -2.000
 7041.00    2.03077   1.75065   -2.000
 7042.00    1.98529   1.75307   -2.000
 7043.00    1.98974   1.75399   -2.000
 7044.00    2.01905   1.75178   -2.000
 7045.00    2.00601   1.74579   -2.000
 7046.00    1.97156   1.73827   -2.000
 7047.00    1.97311   1.72764   -2.000
 7048.00    1.99025   1.71503   -2.000
 7049.00    1.96763   1.70133   -2.000
 7050.00    1.90133   1.68638   -2.000
 7051.00    1.82887   1.67280   -2.000
 7052.00    1.79750   1.65991   -2.000
 7053.00    1.82676   1.64870   -2.000
 7054.00    1.87340   1.64018   -2.000
 7055.00    1.88405   1.63247   -2.000
 7056.00    1.85414   1.62681   -2.000
 7057.00    1.80460   1.62241   -2.000
 7058.00    1.75324   1.61825   -2.000
 7059.00    1.71572   1.61515   -2.000
 7060.00    1.70629   1.61168   -2.000
 7061.00    1.71871   1.60942   -2.000
 7062.00    1.71773   1.60921   -2.000
 7063.00    1.69369   1.60844   -2.000
 7064.00    1.69021   1.60897   -2.000
 7065.00    1.71549   1.61173   -2.000
 7066.00    1.70175   1.61542   -2.000
 7067.00    1.62984   1.62083   -2.000
 7068.00    1.58264   1.62709   -2.000
 7069.00    1.61231   1.63339   -2.000
 7070.00    1.67956   1.64062   -2.000
 7071.00    1.72832   1.64676   -2.000
 7072.00    1.72947   1.65076   -2.000
 7073.00    1.69947   1.65368   -2.000
 7074.00    1.68901   1.65417   -2.000
 7075.00    1.70715   1.65229   -2.000
 7076.00    1.71050   1.64760   -2.000
 7077.00    1.67862   1.64007   -2.000
 7078.00    1.63450   1.63156   -2.000
 7079.00    1.61626   1.61985   -2.000
 7080.00    1.65304   1.60653   -2.000
 7081.00    1.72462   1.59421   -2.000
 7082.00    1.77610   1.58106   -2.000
 7083.00    1.79034   1.56968   -2.000
 7084.00    1.79583   1.56004   -2.000
 7085.00    1.83478   1.55096   -2.000
 7086.00    1.92240   1.54614   -2.000
 7087.00    1.97891   1.54260   -2.000
 7088.00    1.91163   1.53962   -2.000
 7089.00    1.80476   1.53995   -2.000
 7090.00    1.81147   1.54041   -2.000
 7091.00    1.89141   1.54299   -2.000
 7092.00    1.90163   1.54699   -2.000
 7093.00    1.82549   1.55036   -2.000
 7094.00    1.73859   1.55519   -2.000
 7095.00    1.69810   1.55942   -2.000
 7096.00    1.71445   1.56387   -2.000
 7097.00    1.73964   1.56786   -2.000
 7098.00    1.72467   1.57020   -2.000
 7099.00    1.68944   1.57246   -2.000
 7100.00    1.67728   1.57373   -2.000
 7101.00    1.69484   1.57423   -2.000
 7102.00    1.72227   1.57355   -2.000
 7103.00    1.73288   1.57188   -2.000
 7104.00    1.71844   1.57063   -2.000
 7105.00    1.70584   1.56960   -2.000
 7106.00    1.70889   1.56827   -2.000
 7107.00    1.69408   1.56688   -2.000
 7108.00    1.64642   1.56679   -2.000
 7109.00    1.61222   1.56800   -2.000
 7110.00    1.62146   1.56934   -2.000
 7111.00    1.64066   1.57098   -2.000
 7112.00    1.63767   1.57243   -2.000
 7113.00    1.62150   1.57427   -2.000
 7114.00    1.61911   1.57503   -2.000
 7115.00    1.65145   1.57446   -2.000
 7116.00    1.68716   1.57385   -2.000
 7117.00    1.65008   1.57094   -2.000
 7118.00    1.56637   1.56750   -2.000
 7119.00    1.58106   1.56363   -2.000
 7120.00    1.72687   1.55854   -2.000
 7121.00    1.87181   1.55369   -2.000
 7122.00    1.91139   1.54718   -2.000
 7123.00    1.83663   1.54134   -2.000
 7124.00    1.69765   1.53733   -2.000
 7125.00    1.57534   1.53291   -2.000
 7126.00    1.53676   1.52987   -2.000
 7127.00    1.60777   1.52898   -2.000
 7128.00    1.73851   1.52991   -2.000
 7129.00    1.83500   1.53361   -2.000
 7130.00    1.86476   1.53755   -2.000
 7131.00    1.85375   1.54162   -2.000
 7132.00    1.81303   1.54774   -2.000
 7133.00    1.74391   1.55327   -2.000
 7134.00    1.68540   1.55759   -2.000
 7135.00    1.68616   1.56091   -2.000
 7136.00    1.73216   1.56302   -2.000
 7137.00    1.77347   1.56441   -2.000
 7138.00    1.79512   1.56498   -2.000
 7139.00    1.80252   1.56379   -2.000
 7140.00    1.78008   1.56121   -2.000
 7141.00    1.72037   1.55995   -2.000
 7142.00    1.67184   1.55795   -2.000
 7143.00    1.67679   1.55493   -2.000
 7144.00    1.68699   1.55425   -2.000
 7145.00    1.64243   1.55427   -2.000
 7146.00    1.57327   1.55590   -2.000
 7147.00    1.53781   1.55948   -2.000
 7148.00    1.54388   1.56298   -2.000
 7149.00    1.56656   1.56871   -2.000
 7150.00    1.57656   1.57434   -2.000
 7151.00    1.56733   1.57840   -2.000
 7152.00    1.57029   1.58258   -2.000
 7153.00    1.59388   1.58500   -2.000
 7154.00    1.58558   1.58615   -2.000
 7155.00    1.53183   1.58490   -2.000
 7156.00    1.51562   1.58187   -2.000
 7157.00    1.58441   1.57973   -2.000
 7158.00    1.67621   1.57675   -2.000
 7159.00    1.73444   1.57327   -2.000
 7160.00    1.76902   1.57065   -2.000
 7161.00    1.78526   1.56987   -2.000
 7162.00    1.75414   1.57158   -2.000
 7163.00    1.67228   1.57522   -2.000
 7164.00    1.58255   1.57959   -2.000
 7165.00    1.52488   1.58452   -2.000
 7166.00    1.51091   1.59079   -2.000
 7167.00    1.51633   1.59703   -2.000
 7168.00    1.49772   1.60170   -2.000
 7169.00    1.46292   1.60468   -2.000
 7170.00    1.47104   1.60584   -2.000
 7171.00    1.54377   1.60486   -2.000
 7172.00    1.64538   1.60303   -2.000
 7173.00    1.71645   1.60034   -2.000
 7174.00    1.70721   1.59639   -2.000
 7175.00    1.63700   1.59258   -2.000
 7176.00    1.57700   1.58791   -2.000
 7177.00    1.56668   1.58394   -2.000
 7178.00    1.59151   1.58229   -2.000
 7179.00    1.58437   1.57945   -2.000
 7180.00    1.49573   1.57633   -2.000
 7181.00    1.42912   1.57350   -2.000
 7182.00    1.52769   1.56995   -2.000
 7183.00    1.71995   1.56805   -2.000
 7184.00    1.82732   1.56543   -2.000
 7185.00    1.82032   1.56254   -2.000
 7186.00    1.75843   1.56198   -2.000
 7187.00    1.63711   1.56131   -2.000
 7188.00    1.46113   1.56195   -2.000
 7189.00    1.36573   1.56411   -2.000
 7190.00    1.43095   1.56712   -2.000
 7191.00    1.45272   1.57124   -2.000
 7192.00    1.27533   1.57427   -2.000
 7193.00    1.16590   1.57728   -2.000
 7194.00    1.37123   1.58035   -2.000
 7195.00    1.65364   1.58366   -2.000
 7196.00    1.71201   1.58628   -2.000
 7197.00    1.60093   1.58658   -2.000
 7198.00    1.51428   1.58716   -2.000
 7199.00    1.55973   1.58691   -2.000
 7200.00    1.70364   1.58590   -2.000
 7201.00    1.77461   1.58431   -2.000
 7202.00    1.70807   1.58068   -2.000
 7203.00    1.67192   1.57903   -2.000
 7204.00    1.74074   1.57830   -2.000
 7205.00    1.73733   1.57830   -2.000
 7206.00    1.58093   1.58040   -2.000
 7207.00    1.44258   1.58187   -2.000
 7208.00    1.44536   1.58530   -2.000
 7209.00    1.53151   1.59007   -2.000
 7210.00    1.62185   1.59454   -2.000
 7211.00    1.69066   1.59939   -2.000
 7212.00    1.73740   1.60354   -2.000
 7213.00    1.76523   1.60714   -2.000
 7214.00    1.75221   1.61046   -2.000
 7215.00    1.66675   1.61357   -2.000
 7216.00    1.55980   1.61620   -2.000
 7217.00    1.54071   1.61932   -2.000
 7218.00    1.59665   1.62223   -2.000
