###################################################################
## OUTPUT of StarlightChains_v04.for    [Cid@UFSC - 01/Apr/2007] ##
###################################################################

## Some input info
2009eu.txt                               [arq_obs]
Base.CB07.vall.4m                        [arq_base]
Masks.EmLines.NEW.gm                     [arq_masks]
StCv04.C11.config                        [arq_config]
   66                                    [N_base]
    0                                    [N_YAV_components = # of components with extra extinction!]
    0                                    [i_FitPowerLaw (1/0 = Yes/No)]
-9.99                                    [alpha_PowerLaw]
CCM                                      [red_law_option]
 1.458241                                [q_norm = A(l_norm)/A(V)]

## (Re)Sampling Parameters
 3741.00                                 [l_ini (A)]
 7218.00                                 [l_fin (A)]
    1.00                                 [dl    (A)]     (OBS: dl_cushion =    50.00 A)

## Normalization info
 4020.00                                 [l_norm (A) - for base]
 4010.00                                 [llow_norm (A) - window for f_obs]
 4060.00                                 [lupp_norm (A) - window for f_obs]
1.948062E-17                             [fobs_norm (in input units)]

## S/N
 3691.00                                 [llow_SN (A) - window for S/N]
 7268.00                                 [lupp_SN (A) - window for S/N]
   4.877                                 [S/N in S/N window]
   4.122                                 [S/N in norm. window]
  11.932                                 [S/N_err in S/N window]
  10.085                                 [S/N_err in norm. window]
  1.0000                                 [fscale_chi2]

## etc...
    -2007354                             [idum_orig]
  2322                                   [NOl_eff]
  2319                                   [Nl_eff]
     3    NSIGMA                         [Ntot_cliped & clip_method]
   694050                                [Nglobal_steps]
   7                                     [N_chains]
  12                                     [NEX0s_base = N_base in EX0s-fits]
 0   0   1       18   2.0   1.471E+01    [Clip-Bug, RC-Crash & Burn-In warning-flags, n_censored_weights, wei_nsig_threshold & wei_limit]
    10      9.971      9.466      0.506  [idt_all, wdt_TotTime, wdt_UsrTime & wdt_SysTime (sec)]

## Synthesis Results - Best model ##

 4.45253E-01                             [chi2/Nl_eff]
     5.52637                             [adev (%)]

   104.72939                             [sum-of-x (%)]
 1.61795E-17                             [Flux_tot (units of input spectrum!)]
 6.28216E-13                             [Mini_tot (???)]
 3.31153E-13                             [Mcor_tot (???)]

  48.42                                  [v0_min  (km/s)]
 225.33                                  [vd_min  (km/s)]
-0.1726                                  [AV_min  (mag)]
 0.0000                                  [YAV_min (mag)]

# j     x_j(%)      Mini_j(%)     Mcor_j(%)     age_j(yr)     Z_j      (L/M)_j    YAV?  Mstars   component_j        a/Fe...       SSP_chi2r SSP_adev(%)   SSP_AV   SSP_x(%)
  1      0.0000     0.0000E+00    0.0000E+00    1.000000E+06  0.00400  1.094E-02    0   1.0000   age020_m42            0.0000     1.6380E+00    12.0771   3.6017    89.8766
  2      0.0000     0.0000E+00    0.0000E+00    3.160000E+06  0.00400  4.007E-02    0   0.9999   age045_m42            0.0000     1.4288E+00    10.8043   2.8877    95.4720
  3      0.0000     0.0000E+00    0.0000E+00    5.010000E+06  0.00400  2.539E-02    0   0.9488   age055_m42            0.0000     1.5263E+00    11.3616   3.2025    93.3935
  4      0.0000     0.0000E+00    0.0000E+00    6.610000E+06  0.00400  2.620E-02    0   0.9220   age061_m42            0.0000     1.4429E+00    10.8119   2.8137    95.7174
  5      0.0000     0.0000E+00    0.0000E+00    1.000000E+07  0.00400  1.322E-02    0   0.8862   age070_m42            0.0000     1.6569E+00    11.8472   2.5173    98.2335
  6      0.0000     0.0000E+00    0.0000E+00    1.445000E+07  0.00400  7.883E-03    0   0.8571   age078_m42            0.0000     1.6965E+00    12.0885   2.8434    95.8438
  7      0.0000     0.0000E+00    0.0000E+00    2.512000E+07  0.00400  5.251E-03    0   0.8174   age090_m42            0.0000     1.7061E+00    12.0213   2.3857    98.7908
  8      0.0000     0.0000E+00    0.0000E+00    4.000000E+07  0.00400  3.649E-03    0   0.7851   age104_m42            0.0000     1.6181E+00    11.6285   2.1596    99.5716
  9      0.0000     0.0000E+00    0.0000E+00    5.500000E+07  0.00400  3.098E-03    0   0.7629   age110_m42            0.0000     1.5004E+00    10.9707   2.3231    99.2340
 10      0.0000     0.0000E+00    0.0000E+00    1.015200E+08  0.00400  2.228E-03    0   0.7207   age116_m42            0.0000     1.4272E+00    10.5407   2.3496    99.2012
 11      0.0000     0.0000E+00    0.0000E+00    2.861200E+08  0.00400  1.093E-03    0   0.6648   age125_m42            0.0000     1.4446E+00    10.6064   1.7833   102.2312
 12      0.0000     0.0000E+00    0.0000E+00    5.088000E+08  0.00400  6.597E-04    0   0.6365   age130_m42            0.0000     1.2618E+00     9.7978   1.7782   102.9167
 13      0.0000     0.0000E+00    0.0000E+00    1.434000E+09  0.00400  2.132E-04    0   0.5798   age139_m42            0.0000     9.0659E-01     8.3351   0.7966   105.4540
 14      0.0000     0.0000E+00    0.0000E+00    4.250000E+09  0.00400  5.895E-05    0   0.5377   age158_m42            0.0000     6.5976E-01     7.1918   0.3501   101.9494
 15      0.0000     0.0000E+00    0.0000E+00    7.500000E+09  0.00400  3.510E-05    0   0.5212   age171_m42            0.0000     5.7917E-01     6.6834   0.1625   101.4561
 16      9.1019     1.1164E+01    1.0661E+01    1.300000E+10  0.00400  2.005E-05    0   0.5034   age193_m42            0.0000     5.2676E-01     6.3506  -0.0004   101.0315
 17      2.0148     3.2490E+00    3.0614E+00    1.800000E+10  0.00400  1.525E-05    0   0.4967   age213_m42            0.0000     5.3710E-01     6.4251  -0.0251   100.6227
 18      0.0000     0.0000E+00    0.0000E+00    1.000000E+06  0.00800  1.238E-02    0   1.0000   age020_m52            0.0000     1.6394E+00    12.0843   3.5971    90.0834
 19      0.0000     0.0000E+00    0.0000E+00    3.160000E+06  0.00800  3.074E-02    0   0.9966   age045_m52            0.0000     1.6208E+00    11.9502   3.5204    90.8697
 20      0.0000     0.0000E+00    0.0000E+00    5.010000E+06  0.00800  2.668E-02    0   0.9443   age055_m52            0.0000     1.5559E+00    11.5464   3.2801    92.7391
 21      0.0000     0.0000E+00    0.0000E+00    6.610000E+06  0.00800  2.136E-02    0   0.9177   age061_m52            0.0000     1.4611E+00    11.4280   2.0043    99.9439
 22      0.0000     0.0000E+00    0.0000E+00    1.000000E+07  0.00800  1.215E-02    0   0.8827   age070_m52            0.0000     1.7655E+00    12.3773   2.6940    98.1574
 23      0.0000     0.0000E+00    0.0000E+00    1.445000E+07  0.00800  8.717E-03    0   0.8552   age078_m52            0.0000     1.6680E+00    11.9591   2.8092    97.1308
 24      0.0000     0.0000E+00    0.0000E+00    2.512000E+07  0.00800  5.592E-03    0   0.8162   age090_m52            0.0000     1.6973E+00    11.9655   2.4515    99.9156
 25      0.0000     0.0000E+00    0.0000E+00    4.000000E+07  0.00800  3.896E-03    0   0.7841   age104_m52            0.0000     1.6059E+00    11.5001   2.3702   100.4768
 26      0.0000     0.0000E+00    0.0000E+00    1.015200E+08  0.00800  2.148E-03    0   0.7226   age116_m52            0.0000     1.4478E+00    10.7358   2.3149   100.0748
 27      0.0000     0.0000E+00    0.0000E+00    2.861200E+08  0.00800  9.925E-04    0   0.6683   age125_m52            0.0000     1.2580E+00     9.7795   1.8426   103.8450
 28      0.0000     0.0000E+00    0.0000E+00    9.047900E+08  0.00800  3.141E-04    0   0.6138   age135_m52            0.0000     8.5848E-01     7.9210   1.0451   108.3613
 29      0.0000     0.0000E+00    0.0000E+00    1.434000E+09  0.00800  1.719E-04    0   0.5853   age139_m52            0.0000     7.3103E-01     7.4123   0.4592   106.6622
 30      0.0000     0.0000E+00    0.0000E+00    2.500000E+09  0.00800  7.872E-05    0   0.5600   age150_m52            0.0000     5.5005E-01     6.4111   0.1873   104.1455
 31      0.0000     0.0000E+00    0.0000E+00    4.250000E+09  0.00800  4.336E-05    0   0.5426   age158_m52            0.0000     5.4491E-01     6.3923   0.1697   103.2902
 32      0.0000     0.0000E+00    0.0000E+00    6.250000E+09  0.00800  3.159E-05    0   0.5319   age166_m52            0.0000     4.7498E-01     5.8577  -0.0320   103.4624
 33     22.0835     3.9902E+01    3.8401E+01    1.300000E+10  0.00800  1.361E-05    0   0.5073   age193_m52            0.0000     4.3717E-01     5.4461  -0.5016   103.0786
 34      0.0000     0.0000E+00    0.0000E+00    1.800000E+10  0.00800  9.886E-06    0   0.4990   age213_m52            0.0000     4.4739E-01     5.3985  -0.6065   102.6366
 35      0.0000     0.0000E+00    0.0000E+00    1.000000E+06  0.02000  1.544E-02    0   1.0000   age020_m62            0.0000     1.6477E+00    12.1210   3.5921    90.3399
 36      0.0000     0.0000E+00    0.0000E+00    3.160000E+06  0.02000  3.762E-02    0   0.9858   age045_m62            0.0000     1.6460E+00    12.0572   3.5314    91.1544
 37      0.0000     0.0000E+00    0.0000E+00    5.010000E+06  0.02000  3.296E-02    0   0.9342   age055_m62            0.0000     1.4692E+00    10.9919   3.1657    94.4319
 38      0.0000     0.0000E+00    0.0000E+00    8.710000E+06  0.02000  1.154E-02    0   0.8861   age067_m62            0.0000     2.6519E+00    15.7590   2.1130   102.1423
 39      0.0000     0.0000E+00    0.0000E+00    1.445000E+07  0.02000  7.663E-03    0   0.8472   age078_m62            0.0000     1.9331E+00    13.1574   2.3318   100.8247
 40      0.0000     0.0000E+00    0.0000E+00    2.512000E+07  0.02000  4.532E-03    0   0.8099   age090_m62            0.0000     2.0048E+00    13.2957   2.3268   100.4477
 41      0.0000     0.0000E+00    0.0000E+00    5.500000E+07  0.02000  2.733E-03    0   0.7595   age110_m62            0.0000     1.5935E+00    11.5040   2.3488    99.9495
 42      0.0000     0.0000E+00    0.0000E+00    1.609000E+08  0.02000  1.369E-03    0   0.6985   age120_m62            0.0000     1.4055E+00    10.4275   2.2003   102.2014
 43      0.0000     0.0000E+00    0.0000E+00    2.861200E+08  0.02000  9.013E-04    0   0.6714   age125_m62            0.0000     1.2855E+00     9.8365   1.9527   105.0049
 44      3.8464     1.8813E-01    2.3016E-01    5.088000E+08  0.02000  5.028E-04    0   0.6449   age130_m62            0.0000     1.0156E+00     8.5797   1.5831   107.6205
 45      0.0000     0.0000E+00    0.0000E+00    9.047900E+08  0.02000  2.428E-04    0   0.6179   age135_m62            0.0000     7.2541E-01     7.2679   0.9908   107.5406
 46      0.0000     0.0000E+00    0.0000E+00    1.434000E+09  0.02000  1.263E-04    0   0.5908   age139_m62            0.0000     6.0829E-01     6.6780   0.5398   106.4328
 47      0.0000     0.0000E+00    0.0000E+00    2.500000E+09  0.02000  5.985E-05    0   0.5673   age150_m62            0.0000     5.0638E-01     6.0395   0.1702   105.4221
 48     36.1496     2.7178E+01    2.8192E+01    4.250000E+09  0.02000  3.271E-05    0   0.5468   age158_m62            0.0000     4.5027E-01     5.5021  -0.1358   104.8476
 49      0.0000     0.0000E+00    0.0000E+00    1.000000E+10  0.02000  1.360E-05    0   0.5167   age181_m62            0.0000     5.0012E-01     5.5509  -0.4824   104.6655
 50      0.0000     0.0000E+00    0.0000E+00    1.800000E+10  0.02000  7.124E-06    0   0.5013   age213_m62            0.0000     6.0453E-01     5.9222  -0.6874   103.8813
 51      0.0000     0.0000E+00    0.0000E+00    1.000000E+06  0.05000  2.592E-02    0   0.9998   age020_m72            0.0000     1.6820E+00    12.2852   3.5825    90.3947
 52      0.0000     0.0000E+00    0.0000E+00    3.160000E+06  0.05000  4.845E-02    0   0.9577   age045_m72            0.0000     1.5724E+00    11.5869   3.4199    92.1381
 53      0.0000     0.0000E+00    0.0000E+00    5.010000E+06  0.05000  3.072E-02    0   0.9147   age055_m72            0.0000     1.8044E+00    12.6611   2.9343    96.6791
 54      0.0000     0.0000E+00    0.0000E+00    6.610000E+06  0.05000  1.455E-02    0   0.8877   age061_m72            0.0000     3.5753E+00    18.0972   2.1797   103.0949
 55      0.0000     0.0000E+00    0.0000E+00    1.000000E+07  0.05000  9.074E-03    0   0.8524   age070_m72            0.0000     1.9239E+00    12.9344   3.1391    96.0306
 56      0.0000     0.0000E+00    0.0000E+00    2.512000E+07  0.05000  4.250E-03    0   0.7902   age090_m72            0.0000     1.8321E+00    12.3813   2.8293    97.8158
 57      0.0000     0.0000E+00    0.0000E+00    4.000000E+07  0.05000  3.087E-03    0   0.7618   age104_m72            0.0000     1.8730E+00    12.4032   2.6009    99.4081
 58      0.0000     0.0000E+00    0.0000E+00    1.015200E+08  0.05000  1.700E-03    0   0.7096   age116_m72            0.0000     1.5303E+00    10.9382   2.3428   101.7960
 59      0.0000     0.0000E+00    0.0000E+00    2.861200E+08  0.05000  7.384E-04    0   0.6633   age125_m72            0.0000     1.1517E+00     9.2190   1.8248   106.3577
 60      0.0000     0.0000E+00    0.0000E+00    5.088000E+08  0.05000  3.819E-04    0   0.6372   age130_m72            0.0000     8.4483E-01     7.8319   1.3305   108.3363
 61      0.0000     0.0000E+00    0.0000E+00    9.047900E+08  0.05000  1.676E-04    0   0.6110   age135_m72            0.0000     5.8952E-01     6.4297   0.6298   107.0661
 62      0.0000     0.0000E+00    0.0000E+00    1.434000E+09  0.05000  8.837E-05    0   0.5874   age139_m72            0.0000     5.0415E-01     5.9572   0.1712   106.9276
 63     31.5332     1.8319E+01    1.9455E+01    2.500000E+09  0.05000  4.233E-05    0   0.5598   age150_m72            0.0000     4.6503E-01     5.5623  -0.1352   105.7820
 64      0.0000     0.0000E+00    0.0000E+00    6.250000E+09  0.05000  1.435E-05    0   0.5249   age166_m72            0.0000     5.3902E-01     5.7136  -0.5774   104.2460
 65      0.0000     0.0000E+00    0.0000E+00    1.300000E+10  0.05000  6.513E-06    0   0.5036   age193_m72            0.0000     7.0208E-01     6.2744  -0.8510   105.2813
 66      0.0000     0.0000E+00    0.0000E+00    1.800000E+10  0.05000  4.527E-06    0   0.4945   age213_m72            0.0000     8.4669E-01     6.8113  -1.0000   104.7399


## Synthesis Results - Average & Chains ##

# j      x_j: min, <> & last-chain-values for 1 ...  7 chains
  1      0.0000      0.0156      0.0000      0.0000      0.0000      0.0000      0.0000      0.0000      0.1968
  2      0.0000      0.0570      0.0000      0.0000      0.0000      0.0000      0.0000      0.0000      0.0000
  3      0.0000      0.0676      0.0000      0.0000      0.0000      0.0000      0.0000      0.0000      0.0000
  4      0.0000      0.0437      0.0000      0.0000      0.0000      0.9293      0.0000      0.1955      0.0000
  5      0.0000      0.0179      0.0000      0.0000      0.0000      0.0000      0.0000      0.0000      0.0000
  6      0.0000      0.0465      0.0000      0.0000      0.0000      0.0000      0.0000      0.0000      0.0000
  7      0.0000      0.0638      0.0000      0.0000      0.0000      0.0000      0.0000      0.0000      0.0000
  8      0.0000      0.0975      0.0000      0.0000      0.0000      0.0000      0.0000      0.0000      0.0000
  9      0.0000      0.1152      0.0064      0.0000      0.0000      0.0000      0.0000      0.0000      0.0000
 10      0.0000      0.0557      0.0000      0.0000      0.0000      0.0000      0.0000      0.0000      0.0000
 11      0.0000      0.1483      0.7308      0.0000      1.3694      0.0000      0.0000      0.0000      0.0000
 12      0.0000      0.1467      0.0000      1.0407      0.0000      0.3671      0.0000      0.0000      0.0000
 13      0.0000      0.6986      0.0000      0.0000      0.6528      0.0000      0.0000      4.3378      2.1150
 14      0.0000      0.7386      0.0000      0.0452      0.0000      0.0000      0.0000      1.9096      0.0000
 15      0.0000      1.6492      0.0000      0.0000      5.9733      0.0000      0.9193      0.0000      3.0223
 16      9.1019      2.2516      3.2400      1.4520      1.7196      6.4836      0.6829      0.0000      0.3929
 17      2.0148      1.6152      3.7826      7.5512      0.5665      0.0000      0.0000      0.0000      0.0000
 18      0.0000      0.0179      0.0000      0.0000      0.0000      0.0000      0.0000      0.0000      0.0000
 19      0.0000      0.0272      0.0000      0.0000      0.0000      0.0000      0.0000      0.0000      0.0000
 20      0.0000      0.0254      0.1396      0.0000      0.0039      0.0000      0.0000      0.0000      0.0000
 21      0.0000      0.0451      0.0000      0.0000      0.0000      0.0000      0.0000      0.0000      0.1050
 22      0.0000      0.0250      0.0000      0.0000      0.0000      0.0000      0.0000      0.0643      0.0000
 23      0.0000      0.0595      0.0000      0.0000      0.0000      0.0000      0.0000      0.0000      0.0000
 24      0.0000      0.0361      0.0000      0.0000      0.0000      0.0000      0.0000      0.0000      0.0000
 25      0.0000      0.1222      0.0000      0.0000      0.0000      0.0000      0.0000      0.0000      0.1350
 26      0.0000      0.0828      0.0000      0.0000      0.0000      0.0000      0.0000      0.0000      0.0000
 27      0.0000      0.1269      0.0000      0.0000      0.0000      0.0000      0.0000      0.0000      0.0000
 28      0.0000      1.1118      0.0000      0.0000      2.0591      2.0713      2.1730      0.2443      3.5371
 29      0.0000      0.9056      3.7336      0.0000      0.6291      0.0000      2.6958      2.9328      0.8146
 30      0.0000      1.6294      0.0000      0.0000      1.6203      0.8518      0.0000      0.0000      0.2238
 31      0.0000      1.8544      1.3803      0.0000      0.5617      0.0000      2.0074      7.0944      0.2854
 32      0.0000      6.1517      4.6609      3.5191     11.5442      3.2290      8.1043      4.8093      5.1677
 33     22.0835      0.5966      0.9909      0.0000      0.2721      1.2123      2.3044      0.0000      0.0000
 34      0.0000      0.3206      0.0000      0.0000      0.5886      0.0000      0.0272      0.0000      0.0000
 35      0.0000      0.0182      0.0000      0.0000      0.0000      0.0000      0.0000      0.0000      0.0000
 36      0.0000      0.0072      0.0000      0.0000      0.0000      0.0000      0.0000      0.0000      0.0000
 37      0.0000      0.0209      0.0000      0.0000      0.0000      0.0000      0.0000      0.0000      0.0000
 38      0.0000      0.0209      0.0000      0.0000      0.0000      0.0000      0.0000      0.0000      0.0000
 39      0.0000      0.0389      0.0014      0.0000      0.0000      0.0000      0.0000      0.0000      0.0000
 40      0.0000      0.0329      0.0000      0.0000      0.0000      0.0000      0.0000      0.0000      0.0000
 41      0.0000      0.0469      0.0000      0.0000      0.2958      0.0000      0.0000      0.0000      0.0000
 42      0.0000      0.0520      0.0000      0.0000      0.0000      0.0000      0.0000      0.0000      0.0000
 43      0.0000      0.1051      0.0000      0.0000      0.0000      0.0000      0.6827      0.0000      0.0000
 44      3.8464      1.0845      3.7215      0.3780      2.6715      0.0000      1.5358      0.0069      0.7929
 45      0.0000      4.5454      5.2195      5.4168      2.7694      4.5073      5.0959      7.2502      3.6860
 46      0.0000      1.8320      0.5645      2.8622      1.0589      0.0000      2.3114      2.2987      2.4061
 47      0.0000      3.8210      0.0000      3.7968      0.0000      4.8476      1.2249      0.0000      5.3627
 48     36.1496     16.1700     18.4741     22.9998     12.0435     18.5735     16.0483     12.7718     14.9323
 49      0.0000      1.1960      0.5955      0.0000      0.9177      1.1821      0.0000      2.8005      1.0862
 50      0.0000      0.2055      0.0000      0.0000      0.0000      0.0000      0.3364      0.5532      0.0336
 51      0.0000      0.0244      0.0000      0.0000      0.0000      0.0000      0.0000      0.0000      0.0000
 52      0.0000      0.0218      0.0000      0.0000      0.0000      0.0000      0.0000      0.0000      0.0000
 53      0.0000      0.0440      0.0000      0.0634      0.0000      0.0000      0.0000      0.0000      0.0000
 54      0.0000      0.0266      0.0000      0.0000      0.0000      0.0000      0.0000      0.0000      0.0000
 55      0.0000      0.0281      0.0000      0.0000      0.0000      0.0000      0.0000      0.0000      0.0000
 56      0.0000      0.0331      0.0000      0.0000      0.0000      0.0000      0.0000      0.0000      0.0000
 57      0.0000      0.0590      0.0000      0.0000      0.1489      0.0000      0.0000      0.0000      0.0000
 58      0.0000      0.1204      0.0000      0.0000      0.0000      2.1767      0.0000      0.0000      0.0000
 59      0.0000      0.3280      0.1141      1.1377      0.0000      0.0000      1.0665      0.0000      0.0000
 60      0.0000      0.3172      0.0000      0.2093      0.0000      0.0000      0.0000      0.5454      2.5430
 61      0.0000      9.2722      8.5047      9.6562      8.7111      9.3486      6.8741      9.3126      6.5280
 62      0.0000      2.6381      0.2285      0.7433      2.2503      0.0000      4.9014      0.0000      0.0000
 63     31.5332     41.3889     49.4874     44.7920     44.3576     49.1328     45.4657     48.8013     52.4337
 64      0.0000      0.5985      0.0000      0.0000      1.4485      0.5004      1.1471      0.0000      0.0000
 65      0.0000      0.1913      0.0000      0.0000      1.4080      0.0000      0.0000      0.0000      0.0000
 66      0.0000      0.1582      0.0000      0.0000      0.0000      0.0000      0.0000      0.0438      0.0000

# j      m_j: min, <> & last-chain-values for 1 ...  7 chains
  1  0.0000E+00  1.0423E-04  0.0000E+00  0.0000E+00  0.0000E+00  0.0000E+00  0.0000E+00  0.0000E+00  1.4398E-03
  2  0.0000E+00  1.0404E-04  0.0000E+00  0.0000E+00  0.0000E+00  0.0000E+00  0.0000E+00  0.0000E+00  0.0000E+00
  3  0.0000E+00  1.8499E-04  0.0000E+00  0.0000E+00  0.0000E+00  0.0000E+00  0.0000E+00  0.0000E+00  0.0000E+00
  4  0.0000E+00  1.1254E-04  0.0000E+00  0.0000E+00  0.0000E+00  2.3550E-03  0.0000E+00  5.3648E-04  0.0000E+00
  5  0.0000E+00  8.7805E-05  0.0000E+00  0.0000E+00  0.0000E+00  0.0000E+00  0.0000E+00  0.0000E+00  0.0000E+00
  6  0.0000E+00  3.7020E-04  0.0000E+00  0.0000E+00  0.0000E+00  0.0000E+00  0.0000E+00  0.0000E+00  0.0000E+00
  7  0.0000E+00  7.2731E-04  0.0000E+00  0.0000E+00  0.0000E+00  0.0000E+00  0.0000E+00  0.0000E+00  0.0000E+00
  8  0.0000E+00  1.5345E-03  0.0000E+00  0.0000E+00  0.0000E+00  0.0000E+00  0.0000E+00  0.0000E+00  0.0000E+00
  9  0.0000E+00  2.0769E-03  1.1324E-04  0.0000E+00  0.0000E+00  0.0000E+00  0.0000E+00  0.0000E+00  0.0000E+00
 10  0.0000E+00  1.3188E-03  0.0000E+00  0.0000E+00  0.0000E+00  0.0000E+00  0.0000E+00  0.0000E+00  0.0000E+00
 11  0.0000E+00  6.6021E-03  3.1989E-02  0.0000E+00  5.7094E-02  0.0000E+00  0.0000E+00  0.0000E+00  0.0000E+00
 12  0.0000E+00  1.0357E-02  0.0000E+00  7.0459E-02  0.0000E+00  2.5505E-02  0.0000E+00  0.0000E+00  0.0000E+00
 13  0.0000E+00  1.3904E-01  0.0000E+00  0.0000E+00  1.2169E-01  0.0000E+00  0.0000E+00  9.1981E-01  4.6028E-01
 14  0.0000E+00  4.9304E-01  0.0000E+00  2.8913E-02  0.0000E+00  0.0000E+00  0.0000E+00  1.3581E+00  0.0000E+00
 15  0.0000E+00  1.7922E+00  0.0000E+00  0.0000E+00  6.0801E+00  0.0000E+00  1.0305E+00  0.0000E+00  3.5914E+00
 16  1.0661E+01  4.1371E+00  5.8540E+00  2.5582E+00  2.9596E+00  1.1722E+01  1.2944E+00  0.0000E+00  7.8937E-01
 17  3.0614E+00  3.8499E+00  8.8657E+00  1.7259E+01  1.2648E+00  0.0000E+00  0.0000E+00  0.0000E+00  0.0000E+00
 18  0.0000E+00  1.0578E-04  0.0000E+00  0.0000E+00  0.0000E+00  0.0000E+00  0.0000E+00  0.0000E+00  0.0000E+00
 19  0.0000E+00  6.4590E-05  0.0000E+00  0.0000E+00  0.0000E+00  0.0000E+00  0.0000E+00  0.0000E+00  0.0000E+00
 20  0.0000E+00  6.5815E-05  3.5552E-04  0.0000E+00  9.3655E-06  0.0000E+00  0.0000E+00  0.0000E+00  0.0000E+00
 21  0.0000E+00  1.4181E-04  0.0000E+00  0.0000E+00  0.0000E+00  0.0000E+00  0.0000E+00  0.0000E+00  3.6109E-04
 22  0.0000E+00  1.3313E-04  0.0000E+00  0.0000E+00  0.0000E+00  0.0000E+00  0.0000E+00  3.6437E-04  0.0000E+00
 23  0.0000E+00  4.2731E-04  0.0000E+00  0.0000E+00  0.0000E+00  0.0000E+00  0.0000E+00  0.0000E+00  0.0000E+00
 24  0.0000E+00  3.8547E-04  0.0000E+00  0.0000E+00  0.0000E+00  0.0000E+00  0.0000E+00  0.0000E+00  0.0000E+00
 25  0.0000E+00  1.7995E-03  0.0000E+00  0.0000E+00  0.0000E+00  0.0000E+00  0.0000E+00  0.0000E+00  2.1739E-03
 26  0.0000E+00  2.0376E-03  0.0000E+00  0.0000E+00  0.0000E+00  0.0000E+00  0.0000E+00  0.0000E+00  0.0000E+00
 27  0.0000E+00  6.2554E-03  0.0000E+00  0.0000E+00  0.0000E+00  0.0000E+00  0.0000E+00  0.0000E+00  0.0000E+00
 28  0.0000E+00  1.5900E-01  0.0000E+00  0.0000E+00  2.7582E-01  2.9147E-01  3.2055E-01  3.7219E-02  5.5314E-01
 29  0.0000E+00  2.2565E-01  9.1481E-01  0.0000E+00  1.4683E-01  0.0000E+00  6.9289E-01  7.7862E-01  2.2196E-01
 30  0.0000E+00  8.4830E-01  0.0000E+00  0.0000E+00  7.9013E-01  4.3633E-01  0.0000E+00  0.0000E+00  1.2740E-01
 31  0.0000E+00  1.6982E+00  1.2430E+00  0.0000E+00  4.8185E-01  0.0000E+00  1.8963E+00  6.9222E+00  2.8582E-01
 32  0.0000E+00  7.5803E+00  5.6475E+00  4.1579E+00  1.3324E+01  3.9151E+00  1.0301E+01  6.3139E+00  6.9631E+00
 33  3.8401E+01  1.6274E+00  2.6580E+00  0.0000E+00  6.9535E-01  3.2540E+00  6.4839E+00  0.0000E+00  0.0000E+00
 34  0.0000E+00  1.1842E+00  0.0000E+00  0.0000E+00  2.0367E+00  0.0000E+00  1.0357E-01  0.0000E+00  0.0000E+00
 35  0.0000E+00  8.6398E-05  0.0000E+00  0.0000E+00  0.0000E+00  0.0000E+00  0.0000E+00  0.0000E+00  0.0000E+00
 36  0.0000E+00  1.3849E-05  0.0000E+00  0.0000E+00  0.0000E+00  0.0000E+00  0.0000E+00  0.0000E+00  0.0000E+00
 37  0.0000E+00  4.3293E-05  0.0000E+00  0.0000E+00  0.0000E+00  0.0000E+00  0.0000E+00  0.0000E+00  0.0000E+00
 38  0.0000E+00  1.1770E-04  0.0000E+00  0.0000E+00  0.0000E+00  0.0000E+00  0.0000E+00  0.0000E+00  0.0000E+00
 39  0.0000E+00  3.1472E-04  1.1432E-05  0.0000E+00  0.0000E+00  0.0000E+00  0.0000E+00  0.0000E+00  0.0000E+00
 40  0.0000E+00  4.3041E-04  0.0000E+00  0.0000E+00  0.0000E+00  0.0000E+00  0.0000E+00  0.0000E+00  0.0000E+00
 41  0.0000E+00  9.5295E-04  0.0000E+00  0.0000E+00  5.6354E-03  0.0000E+00  0.0000E+00  0.0000E+00  0.0000E+00
 42  0.0000E+00  1.9407E-03  0.0000E+00  0.0000E+00  0.0000E+00  0.0000E+00  0.0000E+00  0.0000E+00  0.0000E+00
 43  0.0000E+00  5.7281E-03  0.0000E+00  0.0000E+00  0.0000E+00  0.0000E+00  3.8389E-02  0.0000E+00  0.0000E+00
 44  2.3016E-01  1.0179E-01  3.4349E-01  3.4023E-02  2.3488E-01  0.0000E+00  1.4870E-01  6.8995E-04  8.1385E-02
 45  0.0000E+00  8.4654E-01  9.5587E-01  9.6732E-01  4.8313E-01  8.2598E-01  9.7897E-01  1.4387E+00  7.5067E-01
 46  0.0000E+00  6.2716E-01  1.9001E-01  9.3952E-01  3.3955E-01  0.0000E+00  8.1620E-01  8.3841E-01  9.0069E-01
 47  0.0000E+00  2.6505E+00  0.0000E+00  2.5254E+00  0.0000E+00  3.3087E+00  8.7643E-01  0.0000E+00  4.0678E+00
 48  2.8192E+01  1.9782E+01  2.2224E+01  2.6980E+01  1.3801E+01  2.2358E+01  2.0251E+01  1.6647E+01  1.9976E+01
 49  0.0000E+00  3.3254E+00  1.6281E+00  0.0000E+00  2.3901E+00  3.2341E+00  0.0000E+00  8.2961E+00  3.3026E+00
 50  0.0000E+00  1.0581E+00  0.0000E+00  0.0000E+00  0.0000E+00  0.0000E+00  1.7871E+00  3.0351E+00  1.8936E-01
 51  0.0000E+00  6.8899E-05  0.0000E+00  0.0000E+00  0.0000E+00  0.0000E+00  0.0000E+00  0.0000E+00  0.0000E+00
 52  0.0000E+00  3.1499E-05  0.0000E+00  0.0000E+00  0.0000E+00  0.0000E+00  0.0000E+00  0.0000E+00  0.0000E+00
 53  0.0000E+00  9.5909E-05  0.0000E+00  1.3244E-04  0.0000E+00  0.0000E+00  0.0000E+00  0.0000E+00  0.0000E+00
 54  0.0000E+00  1.1879E-04  0.0000E+00  0.0000E+00  0.0000E+00  0.0000E+00  0.0000E+00  0.0000E+00  0.0000E+00
 55  0.0000E+00  1.9329E-04  0.0000E+00  0.0000E+00  0.0000E+00  0.0000E+00  0.0000E+00  0.0000E+00  0.0000E+00
 56  0.0000E+00  4.5040E-04  0.0000E+00  0.0000E+00  0.0000E+00  0.0000E+00  0.0000E+00  0.0000E+00  0.0000E+00
 57  0.0000E+00  1.0662E-03  0.0000E+00  0.0000E+00  2.5192E-03  0.0000E+00  0.0000E+00  0.0000E+00  0.0000E+00
 58  0.0000E+00  3.6783E-03  0.0000E+00  0.0000E+00  0.0000E+00  6.5426E-02  0.0000E+00  0.0000E+00  0.0000E+00
 59  0.0000E+00  2.1565E-02  7.3765E-03  7.1712E-02  0.0000E+00  0.0000E+00  7.2317E-02  0.0000E+00  0.0000E+00
 60  0.0000E+00  3.8730E-02  0.0000E+00  2.4504E-02  0.0000E+00  0.0000E+00  0.0000E+00  7.0949E-02  3.3955E-01
 61  0.0000E+00  2.4738E+00  2.2312E+00  2.4702E+00  2.1769E+00  2.4541E+00  1.8917E+00  2.6471E+00  1.9045E+00
 62  0.0000E+00  1.2833E+00  1.0928E-01  3.4671E-01  1.0253E+00  0.0000E+00  2.4594E+00  0.0000E+00  0.0000E+00
 63  1.9455E+01  4.0057E+01  4.7096E+01  4.1567E+01  4.0212E+01  4.6789E+01  4.5389E+01  5.0322E+01  5.5491E+01
 64  0.0000E+00  1.6021E+00  0.0000E+00  0.0000E+00  3.6320E+00  1.3181E+00  3.1675E+00  0.0000E+00  0.0000E+00
 65  0.0000E+00  1.0828E+00  0.0000E+00  0.0000E+00  7.4630E+00  0.0000E+00  0.0000E+00  0.0000E+00  0.0000E+00
 66  0.0000E+00  1.2650E+00  0.0000E+00  0.0000E+00  0.0000E+00  0.0000E+00  0.0000E+00  3.7319E-01  0.0000E+00

# AV, chi2 & Mass for <> & i_chain = 1 ...  7 solutions
AV      -0.1726      0.0708      0.0445      0.0372      0.0344      0.0413      0.0510      0.0661      0.0644
chi2 4.4525E-01  4.7011E-01  4.6241E-01  4.6289E-01  4.6433E-01  4.6489E-01  4.6459E-01  4.6685E-01  4.6468E-01
Mass 3.3115E-13  2.9276E-13  2.8740E-13  2.9185E-13  2.9763E-13  2.8598E-13  2.7636E-13  2.7305E-13  2.6543E-13
  48.42                                  [v0_min (km/s) before EX0s...]
 225.33                                  [vd_min (km/s) before EX0s...]


## Synthetic spectrum (Best Model) ##l_obs f_obs f_syn wei
 3478    [Nl_obs]
 3741.00    0.40277   0.51783    0.000
 3742.00    0.40785   0.52328    0.000
 3743.00    0.39045   0.51594    0.000
 3744.00    0.33761   0.49774    0.000
 3745.00    0.26839   0.47319    6.193
 3746.00    0.20831   0.44808    6.245
 3747.00    0.17113   0.42813    6.900
 3748.00    0.16725   0.41785    7.867
 3749.00    0.20672   0.41985    7.924
 3750.00    0.28170   0.43511    6.985
 3751.00    0.36424   0.46222    6.512
 3752.00    0.44274   0.49644    6.764
 3753.00    0.53096   0.53181    6.982
 3754.00    0.62983   0.56207    6.668
 3755.00    0.71952   0.58144    6.233
 3756.00    0.79153   0.58728    6.110
 3757.00    0.85053   0.58166    6.471
 3758.00    0.88117   0.56945    6.951
 3759.00    0.85247   0.55561    6.699
 3760.00    0.76109   0.54445    6.196
 3761.00    0.63479   0.53867    6.488
 3762.00    0.50940   0.53872    7.500
 3763.00    0.41516   0.54269    7.888
 3764.00    0.36057   0.54709    7.321
 3765.00    0.33835   0.54976    6.909
 3766.00    0.34321   0.55115    6.978
 3767.00    0.36979   0.55301    7.342
 3768.00    0.40410   0.55736    7.586
 3769.00    0.43273   0.56499    7.388
 3770.00    0.45781   0.57555    7.143
 3771.00    0.49059   0.58942    7.289
 3772.00    0.53974   0.60605    7.633
 3773.00    0.60296   0.62292    7.717
 3774.00    0.66090   0.63857    7.465
 3775.00    0.69698   0.65345    7.184
 3776.00    0.71611   0.66740    7.250
 3777.00    0.72970   0.67994    7.710
 3778.00    0.74134   0.69193    7.895
 3779.00    0.75008   0.70429    7.416
 3780.00    0.75419   0.71629    7.026
 3781.00    0.75412   0.72547    7.141
 3782.00    0.75223   0.72934    7.453
 3783.00    0.74001   0.72638    7.565
 3784.00    0.69815   0.71535    7.437
 3785.00    0.63580   0.69652    7.282
 3786.00    0.59778   0.67259    7.352
 3787.00    0.60442   0.64705    7.661
 3788.00    0.63447   0.62246    7.904
 3789.00    0.66814   0.60083    7.773
 3790.00    0.69930   0.58396    7.312
 3791.00    0.71622   0.57185    7.029
 3792.00    0.70392   0.56178    7.428
 3793.00    0.67162   0.55111    8.090
 3794.00    0.64676   0.53901    7.651
 3795.00    0.63734   0.52604    6.705
 3796.00    0.63059   0.51414    6.553
 3797.00    0.61406   0.50682    7.160
 3798.00    0.58298   0.50749    7.693
 3799.00    0.54476   0.51777    7.394
 3800.00    0.51273   0.53680    6.551
 3801.00    0.49360   0.56218    6.056
 3802.00    0.48608   0.59067    6.376
 3803.00    0.48260   0.61818    7.351
 3804.00    0.47325   0.64085    8.219
 3805.00    0.45127   0.65690    8.331
 3806.00    0.41926   0.66710    7.992
 3807.00    0.39473   0.67298    8.057
 3808.00    0.39687   0.67547    8.943
 3809.00    0.43197   0.67495    9.688
 3810.00    0.49405   0.67123    9.084
 3811.00    0.56738   0.66334    8.298
 3812.00    0.63199   0.65019    8.260
 3813.00    0.66920   0.63179    8.701
 3814.00    0.66978   0.60978    9.039
 3815.00    0.63831   0.58663    8.900
 3816.00    0.58470   0.56487    8.548
 3817.00    0.51904   0.54686    8.689
 3818.00    0.45394   0.53341    9.503
 3819.00    0.40367   0.52308   10.161
 3820.00    0.37291   0.51381    9.880
 3821.00    0.35389   0.50361    9.182
 3822.00    0.33772   0.49144    8.864
 3823.00    0.31904   0.47843    9.387
 3824.00    0.29482   0.46634   10.395
 3825.00    0.26492   0.45529   10.337
 3826.00    0.23553   0.44419    9.279
 3827.00    0.21605   0.43298    8.755
 3828.00    0.20759   0.42322    9.068
 3829.00    0.20388   0.41576    9.748
 3830.00    0.20173   0.40944    9.942
 3831.00    0.20018   0.40287    9.164
 3832.00    0.19357   0.39589    8.438
 3833.00    0.18065   0.38896    8.696
 3834.00    0.18365   0.38262    9.616
 3835.00    0.22781   0.37820    9.974
 3836.00    0.30254   0.37755    9.560
 3837.00    0.37839   0.38183    9.180
 3838.00    0.44083   0.39145    9.147
 3839.00    0.48856   0.40610    9.375
 3840.00    0.52454   0.42540    9.543
 3841.00    0.55028   0.44913    9.351
 3842.00    0.56179   0.47674    8.909
 3843.00    0.56116   0.50641    8.564
 3844.00    0.56628   0.53501    8.648
 3845.00    0.58859   0.55912    9.206
 3846.00    0.61546   0.57626    9.654
 3847.00    0.63031   0.58670    0.000
 3848.00    0.62865   0.59225    0.000
 3849.00    0.61408   0.59443    0.000
 3850.00    0.59376   0.59451    0.000
 3851.00    0.57231   0.59264    0.000
 3852.00    0.55068   0.58858    0.000
 3853.00    0.53817   0.58329    0.000
 3854.00    0.55215   0.57684    0.000
 3855.00    0.58837   0.56733    0.000
 3856.00    0.61746   0.55440    0.000
 3857.00    0.62458   0.54119    0.000
 3858.00    0.61842   0.53138    0.000
 3859.00    0.60649   0.52728    0.000
 3860.00    0.58924   0.52982    0.000
 3861.00    0.56929   0.53814    0.000
 3862.00    0.55187   0.55085    0.000
 3863.00    0.53817   0.56671    0.000
 3864.00    0.52514   0.58261    0.000
 3865.00    0.50928   0.59405    0.000
 3866.00    0.48958   0.59782    0.000
 3867.00    0.47162   0.59387    0.000
 3868.00    0.46449   0.58462    0.000
 3869.00    0.47399   0.57323    0.000
 3870.00    0.49938   0.56260    0.000
 3871.00    0.53092   0.55469    0.000
 3872.00    0.55965   0.55052    0.000
 3873.00    0.59016   0.54992    0.000
 3874.00    0.62551   0.55208    0.000
 3875.00    0.64892   0.55611    0.000
 3876.00    0.64691   0.56067    0.000
 3877.00    0.63342   0.56300    0.000
 3878.00    0.62537   0.56062    0.000
 3879.00    0.61949   0.55440    0.000
 3880.00    0.60862   0.54745    0.000
 3881.00    0.59539   0.54185    9.355
 3882.00    0.58211   0.53800    9.827
 3883.00    0.56434   0.53407   10.287
 3884.00    0.54145   0.52810   10.218
 3885.00    0.52171   0.52137    9.795
 3886.00    0.51174   0.51690    9.493
 3887.00    0.51127   0.51578    9.684
 3888.00    0.51704   0.51819   10.312
 3889.00    0.52515   0.52665   10.702
 3890.00    0.53198   0.54295   10.330
 3891.00    0.53551   0.56442    9.524
 3892.00    0.53877   0.58771    8.951
 3893.00    0.54916   0.61104    9.063
 3894.00    0.57226   0.63139    9.675
 3895.00    0.60823   0.64613    9.922
 3896.00    0.64764   0.65554    9.378
 3897.00    0.67443   0.66194    8.612
 3898.00    0.67615   0.66694    8.421
 3899.00    0.65082   0.67104    9.320
 3900.00    0.61511   0.67351   10.573
 3901.00    0.59196   0.67294   10.075
 3902.00    0.58454   0.67029    8.827
 3903.00    0.58478   0.66804    8.618
 3904.00    0.59547   0.66767    9.325
 3905.00    0.62512   0.66905   10.071
 3906.00    0.67495   0.67388   10.220
 3907.00    0.73509   0.68417    9.821
 3908.00    0.78357   0.69882    9.318
 3909.00    0.80186   0.71666    9.098
 3910.00    0.79179   0.73570    9.335
 3911.00    0.76572   0.75166    9.917
 3912.00    0.73434   0.76151   10.145
 3913.00    0.70104   0.76485    9.630
 3914.00    0.65965   0.76282    9.167
 3915.00    0.60834   0.75542    9.319
 3916.00    0.55859   0.74232    9.941
 3917.00    0.52242   0.72518   10.621
 3918.00    0.50388   0.70602   10.902
 3919.00    0.50232   0.68600   10.545
 3920.00    0.51434   0.66687    9.780
 3921.00    0.53184   0.64899    9.201
 3922.00    0.54366   0.63142    9.365
 3923.00    0.54694   0.61360   10.100
 3924.00    0.54901   0.59447   10.216
 3925.00    0.55376   0.57179    9.467
 3926.00    0.55515   0.54294    8.975
 3927.00    0.53477   0.50682    9.064
 3928.00    0.47475   0.46387    9.250
 3929.00    0.39775   0.41711    8.672
 3930.00    0.35235   0.37061    7.239
 3931.00    0.34379   0.32836    6.234
 3932.00    0.33974   0.29484    6.397
 3933.00    0.32646   0.27310    7.700
 3934.00    0.30977   0.26491    9.383
 3935.00    0.29028   0.27116   10.187
 3936.00    0.26762   0.29132    9.919
 3937.00    0.25638   0.32303    9.501
 3938.00    0.27674   0.36229    9.631
 3939.00    0.33552   0.40441   10.197
 3940.00    0.42431   0.44510   10.608
 3941.00    0.52160   0.48226   10.439
 3942.00    0.60354   0.51612    9.741
 3943.00    0.65660   0.54654    8.909
 3944.00    0.67949   0.57345    8.531
 3945.00    0.68268   0.59849    9.493
 3946.00    0.67702   0.62341   12.709
 3947.00    0.66476   0.64919   14.709
 3948.00    0.65191   0.67494   11.532
 3949.00    0.65598   0.69685    8.926
 3950.00    0.68388   0.71323    8.587
 3951.00    0.71875   0.72659    9.808
 3952.00    0.74090   0.73764   12.057
 3953.00    0.74199   0.74417   13.747
 3954.00    0.72620   0.74514   13.825
 3955.00    0.70729   0.74188   14.354
 3956.00    0.69321   0.73616   14.709
 3957.00    0.68020   0.72572   13.383
 3958.00    0.65954   0.70600   10.654
 3959.00    0.62295   0.67812   10.686
 3960.00    0.57101   0.64569    0.000
 3961.00    0.51291   0.60838    0.000
 3962.00    0.45574   0.56429    0.000
 3963.00    0.40346   0.51391    0.000
 3964.00    0.36378   0.46147    0.000
 3965.00    0.34500   0.41260    0.000
 3966.00    0.34356   0.37015    0.000
 3967.00    0.34837   0.33520    0.000
 3968.00    0.35641   0.31047    0.000
 3969.00    0.37151   0.29938    0.000
 3970.00    0.39553   0.30427    0.000
 3971.00    0.42732   0.32565    0.000
 3972.00    0.46398   0.36180    0.000
 3973.00    0.50308   0.40881    0.000
 3974.00    0.54537   0.46227    0.000
 3975.00    0.59185   0.51850    0.000
 3976.00    0.63991   0.57467    0.000
 3977.00    0.68881   0.62831    0.000
 3978.00    0.74501   0.67648    0.000
 3979.00    0.80761   0.71706    0.000
 3980.00    0.85582   0.75039    0.000
 3981.00    0.87239   0.77724    9.863
 3982.00    0.86335   0.79794   10.538
 3983.00    0.84410   0.81294   10.780
 3984.00    0.82726   0.82432   10.519
 3985.00    0.82128   0.83542   10.104
 3986.00    0.82961   0.84716    9.826
 3987.00    0.84826   0.85898    9.808
 3988.00    0.86722   0.87078   10.025
 3989.00    0.88506   0.88183   10.254
 3990.00    0.91134   0.89177   10.131
 3991.00    0.94380   0.89928    9.785
 3992.00    0.96586   0.90285    9.780
 3993.00    0.97812   0.90383   10.184
 3994.00    0.99798   0.90356   10.470
 3995.00    1.01544   0.90240   10.374
 3996.00    0.99671   0.90190   10.159
 3997.00    0.94118   0.90314    9.918
 3998.00    0.88300   0.90677    9.599
 3999.00    0.84877   0.91352    9.515
 4000.00    0.84581   0.92261   10.071
 4001.00    0.86249   0.93095   10.924
 4002.00    0.88010   0.93459   10.996
 4003.00    0.89574   0.93263   10.336
 4004.00    0.91659   0.92794    9.844
 4005.00    0.94146   0.92335    9.792
 4006.00    0.96253   0.91926   10.088
 4007.00    0.97328   0.91679   10.581
 4008.00    0.97303   0.92005   10.949
 4009.00    0.97074   0.93134   10.639
 4010.00    0.97671   0.94687    9.701
 4011.00    0.99228   0.96125    9.096
 4012.00    1.01139   0.97326    9.353
 4013.00    1.02445   0.98314   10.195
 4014.00    1.02617   0.99027   10.897
 4015.00    1.02131   0.99572   10.826
 4016.00    1.01309   1.00090   10.190
 4017.00    0.99526   1.00507    9.899
 4018.00    0.96616   1.00757   10.396
 4019.00    0.93750   1.00827   11.389
 4020.00    0.92338   1.00809   12.080
 4021.00    0.93192   1.00804   11.680
 4022.00    0.96039   1.00756   10.662
 4023.00    0.99473   1.00637   10.202
 4024.00    1.01905   1.00571   10.489
 4025.00    1.02211   1.00602   10.838
 4026.00    1.00395   1.00460   10.956
 4027.00    0.97563   0.99852   11.333
 4028.00    0.94837   0.98854   11.796
 4029.00    0.92875   0.97512   11.351
 4030.00    0.91717   0.95740   10.431
 4031.00    0.90978   0.93753   10.251
 4032.00    0.90520   0.91966   10.846
 4033.00    0.90581   0.90990   11.354
 4034.00    0.91612   0.91303   11.220
 4035.00    0.93917   0.92720   10.716
 4036.00    0.97006   0.94743   10.342
 4037.00    1.00000   0.96953   10.404
 4038.00    1.02648   0.98993   10.791
 4039.00    1.05039   1.00529   11.144
 4040.00    1.06815   1.01053   11.257
 4041.00    1.07392   1.00161   11.128
 4042.00    1.06495   0.98039   10.825
 4043.00    1.04604   0.95501   10.491
 4044.00    1.03320   0.93415   10.359
 4045.00    1.03893   0.91911   10.548
 4046.00    1.05632   0.90849   10.871
 4047.00    1.07162   0.90586   10.976
 4048.00    1.07812   0.91561   10.634
 4049.00    1.07470   0.93608   10.056
 4050.00    1.06350   0.95853    9.802
 4051.00    1.04978   0.97380   10.134
 4052.00    1.04059   0.98026   10.780
 4053.00    1.03517   0.98000   11.247
 4054.00    1.02128   0.97287   11.210
 4055.00    0.99222   0.96094   10.836
 4056.00    0.95547   0.94917   10.641
 4057.00    0.92367   0.94050   10.788
 4058.00    0.90752   0.93459   10.987
 4059.00    0.90588   0.92778   11.110
 4060.00    0.90622   0.91810   11.373
 4061.00    0.90284   0.90978   11.686
 4062.00    0.90103   0.90568   11.545
 4063.00    0.90600   0.90166   10.930
 4064.00    0.91894   0.89542   10.372
 4065.00    0.93770   0.89194   10.291
 4066.00    0.95756   0.89752   10.881
 4067.00    0.97288   0.91070   11.773
 4068.00    0.97914   0.92225   11.987
 4069.00    0.97662   0.92901   11.450
 4070.00    0.96947   0.93580   10.971
 4071.00    0.96226   0.94219   10.888
 4072.00    0.95799   0.94198   11.148
 4073.00    0.95599   0.93303   11.533
 4074.00    0.95489   0.92151   11.743
 4075.00    0.95735   0.91492   11.622
 4076.00    0.96720   0.91275   11.266
 4077.00    0.98455   0.91194   10.955
 4078.00    1.00580   0.91399   10.941
 4079.00    1.02477   0.92136   11.310
 4080.00    1.03694   0.93515   11.893
 4081.00    1.04347   0.95383   12.056
 4082.00    1.04857   0.97325   11.452
 4083.00    1.05636   0.99023   10.734
 4084.00    1.06738   1.00388   10.471
 4085.00    1.07695   1.01522   10.750
 4086.00    1.08235   1.02628   11.359
 4087.00    1.08667   1.03777   11.735
 4088.00    1.09006   1.04881   11.568
 4089.00    1.08634   1.05773   11.285
 4090.00    1.07645   1.06283   11.161
 4091.00    1.07233   1.06173   11.029
 4092.00    1.07944   1.05219    0.000
 4093.00    1.09057   1.03529    0.000
 4094.00    1.09643   1.01401    0.000
 4095.00    1.09027   0.99064    0.000
 4096.00    1.06737   0.96496    0.000
 4097.00    1.02716   0.93458    0.000
 4098.00    0.98016   0.90109    0.000
 4099.00    0.94379   0.87133    0.000
 4100.00    0.92455   0.84970    0.000
 4101.00    0.91767   0.83602    0.000
 4102.00    0.91899   0.82982    0.000
 4103.00    0.92584   0.83278    0.000
 4104.00    0.93250   0.84717    0.000
 4105.00    0.93403   0.87104    0.000
 4106.00    0.93497   0.89747    0.000
 4107.00    0.94355   0.92122    0.000
 4108.00    0.95974   0.94092    0.000
 4109.00    0.97904   0.95610    0.000
 4110.00    1.00051   0.96755    0.000
 4111.00    1.02284   0.97680    0.000
 4112.00    1.03841   0.98522    0.000
 4113.00    1.04138   0.99428   10.764
 4114.00    1.03699   1.00355   11.009
 4115.00    1.03398   1.01059   11.687
 4116.00    1.03626   1.01389   12.066
 4117.00    1.04306   1.01440   11.623
 4118.00    1.05030   1.01301   11.071
 4119.00    1.05399   1.00885   10.953
 4120.00    1.05251   1.00229   11.046
 4121.00    1.04407   0.99751   11.184
 4122.00    1.02641   0.99765   11.644
 4123.00    1.00452   0.99940   12.300
 4124.00    0.99192   0.99888   12.146
 4125.00    0.99302   0.99656   11.232
 4126.00    0.99777   0.99396   10.866
 4127.00    0.99870   0.98977   11.334
 4128.00    0.99727   0.98109   11.834
 4129.00    0.99686   0.96814   11.905
 4130.00    0.99895   0.95493   12.006
 4131.00    1.00031   0.94515   12.211
 4132.00    0.99433   0.94038   12.028
 4133.00    0.97773   0.94063   11.535
 4134.00    0.95289   0.94516   11.293
 4135.00    0.92813   0.95531   11.479
 4136.00    0.91484   0.97067   11.930
 4137.00    0.92053   0.98762   12.350
 4138.00    0.94658   1.00103   12.454
 4139.00    0.98722   1.00509   12.303
 4140.00    1.03266   0.99942   12.116
 4141.00    1.07488   0.98840   11.825
 4142.00    1.10578   0.97612   11.387
 4143.00    1.11328   0.96393   11.210
 4144.00    1.09061   0.95199   11.627
 4145.00    1.04890   0.94354   12.259
 4146.00    1.00631   0.94302   12.441
 4147.00    0.97322   0.94956   12.275
 4148.00    0.95408   0.95713   12.169
 4149.00    0.95120   0.96151   12.107
 4150.00    0.96390   0.96227   12.054
 4151.00    0.98787   0.95979   12.291
 4152.00    1.01778   0.95606   12.808
 4153.00    1.04904   0.95315   12.793
 4154.00    1.07339   0.95119   12.003
 4155.00    1.07789   0.95147   11.449
 4156.00    1.05882   0.95538   11.569
 4157.00    1.02814   0.96341   11.869
 4158.00    1.00030   0.97435   11.988
 4159.00    0.98486   0.98771   12.203
 4160.00    0.98763   1.00326   12.627
 4161.00    1.01032   1.01726   12.848
 4162.00    1.04627   1.02666   12.604
 4163.00    1.08206   1.03156   12.125
 4164.00    1.10954   1.03278   11.790
 4165.00    1.12809   1.02976   11.871
 4166.00    1.13708   1.02261   12.287
 4167.00    1.13482   1.01326   12.638
 4168.00    1.12291   1.00131   12.709
 4169.00    1.10508   0.98528   12.593
 4170.00    1.08151   0.96824   12.369
 4171.00    1.04906   0.95389   12.084
 4172.00    1.00478   0.94121   11.911
 4173.00    0.95118   0.92838   12.040
 4174.00    0.90387   0.91662   12.473
 4175.00    0.88097   0.91051   13.047
 4176.00    0.88373   0.91265   13.522
 4177.00    0.90337   0.91998   13.628
 4178.00    0.93535   0.92777   13.213
 4179.00    0.97512   0.93393   12.514
 4180.00    1.01092   0.94050   12.162
 4181.00    1.03248   0.94960   12.442
 4182.00    1.04110   0.95910   12.799
 4183.00    1.04130   0.96496   12.724
 4184.00    1.03222   0.96642   12.832
 4185.00    1.01459   0.96768   13.496
 4186.00    0.99647   0.97197   13.614
 4187.00    0.98586   0.97736   12.649
 4188.00    0.98506   0.97911   12.009
 4189.00    0.99317   0.97879   12.305
 4190.00    1.00796   0.98386   12.740
 4191.00    1.02538   0.99305   12.636
 4192.00    1.03935   0.99738   12.419
 4193.00    1.04278   0.99415   12.313
 4194.00    1.02985   0.98822   11.940
 4195.00    1.00370   0.98063   11.460
 4196.00    0.97698   0.96737   11.568
 4197.00    0.96033   0.94996   12.355
 4198.00    0.95719   0.93416   13.091
 4199.00    0.96240   0.92250   13.289
 4200.00    0.96603   0.91569   13.237
 4201.00    0.96591   0.91615   13.042
 4202.00    0.96868   0.92345   12.550
 4203.00    0.98246   0.93401   12.014
 4204.00    1.01143   0.94802   11.850
 4205.00    1.04842   0.96682   12.083
 4206.00    1.07866   0.98649   12.460
 4207.00    1.09071   1.00281   12.736
 4208.00    1.08146   1.01623   12.793
 4209.00    1.06027   1.02761   12.743
 4210.00    1.04151   1.03540   12.748
 4211.00    1.03193   1.03675   12.744
 4212.00    1.03090   1.03217   12.611
 4213.00    1.03365   1.02655   12.450
 4214.00    1.03382   1.02390   12.472
 4215.00    1.02635   1.02383   12.832
 4216.00    1.01096   1.02416   13.382
 4217.00    0.99475   1.02549   13.350
 4218.00    0.98583   1.03156   12.495
 4219.00    0.98713   1.04029   11.860
 4220.00    0.99610   1.04179   11.966
 4221.00    1.00582   1.03152   12.242
 4222.00    1.01208   1.01128   12.101
 4223.00    1.01703   0.98180   11.775
 4224.00    1.02069   0.94497   11.699
 4225.00    1.01699   0.91037   12.091
 4226.00    1.00184   0.88723   -2.000
 4227.00    0.97629   0.87595   -2.000
 4228.00    0.93927   0.87591   -2.000
 4229.00    0.88565   0.89039   -2.000
 4230.00    0.81336   0.91781   -2.000
 4231.00    0.72791   0.94679   -2.000
 4232.00    0.64736   0.96896   -2.000
 4233.00    0.60138   0.98267   -2.000
 4234.00    0.62244   0.98800   -2.000
 4235.00    0.72866   0.98864   -2.000
 4236.00    0.88599   0.98927   -2.000
 4237.00    1.02531   0.98998   -2.000
 4238.00    1.10964   0.99255   -2.000
 4239.00    1.14131   1.00139   -2.000
 4240.00    1.14004   1.01404   -2.000
 4241.00    1.12919   1.02775   -2.000
 4242.00    1.11950   1.04331   11.836
 4243.00    1.11169   1.05748   11.631
 4244.00    1.10584   1.06390   11.626
 4245.00    1.10193   1.06303   11.899
 4246.00    1.09843   1.05908   12.155
 4247.00    1.09333   1.04902   12.122
 4248.00    1.08584   1.03154   12.180
 4249.00    1.07845   1.01427   12.649
 4250.00    1.07824   1.00251   12.934
 4251.00    1.08992   0.99273   12.480
 4252.00    1.10928   0.98316   11.966
 4253.00    1.12724   0.98070   11.947
 4254.00    1.13483   0.98684   12.115
 4255.00    1.12975   0.99144   12.191
 4256.00    1.11946   0.98974   12.505
 4257.00    1.11030   0.98792   13.130
 4258.00    1.10141   0.99071   13.261
 4259.00    1.09321   0.99594   12.603
 4260.00    1.09071   1.00058   12.032
 4261.00    1.09370   1.00660   11.987
 4262.00    1.09450   1.01714   12.225
 4263.00    1.09089   1.03367   12.551
 4264.00    1.08950   1.05270   13.021
 4265.00    1.09541   1.06509   13.488
 4266.00    1.10747   1.06665   13.500
 4267.00    1.11707   1.05884   13.002
 4268.00    1.11178   1.04059   12.438
 4269.00    1.08708   1.01133   12.222
 4270.00    1.04882   0.97983   12.544
 4271.00    1.00989   0.95340   13.071
 4272.00    0.98360   0.93055   13.129
 4273.00    0.97096   0.91452   12.850
 4274.00    0.96431   0.91501   12.885
 4275.00    0.96043   0.93101   13.222
 4276.00    0.96134   0.95046   13.365
 4277.00    0.97092   0.96952   13.059
 4278.00    0.99008   0.99051   12.450
 4279.00    1.01085   1.01011   11.888
 4280.00    1.02302   1.02249   11.652
 4281.00    1.02422   1.02559   11.830
 4282.00    1.01708   1.02147   12.351
 4283.00    1.00444   1.01455   12.895
 4284.00    0.99120   1.00625   13.099
 4285.00    0.98573   0.99598   12.978
 4286.00    0.98844   0.98196   12.701
 4287.00    0.98345   0.96289   12.298
 4288.00    0.95871   0.94585   11.937
 4289.00    0.92074   0.93662   12.033
 4290.00    0.87791   0.93125   12.693
 4291.00    0.83059   0.92486   13.333
 4292.00    0.78942   0.92067   13.448
 4293.00    0.77938   0.92294   13.358
 4294.00    0.79666   0.92615   13.199
 4295.00    0.79951   0.92103   12.565
 4296.00    0.77875   0.90439   11.669
 4297.00    0.77307   0.88191   11.253
 4298.00    0.78850   0.85825   11.569
 4299.00    0.78425   0.83289   12.408
 4300.00    0.74806   0.80583   13.321
 4301.00    0.70878   0.78056   13.705
 4302.00    0.68526   0.76362   13.568
 4303.00    0.67489   0.75484   13.497
 4304.00    0.66954   0.74739   13.532
 4305.00    0.66271   0.73993   13.290
 4306.00    0.65506   0.73598   12.926
 4307.00    0.65260   0.73618   12.887
 4308.00    0.66011   0.74083   13.113
 4309.00    0.67949   0.75111   13.224
 4310.00    0.70977   0.76981   13.153
 4311.00    0.74820   0.80062   13.075
 4312.00    0.79232   0.84222   13.027
 4313.00    0.84223   0.89254   12.931
 4314.00    0.90271   0.94937   12.716
 4315.00    0.97273   1.00605   12.380
 4316.00    1.03312   1.05644   12.017
 4317.00    1.06516   1.10001   11.760
 4318.00    1.07175   1.13402   11.716
 4319.00    1.06420   1.14981   11.931
 4320.00    1.04715   1.14662   12.340
 4321.00    1.02106   1.12897   12.774
 4322.00    0.98599   1.10039   12.989
 4323.00    0.94562   1.06632   12.877
 4324.00    0.90913   1.03706   12.611
 4325.00    0.88466   1.01771   12.413
 4326.00    0.87522   1.00928   12.399
 4327.00    0.88141   1.01249   12.533
 4328.00    0.90197   1.02942   12.645
 4329.00    0.92734   1.05989   12.715
 4330.00    0.94191   1.09305    0.000
 4331.00    0.94818   1.11729    0.000
 4332.00    0.96858   1.13137    0.000
 4333.00    1.01007   1.13891    0.000
 4334.00    1.05686   1.13553    0.000
 4335.00    1.09457   1.11569    0.000
 4336.00    1.11675   1.08578    0.000
 4337.00    1.11852   1.05201    0.000
 4338.00    1.09750   1.01354    0.000
 4339.00    1.06119   0.97692    0.000
 4340.00    1.02472   0.95459    0.000
 4341.00    1.00096   0.94623    0.000
 4342.00    0.99765   0.94857    0.000
 4343.00    1.01627   0.96800    0.000
 4344.00    1.05094   1.00025    0.000
 4345.00    1.08736   1.03083    0.000
 4346.00    1.10944   1.05863    0.000
 4347.00    1.10960   1.08688    0.000
 4348.00    1.08872   1.10463    0.000
 4349.00    1.05371   1.10631    0.000
 4350.00    1.01560   1.10431    0.000
 4351.00    0.98711   1.10529   13.068
 4352.00    0.97713   1.10032   12.829
 4353.00    0.98549   1.08951   12.556
 4354.00    1.00564   1.08862   12.383
 4355.00    1.02825   1.10125   12.179
 4356.00    1.04634   1.11356   11.909
 4357.00    1.05876   1.12216   11.829
 4358.00    1.06764   1.13691   12.104
 4359.00    1.07613   1.15637   12.586
 4360.00    1.08740   1.16963   12.966
 4361.00    1.10386   1.17816   12.938
 4362.00    1.12613   1.19174   12.485
 4363.00    1.15239   1.20715   11.914
 4364.00    1.17826   1.21308   11.450
 4365.00    1.19819   1.21017   11.154
 4366.00    1.21178   1.20747   11.064
 4367.00    1.22339   1.20355   11.222
 4368.00    1.23142   1.19081   11.572
 4369.00    1.22728   1.17295   11.934
 4370.00    1.20495   1.15862   12.126
 4371.00    1.16591   1.14629   12.062
 4372.00    1.12347   1.13078   11.770
 4373.00    1.09541   1.11684   11.370
 4374.00    1.08351   1.10994   11.005
 4375.00    1.07699   1.10644   10.778
 4376.00    1.07047   1.10163   10.692
 4377.00    1.06373   1.09724   10.705
 4378.00    1.05409   1.09547   10.814
 4379.00    1.03753   1.09165   11.042
 4380.00    1.01310   1.07664   11.384
 4381.00    0.98277   1.04909   11.695
 4382.00    0.95007   1.02037   11.564
 4383.00    0.92072   0.99930   10.910
 4384.00    0.90314   0.98143   10.443
 4385.00    0.90253   0.96519   10.568
 4386.00    0.91488   0.96241   10.727
 4387.00    0.93305   0.97759   10.450
 4388.00    0.95310   0.99877   10.409
 4389.00    0.97174   1.01739   11.145
 4390.00    0.98453   1.03703   12.086
 4391.00    0.99270   1.05783   12.251
 4392.00    1.00658   1.07403   11.694
 4393.00    1.03280   1.08739   11.030
 4394.00    1.06661   1.10333   10.631
 4395.00    1.09882   1.11861   10.541
 4396.00    1.12085   1.12762   10.581
 4397.00    1.12800   1.13248   10.667
 4398.00    1.12016   1.13611   10.906
 4399.00    1.09801   1.13717   11.326
 4400.00    1.06318   1.13293   11.748
 4401.00    1.02535   1.11977   11.913
 4402.00    0.99874   1.09871   11.682
 4403.00    0.98083   1.08253   11.294
 4404.00    0.95513   1.07646   11.133
 4405.00    0.92088   1.06784   11.138
 4406.00    0.89394   1.05630   10.955
 4407.00    0.88524   1.06024   10.621
 4408.00    0.89484   1.08072   10.454
 4409.00    0.91233   1.09968   10.541
 4410.00    0.92595   1.11520   10.781
 4411.00    0.93997   1.13520   11.070
 4412.00    0.96608   1.15227   11.296
 4413.00    1.00285   1.15904   11.304
 4414.00    1.04247   1.16288   11.060
 4415.00    1.08633   1.16592   10.838
 4416.00    1.13719   1.16404   10.816
 4417.00    1.18606   1.16370   10.639
 4418.00    1.22294   1.17121   10.120
 4419.00    1.25042   1.17905    9.875
 4420.00    1.26981   1.18287   10.334
 4421.00    1.26699   1.18782   11.022
 4422.00    1.23318   1.19328   11.238
 4423.00    1.18316   1.19270   11.231
 4424.00    1.13589   1.18762   11.379
 4425.00    1.09857   1.18562   11.358
 4426.00    1.07432   1.18731   10.979
 4427.00    1.06738   1.18574   10.670
 4428.00    1.07532   1.17961   10.569
 4429.00    1.08664   1.17626   10.294
 4430.00    1.09462   1.17649    9.971
 4431.00    1.10267   1.17192   10.348
 4432.00    1.11246   1.16171   11.481
 4433.00    1.12032   1.15590   11.976
 4434.00    1.12689   1.15723   11.231
 4435.00    1.13771   1.15969   10.576
 4436.00    1.15027   1.16217   10.471
 4437.00    1.15435   1.16915   10.472
 4438.00    1.14847   1.18044   10.308
 4439.00    1.14110   1.19051   10.076
 4440.00    1.13904   1.19593    9.933
 4441.00    1.14477   1.19832    9.976
 4442.00    1.15845   1.20048   10.194
 4443.00    1.17730   1.20370   10.498
 4444.00    1.19371   1.20671   10.829
 4445.00    1.19989   1.21092   11.101
 4446.00    1.19717   1.22090   11.044
 4447.00    1.19403   1.23272   10.533
 4448.00    1.19970   1.23717   10.029
 4449.00    1.21723   1.23625    9.953
 4450.00    1.23597   1.23527   10.178
 4451.00    1.24327   1.22773   10.353
 4452.00    1.24002   1.20921   10.331
 4453.00    1.23168   1.18803   10.211
 4454.00    1.21668   1.17009   10.228
 4455.00    1.19130   1.15051   10.451
 4456.00    1.15613   1.12815   10.530
 4457.00    1.11977   1.11127   10.194
 4458.00    1.09901   1.10391    9.715
 4459.00    1.09898   1.09902    9.456
 4460.00    1.10157   1.09587    9.593
 4461.00    1.09004   1.10193    0.000
 4462.00    1.06512   1.11362    0.000
 4463.00    1.03918   1.12302    0.000
 4464.00    1.02803   1.13459    0.000
 4465.00    1.02998   1.15174    0.000
 4466.00    1.02655   1.16583    0.000
 4467.00    1.03200   1.17408    0.000
 4468.00    1.09022   1.18432    0.000
 4469.00    1.17629   1.19744    0.000
 4470.00    1.20236   1.20962    0.000
 4471.00    1.16917   1.22291    0.000
 4472.00    1.16622   1.24023    0.000
 4473.00    1.21600   1.25761    0.000
 4474.00    1.26628   1.27322    0.000
 4475.00    1.29483   1.28809    0.000
 4476.00    1.31536   1.29781    0.000
 4477.00    1.32688   1.29821    0.000
 4478.00    1.31294   1.29305    0.000
 4479.00    1.26441   1.28604    0.000
 4480.00    1.19188   1.27650    0.000
 4481.00    1.13706   1.26679    0.000
 4482.00    1.13586   1.26074    6.757
 4483.00    1.16209   1.25955    6.952
 4484.00    1.17766   1.26334    6.890
 4485.00    1.20709   1.27023    6.656
 4486.00    1.27315   1.27507    6.460
 4487.00    1.31665   1.27562    6.369
 4488.00    1.28700   1.27377    6.374
 4489.00    1.23635   1.27005    6.470
 4490.00    1.21742   1.26343    6.628
 4491.00    1.19258   1.25472    6.768
 4492.00    1.13598   1.24670    6.806
 4493.00    1.10775   1.24304    6.721
 4494.00    1.14478   1.24299    6.567
 4495.00    1.19582   1.24375    6.449
 4496.00    1.22970   1.24720    6.424
 4497.00    1.28544   1.25669    6.475
 4498.00    1.35890   1.26979    6.547
 4499.00    1.37044   1.28273    6.581
 4500.00    1.31595   1.29904    6.556
 4501.00    1.29777   1.31956    6.501
 4502.00    1.34513   1.33761    6.456
 4503.00    1.38022   1.35134    6.450
 4504.00    1.37521   1.36582    6.494
 4505.00    1.37460   1.37954    6.582
 4506.00    1.37794   1.38669    6.689
 4507.00    1.34341   1.38876    6.773
 4508.00    1.30282   1.38912    6.766
 4509.00    1.33179   1.38600    6.631
 4510.00    1.40047   1.37860    6.464
 4511.00    1.41418   1.36963    6.404
 4512.00    1.37701   1.35987    6.461
 4513.00    1.36633   1.34924    6.551
 4514.00    1.41807   1.33941    6.590
 4515.00    1.49999   1.33031    6.549
 4516.00    1.51041   1.32208    6.509
 4517.00    1.38851   1.31799    6.567
 4518.00    1.26056   1.31739    6.715
 4519.00    1.26431   1.31580    6.870
 4520.00    1.31523   1.31089    6.949
 4521.00    1.28869   1.30517    6.913
 4522.00    1.24056   1.29858    6.807
 4523.00    1.25198   1.28547    6.716
 4524.00    1.26969   1.26486    6.710
 4525.00    1.24825   1.24271    6.744
 4526.00    1.26356   1.22188    6.610
 4527.00    1.33868   1.20039    6.341
 4528.00    1.33910   1.18091    6.322
 4529.00    1.20853   1.16717    6.668
 4530.00    1.09052   1.16070    6.917
 4531.00    1.08416   1.15925    6.782
 4532.00    1.12632   1.16120    6.677
 4533.00    1.15105   1.16754    6.793
 4534.00    1.16167   1.18046    6.827
 4535.00    1.16866   1.19764    6.682
 4536.00    1.16894   1.21355    6.650
 4537.00    1.18073   1.22917    6.774
 4538.00    1.23500   1.24666    6.782
 4539.00    1.30009   1.26259    6.647
 4540.00    1.29810   1.27359    6.625
 4541.00    1.22946   1.28043    6.766
 4542.00    1.17076   1.28221    6.908
 4543.00    1.17035   1.27975    6.989
 4544.00    1.22348   1.27769    7.058
 4545.00    1.28234   1.27471    7.028
 4546.00    1.29628   1.26713    6.807
 4547.00    1.28376   1.25768    6.618
 4548.00    1.28657   1.25270    6.722
 4549.00    1.26865   1.25041    7.000
 4550.00    1.18232   1.24492    0.000
 4551.00    1.09118   1.24008    0.000
 4552.00    1.08080   1.24122    0.000
 4553.00    1.11964   1.24535    0.000
 4554.00    1.14874   1.25029    0.000
 4555.00    1.20157   1.25995    0.000
 4556.00    1.30848   1.27307    0.000
 4557.00    1.39396   1.28661    0.000
 4558.00    1.39006   1.30077    0.000
 4559.00    1.33950   1.31470    0.000
 4560.00    1.30524   1.32498    0.000
 4561.00    1.29601   1.32920    0.000
 4562.00    1.31094   1.32887    0.000
 4563.00    1.36558   1.32687    0.000
 4564.00    1.43116   1.32456    0.000
 4565.00    1.42325   1.32202    0.000
 4566.00    1.35180   1.31980    0.000
 4567.00    1.35109   1.32089    0.000
 4568.00    1.42666   1.32537    0.000
 4569.00    1.40636   1.32767    0.000
 4570.00    1.24871   1.32917    0.000
 4571.00    1.11018   1.33492    0.000
 4572.00    1.10712   1.33840    0.000
 4573.00    1.23043   1.33587    0.000
 4574.00    1.36655   1.33584    0.000
 4575.00    1.37600   1.33805    0.000
 4576.00    1.28355   1.33364    0.000
 4577.00    1.23675   1.32416    0.000
 4578.00    1.27658   1.31483    0.000
 4579.00    1.33789   1.30454    0.000
 4580.00    1.37296   1.29292    0.000
 4581.00    1.37258   1.28137    0.000
 4582.00    1.35340   1.27279    0.000
 4583.00    1.33703   1.26950    0.000
 4584.00    1.32178   1.26984    0.000
 4585.00    1.30607   1.27324    0.000
 4586.00    1.32497   1.28021    0.000
 4587.00    1.39315   1.28881    0.000
 4588.00    1.43432   1.29609    0.000
 4589.00    1.38145   1.30135    0.000
 4590.00    1.28897   1.30408    0.000
 4591.00    1.23672   1.30411    0.000
 4592.00    1.22779   1.30080    0.000
 4593.00    1.22220   1.29432    0.000
 4594.00    1.18091   1.28817    0.000
 4595.00    1.11825   1.28340    0.000
 4596.00    1.11938   1.27924    0.000
 4597.00    1.20462   1.27734    0.000
 4598.00    1.26863   1.27655    0.000
 4599.00    1.26192   1.27682    0.000
 4600.00    1.26342   1.27999    0.000
 4601.00    1.29319   1.28410    0.000
 4602.00    1.26203   1.28750    0.000
 4603.00    1.18603   1.29315    0.000
 4604.00    1.21546   1.30243    0.000
 4605.00    1.36685   1.31262    0.000
 4606.00    1.48639   1.32459    0.000
 4607.00    1.48990   1.33826    0.000
 4608.00    1.41805   1.35072    0.000
 4609.00    1.34645   1.36161    0.000
 4610.00    1.33809   1.37107    0.000
 4611.00    1.39554   1.37651    0.000
 4612.00    1.46718   1.37890    0.000
 4613.00    1.49112   1.38058    0.000
 4614.00    1.43378   1.37971    0.000
 4615.00    1.34290   1.37882    0.000
 4616.00    1.30016   1.38012    0.000
 4617.00    1.32133   1.37967    0.000
 4618.00    1.36765   1.37942    0.000
 4619.00    1.39274   1.38327    0.000
 4620.00    1.38393   1.38477    0.000
 4621.00    1.40092   1.38352    0.000
 4622.00    1.48065   1.38628    0.000
 4623.00    1.53094   1.38798    0.000
 4624.00    1.47490   1.38487    0.000
 4625.00    1.39849   1.38424    0.000
 4626.00    1.39326   1.38493    0.000
 4627.00    1.41248   1.38041    0.000
 4628.00    1.39171   1.37620    0.000
 4629.00    1.34975   1.37649    0.000
 4630.00    1.34028   1.37347    0.000
 4631.00    1.40220   1.36576    0.000
 4632.00    1.49896   1.36082    0.000
 4633.00    1.51362   1.35687    0.000
 4634.00    1.41963   1.34776    0.000
 4635.00    1.33292   1.33661    0.000
 4636.00    1.31074   1.32877    0.000
 4637.00    1.29331   1.32143    0.000
 4638.00    1.27252   1.31219    0.000
 4639.00    1.31554   1.30600    0.000
 4640.00    1.38785   1.30292    0.000
 4641.00    1.36167   1.29777    0.000
 4642.00    1.24909   1.29194    0.000
 4643.00    1.19466   1.28780    0.000
 4644.00    1.24501   1.28062    0.000
 4645.00    1.32477   1.27103    0.000
 4646.00    1.34090   1.26481    0.000
 4647.00    1.24749   1.26104    0.000
 4648.00    1.12201   1.25858    0.000
 4649.00    1.09242   1.26033    0.000
 4650.00    1.17314   1.26695    0.000
 4651.00    1.27816   1.27596    0.000
 4652.00    1.29851   1.28441    0.000
 4653.00    1.20057   1.29274    0.000
 4654.00    1.13502   1.30215    0.000
 4655.00    1.24449   1.31094    0.000
 4656.00    1.41684   1.31901    0.000
 4657.00    1.47363   1.32830    0.000
 4658.00    1.40691   1.33738    0.000
 4659.00    1.31066   1.34377    0.000
 4660.00    1.28003   1.34721    0.000
 4661.00    1.32762   1.34483    0.000
 4662.00    1.34252   1.33585    0.000
 4663.00    1.27626   1.32253    0.000
 4664.00    1.25167   1.30326    0.000
 4665.00    1.32422   1.27987    0.000
 4666.00    1.36021   1.26034    0.000
 4667.00    1.28798   1.24659    0.000
 4668.00    1.21038   1.23606    0.000
 4669.00    1.20073   1.23312    0.000
 4670.00    1.22102   1.24007    0.000
 4671.00    1.24183   1.25133    0.000
 4672.00    1.27596   1.26395    0.000
 4673.00    1.29177   1.27855    0.000
 4674.00    1.22524   1.29299    0.000
 4675.00    1.13595   1.30309    0.000
 4676.00    1.17014   1.30800    0.000
 4677.00    1.29605   1.31000    0.000
 4678.00    1.33423   1.30992    0.000
 4679.00    1.24219   1.30614    0.000
 4680.00    1.12488   1.30112    0.000
 4681.00    1.08333   1.29951    0.000
 4682.00    1.14947   1.29888    0.000
 4683.00    1.23370   1.29780    0.000
 4684.00    1.22477   1.30022    0.000
 4685.00    1.17510   1.30430    0.000
 4686.00    1.20009   1.30627    0.000
 4687.00    1.27961   1.30860    0.000
 4688.00    1.32895   1.31134    0.000
 4689.00    1.33286   1.31134    0.000
 4690.00    1.31745   1.31166    0.000
 4691.00    1.29667   1.31423    0.000
 4692.00    1.27901   1.31539    0.000
 4693.00    1.27948   1.31614    0.000
 4694.00    1.30500   1.31888    0.000
 4695.00    1.34029   1.31963    0.000
 4696.00    1.35060   1.31552    0.000
 4697.00    1.29528   1.30997    0.000
 4698.00    1.20250   1.30387    0.000
 4699.00    1.19098   1.29437    0.000
 4700.00    1.27678   1.28274    0.000
 4701.00    1.30162   1.27301    0.000
 4702.00    1.20857   1.26651    0.000
 4703.00    1.14063   1.26113    0.000
 4704.00    1.17541   1.25673    0.000
 4705.00    1.23515   1.25569    0.000
 4706.00    1.25830   1.25802    0.000
 4707.00    1.25668   1.26033    0.000
 4708.00    1.25044   1.26262    0.000
 4709.00    1.24727   1.26819    0.000
 4710.00    1.25630   1.27518    0.000
 4711.00    1.28582   1.28171    0.000
 4712.00    1.32442   1.28887    0.000
 4713.00    1.35005   1.29780    0.000
 4714.00    1.36387   1.30863    0.000
 4715.00    1.37615   1.31986    0.000
 4716.00    1.36043   1.33115    0.000
 4717.00    1.29370   1.34450    0.000
 4718.00    1.24468   1.35886    0.000
 4719.00    1.29171   1.37021    0.000
 4720.00    1.36861   1.37923    0.000
 4721.00    1.37022   1.38716    0.000
 4722.00    1.33251   1.39054    0.000
 4723.00    1.33609   1.38834    0.000
 4724.00    1.35857   1.38219    0.000
 4725.00    1.35209   1.37124    0.000
 4726.00    1.34203   1.35675    0.000
 4727.00    1.34919   1.34174    0.000
 4728.00    1.31652   1.32597    0.000
 4729.00    1.22882   1.31104    0.000
 4730.00    1.19770   1.30209    0.000
 4731.00    1.27347   1.29764    0.000
 4732.00    1.33008   1.29536    0.000
 4733.00    1.28746   1.29949    0.000
 4734.00    1.23477   1.30678    0.000
 4735.00    1.24947   1.31245    0.000
 4736.00    1.30250   1.32115    0.000
 4737.00    1.34073   1.33112    0.000
 4738.00    1.33660   1.33631    0.000
 4739.00    1.30644   1.34161    0.000
 4740.00    1.29608   1.34990    0.000
 4741.00    1.29848   1.35575    0.000
 4742.00    1.26000   1.35956    0.000
 4743.00    1.20970   1.36491    0.000
 4744.00    1.24136   1.37131    0.000
 4745.00    1.33060   1.37669    0.000
 4746.00    1.36199   1.37965    0.000
 4747.00    1.33960   1.38223    0.000
 4748.00    1.35461   1.38550    0.000
 4749.00    1.38803   1.38525    0.000
 4750.00    1.35853   1.38113    0.000
 4751.00    1.30410   1.37721    0.000
 4752.00    1.31488   1.37211    0.000
 4753.00    1.35699   1.36432    0.000
 4754.00    1.34361   1.35695    0.000
 4755.00    1.28759   1.35136    0.000
 4756.00    1.25388   1.34568    0.000
 4757.00    1.26457   1.34025    0.000
 4758.00    1.29832   1.33656    0.000
 4759.00    1.30874   1.33187    0.000
 4760.00    1.27175   1.32439    0.000
 4761.00    1.22715   1.31688    8.314
 4762.00    1.22378   1.30943    8.297
 4763.00    1.26548   1.29941    8.249
 4764.00    1.31272   1.29068    8.232
 4765.00    1.30145   1.28736    8.213
 4766.00    1.24288   1.28606    8.159
 4767.00    1.26033   1.28735    8.104
 4768.00    1.38072   1.29521    8.086
 4769.00    1.44885   1.30594    8.119
 4770.00    1.38093   1.31632    8.194
 4771.00    1.27160   1.32880    8.281
 4772.00    1.22377   1.34284    8.308
 4773.00    1.26225   1.35415    8.201
 4774.00    1.33183   1.36324    8.078
 4775.00    1.33776   1.37312    8.180
 4776.00    1.28578   1.38115    8.466
 4777.00    1.27681   1.38384    8.584
 4778.00    1.32863   1.38395    8.449
 4779.00    1.36435   1.38422    8.322
 4780.00    1.34177   1.38021    8.332
 4781.00    1.28369   1.37038    8.420
 4782.00    1.25802   1.36238    8.453
 4783.00    1.31898   1.35604    8.342
 4784.00    1.39880   1.34480    8.227
 4785.00    1.39016   1.33553    8.299
 4786.00    1.33647   1.33328    8.486
 4787.00    1.34360   1.32982    8.571
 4788.00    1.38324   1.32734    8.542
 4789.00    1.37512   1.33320    8.524
 4790.00    1.34545   1.34091    8.570
 4791.00    1.35183   1.34795    8.603
 4792.00    1.36603   1.36005    8.416
 4793.00    1.34215   1.37270    7.985
 4794.00    1.30357   1.38118    7.658
 4795.00    1.29404   1.38894    7.610
 4796.00    1.32235   1.39446    7.572
 4797.00    1.37508   1.39480    7.306
 4798.00    1.43250   1.39286    6.977
 4799.00    1.47366   1.39032    6.780
 4800.00    1.48063   1.38653    6.753
 4801.00    1.44706   1.38311    6.901
 4802.00    1.38449   1.38029    7.233
 4803.00    1.32663   1.37708    7.581
 4804.00    1.31925   1.37475    7.538
 4805.00    1.35848   1.37201    7.244
 4806.00    1.38072   1.36743    7.399
 4807.00    1.35753   1.36446    8.130
 4808.00    1.32284   1.36344    8.610
 4809.00    1.31018   1.36200    8.405
 4810.00    1.32703   1.36273    8.231
 4811.00    1.35555   1.36715    8.363
 4812.00    1.36640   1.37220    8.463
 4813.00    1.35663   1.37779    8.393
 4814.00    1.34953   1.38551    8.332
 4815.00    1.36412   1.39305    8.336
 4816.00    1.39924   1.39925    8.335
 4817.00    1.41801   1.40502    8.349
 4818.00    1.38521   1.40802    8.422
 4819.00    1.34452   1.40783    8.383
 4820.00    1.36071   1.40625    8.092
 4821.00    1.39676   1.40080    7.881
 4822.00    1.38410   1.39230    8.092
 4823.00    1.35773   1.38516    8.496
 4824.00    1.38236   1.37769    8.587
 4825.00    1.43055   1.36964    8.366
 4826.00    1.44500   1.36453    8.150
 4827.00    1.42785   1.36105    8.096
 4828.00    1.40478   1.35819    8.197
 4829.00    1.37798   1.35638    8.304
 4830.00    1.33538   1.35415    8.324
 4831.00    1.26706   1.35304    8.385
 4832.00    1.19739   1.35359    8.514
 4833.00    1.19705   1.35256    8.405
 4834.00    1.29068   1.35133    8.000
 4835.00    1.40479   1.35226    7.722
 4836.00    1.45820   1.35202    7.760
 4837.00    1.42297   1.34890    7.898
 4838.00    1.33418   1.34570    7.930
 4839.00    1.27307   1.34359    7.881
 4840.00    1.27198   1.34048    7.818
 4841.00    1.28944   1.33643    7.766
 4842.00    1.29672   1.33528    7.745
 4843.00    1.30486   1.33641    7.772
 4844.00    1.32708   1.33656    7.795
 4845.00    1.36210   1.33774    7.725
 4846.00    1.38763   1.33967    7.632
 4847.00    1.37725   1.33935    7.682
 4848.00    1.35037   1.33850    0.000
 4849.00    1.34999   1.33574    0.000
 4850.00    1.35736   1.32854    0.000
 4851.00    1.32428   1.32097    0.000
 4852.00    1.28317   1.31129    0.000
 4853.00    1.29566   1.29449    0.000
 4854.00    1.31766   1.27597    0.000
 4855.00    1.27040   1.25685    0.000
 4856.00    1.19213   1.23071    0.000
 4857.00    1.15976   1.20282    0.000
 4858.00    1.14695   1.17818    0.000
 4859.00    1.10102   1.15161    0.000
 4860.00    1.05924   1.12866    0.000
 4861.00    1.07868   1.11655    0.000
 4862.00    1.14527   1.10942    0.000
 4863.00    1.19816   1.10966    0.000
 4864.00    1.17109   1.12307    0.000
 4865.00    1.06772   1.14032    0.000
 4866.00    1.00445   1.15662    0.000
 4867.00    1.06319   1.17677    0.000
 4868.00    1.19242   1.19522    0.000
 4869.00    1.31109   1.20513    0.000
 4870.00    1.38100   1.21275    0.000
 4871.00    1.39689   1.22186    0.000
 4872.00    1.37448   1.22731    0.000
 4873.00    1.33178   1.23169    0.000
 4874.00    1.28155   1.24265    0.000
 4875.00    1.24024   1.25617    8.313
 4876.00    1.22813   1.26688    8.393
 4877.00    1.25450   1.28054    8.494
 4878.00    1.30789   1.29618    8.360
 4879.00    1.34476   1.30469    8.138
 4880.00    1.31764   1.30945    8.229
 4881.00    1.26589   1.31440    8.547
 4882.00    1.27720   1.31242    8.585
 4883.00    1.32150   1.30451    8.380
 4884.00    1.29830   1.29760    8.386
 4885.00    1.23869   1.28918    8.562
 4886.00    1.24445   1.27768    8.563
 4887.00    1.28043   1.26958    8.490
 4888.00    1.26003   1.26587    8.632
 4889.00    1.25816   1.26337    8.736
 4890.00    1.37444   1.26725    8.440
 4891.00    1.48143   1.27915    8.139
 4892.00    1.42514   1.29335    8.271
 4893.00    1.32738   1.31270    8.563
 4894.00    1.35601   1.33679    8.537
 4895.00    1.42469   1.35768    8.349
 4896.00    1.39114   1.37663    8.346
 4897.00    1.28805   1.39268    8.527
 4898.00    1.22041   1.40035    8.734
 4899.00    1.24678   1.40392    8.839
 4900.00    1.34510   1.40479    8.789
 4901.00    1.41191   1.39991    8.635
 4902.00    1.39986   1.39454    8.465
 4903.00    1.39025   1.39129    8.356
 4904.00    1.43279   1.38645    8.346
 4905.00    1.46582   1.38089    8.436
 4906.00    1.44345   1.37694    8.595
 4907.00    1.39202   1.37268    8.768
 4908.00    1.33494   1.36595    8.888
 4909.00    1.26748   1.35924    8.917
 4910.00    1.20802   1.35466    8.933
 4911.00    1.20245   1.34977    9.074
 4912.00    1.26124   1.34489    9.206
 4913.00    1.34605   1.34217    9.002
 4914.00    1.40263   1.33840    8.644
 4915.00    1.39179   1.33085    8.611
 4916.00    1.34186   1.32061    8.862
 4917.00    1.32052   1.30766    8.958
 4918.00    1.33346   1.29148    8.818
 4919.00    1.34070   1.27463    8.729
 4920.00    1.34281   1.26165    8.803
 4921.00    1.36268   1.25420    8.965
 4922.00    1.37866   1.25202    9.071
 4923.00    1.35369   1.25807    9.025
 4924.00    1.30152   1.27280    8.927
 4925.00    1.26521   1.29031    8.927
 4926.00    1.27025   1.30965    9.007
 4927.00    1.31239   1.33240    9.065
 4928.00    1.35400   1.35119    9.063
 4929.00    1.36740   1.36344    9.009
 4930.00    1.37787   1.37403    8.922
 4931.00    1.40794   1.37744    8.857
 4932.00    1.42466   1.37215    8.912
 4933.00    1.39502   1.36610    9.096
 4934.00    1.33441   1.35628    9.212
 4935.00    1.28196   1.34230    9.134
 4936.00    1.27442   1.33239    9.010
 4937.00    1.31527   1.32479    8.984
 4938.00    1.36291   1.31930    9.034
 4939.00    1.37472   1.32113    9.095
 4940.00    1.33535   1.32695    0.000
 4941.00    1.26549   1.33622    0.000
 4942.00    1.21566   1.35123    0.000
 4943.00    1.22274   1.36609    0.000
 4944.00    1.28887   1.37952    0.000
 4945.00    1.37773   1.39449    0.000
 4946.00    1.43239   1.40654    0.000
 4947.00    1.43832   1.41396    0.000
 4948.00    1.42575   1.42037    0.000
 4949.00    1.41301   1.42432    0.000
 4950.00    1.39950   1.42334    0.000
 4951.00    1.39220   1.41903    0.000
 4952.00    1.40289   1.41121    0.000
 4953.00    1.42617   1.39913    0.000
 4954.00    1.44311   1.38505    0.000
 4955.00    1.43902   1.36847    0.000
 4956.00    1.41283   1.35196    0.000
 4957.00    1.38588   1.34122    0.000
 4958.00    1.37848   1.33289    0.000
 4959.00    1.37395   1.32778    0.000
 4960.00    1.34580   1.33066    0.000
 4961.00    1.30044   1.33580    0.000
 4962.00    1.26389   1.34020    0.000
 4963.00    1.25786   1.34481    0.000
 4964.00    1.28054   1.34781    0.000
 4965.00    1.29480   1.34853    0.000
 4966.00    1.28138   1.34649    0.000
 4967.00    1.28062   1.34451    0.000
 4968.00    1.32503   1.34454    0.000
 4969.00    1.38732   1.34501    0.000
 4970.00    1.41782   1.34806    0.000
 4971.00    1.38197   1.35333    0.000
 4972.00    1.31002   1.35864    0.000
 4973.00    1.29799   1.36385    0.000
 4974.00    1.35362   1.36611    0.000
 4975.00    1.35723   1.36512    0.000
 4976.00    1.27655   1.36023    0.000
 4977.00    1.22250   1.34925    0.000
 4978.00    1.24836   1.33511    0.000
 4979.00    1.29693   1.31851    0.000
 4980.00    1.32180   1.29883    0.000
 4981.00    1.32118   1.28065    0.000
 4982.00    1.29941   1.26662    0.000
 4983.00    1.25938   1.25561    0.000
 4984.00    1.21716   1.24988    0.000
 4985.00    1.20050   1.25221    0.000
 4986.00    1.23458   1.25867    0.000
 4987.00    1.31714   1.26753    0.000
 4988.00    1.37742   1.28055    0.000
 4989.00    1.34471   1.29252    0.000
 4990.00    1.28552   1.30252    0.000
 4991.00    1.31110   1.31240    0.000
 4992.00    1.39063   1.31775    0.000
 4993.00    1.42219   1.32160    0.000
 4994.00    1.37658   1.32459    0.000
 4995.00    1.29139   1.32220    0.000
 4996.00    1.23318   1.31945    0.000
 4997.00    1.23861   1.31501    0.000
 4998.00    1.26165   1.30529    0.000
 4999.00    1.25201   1.29584    0.000
 5000.00    1.23038   1.28513    0.000
 5001.00    1.22956   1.27183    0.000
 5002.00    1.24225   1.26095    0.000
 5003.00    1.25264   1.25138    0.000
 5004.00    1.26063   1.24228    0.000
 5005.00    1.26389   1.23681    0.000
 5006.00    1.25021   1.23432    0.000
 5007.00    1.22782   1.23212    0.000
 5008.00    1.23141   1.23116    0.000
 5009.00    1.26171   1.23160    0.000
 5010.00    1.27107   1.22941    0.000
 5011.00    1.23755   1.22542    0.000
 5012.00    1.18673   1.22142    0.000
 5013.00    1.14491   1.21517    0.000
 5014.00    1.12457   1.20951    0.000
 5015.00    1.13920   1.20588    0.000
 5016.00    1.19505   1.20322    0.000
 5017.00    1.25280   1.20427    0.000
 5018.00    1.25497   1.20789    0.000
 5019.00    1.22329   1.21269    0.000
 5020.00    1.22401   1.21971    0.000
 5021.00    1.23513   1.22792    0.000
 5022.00    1.19584   1.23645    0.000
 5023.00    1.15996   1.24424    0.000
 5024.00    1.21882   1.25308    0.000
 5025.00    1.31990   1.26247    0.000
 5026.00    1.35267   1.26972    0.000
 5027.00    1.32314   1.27922    0.000
 5028.00    1.29877   1.28918    0.000
 5029.00    1.29988   1.29673    9.688
 5030.00    1.30296   1.30619    9.834
 5031.00    1.26657   1.31335   10.065
 5032.00    1.19194   1.31634   10.230
 5033.00    1.16969   1.31742   10.175
 5034.00    1.25224   1.31233    9.923
 5035.00    1.35016   1.30302    9.739
 5036.00    1.37579   1.29045    9.753
 5037.00    1.35421   1.27325    9.775
 5038.00    1.33771   1.25840    9.670
 5039.00    1.33973   1.24505    9.580
 5040.00    1.33722   1.23390    9.623
 5041.00    1.28769   1.23236    9.745
 5042.00    1.19956   1.23539    9.836
 5043.00    1.14840   1.24273    9.813
 5044.00    1.17418   1.25723    9.658
 5045.00    1.24473   1.27069    9.428
 5046.00    1.31227   1.28228    9.200
 5047.00    1.34135   1.29298    9.047
 5048.00    1.31975   1.29887    9.022
 5049.00    1.26069   1.30111    9.130
 5050.00    1.19744   1.30239    9.221
 5051.00    1.17044   1.30427    9.091
 5052.00    1.19739   1.30737    8.917
 5053.00    1.26312   1.31271    9.044
 5054.00    1.31724   1.32173    9.358
 5055.00    1.30963   1.33226    9.418
 5056.00    1.26380   1.34327    9.239
 5057.00    1.24430   1.35411    9.158
 5058.00    1.26850   1.36264    9.195
 5059.00    1.31045   1.36874    9.194
 5060.00    1.33562   1.37059    9.169
 5061.00    1.32564   1.36829    9.183
 5062.00    1.30305   1.36329    9.103
 5063.00    1.29937   1.35368    8.857
 5064.00    1.31237   1.34264    8.732
 5065.00    1.32622   1.33166    8.916
 5066.00    1.33838   1.31951    9.096
 5067.00    1.34902   1.31033    8.940
 5068.00    1.34856   1.30385    8.689
 5069.00    1.32257   1.29826    8.651
 5070.00    1.26140   1.29528    8.835
 5071.00    1.19412   1.29421    9.064
 5072.00    1.19576   1.29285    9.081
 5073.00    1.26876   1.29012    8.899
 5074.00    1.29647   1.28709    8.901
 5075.00    1.23236   1.28267    9.190
 5076.00    1.17733   1.27508    9.349
 5077.00    1.20207   1.26617    9.200
 5078.00    1.27104   1.25726    9.118
 5079.00    1.32113   1.24854    9.239
 5080.00    1.30824   1.24064    9.300
 5081.00    1.24177   1.23616    9.261
 5082.00    1.17878   1.23675    9.391
 5083.00    1.16103   1.24053    9.619
 5084.00    1.19056   1.24761    9.539
 5085.00    1.22446   1.25903    9.233
 5086.00    1.21029   1.27216    9.158
 5087.00    1.17719   1.28502    9.351
 5088.00    1.19889   1.29792    9.502
 5089.00    1.25946   1.30977    9.452
 5090.00    1.29020   1.31927    9.284
 5091.00    1.30059   1.32594    9.157
 5092.00    1.33715   1.32933    9.174
 5093.00    1.36983   1.32961    9.265
 5094.00    1.34436   1.32611    9.325
 5095.00    1.28821   1.31891    9.454
 5096.00    1.26009   1.31002    9.759
 5097.00    1.26286   1.29971   10.011
 5098.00    1.26587   1.28961    9.942
 5099.00    1.24641   1.28175    9.759
 5100.00    1.21052   1.27526    9.718
 5101.00    1.20314   1.27208    9.704
 5102.00    1.24332   1.27140    9.582
 5103.00    1.27551   1.27006    9.486
 5104.00    1.26419   1.27028    9.553
 5105.00    1.25843   1.27018    9.725
 5106.00    1.28414   1.26781    9.887
 5107.00    1.28343   1.26723    9.977
 5108.00    1.23253   1.26626    9.961
 5109.00    1.19605   1.26601    9.849
 5110.00    1.20979   1.27068    9.798
 5111.00    1.23479   1.27524   10.063
 5112.00    1.25065   1.28250   10.504
 5113.00    1.28393   1.29417   10.459
 5114.00    1.33534   1.30310    9.941
 5115.00    1.36461   1.31252    9.711
 5116.00    1.34825   1.32157    9.952
 5117.00    1.29870   1.32479   10.240
 5118.00    1.25482   1.32546   10.200
 5119.00    1.25551   1.32177    9.850
 5120.00    1.27853   1.31258    9.569
 5121.00    1.26632   1.30101    9.704
 5122.00    1.22730   1.28626    9.989
 5123.00    1.21863   1.27092    9.826
 5124.00    1.25776   1.25674    9.441
 5125.00    1.31844   1.24370    9.401
 5126.00    1.35955   1.23503    9.548
 5127.00    1.34303   1.22992    9.447
 5128.00    1.25506   1.22767    9.320
 5129.00    1.12935   1.23000    9.551
 5130.00    1.06806   1.23486    9.858
 5131.00    1.13671   1.24096    9.765
 5132.00    1.24050   1.24775    9.533
 5133.00    1.26596   1.25458    9.547
 5134.00    1.24352   1.25976    9.645
 5135.00    1.23987   1.26113    9.545
 5136.00    1.24405   1.26232    9.312
 5137.00    1.23164   1.26030    9.129
 5138.00    1.22242   1.25353    9.078
 5139.00    1.23447   1.25007    9.148
 5140.00    1.25154   1.24389    9.242
 5141.00    1.25954   1.23570    9.256
 5142.00    1.26631   1.23382    9.149
 5143.00    1.26786   1.22879    9.043
 5144.00    1.23956   1.22403    9.177
 5145.00    1.19416   1.22554    9.506
 5146.00    1.18974   1.22276    9.586
 5147.00    1.23432   1.22038    9.306
 5148.00    1.26809   1.22291    9.081
 5149.00    1.26099   1.22214    9.075
 5150.00    1.23599   1.22228    9.122
 5151.00    1.21598   1.22587    9.150
 5152.00    1.20505   1.22853    9.244
 5153.00    1.18982   1.23429    9.408
 5154.00    1.15869   1.24241    9.538
 5155.00    1.14743   1.24979    9.580
 5156.00    1.20231   1.25999    9.550
 5157.00    1.27394   1.26925    9.467
 5158.00    1.27469   1.27439    9.363
 5159.00    1.23560   1.27758    9.358
 5160.00    1.24251   1.27389    9.531
 5161.00    1.27526   1.26286    9.703
 5162.00    1.26292   1.24640    9.653
 5163.00    1.20767   1.22059    9.571
 5164.00    1.15174   1.18980    9.724
 5165.00    1.10920   1.15684    9.958
 5166.00    1.07590   1.12058   10.009
 5167.00    1.05113   1.08731    9.999
 5168.00    1.03134   1.05898   10.135
 5169.00    1.00309   1.03651   10.338
 5170.00    0.96176   1.02336   10.470
 5171.00    0.92636   1.01902   10.576
 5172.00    0.91572   1.02353   10.688
 5173.00    0.92984   1.03596   10.663
 5174.00    0.96060   1.05517   10.453
 5175.00    0.99961   1.07848   10.262
 5176.00    1.03375   1.09985   10.254
 5177.00    1.04710   1.11860   10.425
 5178.00    1.04691   1.13451   10.596
 5179.00    1.06549   1.14141   10.487
 5180.00    1.10282   1.13999   10.172
 5181.00    1.11732   1.13440   10.060
 5182.00    1.10116   1.12593   10.185
 5183.00    1.09078   1.11897   10.168
 5184.00    1.09119   1.11399    9.931
 5185.00    1.07254   1.11529    9.784
 5186.00    1.04707   1.12644    9.817
 5187.00    1.06164   1.13797    9.880
 5188.00    1.11032   1.15229    9.891
 5189.00    1.14177   1.17126    9.865
 5190.00    1.13616   1.18502    0.000
 5191.00    1.11332   1.19602    0.000
 5192.00    1.10864   1.20492    0.000
 5193.00    1.14620   1.20969    0.000
 5194.00    1.20095   1.21674    0.000
 5195.00    1.22706   1.22385    0.000
 5196.00    1.21448   1.22812    0.000
 5197.00    1.18531   1.23631    0.000
 5198.00    1.17325   1.24543    0.000
 5199.00    1.18841   1.24965    0.000
 5200.00    1.18399   1.25210    0.000
 5201.00    1.14074   1.25121    0.000
 5202.00    1.14988   1.24520    0.000
 5203.00    1.25774   1.23542    0.000
 5204.00    1.33066   1.22278    0.000
 5205.00    1.27105   1.21017    0.000
 5206.00    1.18575   1.19769    0.000
 5207.00    1.17676   1.18925    0.000
 5208.00    1.19583   1.18760    0.000
 5209.00    1.19251   1.18825    0.000
 5210.00    1.19943   1.19575    0.000
 5211.00    1.21991   1.21020    8.569
 5212.00    1.18993   1.22370    8.760
 5213.00    1.12997   1.23910    8.911
 5214.00    1.16814   1.25578    8.876
 5215.00    1.29905   1.26929    8.729
 5216.00    1.35328   1.28052    8.719
 5217.00    1.29576   1.29005    8.884
 5218.00    1.26499   1.29692    9.012
 5219.00    1.30829   1.29996    9.005
 5220.00    1.34386   1.29999    8.964
 5221.00    1.32018   1.29721    8.987
 5222.00    1.25242   1.29029    9.091
 5223.00    1.18841   1.27977    9.184
 5224.00    1.17611   1.26817    9.150
 5225.00    1.21319   1.25550    9.062
 5226.00    1.25732   1.24448    9.100
 5227.00    1.27030   1.23844    9.311
 5228.00    1.24513   1.23442    9.588
 5229.00    1.23373   1.23689    9.699
 5230.00    1.28440   1.24444    9.516
 5231.00    1.34562   1.25075    9.342
 5232.00    1.34751   1.26327    9.457
 5233.00    1.32350   1.27677    9.616
 5234.00    1.32901   1.28607    9.517
 5235.00    1.33458   1.29916    9.439
 5236.00    1.30624   1.31117    9.660
 5237.00    1.29141   1.32118    9.864
 5238.00    1.32634   1.33287    9.734
 5239.00    1.35630   1.34202    9.579
 5240.00    1.33559   1.34944    9.663
 5241.00    1.30369   1.35525    9.754
 5242.00    1.31602   1.35700    9.636
 5243.00    1.38757   1.35497    9.466
 5244.00    1.47156   1.35076    9.425
 5245.00    1.47257   1.34443    9.534
 5246.00    1.37674   1.33513    9.726
 5247.00    1.28831   1.32461    9.895
 5248.00    1.26865   1.31418    9.991
 5249.00    1.28299   1.30662   10.048
 5250.00    1.30327   1.30058   10.035
 5251.00    1.33531   1.29397    9.864
 5252.00    1.35697   1.29455    9.648
 5253.00    1.32564   1.29922    9.616
 5254.00    1.27162   1.30212    9.721
 5255.00    1.27614   1.30813    9.685
 5256.00    1.33126   1.31403    9.459
 5257.00    1.35701   1.31750    9.232
 5258.00    1.33582   1.31734    9.146
 5259.00    1.30546   1.30979    9.222
 5260.00    1.27515   1.29839    9.313
 5261.00    1.23410   1.28164    9.243
 5262.00    1.19929   1.25774    9.114
 5263.00    1.19624   1.23251    9.129
 5264.00    1.21455   1.20694    9.267
 5265.00    1.22158   1.18101    9.395
 5266.00    1.19358   1.16016    9.504
 5267.00    1.13624   1.14548    9.632
 5268.00    1.10034   1.13707    9.710
 5269.00    1.12530   1.13620    9.683
 5270.00    1.18047   1.14000    9.654
 5271.00    1.22156   1.15068    9.711
 5272.00    1.24764   1.16990    9.770
 5273.00    1.26751   1.18931    9.737
 5274.00    1.27087   1.20850    9.667
 5275.00    1.26113   1.23402    9.631
 5276.00    1.27291   1.25712    9.623
 5277.00    1.31362   1.27457    9.610
 5278.00    1.33720   1.29276    9.573
 5279.00    1.32040   1.30568    9.546
 5280.00    1.29652   1.31398    9.610
 5281.00    1.29621   1.32355    9.746
 5282.00    1.32104   1.33043    9.796
 5283.00    1.36505   1.33650    9.709
 5284.00    1.41859   1.34447    9.609
 5285.00    1.44459   1.35316    9.609
 5286.00    1.40039   1.36507    9.738
 5287.00    1.33869   1.37750    9.909
 5288.00    1.37366   1.38739    9.958
 5289.00    1.48485   1.39671    9.842
 5290.00    1.53948   1.40337    9.684
 5291.00    1.49907   1.40482    9.674
 5292.00    1.42679   1.40121    9.937
 5293.00    1.38030   1.39308   10.254
 5294.00    1.38190   1.38158   10.225
 5295.00    1.41124   1.36916    9.941
 5296.00    1.43787   1.35545    9.743
 5297.00    1.47634   1.34163    9.596
 5298.00    1.52938   1.33202   -2.000
 5299.00    1.49655   1.32683   -2.000
 5300.00    1.31252   1.32715   -2.000
 5301.00    1.13352   1.33202   -2.000
 5302.00    1.13202   1.33971   -2.000
 5303.00    1.24224   1.35247   -2.000
 5304.00    1.32328   1.36758   -2.000
 5305.00    1.35113   1.38139   -2.000
 5306.00    1.36420   1.39402   -2.000
 5307.00    1.39493   1.40539   -2.000
 5308.00    1.45272   1.41435   -2.000
 5309.00    1.51604   1.42021   -2.000
 5310.00    1.54306   1.42376   -2.000
 5311.00    1.49058   1.42426   -2.000
 5312.00    1.38207   1.42195    8.950
 5313.00    1.32298   1.41895    9.021
 5314.00    1.36103   1.41413    9.066
 5315.00    1.43216   1.40740    8.959
 5316.00    1.46904   1.40077    8.783
 5317.00    1.45269   1.39279    8.847
 5318.00    1.40346   1.38461    9.130
 5319.00    1.36631   1.37673    9.209
 5320.00    1.37536   1.36553    9.026
 5321.00    1.43251   1.35380    8.972
 5322.00    1.48363   1.34195    9.118
 5323.00    1.45234   1.32627    9.218
 5324.00    1.34991   1.30868    9.286
 5325.00    1.26119   1.29238    9.553
 5326.00    1.23710   1.27843    9.891
 5327.00    1.27277   1.26712    9.902
 5328.00    1.31968   1.25868    9.672
 5329.00    1.32971   1.25516    9.575
 5330.00    1.32737   1.26113    9.635
 5331.00    1.35766   1.27190    9.681
 5332.00    1.38456   1.28271    9.710
 5333.00    1.35696   1.29744    9.806
 5334.00    1.31943   1.31367    9.935
 5335.00    1.33166   1.32718   10.022
 5336.00    1.35493   1.33570   10.089
 5337.00    1.32968   1.34044   10.208
 5338.00    1.27234   1.34365   10.403
 5339.00    1.24055   1.34388   10.602
 5340.00    1.28365   1.34230   10.609
 5341.00    1.38788   1.33905   10.370
 5342.00    1.45148   1.33715   10.154
 5343.00    1.42541   1.33888   10.138
 5344.00    1.39508   1.33843   10.227
 5345.00    1.40962   1.33927   10.299
 5346.00    1.39628   1.34372   10.366
 5347.00    1.33954   1.34765   10.431
 5348.00    1.34648   1.35374   10.424
 5349.00    1.43782   1.36019   10.340
 5350.00    1.48768   1.36790   10.273
 5351.00    1.43462   1.37986   10.268
 5352.00    1.34711   1.39200   10.289
 5353.00    1.30492   1.40423   10.271
 5354.00    1.34262   1.41670   10.170
 5355.00    1.42398   1.42856   10.001
 5356.00    1.47050   1.43865    9.833
 5357.00    1.46642   1.44400    9.734
 5358.00    1.45830   1.44606    9.742
 5359.00    1.47301   1.44557    9.842
 5360.00    1.50275   1.44035    9.951
 5361.00    1.52124   1.43149    9.921
 5362.00    1.50645   1.42059    9.682
 5363.00    1.47553   1.40705    9.479
 5364.00    1.45884   1.39318    9.566
 5365.00    1.44517   1.37884    9.762
 5366.00    1.41233   1.36289    9.721
 5367.00    1.38485   1.34954    9.525
 5368.00    1.39191   1.33866    9.433
 5369.00    1.40436   1.33017    9.458
 5370.00    1.39330   1.32517    9.528
 5371.00    1.40030   1.32381    9.675
 5372.00    1.44899   1.32684    9.769
 5373.00    1.46063   1.33412    9.278
 5374.00    1.39867   1.34520    8.171
 5375.00    1.38290   1.35633    7.149
 5376.00    1.48498   1.36781    6.554
 5377.00    1.58637   1.37921    6.334
 5378.00    1.58845   1.38709    6.357
 5379.00    1.54506   1.39239    6.454
 5380.00    1.52034   1.39553    6.537
 5381.00    1.50779   1.39602    6.657
 5382.00    1.49726   1.39495    6.747
 5383.00    1.50263   1.39343    6.590
 5384.00    1.50991   1.39017    6.458
 5385.00    1.47307   1.38617    7.068
 5386.00    1.39928   1.38236    8.713
 5387.00    1.35590   1.37642   10.159
 5388.00    1.36784   1.36965   10.131
 5389.00    1.39954   1.36233    9.983
 5390.00    1.41773   1.35294   10.353
 5391.00    1.41127   1.34364   10.579
 5392.00    1.38814   1.33375   10.445
 5393.00    1.36839   1.32294   10.392
 5394.00    1.36941   1.31518   10.445
 5395.00    1.39399   1.30840   10.331
 5396.00    1.41443   1.30189   10.234
 5397.00    1.39745   1.29767   10.491
 5398.00    1.35464   1.29417   10.846
 5399.00    1.32265   1.29262   10.765
 5400.00    1.31638   1.29081   10.442
 5401.00    1.32951   1.28633   10.337
 5402.00    1.34676   1.28272   10.401
 5403.00    1.35473   1.27996   10.391
 5404.00    1.35244   1.27490   10.317
 5405.00    1.34234   1.26869   10.263
 5406.00    1.32076   1.26465   -2.000
 5407.00    1.29793   1.26452   -2.000
 5408.00    1.30950   1.26777   -2.000
 5409.00    1.33856   1.27342   -2.000
 5410.00    1.27849   1.28156   -2.000
 5411.00    1.16422   1.29298   -2.000
 5412.00    1.26878   1.30799   -2.000
 5413.00    1.57667   1.32278   -2.000
 5414.00    1.57314   1.33568   -2.000
 5415.00    1.05841   1.34837   -2.000
 5416.00    0.49598   1.35906   -2.000
 5417.00    0.34271   1.36773   -2.000
 5418.00    0.70104   1.37422   -2.000
 5419.00    1.35016   1.37633   -2.000
 5420.00    1.87891   1.37629   -2.000
 5421.00    2.10503   1.37619   -2.000
 5422.00    2.13717   1.37422   -2.000
 5423.00    2.03526   1.37167   -2.000
 5424.00    1.77347   1.36791   -2.000
 5425.00    1.47410   1.36098   -2.000
 5426.00    1.35123   1.35672   -2.000
 5427.00    1.39246   1.35310   -2.000
 5428.00    1.41623   1.34529   -2.000
 5429.00    1.38337   1.33827   -2.000
 5430.00    1.36890   1.33043    7.305
 5431.00    1.36872   1.32397    7.306
 5432.00    1.33573   1.32194    7.486
 5433.00    1.30507   1.31860    7.662
 5434.00    1.33729   1.31918    7.478
 5435.00    1.40338   1.32501    7.126
 5436.00    1.43865   1.33262    6.951
 5437.00    1.43482   1.34356    6.969
 5438.00    1.41306   1.35507    7.078
 5439.00    1.38015   1.36713    7.246
 5440.00    1.34975   1.37769    7.405
 5441.00    1.36248   1.38441    7.340
 5442.00    1.42100   1.38704    7.048
 5443.00    1.44504   1.38542    6.917
 5444.00    1.40197   1.38206    7.103
 5445.00    1.38886   1.37503    7.216
 5446.00    1.45107   1.36631    6.971
 5447.00    1.48246   1.35853    6.695
 5448.00    1.42452   1.35151    6.795
 5449.00    1.36210   1.34800    7.606
 5450.00    1.35329   1.34484    9.241
 5451.00    1.35738   1.34107   10.655
 5452.00    1.34511   1.33983   10.629
 5453.00    1.33889   1.33929   10.163
 5454.00    1.35424   1.33790   10.020
 5455.00    1.37842   1.33692    9.962
 5456.00    1.38492   1.33549    9.905
 5457.00    1.35458   1.33584   10.063
 5458.00    1.32186   1.33844   10.308
 5459.00    1.34617   1.33917   10.199
 5460.00    1.39697   1.34111    9.816
 5461.00    1.39254   1.34328    9.603
 5462.00    1.36545   1.34402    9.573
 5463.00    1.40994   1.34562    9.478
 5464.00    1.49126   1.34585    9.347
 5465.00    1.50551   1.34660    9.362
 5466.00    1.46078   1.34773    9.498
 5467.00    1.42887   1.34691    9.625
 5468.00    1.41565   1.34643    9.775
 5469.00    1.39390   1.34456   10.022
 5470.00    1.37692   1.34094   10.231
 5471.00    1.38345   1.33619   10.266
 5472.00    1.38527   1.32845   10.324
 5473.00    1.35726   1.32092   10.560
 5474.00    1.33277   1.31356   10.638
 5475.00    1.33620   1.30590   10.323
 5476.00    1.32306   1.30032   10.054
 5477.00    1.27518   1.29453   10.178
 5478.00    1.26892   1.29221   10.499
 5479.00    1.33964   1.29457   10.703
 5480.00    1.39817   1.29755   10.723
 5481.00    1.37684   1.30231   10.675
 5482.00    1.31551   1.30778   10.712
 5483.00    1.27956   1.31455   10.839
 5484.00    1.30444   1.32242   10.871
 5485.00    1.37287   1.32920   10.779
 5486.00    1.42296   1.33466   10.784
 5487.00    1.42792   1.33919   10.926
 5488.00    1.41442   1.34262   10.979
 5489.00    1.39680   1.34497   10.859
 5490.00    1.36456   1.34770   10.717
 5491.00    1.32767   1.34901   10.628
 5492.00    1.31716   1.34975   10.548
 5493.00    1.34150   1.35052   10.459
 5494.00    1.38067   1.35055   10.377
 5495.00    1.40528   1.35137   10.268
 5496.00    1.39489   1.35140   10.103
 5497.00    1.36584   1.35012    9.995
 5498.00    1.35431   1.34847   10.062
 5499.00    1.37097   1.34701   10.160
 5500.00    1.39871   1.34546   10.049
 5501.00    1.40570   1.34248    9.820
 5502.00    1.37356   1.33799    9.690
 5503.00    1.33362   1.33440    9.659
 5504.00    1.32927   1.33196    9.633
 5505.00    1.36029   1.32833    9.609
 5506.00    1.39992   1.32524    9.602
 5507.00    1.42424   1.32195    9.531
 5508.00    1.42361   1.31896    9.376
 5509.00    1.40919   1.31840    9.297
 5510.00    1.39484   1.31654    9.383
 5511.00    1.38078   1.31516    9.468
 5512.00    1.35933   1.31578    9.438
 5513.00    1.32400   1.31637    9.449
 5514.00    1.29364   1.32018    9.512
 5515.00    1.31565   1.32551    9.306
 5516.00    1.38346   1.33137    8.868
 5517.00    1.41333   1.33945    8.723
 5518.00    1.39289   1.34703    9.018
 5519.00    1.41929   1.35475    9.318
 5520.00    1.49745   1.36126    9.274
 5521.00    1.50155   1.36463    9.033
 5522.00    1.41273   1.36609    8.822
 5523.00    1.35502   1.36493    8.744
 5524.00    1.36642   1.36122    8.812
 5525.00    1.36973   1.35673    8.963
 5526.00    1.34489   1.35111    9.053
 5527.00    1.34407   1.34519    8.955
 5528.00    1.38076   1.34061    8.812
 5529.00    1.42067   1.33694    8.891
 5530.00    1.43528   1.33601    9.164
 5531.00    1.41567   1.33684    9.373
 5532.00    1.37290   1.33836    9.430
 5533.00    1.33474   1.34105    9.460
 5534.00    1.33791   1.34392    9.610
 5535.00    1.39380   1.34825    9.929
 5536.00    1.44045   1.35229   10.198
 5537.00    1.41806   1.35650   10.138
 5538.00    1.37970   1.36089    9.866
 5539.00    1.39661   1.36402    9.676
 5540.00    1.42871   1.36806    9.715
 5541.00    1.41122   1.37163    9.931
 5542.00    1.36187   1.37419   10.014
 5543.00    1.33131   1.37680    9.805
 5544.00    1.34320   1.37872    9.667
 5545.00    1.38191   1.38092    9.850
 5546.00    1.39569   1.38374   10.080
 5547.00    1.36829   1.38595   10.032
 5548.00    1.35787   1.38820    9.775
 5549.00    1.40042   1.39062    9.544
 5550.00    1.45438   1.39192    9.506
 5551.00    1.45922   1.39256    9.656
 5552.00    1.38269   1.39222    9.807
 5553.00    1.27560   1.39042    9.887
 5554.00    1.25775   1.38792   10.032
 5555.00    1.34310   1.38491   10.210
 5556.00    1.41324   1.38130   10.147
 5557.00    1.41313   1.37785    9.893
 5558.00    1.39218   1.37388    9.827
 5559.00    1.38278   1.36934   10.069
 5560.00    1.37483   1.36565   10.440
 5561.00    1.36556   1.36112   10.712
 5562.00    1.36613   1.35641   10.750
 5563.00    1.37973   1.35187   10.620
 5564.00    1.39730   1.34680   10.501
 5565.00    1.40192   1.34307   10.458
 5566.00    1.38599   1.33932   10.451
 5567.00    1.38066   1.33635   10.430
 5568.00    1.41786   1.33433   10.394
 5569.00    1.45869   1.33299   10.445
 5570.00    1.44697   1.33362   10.658
 5571.00    1.40498   1.33435   10.860
 5572.00    1.38428   1.33640   10.832
 5573.00    1.38393   1.33909   10.688
 5574.00    1.37938   1.34147   10.627
 5575.00    1.36758   1.34561   10.623
 5576.00    1.35672   1.34940   10.574
 5577.00    1.35088   1.35160   10.475
 5578.00    1.35212   1.35366   10.348
 5579.00    1.36228   1.35417   10.185
 5580.00    1.37115   1.35262   10.046
 5581.00    1.35298   1.34965   10.092
 5582.00    1.30888   1.34344   10.292
 5583.00    1.28561   1.33476   10.291
 5584.00    1.30596   1.32577   10.024
 5585.00    1.33537   1.31482    9.933
 5586.00    1.33767   1.30372   10.129
 5587.00    1.30685   1.29370   10.169
 5588.00    1.26820   1.28424    9.949
 5589.00    1.26435   1.27897    9.915
 5590.00    1.30016   1.27644   10.079
 5591.00    1.33708   1.27644    9.937
 5592.00    1.35418   1.27965    9.572
 5593.00    1.35989   1.28298    9.584
 5594.00    1.35783   1.28784   10.018
 5595.00    1.34348   1.29306   10.334
 5596.00    1.32479   1.29753   10.243
 5597.00    1.31800   1.30155    9.943
 5598.00    1.32395   1.30363    9.623
 5599.00    1.32751   1.30436    9.367
 5600.00    1.30918   1.30645    9.252
 5601.00    1.26694   1.30986    9.283
 5602.00    1.24841   1.31409    9.235
 5603.00    1.29562   1.32059    8.983
 5604.00    1.35262   1.32807    8.994
 5605.00    1.35325   1.33846    9.509
 5606.00    1.35703   1.34956    9.298
 5607.00    1.42800   1.35912    7.787
 5608.00    1.47409   1.36733    6.789
 5609.00    1.40836   1.37229    6.946
 5610.00    1.32904   1.37497    7.532
 5611.00    1.33940   1.37389    7.537
 5612.00    1.37385   1.36985    7.270
 5613.00    1.35616   1.36363    7.321
 5614.00    1.33159   1.35472    7.528
 5615.00    1.34921   1.34577    7.514
 5616.00    1.37848   1.33662    7.199
 5617.00    1.38988   1.33007    6.949
 5618.00    1.40042   1.32651    7.367
 5619.00    1.40971   1.32312    8.669
 5620.00    1.37920   1.32089    9.777
 5621.00    1.32022   1.31969    9.518
 5622.00    1.30890   1.32064    8.956
 5623.00    1.35515   1.32287    8.822
 5624.00    1.38244   1.32450    8.853
 5625.00    1.37340   1.32619    8.787
 5626.00    1.38821   1.32919    8.632
 5627.00    1.43507   1.33447    8.524
 5628.00    1.45797   1.34008    8.626
 5629.00    1.43093   1.34503    9.038
 5630.00    1.37790   1.34958    9.640
 5631.00    1.34887   1.35329    9.592
 5632.00    1.37822   1.35605    8.336
 5633.00    1.41056   1.35675    7.229
 5634.00    1.36545   1.35509    7.162
 5635.00    1.29151   1.35205    7.704
 5636.00    1.28900   1.34802    7.829
 5637.00    1.32989   1.34323    7.531
 5638.00    1.33229   1.33870    7.467
 5639.00    1.31443   1.33501    7.601
 5640.00    1.33159   1.33227    7.568
 5641.00    1.36519   1.33106    7.331
 5642.00    1.36303   1.33033    7.195
 5643.00    1.30475   1.33125    7.672
 5644.00    1.22520   1.33375    9.195
 5645.00    1.21909   1.33646   11.087
 5646.00    1.32670   1.33985   11.396
 5647.00    1.44745   1.34252   10.617
 5648.00    1.48403   1.34509   10.163
 5649.00    1.45371   1.34714   10.116
 5650.00    1.42183   1.34766   10.169
 5651.00    1.43965   1.34683   10.083
 5652.00    1.48390   1.34469    9.923
 5653.00    1.45453   1.34105   10.039
 5654.00    1.34793   1.33556   10.453
 5655.00    1.29802   1.32896   10.632
 5656.00    1.33004   1.32165   10.441
 5657.00    1.31277   1.31495   10.426
 5658.00    1.24306   1.30910   10.627
 5659.00    1.27511   1.30337   10.442
 5660.00    1.40185   1.30032    9.898
 5661.00    1.44122   1.30036    9.621
 5662.00    1.35548   1.30194    9.723
 5663.00    1.27236   1.30448    9.869
 5664.00    1.26289   1.30801    9.852
 5665.00    1.30218   1.31377    9.726
 5666.00    1.32841   1.32064    9.653
 5667.00    1.29948   1.32692    9.742
 5668.00    1.27505   1.33235    9.834
 5669.00    1.33664   1.33855    9.695
 5670.00    1.41676   1.34556    9.490
 5671.00    1.40381   1.35242    9.504
 5672.00    1.35322   1.35870    9.671
 5673.00    1.37034   1.36444    9.782
 5674.00    1.40657   1.36950    9.866
 5675.00    1.38147   1.37335   10.025
 5676.00    1.35838   1.37515   10.136
 5677.00    1.41347   1.37544   10.079
 5678.00    1.48108   1.37439   10.026
 5679.00    1.47150   1.37135   10.142
 5680.00    1.39439   1.36679   10.323
 5681.00    1.31078   1.36096   10.433
 5682.00    1.27715   1.35528   10.532
 5683.00    1.29957   1.34932   10.660
 5684.00    1.31793   1.34433   10.675
 5685.00    1.30735   1.34082   10.528
 5686.00    1.32382   1.33893   10.391
 5687.00    1.37825   1.33834   10.387
 5688.00    1.39144   1.33873   10.463
 5689.00    1.33999   1.34134   10.506
 5690.00    1.29984   1.34533   10.420
 5691.00    1.30835   1.35042   10.239
 5692.00    1.32679   1.35431   10.096
 5693.00    1.33609   1.35776   10.010
 5694.00    1.35505   1.35996    9.883
 5695.00    1.37523   1.36013    9.717
 5696.00    1.36653   1.35920    9.599
 5697.00    1.35735   1.35578    9.499
 5698.00    1.40408   1.35152    9.321
 5699.00    1.45683   1.34511    9.129
 5700.00    1.41603   1.33780    9.073
 5701.00    1.33137   1.33082    9.153
 5702.00    1.32885   1.32276    9.266
 5703.00    1.38511   1.31538    9.354
 5704.00    1.39113   1.30835    9.417
 5705.00    1.33564   1.30149    9.474
 5706.00    1.27664   1.29536    9.550
 5707.00    1.25075   1.28951    9.662
 5708.00    1.26745   1.28532    9.790
 5709.00    1.31945   1.28385    9.832
 5710.00    1.37970   1.28403    9.752
 5711.00    1.40054   1.28740    9.730
 5712.00    1.35939   1.29346    9.936
 5713.00    1.30092   1.30129   10.299
 5714.00    1.28964   1.31226   10.546
 5715.00    1.35758   1.32404   -2.000
 5716.00    1.45530   1.33607   -2.000
 5717.00    1.44407   1.34829   -2.000
 5718.00    1.29276   1.35936   -2.000
 5719.00    1.17355   1.36944   -2.000
 5720.00    1.19818   1.37833   -2.000
 5721.00    1.28613   1.38488   -2.000
 5722.00    1.35114   1.38998   -2.000
 5723.00    1.38861   1.39347   -2.000
 5724.00    1.39234   1.39500   -2.000
 5725.00    1.33471   1.39501   -2.000
 5726.00    1.25346   1.39370   -2.000
 5727.00    1.24530   1.39206   -2.000
 5728.00    1.31607   1.38967   -2.000
 5729.00    1.37542   1.38806   -2.000
 5730.00    1.38919   1.38677   -2.000
 5731.00    1.39530   1.38569   -2.000
 5732.00    1.41332   1.38499   -2.000
 5733.00    1.43233   1.38481   -2.000
 5734.00    1.44339   1.38632   -2.000
 5735.00    1.44883   1.38758    9.542
 5736.00    1.46392   1.38860    9.381
 5737.00    1.49624   1.38906    9.394
 5738.00    1.51018   1.38936    9.552
 5739.00    1.47583   1.38996    9.627
 5740.00    1.45174   1.39001    0.000
 5741.00    1.49524   1.38961    0.000
 5742.00    1.52700   1.38873    0.000
 5743.00    1.46534   1.38786    0.000
 5744.00    1.40216   1.38686    0.000
 5745.00    1.43917   1.38581    0.000
 5746.00    1.50129   1.38421    0.000
 5747.00    1.49165   1.38168    0.000
 5748.00    1.44699   1.37852    0.000
 5749.00    1.43045   1.37502    0.000
 5750.00    1.43612   1.37236    0.000
 5751.00    1.44291   1.36986    0.000
 5752.00    1.45508   1.36716    0.000
 5753.00    1.46895   1.36422    0.000
 5754.00    1.45761   1.36202    0.000
 5755.00    1.41820   1.36106    0.000
 5756.00    1.38903   1.36138    0.000
 5757.00    1.39696   1.36234    0.000
 5758.00    1.43293   1.36303    0.000
 5759.00    1.46529   1.36363    0.000
 5760.00    1.45661   1.36398    0.000
 5761.00    1.40173   1.36472    0.000
 5762.00    1.33612   1.36604    0.000
 5763.00    1.31376   1.36827    0.000
 5764.00    1.37371   1.37113    0.000
 5765.00    1.46871   1.37536    0.000
 5766.00    1.49888   1.37943    0.000
 5767.00    1.44847   1.38308    0.000
 5768.00    1.38492   1.38620    0.000
 5769.00    1.37592   1.38844    0.000
 5770.00    1.43963   1.38987    0.000
 5771.00    1.49075   1.38976    0.000
 5772.00    1.43537   1.38855    0.000
 5773.00    1.34349   1.38558    0.000
 5774.00    1.33493   1.38164    0.000
 5775.00    1.37117   1.37639    0.000
 5776.00    1.36111   1.37008    0.000
 5777.00    1.33398   1.36329    0.000
 5778.00    1.34374   1.35518    0.000
 5779.00    1.34187   1.34608    0.000
 5780.00    1.28642   1.33669    0.000
 5781.00    1.25367   1.32773    0.000
 5782.00    1.29994   1.31949    0.000
 5783.00    1.34554   1.31392    0.000
 5784.00    1.32510   1.31041    0.000
 5785.00    1.29684   1.30930    0.000
 5786.00    1.31608   1.31048    0.000
 5787.00    1.35387   1.31403    0.000
 5788.00    1.37488   1.32066    0.000
 5789.00    1.38303   1.32744    0.000
 5790.00    1.39212   1.33514    0.000
 5791.00    1.40819   1.34262    0.000
 5792.00    1.42810   1.34925    0.000
 5793.00    1.44361   1.35691    0.000
 5794.00    1.45873   1.36353    0.000
 5795.00    1.48705   1.36951    0.000
 5796.00    1.51732   1.37473    0.000
 5797.00    1.51898   1.37878    0.000
 5798.00    1.49689   1.38235    0.000
 5799.00    1.48317   1.38530    0.000
 5800.00    1.46912   1.38867    0.000
 5801.00    1.42430   1.39144    0.000
 5802.00    1.38456   1.39273    0.000
 5803.00    1.40957   1.39311    0.000
 5804.00    1.45395   1.39285    0.000
 5805.00    1.43391   1.39181    0.000
 5806.00    1.39291   1.39100    0.000
 5807.00    1.41634   1.39047    0.000
 5808.00    1.45298   1.38994    0.000
 5809.00    1.41998   1.38958    0.000
 5810.00    1.38144   1.38899    0.000
 5811.00    1.42284   1.38899    0.000
 5812.00    1.47612   1.38921    0.000
 5813.00    1.45136   1.38932    0.000
 5814.00    1.39258   1.38974    0.000
 5815.00    1.37005   1.39019    0.000
 5816.00    1.36879   1.39103    0.000
 5817.00    1.35452   1.39252    0.000
 5818.00    1.33498   1.39482    0.000
 5819.00    1.33923   1.39824    0.000
 5820.00    1.39293   1.40135    0.000
 5821.00    1.47988   1.40441    0.000
 5822.00    1.53305   1.40729    0.000
 5823.00    1.52149   1.40979    0.000
 5824.00    1.48426   1.41206    0.000
 5825.00    1.44802   1.41369    0.000
 5826.00    1.39961   1.41521    0.000
 5827.00    1.35190   1.41587    0.000
 5828.00    1.35231   1.41600    0.000
 5829.00    1.40303   1.41577    0.000
 5830.00    1.45428   1.41528    0.000
 5831.00    1.48522   1.41457    0.000
 5832.00    1.51216   1.41324    0.000
 5833.00    1.53176   1.41204    0.000
 5834.00    1.52379   1.41089    0.000
 5835.00    1.50035   1.40986    0.000
 5836.00    1.49188   1.40906    0.000
 5837.00    1.48889   1.40897    0.000
 5838.00    1.46477   1.40925    0.000
 5839.00    1.44366   1.40925    0.000
 5840.00    1.46364   1.40965    0.000
 5841.00    1.49405   1.41000    0.000
 5842.00    1.48203   1.40986    0.000
 5843.00    1.44053   1.40869    0.000
 5844.00    1.40808   1.40668    0.000
 5845.00    1.38109   1.40346    0.000
 5846.00    1.34756   1.39901    0.000
 5847.00    1.33250   1.39370    0.000
 5848.00    1.35533   1.38764    0.000
 5849.00    1.38645   1.38118    0.000
 5850.00    1.39681   1.37422    0.000
 5851.00    1.40050   1.36689    0.000
 5852.00    1.40628   1.35927    0.000
 5853.00    1.38559   1.35207    0.000
 5854.00    1.33724   1.34506    0.000
 5855.00    1.31861   1.33945    0.000
 5856.00    1.34973   1.33489    0.000
 5857.00    1.37210   1.33145    0.000
 5858.00    1.35016   1.32916    0.000
 5859.00    1.31579   1.32842    0.000
 5860.00    1.31339   1.33028    0.000
 5861.00    1.36317   1.33252    0.000
 5862.00    1.42445   1.33649    0.000
 5863.00    1.41930   1.34039    0.000
 5864.00    1.36520   1.34484    0.000
 5865.00    1.36212   1.34951    0.000
 5866.00    1.40618   1.35401    0.000
 5867.00    1.40016   1.35856    0.000
 5868.00    1.34122   1.36239    0.000
 5869.00    1.31155   1.36663    0.000
 5870.00    1.33258   1.36979    0.000
 5871.00    1.36357   1.37228    0.000
 5872.00    1.37314   1.37373    0.000
 5873.00    1.35582   1.37423    0.000
 5874.00    1.33282   1.37342    0.000
 5875.00    1.32976   1.37169    0.000
 5876.00    1.34239   1.36931    0.000
 5877.00    1.35497   1.36528    0.000
 5878.00    1.37236   1.36034    0.000
 5879.00    1.40048   1.35407    0.000
 5880.00    1.41869   1.34683    0.000
 5881.00    1.40268   1.33762    0.000
 5882.00    1.35251   1.32679    0.000
 5883.00    1.28707   1.31401    0.000
 5884.00    1.23390   1.29812    0.000
 5885.00    1.21040   1.27993    0.000
 5886.00    1.21004   1.25957    0.000
 5887.00    1.21261   1.23719    0.000
 5888.00    1.19621   1.21330    0.000
 5889.00    1.16029   1.18934    0.000
 5890.00    1.13257   1.16729    0.000
 5891.00    1.12473   1.14872    0.000
 5892.00    1.11679   1.13765    0.000
 5893.00    1.10692   1.13247    0.000
 5894.00    1.12449   1.13091    0.000
 5895.00    1.17544   1.13486    0.000
 5896.00    1.22713   1.14317    0.000
 5897.00    1.24436   1.15506    0.000
 5898.00    1.21402   1.17350    0.000
 5899.00    1.17695   1.19507    0.000
 5900.00    1.20029   1.21676    0.000
 5901.00    1.26951   1.23803   12.110
 5902.00    1.30743   1.25828   12.073
 5903.00    1.30201   1.27650   12.115
 5904.00    1.29867   1.29185   12.210
 5905.00    1.30994   1.30559   12.283
 5906.00    1.31607   1.31624   12.260
 5907.00    1.30683   1.32398   12.208
 5908.00    1.28838   1.32949   12.221
 5909.00    1.27993   1.33319   12.223
 5910.00    1.29961   1.33497   12.108
 5911.00    1.34438   1.33530   11.988
 5912.00    1.39223   1.33512   11.989
 5913.00    1.41077   1.33390   11.975
 5914.00    1.38476   1.33265   11.858
 5915.00    1.34314   1.33102   11.933
 5916.00    1.32101   1.33087   12.388
 5917.00    1.31992   1.33118   12.779
 5918.00    1.32841   1.33246   12.674
 5919.00    1.34236   1.33459   12.453
 5920.00    1.35304   1.33666   12.520
 5921.00    1.34115   1.33925   12.753
 5922.00    1.31110   1.34129   12.904
 5923.00    1.30527   1.34316   12.898
 5924.00    1.34288   1.34464   12.747
 5925.00    1.39042   1.34575   12.496
 5926.00    1.40777   1.34594   12.256
 5927.00    1.37951   1.34562   12.172
 5928.00    1.33933   1.34483   12.170
 5929.00    1.35406   1.34346   11.994
 5930.00    1.41723   1.34254   11.726
 5931.00    1.44334   1.34145   11.756
 5932.00    1.40243   1.34148   12.105
 5933.00    1.34144   1.34169   12.359
 5934.00    1.29763   1.34193   12.258
 5935.00    1.27936   1.34237   11.912
 5936.00    1.29019   1.34290   11.551
 5937.00    1.32581   1.34435   11.353
 5938.00    1.35199   1.34544   11.344
 5939.00    1.33293   1.34629   11.451
 5940.00    1.29876   1.34700   11.614
 5941.00    1.30538   1.34721   11.781
 5942.00    1.33784   1.34692   11.888
 5943.00    1.34176   1.34680   11.920
 5944.00    1.30160   1.34669   12.026
 5945.00    1.24356   1.34615   12.332
 5946.00    1.21896   1.34542   12.658
 5947.00    1.25901   1.34425   12.736
 5948.00    1.32620   1.34256   12.633
 5949.00    1.36327   1.34055   12.591
 5950.00    1.35227   1.33856   12.763
 5951.00    1.30984   1.33731   13.105
 5952.00    1.27384   1.33634   13.292
 5953.00    1.27548   1.33550   13.139
 5954.00    1.31650   1.33499   12.957
 5955.00    1.36662   1.33579   12.984
 5956.00    1.37313   1.33727   13.061
 5957.00    1.32681   1.33896   13.036
 5958.00    1.28903   1.34133   12.993
 5959.00    1.30244   1.34468   12.932
 5960.00    1.34620   1.34823   12.677
 5961.00    1.37529   1.35206   12.316
 5962.00    1.35370   1.35560   12.203
 5963.00    1.30471   1.35902   12.336
 5964.00    1.30074   1.36179   12.301
 5965.00    1.34461   1.36430   12.001
 5966.00    1.36253   1.36645   11.764
 5967.00    1.33249   1.36787   11.760
 5968.00    1.30252   1.36953   11.911
 5969.00    1.31560   1.37034   11.996
 5970.00    1.37623   1.37059   11.825
 5971.00    1.42625   1.37001   11.636
 5972.00    1.39401   1.36875   11.821
 5973.00    1.31311   1.36646   12.282
 5974.00    1.27706   1.36345   12.565
 5975.00    1.30120   1.35980   12.583
 5976.00    1.33952   1.35556   12.547
 5977.00    1.35991   1.35133   12.419
 5978.00    1.35020   1.34734   12.156
 5979.00    1.30830   1.34393   12.145
 5980.00    1.25182   1.34071   12.693
 5981.00    1.22885   1.33830   13.315
 5982.00    1.26572   1.33594   13.300
 5983.00    1.31171   1.33395   12.964
 5984.00    1.31523   1.33250   12.856
 5985.00    1.30099   1.33163   12.861
 5986.00    1.30669   1.33206   12.750
 5987.00    1.32415   1.33375   12.648
 5988.00    1.33824   1.33560   12.699
 5989.00    1.35699   1.33803   12.825
 5990.00    1.38005   1.34070   12.883
 5991.00    1.38217   1.34340   12.805
 5992.00    1.35527   1.34557   12.637
 5993.00    1.32693   1.34731   12.509
 5994.00    1.31783   1.34884   12.436
 5995.00    1.32342   1.34940   12.298
 5996.00    1.33812   1.34903   12.141
 5997.00    1.36394   1.34777   12.189
 5998.00    1.39703   1.34588   12.394
 5999.00    1.42371   1.34366   12.406
 6000.00    1.42653   1.34151   12.216
 6001.00    1.39637   1.33911   12.162
 6002.00    1.36104   1.33664   12.225
 6003.00    1.36381   1.33400   12.105
 6004.00    1.38320   1.33115   11.960
 6005.00    1.35939   1.32896   12.215
 6006.00    1.30696   1.32691   12.741
 6007.00    1.29185   1.32465   12.972
 6008.00    1.32803   1.32306   12.862
 6009.00    1.37821   1.32149   12.805
 6010.00    1.39673   1.32099   12.882
 6011.00    1.36251   1.32101   12.951
 6012.00    1.31546   1.32048   12.995
 6013.00    1.30533   1.31983   13.071
 6014.00    1.31547   1.31886   13.179
 6015.00    1.30874   1.31830   13.290
 6016.00    1.29439   1.31771   13.410
 6017.00    1.29713   1.31687   13.511
 6018.00    1.31575   1.31605   13.469
 6019.00    1.33262   1.31607   13.237
 6020.00    1.32877   1.31649   12.979
 6021.00    1.30123   1.31709   12.833
 6022.00    1.27345   1.31906   12.760
 6023.00    1.27137   1.32168   12.703
 6024.00    1.30396   1.32564   12.683
 6025.00    1.35767   1.32988   12.685
 6026.00    1.40023   1.33498   12.605
 6027.00    1.41850   1.34064   12.406
 6028.00    1.43046   1.34586   12.191
 6029.00    1.43739   1.35166   12.134
 6030.00    1.41391   1.35693   12.388
 6031.00    1.37030   1.36183   12.775
 6032.00    1.35719   1.36598   12.777
 6033.00    1.37962   1.36967   12.422
 6034.00    1.38894   1.37268   12.315
 6035.00    1.36671   1.37482   12.631
 6036.00    1.33793   1.37639   13.062
 6037.00    1.32605   1.37738   13.330
 6038.00    1.33475   1.37802   13.386
 6039.00    1.33803   1.37838   13.391
 6040.00    1.30777   1.37869   13.531
 6041.00    1.27741   1.37880   13.688
 6042.00    1.30228   1.37959   13.596
 6043.00    1.35766   1.38019   13.340
 6044.00    1.37826   1.38135   13.194
 6045.00    1.35811   1.38254   13.226
 6046.00    1.33403   1.38344   13.341
 6047.00    1.33435   1.38415   13.418
 6048.00    1.36003   1.38428   13.407
 6049.00    1.37368   1.38403   13.424
 6050.00    1.34849   1.38280   13.525
 6051.00    1.32079   1.38137   13.454
 6052.00    1.32767   1.37914   13.048
 6053.00    1.34335   1.37651   12.594
 6054.00    1.33600   1.37362   12.275
 6055.00    1.31990   1.37063   11.872
 6056.00    1.32151   1.36813   11.323
 6057.00    1.34904   1.36546   10.959
 6058.00    1.39179   1.36356   10.928
 6059.00    1.42497   1.36187   11.010
 6060.00    1.43338   1.36060   11.052
 6061.00    1.42315   1.35952   11.182
 6062.00    1.40687   1.35854   11.481
 6063.00    1.39360   1.35818   11.837
 6064.00    1.38127   1.35803   12.192
 6065.00    1.35861   1.35920   12.633
 6066.00    1.32612   1.36076   13.107
 6067.00    1.30048   1.36375   13.338
 6068.00    1.29909   1.36813   13.211
 6069.00    1.32856   1.37226   12.934
 6070.00    1.36819   1.37639   12.842
 6071.00    1.38405   1.37970   13.191
 6072.00    1.37973   1.38223   13.794
 6073.00    1.38800   1.38335   14.049
 6074.00    1.41825   1.38308   13.699
 6075.00    1.45182   1.38110   13.010
 6076.00    1.45971   1.37790   12.308
 6077.00    1.42375   1.37334   11.794
 6078.00    1.36644   1.36815   11.538
 6079.00    1.33050   1.36239   11.533
 6080.00    1.33735   1.35669   11.709
 6081.00    1.37931   1.35192   11.952
 6082.00    1.42019   1.34738   12.136
 6083.00    1.42685   1.34344   12.189
 6084.00    1.40603   1.34051   12.159
 6085.00    1.38268   1.33865   12.146
 6086.00    1.37105   1.33698   12.210
 6087.00    1.36871   1.33608   12.356
 6088.00    1.35721   1.33572   12.542
 6089.00    1.33418   1.33576   12.722
 6090.00    1.33234   1.33603   12.903
 6091.00    1.35851   1.33623   13.086
 6092.00    1.36079   1.33710   13.224
 6093.00    1.31692   1.33817   13.209
 6094.00    1.27783   1.33919   12.938
 6095.00    1.27825   1.34000   12.663
 6096.00    1.29495   1.34072   12.916
 6097.00    1.30226   1.34031   13.666
 6098.00    1.29828   1.33910   13.996
 6099.00    1.29193   1.33728   13.649
 6100.00    1.29456   1.33515   13.531
 6101.00    1.31186   1.33254   13.849
 6102.00    1.33889   1.32991   13.909
 6103.00    1.35439   1.32748   13.502
 6104.00    1.33456   1.32589   13.095
 6105.00    1.29657   1.32726   12.816
 6106.00    1.28575   1.32912   12.479
 6107.00    1.31156   1.33180   12.128
 6108.00    1.34889   1.33498   11.954
 6109.00    1.37759   1.33837   12.001
 6110.00    1.38844   1.34213   12.203
 6111.00    1.37710   1.34544   12.544
 6112.00    1.34989   1.34758   12.960
 6113.00    1.33386   1.34884   13.096
 6114.00    1.34619   1.34945   12.561
 6115.00    1.34942   1.34853   -2.000
 6116.00    1.30064   1.34660   -2.000
 6117.00    1.22168   1.34312   -2.000
 6118.00    1.16246   1.33914   -2.000
 6119.00    1.14814   1.33493   -2.000
 6120.00    1.17826   1.33038   -2.000
 6121.00    1.23299   1.32581   -2.000
 6122.00    1.28503   1.32240   -2.000
 6123.00    1.31160   1.31946   -2.000
 6124.00    1.30911   1.31842   -2.000
 6125.00    1.30025   1.31907   -2.000
 6126.00    1.30755   1.31949   11.600
 6127.00    1.33473   1.32045   11.916
 6128.00    1.36832   1.32129   12.127
 6129.00    1.38405   1.32167   12.382
 6130.00    1.37208   1.32127   12.770
 6131.00    1.34545   1.31981   13.420
 6132.00    1.31724   1.31705   14.189
 6133.00    1.29203   1.31276   14.522
 6134.00    1.27639   1.30773   14.270
 6135.00    1.27865   1.30223   13.926
 6136.00    1.29311   1.29668   13.706
 6137.00    1.30176   1.29229   13.466
 6138.00    1.29689   1.28914   13.201
 6139.00    1.28590   1.28946   13.060
 6140.00    1.28439   1.29238   13.047
 6141.00    1.30484   1.29651   13.035
 6142.00    1.33563   1.30136   12.947
 6143.00    1.35048   1.30672   12.777
 6144.00    1.33788   1.31315   12.553
 6145.00    1.30422   1.31883   12.316
 6146.00    1.26748   1.32329   12.105
 6147.00    1.24910   1.32632   11.952
 6148.00    1.26268   1.32819   11.866
 6149.00    1.30467   1.32846   11.848
 6150.00    1.34598   1.32784   11.906
 6151.00    1.35767   1.32603   12.098
 6152.00    1.34272   1.32365   12.593
 6153.00    1.32023   1.32003   13.423
 6154.00    1.30392   1.31554   14.085
 6155.00    1.29926   1.30946   14.141
 6156.00    1.30321   1.30198   14.135
 6157.00    1.30934   1.29380   14.509
 6158.00    1.31193   1.28430   14.709
 6159.00    1.30539   1.27410   14.421
 6160.00    1.28493   1.26368   14.129
 6161.00    1.25558   1.25358   14.238
 6162.00    1.23369   1.24396   14.424
 6163.00    1.22246   1.23611   14.337
 6164.00    1.20546   1.23131   14.018
 6165.00    1.18394   1.22877   13.656
 6166.00    1.18545   1.22856   13.409
 6167.00    1.21915   1.22960   13.342
 6168.00    1.26160   1.23244   13.419
 6169.00    1.27897   1.23645   13.471
 6170.00    1.24767   1.24052   13.281
 6171.00    1.19122   1.24570   12.916
 6172.00    1.16650   1.25213   12.648
 6173.00    1.18983   1.25898   12.536
 6174.00    1.23233   1.26503   12.481
 6175.00    1.26413   1.27140   12.528
 6176.00    1.27087   1.27746   12.754
 6177.00    1.26361   1.28312   12.856
 6178.00    1.26275   1.28803   12.402
 6179.00    1.26392   1.29251   11.579
 6180.00    1.25304   1.29608   10.864
 6181.00    1.24179   1.29802   10.492
 6182.00    1.24750   1.29917   10.528
 6183.00    1.25609   1.29892   10.956
 6184.00    1.24918   1.29723   11.693
 6185.00    1.24415   1.29413   12.531
 6186.00    1.25984   1.29021   13.233
 6187.00    1.27438   1.28527   13.827
 6188.00    1.26170   1.28018   14.397
 6189.00    1.23117   1.27572   14.697
 6190.00    1.20623   1.27189   14.578
 6191.00    1.20145   1.26951   14.417
 6192.00    1.21845   1.26778   14.490
 6193.00    1.24571   1.26809   14.567
 6194.00    1.26957   1.27072   14.368
 6195.00    1.28254   1.27377   13.915
 6196.00    1.28586   1.27742   13.479
 6197.00    1.28813   1.28135   13.383
 6198.00    1.29089   1.28538   13.574
 6199.00    1.28496   1.28910   13.565
 6200.00    1.26947   1.29223   13.251
 6201.00    1.25740   1.29517   13.073
 6202.00    1.26156   1.29831   13.128
 6203.00    1.28703   1.30114   13.087
 6204.00    1.32599   1.30329   12.931
 6205.00    1.36027   1.30456   12.990
 6206.00    1.37488   1.30488   13.251
 6207.00    1.36367   1.30414   13.389
 6208.00    1.33282   1.30195   13.478
 6209.00    1.29726   1.29829   13.893
 6210.00    1.27030   1.29320   14.496
 6211.00    1.25624   1.28695   14.709
 6212.00    1.24144   1.27971   14.596
 6213.00    1.21157   1.27237   14.535
 6214.00    1.18457   1.26467   14.606
 6215.00    1.18594   1.25771   14.635
 6216.00    1.20183   1.25207   14.633
 6217.00    1.20583   1.24766   14.669
 6218.00    1.20501   1.24497   14.601
 6219.00    1.21520   1.24345   14.350
 6220.00    1.22545   1.24263   14.218
 6221.00    1.22716   1.24273   14.377
 6222.00    1.24539   1.24366   14.397
 6223.00    1.28744   1.24465   14.011
 6224.00    1.30070   1.24559   13.767
 6225.00    1.25894   1.24562   13.985
 6226.00    1.22366   1.24536   14.121
 6227.00    1.23549   1.24457   13.818
 6228.00    1.24607   1.24313   13.622
 6229.00    1.22077   1.24173   13.843
 6230.00    1.19465   1.24010   14.062
 6231.00    1.19318   1.23883   14.036
 6232.00    1.19652   1.23806   14.134
 6233.00    1.19636   1.23887   14.394
 6234.00    1.21197   1.23954   14.279
 6235.00    1.23244   1.24089   13.923
 6236.00    1.21452   1.24182   14.147
 6237.00    1.16986   1.24189   14.709
 6238.00    1.16403   1.24122   14.709
 6239.00    1.20351   1.23948   14.085
 6240.00    1.23172   1.23738   14.068
 6241.00    1.22756   1.23457   14.709
 6242.00    1.21543   1.23213   14.709
 6243.00    1.21590   1.23004   14.525
 6244.00    1.23319   1.22777   14.488
 6245.00    1.25671   1.22672   14.709
 6246.00    1.27154   1.22617   14.709
 6247.00    1.27720   1.22582   14.706
 6248.00    1.28116   1.22577   14.659
 6249.00    1.28191   1.22550   14.560
 6250.00    1.27321   1.22454   14.131
 6251.00    1.25473   1.22251   13.698
 6252.00    1.23252   1.22002   13.644
 6253.00    1.21691   1.21629   13.812
 6254.00    1.21413   1.21309   13.897
 6255.00    1.21753   1.21005   13.938
 6256.00    1.21332   1.20821   14.115
 6257.00    1.18960   1.20736   14.469
 6258.00    1.15661   1.20795   14.709
 6259.00    1.15649   1.21041   14.709
 6260.00    1.19980   1.21415   14.709
 6261.00    1.22893   1.22008   14.709
 6262.00    1.21713   1.22596   14.662
 6263.00    1.22040   1.23281   14.662
 6264.00    1.26467   1.23935   14.709
 6265.00    1.29450   1.24553   14.675
 6266.00    1.27682   1.25059   14.435
 6267.00    1.24413   1.25533   14.118
 6268.00    1.22934   1.25948   13.944
 6269.00    1.23619   1.26277   14.120
 6270.00    1.24824   1.26539   14.530
 6271.00    1.24397   1.26758   14.698
 6272.00    1.23339   1.26937   14.435
 6273.00    1.25004   1.27079   14.020
 6274.00    1.28742   1.27185   13.713
 6275.00    1.30354   1.27228   13.607
 6276.00    1.28659   1.27247   13.613
 6277.00    1.25686   1.27230   13.538
 6278.00    1.22842   1.27203   13.302
 6279.00    1.20903   1.27174   12.947
 6280.00    1.21847   1.27178    0.000
 6281.00    1.26728   1.27209    0.000
 6282.00    1.31418   1.27312    0.000
 6283.00    1.31063   1.27514    0.000
 6284.00    1.28074   1.27733    0.000
 6285.00    1.27443   1.28038    0.000
 6286.00    1.28677   1.28282    0.000
 6287.00    1.28753   1.28550    0.000
 6288.00    1.27026   1.28738    0.000
 6289.00    1.24557   1.28858    0.000
 6290.00    1.22690   1.28865    0.000
 6291.00    1.22312   1.28758    0.000
 6292.00    1.23350   1.28531    0.000
 6293.00    1.25305   1.28238    0.000
 6294.00    1.27666   1.27861    0.000
 6295.00    1.29448   1.27465    0.000
 6296.00    1.29182   1.27048    0.000
 6297.00    1.27240   1.26629    0.000
 6298.00    1.26582   1.26262    0.000
 6299.00    1.28428   1.25981    0.000
 6300.00    1.30477   1.25811    0.000
 6301.00    1.30506   1.25739    0.000
 6302.00    1.28313   1.25764    0.000
 6303.00    1.26001   1.25893    0.000
 6304.00    1.26651   1.26133    0.000
 6305.00    1.29130   1.26423    0.000
 6306.00    1.28767   1.26727    0.000
 6307.00    1.25931   1.26989    0.000
 6308.00    1.25473   1.27221    0.000
 6309.00    1.26929   1.27329    0.000
 6310.00    1.25511   1.27338    0.000
 6311.00    1.21760   1.27203    0.000
 6312.00    1.20227   1.26978    0.000
 6313.00    1.21189   1.26669    0.000
 6314.00    1.21890   1.26336    0.000
 6315.00    1.22443   1.25994    0.000
 6316.00    1.24272   1.25674    0.000
 6317.00    1.25682   1.25473    0.000
 6318.00    1.24491   1.25384    0.000
 6319.00    1.22857   1.25397    0.000
 6320.00    1.24206   1.25578    0.000
 6321.00    1.28386   1.25897   13.887
 6322.00    1.32841   1.26305   13.816
 6323.00    1.34863   1.26789   14.000
 6324.00    1.33738   1.27281   14.359
 6325.00    1.32251   1.27803   14.423
 6326.00    1.32595   1.28243   13.970
 6327.00    1.33055   1.28631   13.519
 6328.00    1.31848   1.28901   13.479
 6329.00    1.30027   1.29064   13.737
 6330.00    1.29192   1.29136   14.004
 6331.00    1.29741   1.29057   14.047
 6332.00    1.30807   1.28916   13.847
 6333.00    1.30704   1.28690   13.623
 6334.00    1.29157   1.28421   13.486
 6335.00    1.27881   1.28127   13.363
 6336.00    1.27825   1.27808   13.259
 6337.00    1.28172   1.27550   13.316
 6338.00    1.27598   1.27348   13.592
 6339.00    1.25304   1.27242   13.978
 6340.00    1.22638   1.27173   14.257
 6341.00    1.22376   1.27194   14.207
 6342.00    1.24827   1.27256   13.905
 6343.00    1.27759   1.27348   13.633
 6344.00    1.29499   1.27479   13.437
 6345.00    1.29809   1.27613   13.185
 6346.00    1.29829   1.27796   12.854
 6347.00    1.30845   1.27969   12.586
 6348.00    1.31887   1.28123   12.665
 6349.00    1.30958   1.28237   13.306
 6350.00    1.28115   1.28279   14.180
 6351.00    1.25153   1.28220   14.554
 6352.00    1.24119   1.28056   14.305
 6353.00    1.25633   1.27771   13.837
 6354.00    1.27131   1.27370   13.334
 6355.00    1.26123   1.26868   12.877
 6356.00    1.24229   1.26296   12.658
 6357.00    1.24018   1.25713   12.775
 6358.00    1.25227   1.25142   13.049
 6359.00    1.26029   1.24614   13.263
 6360.00    1.24735   1.24194   13.428
 6361.00    1.20889   1.23921   13.550
 6362.00    1.15897   1.23808   13.435
 6363.00    1.11794   1.23876   13.072
 6364.00    1.10200   1.24128   12.799
 6365.00    1.11773   1.24549   12.723
 6366.00    1.15962   1.25105   12.559
 6367.00    1.21471   1.25767   12.329
 6368.00    1.26665   1.26473   12.507
 6369.00    1.30256   1.27210   13.108
 6370.00    1.31570   1.27897   13.362
 6371.00    1.30248   1.28537   12.933
 6372.00    1.26514   1.29082   12.400
 6373.00    1.22638   1.29538   12.051
 6374.00    1.21901   1.29883   11.754
 6375.00    1.23533   1.30116   11.557
 6376.00    1.23767   1.30248   11.666
 6377.00    1.23598   1.30291   12.024
 6378.00    1.27246   1.30270   12.332
 6379.00    1.32729   1.30198   12.503
 6380.00    1.34320   1.30106   12.671
 6381.00    1.33070   1.30021   12.771
 6382.00    1.33838   1.29936   12.668
 6383.00    1.35242   1.29884   12.596
 6384.00    1.33254   1.29837   12.822
 6385.00    1.30304   1.29789   12.984
 6386.00    1.30889   1.29733   12.610
 6387.00    1.33059   1.29649   12.135
 6388.00    1.32761   1.29531   12.078
 6389.00    1.30880   1.29366   12.186
 6390.00    1.30100   1.29157   12.115
 6391.00    1.30401   1.28919   12.207
 6392.00    1.30573   1.28656   12.822
 6393.00    1.30234   1.28399   13.589
 6394.00    1.29712   1.28147   13.898
 6395.00    1.29628   1.27949   13.804
 6396.00    1.29622   1.27829   13.721
 6397.00    1.27906   1.27747   13.918
 6398.00    1.24941   1.27766   14.338
 6399.00    1.24869   1.27788   14.533
 6400.00    1.28633   1.27891   14.339
 6401.00    1.31294   1.27968   14.208
 6402.00    1.30225   1.28138   14.275
 6403.00    1.28260   1.28279   14.109
 6404.00    1.27547   1.28434   13.611
 6405.00    1.27424   1.28552   13.209
 6406.00    1.27785   1.28610   13.088
 6407.00    1.29581   1.28618   13.102
 6408.00    1.31635   1.28571   13.102
 6409.00    1.31029   1.28489   13.046
 6410.00    1.27756   1.28397   12.996
 6411.00    1.24625   1.28302   13.053
 6412.00    1.23104   1.28197   13.187
 6413.00    1.22957   1.28124   13.249
 6414.00    1.24099   1.28051   13.150
 6415.00    1.26330   1.28006   12.963
 6416.00    1.27932   1.27981   13.009
 6417.00    1.27381   1.27983   13.539
 6418.00    1.26797   1.28000   14.099
 6419.00    1.28920   1.28055   13.961
 6420.00    1.31605   1.28148   13.506
 6421.00    1.31595   1.28269   13.500
 6422.00    1.30689   1.28446   14.007
 6423.00    1.32025   1.28639   14.630
 6424.00    1.34690   1.28871   14.709
 6425.00    1.36096   1.29066   14.308
 6426.00    1.35191   1.29242   13.697
 6427.00    1.32063   1.29339   13.482
 6428.00    1.27346   1.29375   13.688
 6429.00    1.23020   1.29354   14.020
 6430.00    1.22531   1.29275   13.945
 6431.00    1.26469   1.29180   13.380
 6432.00    1.30312   1.29058   12.966
 6433.00    1.30656   1.28996   13.056
 6434.00    1.28863   1.28942   13.397
 6435.00    1.28187   1.28985   13.564
 6436.00    1.31143   1.29051   13.298
 6437.00    1.35394   1.29187   12.903
 6438.00    1.34320   1.29343   13.017
 6439.00    1.27928   1.29545   13.609
 6440.00    1.24190   1.29744   13.822
 6441.00    1.26174   1.29963   13.502
 6442.00    1.29597   1.30136   13.461
 6443.00    1.31224   1.30272   13.828
 6444.00    1.31176   1.30319   13.965
 6445.00    1.31207   1.30240   13.734
 6446.00    1.32964   1.30057   13.607
 6447.00    1.35086   1.29757   13.775
 6448.00    1.34810   1.29406   14.077
 6449.00    1.32971   1.28996   14.189
 6450.00    1.32385   1.28625   13.902
 6451.00    1.32685   1.28271   13.542
 6452.00    1.31943   1.28062   13.499
 6453.00    1.30983   1.27913   13.548
 6454.00    1.31461   1.27947   13.308
 6455.00    1.32107   1.28022   13.012
 6456.00    1.31141   1.28180   13.016
 6457.00    1.29927   1.28328   13.166
 6458.00    1.30199   1.28500   13.149
 6459.00    1.30667   1.28625   12.969
 6460.00    1.30439   1.28751   12.798
 6461.00    1.32331   1.28831   12.753
 6462.00    1.37795   1.28883   12.820
 6463.00    1.42808   1.28927   12.831
 6464.00    1.43479   1.28955   12.724
 6465.00    1.40399   1.29032   12.703
 6466.00    1.36476   1.29086   12.904
 6467.00    1.34702   1.29240   13.205
 6468.00    1.35075   1.29329   13.436
 6469.00    1.34125   1.29460   13.531
 6470.00    1.31866   1.29521   13.483
 6471.00    1.33323   1.29593   13.330
 6472.00    1.38506   1.29604   13.216
 6473.00    1.40596   1.29597   13.323
 6474.00    1.37635   1.29566   13.502
 6475.00    1.34637   1.29485   13.321
 6476.00    1.34027   1.29409   12.924
 6477.00    1.33811   1.29266   12.875
 6478.00    1.32687   1.29117   13.118
 6479.00    1.31131   1.28919   13.076
 6480.00    1.29891   1.28732   12.736
 6481.00    1.29449   1.28502   12.558
 6482.00    1.29780   1.28275   12.610
 6483.00    1.30263   1.28028   12.674
 6484.00    1.29681   1.27767   12.749
 6485.00    1.27592   1.27461   12.948
 6486.00    1.26613   1.27114   13.109
 6487.00    1.29089   1.26683   13.023
 6488.00    1.31523   1.26131   12.944
 6489.00    1.29637   1.25438   13.195
 6490.00    1.26228   1.24611   13.587
 6491.00    1.25991   1.23669   13.718
 6492.00    1.28143   1.22658   13.585
 6493.00    1.29578   1.21645   13.417
 6494.00    1.29099   1.20705   13.345
 6495.00    1.26436   1.19945   13.394
 6496.00    1.21194   1.19390   13.513
 6497.00    1.15416   1.19141   13.560
 6498.00    1.14718   1.19170   13.350
 6499.00    1.20200   1.19573   13.005
 6500.00    1.24276   1.20182   13.003
 6501.00    1.22701   1.21059   13.437
 6502.00    1.20590   1.22010   13.677
 6503.00    1.21297   1.23054   13.338
 6504.00    1.21622   1.24073   12.871
 6505.00    1.20381   1.25015   12.639
 6506.00    1.21125   1.25855   12.626
 6507.00    1.24873   1.26534   12.708
 6508.00    1.28314   1.27086   12.756
 6509.00    1.29221   1.27466   12.725
 6510.00    1.28191   1.27729   12.660
 6511.00    1.27321   1.27846   12.587
 6512.00    1.28550   1.27884   12.514
 6513.00    1.30413   1.27834   12.536
 6514.00    1.29557   1.27743   12.750
 6515.00    1.26778   1.27616   12.963
 6516.00    1.25748   1.27491   12.866
 6517.00    1.26912   1.27387   12.669
 6518.00    1.28428   1.27312   12.778
 6519.00    1.30539   1.27292   13.001
 6520.00    1.34228   1.27311   12.909
 6521.00    1.37653   1.27384   12.738
 6522.00    1.38136   1.27466   12.894
 6523.00    1.35935   1.27586   13.093
 6524.00    1.33474   1.27675   12.873
 6525.00    1.33429   1.27765   12.505
 6526.00    1.36103   1.27810   12.413
 6527.00    1.37213   1.27843   12.541
 6528.00    1.33452   1.27842    0.000
 6529.00    1.27860   1.27837    0.000
 6530.00    1.25088   1.27821    0.000
 6531.00    1.26715   1.27825    0.000
 6532.00    1.31063   1.27840    0.000
 6533.00    1.34033   1.27879    0.000
 6534.00    1.33910   1.27931    0.000
 6535.00    1.33700   1.27991    0.000
 6536.00    1.35413   1.28046    0.000
 6537.00    1.37113   1.28080    0.000
 6538.00    1.36244   1.28077    0.000
 6539.00    1.31958   1.28019    0.000
 6540.00    1.27147   1.27890    0.000
 6541.00    1.27188   1.27683    0.000
 6542.00    1.31511   1.27402    0.000
 6543.00    1.33430   1.27049    0.000
 6544.00    1.31512   1.26648    0.000
 6545.00    1.30445   1.26197    0.000
 6546.00    1.31188   1.25732    0.000
 6547.00    1.30709   1.25236    0.000
 6548.00    1.29574   1.24745    0.000
 6549.00    1.30829   1.24215    0.000
 6550.00    1.32654   1.23667    0.000
 6551.00    1.30784   1.23045    0.000
 6552.00    1.26902   1.22350    0.000
 6553.00    1.26008   1.21536    0.000
 6554.00    1.28600   1.20590    0.000
 6555.00    1.31369   1.19481    0.000
 6556.00    1.30698   1.18237    0.000
 6557.00    1.25426   1.16849    0.000
 6558.00    1.19519   1.15399    0.000
 6559.00    1.16771   1.13917    0.000
 6560.00    1.14477   1.12521    0.000
 6561.00    1.10383   1.11299    0.000
 6562.00    1.09984   1.10351    0.000
 6563.00    1.16607   1.09772    0.000
 6564.00    1.22707   1.09582    0.000
 6565.00    1.22080   1.09847    0.000
 6566.00    1.19353   1.10467    0.000
 6567.00    1.19888   1.11443    0.000
 6568.00    1.22650   1.12611    0.000
 6569.00    1.25580   1.13969    0.000
 6570.00    1.28716   1.15313    0.000
 6571.00    1.30537   1.16627    0.000
 6572.00    1.27422   1.17807    0.000
 6573.00    1.21541   1.18883    0.000
 6574.00    1.21381   1.19797    0.000
 6575.00    1.27192   1.20634    0.000
 6576.00    1.29275   1.21339    0.000
 6577.00    1.25336   1.22002    0.000
 6578.00    1.22815   1.22564    0.000
 6579.00    1.24585   1.23100    0.000
 6580.00    1.26863   1.23548    0.000
 6581.00    1.27165   1.23963    0.000
 6582.00    1.26192   1.24294    0.000
 6583.00    1.26454   1.24573    0.000
 6584.00    1.29822   1.24769    0.000
 6585.00    1.33200   1.24895    0.000
 6586.00    1.31982   1.24936    0.000
 6587.00    1.28255   1.24905    0.000
 6588.00    1.26783   1.24788    0.000
 6589.00    1.25857   1.24620    0.000
 6590.00    1.22282   1.24384    0.000
 6591.00    1.20530   1.24142    0.000
 6592.00    1.25682   1.23875    0.000
 6593.00    1.33057   1.23668    0.000
 6594.00    1.35481   1.23491    0.000
 6595.00    1.32849   1.23423    0.000
 6596.00    1.29475   1.23415    0.000
 6597.00    1.29862   1.23515    0.000
 6598.00    1.33919   1.23663    0.000
 6599.00    1.34415   1.23867    0.000
 6600.00    1.28000   1.24067    0.000
 6601.00    1.22217   1.24263    0.000
 6602.00    1.22948   1.24403    0.000
 6603.00    1.26698   1.24501    0.000
 6604.00    1.28395   1.24524    0.000
 6605.00    1.26377   1.24517    0.000
 6606.00    1.22065   1.24460    0.000
 6607.00    1.18882   1.24422    0.000
 6608.00    1.18729   1.24389    0.000
 6609.00    1.20828   1.24419   12.374
 6610.00    1.23655   1.24500   12.089
 6611.00    1.25755   1.24653   12.079
 6612.00    1.25698   1.24871   12.445
 6613.00    1.22874   1.25129   12.630
 6614.00    1.19883   1.25430   12.452
 6615.00    1.20664   1.25715   12.269
 6616.00    1.23706   1.26001   12.238
 6617.00    1.23757   1.26223   12.247
 6618.00    1.20071   1.26401   12.173
 6619.00    1.16213   1.26490   11.977
 6620.00    1.15543   1.26510   11.766
 6621.00    1.19390   1.26447   11.647
 6622.00    1.25635   1.26308   11.514
 6623.00    1.30648   1.26117   11.247
 6624.00    1.32746   1.25860   11.034
 6625.00    1.32415   1.25590   11.063
 6626.00    1.31666   1.25276   11.148
 6627.00    1.30966   1.24976   11.059
 6628.00    1.26214   1.24657   10.961
 6629.00    1.15768   1.24369   10.987
 6630.00    1.07307   1.24089   10.802
 6631.00    1.06880   1.23848   10.230
 6632.00    1.09159   1.23643    9.687
 6633.00    1.08587   1.23483    9.445
 6634.00    1.08296   1.23381    9.341
 6635.00    1.11847   1.23324    9.226
 6636.00    1.17343   1.23326    9.186
 6637.00    1.21752   1.23358    9.230
 6638.00    1.23984   1.23428    9.172
 6639.00    1.25037   1.23505    9.074
 6640.00    1.27220   1.23591    9.333
 6641.00    1.30426   1.23668   10.019
 6642.00    1.31668   1.23737   10.542
 6643.00    1.30914   1.23795   10.479
 6644.00    1.31558   1.23849   10.186
 6645.00    1.32709   1.23899   10.049
 6646.00    1.29771   1.23957   10.177
 6647.00    1.25832   1.24016   10.403
 6648.00    1.29232   1.24087   10.410
 6649.00    1.36068   1.24152   10.271
 6650.00    1.34292   1.24220   10.345
 6651.00    1.26311   1.24266   10.649
 6652.00    1.24326   1.24300   10.886
 6653.00    1.27812   1.24298   10.906
 6654.00    1.27670   1.24263   10.806
 6655.00    1.23642   1.24188   10.801
 6656.00    1.21645   1.24064   11.031
 6657.00    1.23570   1.23906   11.314
 6658.00    1.26830   1.23693   11.378
 6659.00    1.26613   1.23467   11.371
 6660.00    1.21192   1.23200   11.491
 6661.00    1.17554   1.22953   11.414
 6662.00    1.20655   1.22699   10.893
 6663.00    1.21684   1.22502   10.392
 6664.00    1.13145   1.22342   10.124
 6665.00    1.03666   1.22259    9.538
 6666.00    1.02273   1.22242    8.524
 6667.00    1.04717   1.22288    7.780
 6668.00    1.05901   1.22393    7.598
 6669.00    1.09181   1.22517    7.765
 6670.00    1.17430   1.22662    7.986
 6671.00    1.27284   1.22767    8.057
 6672.00    1.34266   1.22848    7.920
 6673.00    1.36301   1.22853    7.687
 6674.00    1.34679   1.22813    7.524
 6675.00    1.33327   1.22704    7.575
 6676.00    1.33628   1.22570    7.882
 6677.00    1.33377   1.22416    8.355
 6678.00    1.32196   1.22280    8.799
 6679.00    1.32167   1.22185    8.984
 6680.00    1.32262   1.22143    8.962
 6681.00    1.28791   1.22178    9.039
 6682.00    1.22736   1.22266    9.289
 6683.00    1.19198   1.22425    9.527
 6684.00    1.19847   1.22606    9.667
 6685.00    1.23065   1.22815    9.748
 6686.00    1.29049   1.23007    9.664
 6687.00    1.37116   1.23178    9.339
 6688.00    1.38189   1.23307    9.142
 6689.00    1.24895   1.23380    9.390
 6690.00    1.11444   1.23404    9.546
 6691.00    1.16798   1.23365    8.899
 6692.00    1.33570   1.23289    8.067
 6693.00    1.42614   1.23164    7.759
 6694.00    1.39657   1.23025    7.939
 6695.00    1.31817   1.22866    8.309
 6696.00    1.28247   1.22715    0.000
 6697.00    1.31718   1.22577    0.000
 6698.00    1.32346   1.22459    0.000
 6699.00    1.23628   1.22373    0.000
 6700.00    1.16052   1.22305    0.000
 6701.00    1.18304   1.22267    0.000
 6702.00    1.22790   1.22237    0.000
 6703.00    1.21977   1.22214    0.000
 6704.00    1.19715   1.22189    0.000
 6705.00    1.21633   1.22143    0.000
 6706.00    1.28508   1.22083    0.000
 6707.00    1.36590   1.21978    0.000
 6708.00    1.39449   1.21847    0.000
 6709.00    1.34979   1.21662    0.000
 6710.00    1.27335   1.21443    0.000
 6711.00    1.20429   1.21178    0.000
 6712.00    1.15819   1.20888    0.000
 6713.00    1.15688   1.20582    0.000
 6714.00    1.21853   1.20280    0.000
 6715.00    1.28954   1.20003    0.000
 6716.00    1.27873   1.19780    0.000
 6717.00    1.21560   1.19614    0.000
 6718.00    1.21511   1.19542    0.000
 6719.00    1.27733   1.19534    0.000
 6720.00    1.30633   1.19633    0.000
 6721.00    1.26316   1.19773    0.000
 6722.00    1.18158   1.19998    0.000
 6723.00    1.12974   1.20228    0.000
 6724.00    1.16423   1.20500    0.000
 6725.00    1.26783   1.20748    0.000
 6726.00    1.37198   1.20997    0.000
 6727.00    1.40812   1.21207    0.000
 6728.00    1.35221   1.21392    0.000
 6729.00    1.26666   1.21536    0.000
 6730.00    1.22584   1.21641    0.000
 6731.00    1.22901   1.21707    0.000
 6732.00    1.24501   1.21727    0.000
 6733.00    1.26432   1.21709    0.000
 6734.00    1.27589   1.21649    0.000
 6735.00    1.24864   1.21554    0.000
 6736.00    1.18310   1.21430    0.000
 6737.00    1.14012   1.21278    0.000
 6738.00    1.15150   1.21113    0.000
 6739.00    1.17133   1.20933    0.000
 6740.00    1.16139   1.20760    0.000
 6741.00    1.13698   1.20578    0.000
 6742.00    1.12608   1.20418    0.000
 6743.00    1.14578   1.20254    0.000
 6744.00    1.20054   1.20119    0.000
 6745.00    1.27585   1.19982    0.000
 6746.00    1.31591   1.19881    0.000
 6747.00    1.25136   1.19788    0.000
 6748.00    1.12358   1.19731    0.000
 6749.00    1.06041   1.19707    0.000
 6750.00    1.07092   1.19722    0.000
 6751.00    1.05895   1.19796    0.000
 6752.00    1.02804   1.19908    0.000
 6753.00    1.06297   1.20092    8.396
 6754.00    1.15702   1.20304    8.540
 6755.00    1.22647   1.20575    8.574
 6756.00    1.22517   1.20852    8.664
 6757.00    1.16801   1.21144    8.938
 6758.00    1.12594   1.21419    9.187
 6759.00    1.15896   1.21654    9.084
 6760.00    1.21807   1.21847    8.784
 6761.00    1.22558   1.21960    8.615
 6762.00    1.20228   1.22020    8.625
 6763.00    1.19984   1.21993    8.725
 6764.00    1.20307   1.21927    8.861
 6765.00    1.19238   1.21800    8.951
 6766.00    1.21352   1.21666    8.833
 6767.00    1.28119   1.21521    8.537
 6768.00    1.29979   1.21406    8.419
 6769.00    1.22392   1.21330    8.643
 6770.00    1.17042   1.21312    8.897
 6771.00    1.21334   1.21356    8.924
 6772.00    1.25632   1.21454    8.963
 6773.00    1.21942   1.21602    9.169
 6774.00    1.14631   1.21774    9.265
 6775.00    1.09826   1.21952    9.048
 6776.00    1.09308   1.22112    8.682
 6777.00    1.11856   1.22221    8.332
 6778.00    1.14747   1.22275    8.024
 6779.00    1.16625   1.22245    7.748
 6780.00    1.18276   1.22152    7.515
 6781.00    1.20903   1.21982    7.408
 6782.00    1.24919   1.21777    7.538
 6783.00    1.28357   1.21536    7.848
 6784.00    1.28017   1.21298    8.100
 6785.00    1.24119   1.21078    8.201
 6786.00    1.19875   1.20890    8.278
 6787.00    1.17078   1.20750    8.434
 6788.00    1.15997   1.20656    8.679
 6789.00    1.17580   1.20608    8.927
 6790.00    1.22107   1.20598    9.054
 6791.00    1.25891   1.20609    9.060
 6792.00    1.24842   1.20654    9.044
 6793.00    1.21251   1.20693    9.061
 6794.00    1.19821   1.20763    9.110
 6795.00    1.20319   1.20815    9.133
 6796.00    1.19938   1.20898    9.069
 6797.00    1.17771   1.20965    8.920
 6798.00    1.15121   1.21057    8.751
 6799.00    1.14862   1.21133    8.644
 6800.00    1.17445   1.21222    8.640
 6801.00    1.17863   1.21287    8.672
 6802.00    1.14256   1.21356    8.610
 6803.00    1.14304   1.21397    8.335
 6804.00    1.23342   1.21423    7.893
 6805.00    1.35788   1.21429    7.509
 6806.00    1.42975   1.21421    7.352
 6807.00    1.39576   1.21391    7.475
 6808.00    1.27285   1.21362    7.797
 6809.00    1.14924   1.21323    8.042
 6810.00    1.08588   1.21292    8.026
 6811.00    1.07528   1.21260    7.879
 6812.00    1.09448   1.21244    7.846
 6813.00    1.12800   1.21247    8.132
 6814.00    1.15657   1.21271    8.659
 6815.00    1.16403   1.21309    8.985
 6816.00    1.17654   1.21366    8.935
 6817.00    1.23924   1.21436    8.833
 6818.00    1.30585   1.21523    8.888
 6819.00    1.27991   1.21622    9.045
 6820.00    1.21096   1.21721    9.046
 6821.00    1.23580   1.21818    8.674
 6822.00    1.32202   1.21898    8.210
 6823.00    1.32766   1.21970    8.034
 6824.00    1.24458   1.22011    8.062
 6825.00    1.16417   1.22032    8.023
 6826.00    1.12546   1.22031    7.956
 6827.00    1.11576   1.22016    8.023
 6828.00    1.11599   1.21982    8.092
 6829.00    1.11495   1.21928    7.981
 6830.00    1.11824   1.21861    7.902
 6831.00    1.13833   1.21775    8.084
 6832.00    1.17969   1.21670    8.326
 6833.00    1.22390   1.21536    8.364
 6834.00    1.22163   1.21364    8.396
 6835.00    1.15587   1.21163    8.645
 6836.00    1.09146   1.20915    8.902
 6837.00    1.08148   1.20656    8.939
 6838.00    1.09666   1.20365    8.938
 6839.00    1.10747   1.20100    8.998
 6840.00    1.13636   1.19851    8.825
 6841.00    1.18239   1.19669    8.409
 6842.00    1.18883   1.19542    8.205
 6843.00    1.14525   1.19494    8.311
 6844.00    1.12212   1.19511    8.294
 6845.00    1.15257   1.19594    7.898
 6846.00    1.19199   1.19717    7.378
 6847.00    1.20107   1.19858    7.068
 6848.00    1.18530   1.19996    7.137
 6849.00    1.20131   1.20103    7.236
 6850.00    1.29071   1.20168    6.826
 6851.00    1.26844   1.20167    6.809
 6852.00    0.88026   1.20104   -1.000
 6853.00    0.42982   1.19992   -1.000
 6854.00    0.52912   1.19840   -1.000
 6855.00    1.04635   1.19662    9.463
 6856.00    1.32924   1.19484    7.575
 6857.00    1.26367   1.19311    7.928
 6858.00    1.17323   1.19161    8.501
 6859.00    1.17798   1.19049    8.485
 6860.00    1.20404   1.18982    8.313
 6861.00    1.21027   1.18956    8.264
 6862.00    1.19924   1.18961    8.336
 6863.00    1.17662   1.18989    8.499
 6864.00    1.15189   1.19028    8.682
 6865.00    1.14532   1.19063    8.731
 6866.00    1.16475   1.19109    8.585
 6867.00    1.18203   1.19138    8.460
 6868.00    1.17351   1.19176    8.522
 6869.00    1.15894   1.19191    8.629
 6870.00    1.15956   1.19226    8.624
 6871.00    1.16212   1.19251    8.605
 6872.00    1.15313   1.19300    8.672
 6873.00    1.14432   1.19356    8.739
 6874.00    1.14809   1.19431    8.710
 6875.00    1.16080   1.19518    8.615
 6876.00    1.17087   1.19606    8.541
 6877.00    1.16711   1.19705    8.568
 6878.00    1.15272   1.19784    8.675
 6879.00    1.14667   1.19867    8.721
 6880.00    1.15716   1.19937    8.642
 6881.00    1.17340   1.20018    8.522
 6882.00    1.18227   1.20104    8.458
 6883.00    1.17579   1.20202    8.505
 6884.00    1.15229   1.20336    8.678
 6885.00    1.11803   1.20475    8.944
 6886.00    1.09044   1.20664    9.171
 6887.00    1.08884   1.20852    9.184
 6888.00    1.10788   1.21076    9.026
 6889.00    1.12615   1.21279    8.880
 6890.00    1.14242   1.21490    8.753
 6891.00    1.16802   1.21668    8.561
 6892.00    1.19458   1.21825    8.371
 6893.00    1.20392   1.21945    8.306
 6894.00    1.19728   1.22039    8.352
 6895.00    1.18661   1.22100    8.427
 6896.00    1.17321   1.22148    8.524
 6897.00    1.15535   1.22173    8.655
 6898.00    1.14264   1.22205    8.752
 6899.00    1.14670   1.22226    8.721
 6900.00    1.16743   1.22270    8.566
 6901.00    1.19241   1.22308    8.386
 6902.00    1.20054   1.22369    8.330
 6903.00    1.18762   1.22413    8.420
 6904.00    1.18409   1.22479    8.445
 6905.00    1.20317   1.22511    8.311
 6906.00    1.20574   1.22551    8.294
 6907.00    1.16945   1.22539    8.551
 6908.00    1.13095   1.22516    8.842
 6909.00    1.11958   1.22439    8.932
 6910.00    1.12068   1.22342    8.923
 6911.00    1.11928   1.22203    8.934
 6912.00    1.12114   1.22058    8.920
 6913.00    1.12837   1.21900    8.862
 6914.00    1.13176   1.21745    8.836
 6915.00    1.13109   1.21623    8.841
 6916.00    1.13797   1.21502    8.788
 6917.00    1.15270   1.21432    8.675
 6918.00    1.16254   1.21366    8.602
 6919.00    1.16457   1.21335    8.587
 6920.00    1.16700   1.21304    8.569
 6921.00    1.17118   1.21274    8.538
 6922.00    1.17080   1.21245    8.541
 6923.00    1.16337   1.21196    8.596
 6924.00    1.15424   1.21162    8.664
 6925.00    1.15834   1.21117    8.633
 6926.00    1.18502   1.21090    8.439
 6927.00    1.21034   1.21068    8.262
 6928.00    1.20784   1.21050    8.279
 6929.00    1.20572   1.21062    8.294
 6930.00    1.23501   1.21066    8.097
 6931.00    1.24499   1.21115    8.032
 6932.00    1.18570   1.21150    8.434
 6933.00    1.12214   1.21219    8.912
 6934.00    1.12996   1.21285    8.850
 6935.00    1.16878   1.21352    8.556
 6936.00    1.17380   1.21413    8.519
 6937.00    1.15600   1.21456    8.651
 6938.00    1.15277   1.21493    8.675
 6939.00    1.17589   1.21495    8.504
 6940.00    1.21178   1.21476    8.252
 6941.00    1.22947   1.21421    8.134
 6942.00    1.21374   1.21336    8.239
 6943.00    1.18295   1.21244    8.453
 6944.00    1.16245   1.21128    8.603
 6945.00    1.16451   1.21033    8.587
 6946.00    1.17246   1.20938    8.529
 6947.00    1.14720   1.20862    8.717
 6948.00    1.09190   1.20787    9.158
 6949.00    1.05938   1.20750    9.439
 6950.00    1.06313   1.20716    9.406
 6951.00    1.06418   1.20725    9.397
 6952.00    1.05202   1.20759    9.506
 6953.00    1.05162   1.20826    9.509
 6954.00    1.05724   1.20926    9.459
 6955.00    1.04185   1.21052    9.598
 6956.00    1.03568   1.21214    9.656
 6957.00    1.09664   1.21379    9.119
 6958.00    1.19480   1.21580   -2.000
 6959.00    1.24789   1.21769   -2.000
 6960.00    1.24741   1.21976   -2.000
 6961.00    1.23571   1.22163   -2.000
 6962.00    1.21972   1.22337   -2.000
 6963.00    1.19203   1.22487   -2.000
 6964.00    1.18574   1.22605   -2.000
 6965.00    1.22858   1.22690   -2.000
 6966.00    1.27327   1.22738   -2.000
 6967.00    1.26763   1.22749   -2.000
 6968.00    1.24498   1.22694   -2.000
 6969.00    1.25291   1.22590   -2.000
 6970.00    1.27139   1.22421   -2.000
 6971.00    1.26567   1.22199   -2.000
 6972.00    1.24047   1.21929   -2.000
 6973.00    1.21178   1.21601   -2.000
 6974.00    1.18128   1.21244   -2.000
 6975.00    1.14824   1.20874   -2.000
 6976.00    1.11890   1.20528   -2.000
 6977.00    1.10110   1.20234   -2.000
 6978.00    1.10081   1.20016   -2.000
 6979.00    1.12357   1.19933   -2.000
 6980.00    1.17217   1.19941   -2.000
 6981.00    1.23095   1.20061   -2.000
 6982.00    1.26827   1.20263   -2.000
 6983.00    1.27912   1.20540   -2.000
 6984.00    1.28933   1.20854   -2.000
 6985.00    1.30289   1.21186   -2.000
 6986.00    1.29843   1.21507   -2.000
 6987.00    1.28269   1.21794   -2.000
 6988.00    1.28592   1.22036   -2.000
 6989.00    1.29934   1.22227   -2.000
 6990.00    1.28684   1.22372   -2.000
 6991.00    1.25834   1.22452   -2.000
 6992.00    1.25629   1.22485   -2.000
 6993.00    1.28641   1.22459   -2.000
 6994.00    1.32122   1.22394   -2.000
 6995.00    1.33659   1.22295   -2.000
 6996.00    1.32070   1.22150   -2.000
 6997.00    1.27697   1.21986   -2.000
 6998.00    1.22581   1.21783   -2.000
 6999.00    1.20431   1.21584   -2.000
 7000.00    1.23346   1.21386   -2.000
 7001.00    1.27911   1.21205   -2.000
 7002.00    1.29187   1.21031   -2.000
 7003.00    1.25753   1.20868   -2.000
 7004.00    1.19332   1.20744   -2.000
 7005.00    1.13551   1.20646   -2.000
 7006.00    1.10912   1.20584   -2.000
 7007.00    1.10539   1.20533   -2.000
 7008.00    1.10771   1.20500   -2.000
 7009.00    1.11316   1.20463   -2.000
 7010.00    1.13173   1.20417   -2.000
 7011.00    1.17821   1.20364   -2.000
 7012.00    1.23283   1.20305   -2.000
 7013.00    1.23530   1.20224   -2.000
 7014.00    1.17539   1.20137   -2.000
 7015.00    1.11817   1.20043   -2.000
 7016.00    1.10069   1.19987   -2.000
 7017.00    1.10083   1.19989   -2.000
 7018.00    1.10724   1.19994   -2.000
 7019.00    1.13447   1.20032   -2.000
 7020.00    1.17496   1.20071   -2.000
 7021.00    1.19598   1.20141   -2.000
 7022.00    1.18294   1.20197   -2.000
 7023.00    1.15020   1.20286   -2.000
 7024.00    1.13230   1.20382   -2.000
 7025.00    1.15642   1.20509   -2.000
 7026.00    1.18723   1.20623   -2.000
 7027.00    1.17189   1.20750   -2.000
 7028.00    1.15366   1.20883   -2.000
 7029.00    1.20062   1.21016   -2.000
 7030.00    1.24330   1.21158   -2.000
 7031.00    1.18137   1.21287   -2.000
 7032.00    1.08762   1.21424   -2.000
 7033.00    1.07723   1.21563   -2.000
 7034.00    1.09448   1.21704   -2.000
 7035.00    1.04719   1.21868   -2.000
 7036.00    0.99298   1.22039   -2.000
 7037.00    1.00519   1.22223   -2.000
 7038.00    1.02051   1.22452   -2.000
 7039.00    0.97734   1.22753   -2.000
 7040.00    0.94525   1.23058   -2.000
 7041.00    0.99684   1.23381   -2.000
 7042.00    1.10093   1.23678   -2.000
 7043.00    1.18728   1.23963   -2.000
 7044.00    1.20494   1.24181   -2.000
 7045.00    1.15669   1.24365   -2.000
 7046.00    1.10401   1.24456   -2.000
 7047.00    1.08470   1.24453   -2.000
 7048.00    1.08050   1.24332   -2.000
 7049.00    1.08717   1.24087   -2.000
 7050.00    1.12545   1.23735   -2.000
 7051.00    1.13843   1.23271   -2.000
 7052.00    1.01579   1.22726   -2.000
 7053.00    0.84351   1.22147   -2.000
 7054.00    0.86629   1.21536   -2.000
 7055.00    1.06607   1.20946   -2.000
 7056.00    1.17815   1.20361   -2.000
 7057.00    1.13087   1.19819   -2.000
 7058.00    1.06512   1.19298   -2.000
 7059.00    1.06263   1.18842   -2.000
 7060.00    1.10553   1.18449   -2.000
 7061.00    1.14302   1.18130   -2.000
 7062.00    1.13921   1.17858   -2.000
 7063.00    1.13171   1.17642   -2.000
 7064.00    1.17571   1.17484   -2.000
 7065.00    1.23573   1.17343   -2.000
 7066.00    1.23877   1.17281   -2.000
 7067.00    1.17667   1.17248   -2.000
 7068.00    1.07961   1.17303   -2.000
 7069.00    0.96534   1.17422   -2.000
 7070.00    0.87483   1.17591   -2.000
 7071.00    0.90790   1.17788   -2.000
 7072.00    1.09151   1.18004   -2.000
 7073.00    1.26567   1.18242   -2.000
 7074.00    1.28675   1.18444   -2.000
 7075.00    1.19867   1.18633   -2.000
 7076.00    1.09328   1.18744   -2.000
 7077.00    0.99918   1.18805   -2.000
 7078.00    0.93673   1.18754   -2.000
 7079.00    0.94824   1.18612   -2.000
 7080.00    1.02331   1.18361   -2.000
 7081.00    1.07702   1.17991   -2.000
 7082.00    1.07468   1.17522   -2.000
 7083.00    1.07134   1.16963   -2.000
 7084.00    1.08858   1.16362   -2.000
 7085.00    1.08084   1.15764   -2.000
 7086.00    1.03150   1.15149   -2.000
 7087.00    0.97577   1.14550   -2.000
 7088.00    0.94146   1.14003   -2.000
 7089.00    0.93323   1.13526   -2.000
 7090.00    0.95010   1.13117   -2.000
 7091.00    0.98685   1.12833   -2.000
 7092.00    1.02318   1.12595   -2.000
 7093.00    1.03787   1.12483   -2.000
 7094.00    1.04677   1.12439   -2.000
 7095.00    1.08038   1.12460   -2.000
 7096.00    1.12156   1.12588   -2.000
 7097.00    1.12808   1.12698   -2.000
 7098.00    1.09467   1.12953   -2.000
 7099.00    1.04293   1.13107   -2.000
 7100.00    0.98855   1.13369   -2.000
 7101.00    0.94738   1.13522   -2.000
 7102.00    0.94789   1.13741   -2.000
 7103.00    0.98742   1.13881   -2.000
 7104.00    0.98599   1.14038   -2.000
 7105.00    0.88710   1.14116   -2.000
 7106.00    0.76137   1.14170   -2.000
 7107.00    0.71083   1.14197   -2.000
 7108.00    0.76916   1.14207   -2.000
 7109.00    0.90057   1.14197   -2.000
 7110.00    1.01701   1.14160   -2.000
 7111.00    1.06151   1.14158   -2.000
 7112.00    1.05754   1.14155   -2.000
 7113.00    1.04153   1.14185   -2.000
 7114.00    1.02143   1.14191   -2.000
 7115.00    0.99988   1.14228   -2.000
 7116.00    0.98605   1.14245   -2.000
 7117.00    0.98462   1.14253   -2.000
 7118.00    0.99125   1.14248   -2.000
 7119.00    0.99806   1.14197   -2.000
 7120.00    0.99676   1.14139   -2.000
 7121.00    0.98091   1.14004   -2.000
 7122.00    0.95145   1.13874   -2.000
 7123.00    0.93114   1.13708   -2.000
 7124.00    0.95173   1.13492   -2.000
 7125.00    1.00584   1.13258   -2.000
 7126.00    1.05369   1.13019   -2.000
 7127.00    1.07414   1.12815   -2.000
 7128.00    1.06758   1.12604   -2.000
 7129.00    1.03377   1.12436   -2.000
 7130.00    0.96816   1.12290   -2.000
 7131.00    0.86571   1.12264   -2.000
 7132.00    0.74745   1.12267   -2.000
 7133.00    0.69874   1.12353   -2.000
 7134.00    0.78936   1.12473   -2.000
 7135.00    0.95336   1.12620   -2.000
 7136.00    1.07508   1.12821   -2.000
 7137.00    1.12004   1.12997   -2.000
 7138.00    1.10914   1.13177   -2.000
 7139.00    1.07030   1.13331   -2.000
 7140.00    1.03218   1.13489   -2.000
 7141.00    1.02080   1.13591   -2.000
 7142.00    1.03872   1.13652   -2.000
 7143.00    1.05242   1.13700   -2.000
 7144.00    1.03547   1.13699   -2.000
 7145.00    0.99918   1.13703   -2.000
 7146.00    0.96562   1.13691   -2.000
 7147.00    0.94659   1.13658   -2.000
 7148.00    0.93672   1.13697   -2.000
 7149.00    0.91739   1.13776   -2.000
 7150.00    0.89512   1.13880   -2.000
 7151.00    0.90808   1.14024   -2.000
 7152.00    0.96542   1.14201   -2.000
 7153.00    1.03061   1.14373   -2.000
 7154.00    1.06818   1.14534   -2.000
 7155.00    1.06101   1.14682   -2.000
 7156.00    1.00256   1.14838   -2.000
 7157.00    0.89990   1.14905   -2.000
 7158.00    0.79099   1.14917   -2.000
 7159.00    0.73374   1.14886   -2.000
 7160.00    0.76323   1.14791   -2.000
 7161.00    0.87372   1.14718   -2.000
 7162.00    1.00604   1.14532   -2.000
 7163.00    1.08317   1.14391   -2.000
 7164.00    1.08663   1.14207   -2.000
 7165.00    1.04789   1.14166   -2.000
 7166.00    1.00425   1.14132   -2.000
 7167.00    0.98115   1.14174   -2.000
 7168.00    0.97815   1.14229   -2.000
 7169.00    0.98331   1.14324   -2.000
 7170.00    0.99508   1.14461   -2.000
 7171.00    1.01344   1.14593   -2.000
 7172.00    1.02631   1.14730   -2.000
 7173.00    1.01913   1.14803   -2.000
 7174.00    0.98711   1.14850   -2.000
 7175.00    0.93958   1.14818   -2.000
 7176.00    0.89995   1.14771   -2.000
 7177.00    0.88080   1.14686   -2.000
 7178.00    0.86859   1.14540   -2.000
 7179.00    0.86396   1.14330   -2.000
 7180.00    0.89976   1.14106   -2.000
 7181.00    0.96377   1.13893   -2.000
 7182.00    0.97426   1.13715   -2.000
 7183.00    0.92248   1.13522   -2.000
 7184.00    0.91471   1.13306   -2.000
 7185.00    0.98393   1.13122   -2.000
 7186.00    1.03565   1.12902   -2.000
 7187.00    1.01737   1.12752   -2.000
 7188.00    0.96807   1.12642   -2.000
 7189.00    0.92409   1.12571   -2.000
 7190.00    0.89119   1.12573   -2.000
 7191.00    0.87328   1.12563   -2.000
 7192.00    0.87567   1.12606   -2.000
 7193.00    0.88679   1.12680   -2.000
 7194.00    0.88619   1.12815   -2.000
 7195.00    0.87672   1.12948   -2.000
 7196.00    0.87815   1.13059   -2.000
 7197.00    0.89583   1.13205   -2.000
 7198.00    0.91613   1.13341   -2.000
 7199.00    0.91253   1.13449   -2.000
 7200.00    0.87508   1.13526   -2.000
 7201.00    0.85354   1.13553   -2.000
 7202.00    0.89892   1.13589   -2.000
 7203.00    0.97198   1.13606   -2.000
 7204.00    1.00578   1.13574   -2.000
 7205.00    1.00029   1.13520   -2.000
 7206.00    0.98545   1.13397   -2.000
 7207.00    0.96801   1.13368   -2.000
 7208.00    0.95279   1.13357   -2.000
 7209.00    0.96492   1.13385   -2.000
 7210.00    1.00645   1.13474   -2.000
 7211.00    1.02539   1.13546   -2.000
 7212.00    0.98855   1.13661   -2.000
 7213.00    0.93068   1.13780   -2.000
 7214.00    0.89131   1.13951   -2.000
 7215.00    0.87366   1.14129   -2.000
 7216.00    0.87172   1.14331   -2.000
 7217.00    0.88658   1.14552   -2.000
 7218.00    0.91962   1.14724   -2.000
