###################################################################
## OUTPUT of StarlightChains_v04.for    [Cid@UFSC - 01/Apr/2007] ##
###################################################################

## Some input info
2009fl.txt                               [arq_obs]
Base.CB07.vall.4m                        [arq_base]
Masks.EmLines.NEW.gm                     [arq_masks]
StCv04.C11.config                        [arq_config]
   66                                    [N_base]
    0                                    [N_YAV_components = # of components with extra extinction!]
    0                                    [i_FitPowerLaw (1/0 = Yes/No)]
-9.99                                    [alpha_PowerLaw]
CCM                                      [red_law_option]
 1.458241                                [q_norm = A(l_norm)/A(V)]

## (Re)Sampling Parameters
 3741.00                                 [l_ini (A)]
 7218.00                                 [l_fin (A)]
    1.00                                 [dl    (A)]     (OBS: dl_cushion =    50.00 A)

## Normalization info
 4020.00                                 [l_norm (A) - for base]
 4010.00                                 [llow_norm (A) - window for f_obs]
 4060.00                                 [lupp_norm (A) - window for f_obs]
1.948062E-17                             [fobs_norm (in input units)]

## S/N
 3691.00                                 [llow_SN (A) - window for S/N]
 7268.00                                 [lupp_SN (A) - window for S/N]
   4.877                                 [S/N in S/N window]
   4.122                                 [S/N in norm. window]
  11.932                                 [S/N_err in S/N window]
  10.085                                 [S/N_err in norm. window]
  1.0000                                 [fscale_chi2]

## etc...
    -2007356                             [idum_orig]
  2322                                   [NOl_eff]
  2320                                   [Nl_eff]
     2    NSIGMA                         [Ntot_cliped & clip_method]
   821660                                [Nglobal_steps]
   7                                     [N_chains]
  14                                     [NEX0s_base = N_base in EX0s-fits]
 0   0   1       18   2.0   1.471E+01    [Clip-Bug, RC-Crash & Burn-In warning-flags, n_censored_weights, wei_nsig_threshold & wei_limit]
    11     11.095     10.592      0.503  [idt_all, wdt_TotTime, wdt_UsrTime & wdt_SysTime (sec)]

## Synthesis Results - Best model ##

 4.42491E-01                             [chi2/Nl_eff]
     5.47473                             [adev (%)]

   104.74580                             [sum-of-x (%)]
 1.49096E-17                             [Flux_tot (units of input spectrum!)]
 7.76393E-13                             [Mini_tot (???)]
 3.99522E-13                             [Mcor_tot (???)]

  48.09                                  [v0_min  (km/s)]
 226.22                                  [vd_min  (km/s)]
-0.2336                                  [AV_min  (mag)]
 0.0000                                  [YAV_min (mag)]

# j     x_j(%)      Mini_j(%)     Mcor_j(%)     age_j(yr)     Z_j      (L/M)_j    YAV?  Mstars   component_j        a/Fe...       SSP_chi2r SSP_adev(%)   SSP_AV   SSP_x(%)
  1      0.0000     0.0000E+00    0.0000E+00    1.000000E+06  0.00400  1.094E-02    0   1.0000   age020_m42            0.0000     1.6424E+00    12.0908   3.5994    89.9527
  2      0.0000     0.0000E+00    0.0000E+00    3.160000E+06  0.00400  4.007E-02    0   0.9999   age045_m42            0.0000     1.4337E+00    10.8189   2.8868    95.4966
  3      0.0000     0.0000E+00    0.0000E+00    5.010000E+06  0.00400  2.539E-02    0   0.9488   age055_m42            0.0000     1.5310E+00    11.3757   3.2011    93.4385
  4      0.0000     0.0000E+00    0.0000E+00    6.610000E+06  0.00400  2.620E-02    0   0.9220   age061_m42            0.0000     1.4480E+00    10.8265   2.8137    95.7072
  5      0.0000     0.0000E+00    0.0000E+00    1.000000E+07  0.00400  1.322E-02    0   0.8862   age070_m42            0.0000     1.6630E+00    11.8635   2.5173    98.2217
  6      0.0000     0.0000E+00    0.0000E+00    1.445000E+07  0.00400  7.883E-03    0   0.8571   age078_m42            0.0000     1.7024E+00    12.1045   2.8434    95.8324
  7      0.0000     0.0000E+00    0.0000E+00    2.512000E+07  0.00400  5.251E-03    0   0.8174   age090_m42            0.0000     1.7123E+00    12.0383   2.3843    98.8362
  8      0.0000     0.0000E+00    0.0000E+00    4.000000E+07  0.00400  3.649E-03    0   0.7851   age104_m42            0.0000     1.6243E+00    11.6456   2.1582    99.6177
  9      0.0000     0.0000E+00    0.0000E+00    5.500000E+07  0.00400  3.098E-03    0   0.7629   age110_m42            0.0000     1.5062E+00    10.9869   2.3222    99.2581
 10      0.0000     0.0000E+00    0.0000E+00    1.015200E+08  0.00400  2.228E-03    0   0.7207   age116_m42            0.0000     1.4328E+00    10.5563   2.3488    99.2257
 11      0.0000     0.0000E+00    0.0000E+00    2.861200E+08  0.00400  1.093E-03    0   0.6648   age125_m42            0.0000     1.4510E+00    10.6231   1.7827   102.2413
 12      0.0000     0.0000E+00    0.0000E+00    5.088000E+08  0.00400  6.597E-04    0   0.6365   age130_m42            0.0000     1.2676E+00     9.8134   1.7777   102.9276
 13      7.2856     6.2650E-01    7.0590E-01    1.434000E+09  0.00400  2.132E-04    0   0.5798   age139_m42            0.0000     9.1160E-01     8.3503   0.7957   105.4807
 14      0.0000     0.0000E+00    0.0000E+00    4.250000E+09  0.00400  5.895E-05    0   0.5377   age158_m42            0.0000     6.6416E-01     7.2075   0.3492   101.9762
 15      0.0000     0.0000E+00    0.0000E+00    7.500000E+09  0.00400  3.510E-05    0   0.5212   age171_m42            0.0000     5.8353E-01     6.6984   0.1625   101.4465
 16      0.0000     0.0000E+00    0.0000E+00    1.300000E+10  0.00400  2.005E-05    0   0.5034   age193_m42            0.0000     5.3111E-01     6.3658  -0.0012   101.0545
 17      5.9891     7.2001E+00    6.9499E+00    1.800000E+10  0.00400  1.525E-05    0   0.4967   age213_m42            0.0000     5.4133E-01     6.4399  -0.0259   100.6429
 18      0.0000     0.0000E+00    0.0000E+00    1.000000E+06  0.00800  1.238E-02    0   1.0000   age020_m52            0.0000     1.6438E+00    12.0972   3.5971    90.0745
 19      0.0000     0.0000E+00    0.0000E+00    3.160000E+06  0.00800  3.074E-02    0   0.9966   age045_m52            0.0000     1.6251E+00    11.9630   3.5204    90.8608
 20      0.0000     0.0000E+00    0.0000E+00    5.010000E+06  0.00800  2.668E-02    0   0.9443   age055_m52            0.0000     1.5606E+00    11.5602   3.2801    92.7296
 21      0.0000     0.0000E+00    0.0000E+00    6.610000E+06  0.00800  2.136E-02    0   0.9177   age061_m52            0.0000     1.4669E+00    11.4443   2.0038    99.9547
 22      0.0000     0.0000E+00    0.0000E+00    1.000000E+07  0.00800  1.215E-02    0   0.8827   age070_m52            0.0000     1.7718E+00    12.3940   2.6932    98.1805
 23      0.0000     0.0000E+00    0.0000E+00    1.445000E+07  0.00800  8.717E-03    0   0.8552   age078_m52            0.0000     1.6739E+00    11.9752   2.8087    97.1407
 24      0.0000     0.0000E+00    0.0000E+00    2.512000E+07  0.00800  5.592E-03    0   0.8162   age090_m52            0.0000     1.7036E+00    11.9821   2.4501    99.9615
 25      0.0000     0.0000E+00    0.0000E+00    4.000000E+07  0.00800  3.896E-03    0   0.7841   age104_m52            0.0000     1.6122E+00    11.5170   2.3688   100.5230
 26      0.0000     0.0000E+00    0.0000E+00    1.015200E+08  0.00800  2.148E-03    0   0.7226   age116_m52            0.0000     1.4537E+00    10.7517   2.3149   100.0630
 27      0.0000     0.0000E+00    0.0000E+00    2.861200E+08  0.00800  9.925E-04    0   0.6683   age125_m52            0.0000     1.2639E+00     9.7953   1.8417   103.8704
 28      4.6309     2.7030E-01    3.2241E-01    9.047900E+08  0.00800  3.141E-04    0   0.6138   age135_m52            0.0000     8.6359E-01     7.9364   1.0442   108.3888
 29      0.0000     0.0000E+00    0.0000E+00    1.434000E+09  0.00800  1.719E-04    0   0.5853   age139_m52            0.0000     7.3581E-01     7.4281   0.4584   106.6844
 30      0.0000     0.0000E+00    0.0000E+00    2.500000E+09  0.00800  7.872E-05    0   0.5600   age150_m52            0.0000     5.5441E-01     6.4268   0.1863   104.1784
 31      0.0000     0.0000E+00    0.0000E+00    4.250000E+09  0.00800  4.336E-05    0   0.5426   age158_m52            0.0000     5.4926E-01     6.4072   0.1691   103.3035
 32      0.0047     2.7382E-03    2.8303E-03    6.250000E+09  0.00800  3.159E-05    0   0.5319   age166_m52            0.0000     4.7900E-01     5.8720  -0.0325   103.4741
 33      0.0000     0.0000E+00    0.0000E+00    1.300000E+10  0.00800  1.361E-05    0   0.5073   age193_m52            0.0000     4.4072E-01     5.4592  -0.5018   103.0821
 34     30.1341     5.5884E+01    5.4191E+01    1.800000E+10  0.00800  9.886E-06    0   0.4990   age213_m52            0.0000     4.5063E-01     5.4113  -0.6073   102.6599
 35      0.0000     0.0000E+00    0.0000E+00    1.000000E+06  0.02000  1.544E-02    0   1.0000   age020_m62            0.0000     1.6521E+00    12.1339   3.5921    90.3311
 36      0.0000     0.0000E+00    0.0000E+00    3.160000E+06  0.02000  3.762E-02    0   0.9858   age045_m62            0.0000     1.6503E+00    12.0700   3.5314    91.1453
 37      0.0000     0.0000E+00    0.0000E+00    5.010000E+06  0.02000  3.296E-02    0   0.9342   age055_m62            0.0000     1.4738E+00    11.0058   3.1639    94.4937
 38      0.0000     0.0000E+00    0.0000E+00    8.710000E+06  0.02000  1.154E-02    0   0.8861   age067_m62            0.0000     2.6596E+00    15.7760   2.1130   102.1275
 39      0.0000     0.0000E+00    0.0000E+00    1.445000E+07  0.02000  7.663E-03    0   0.8472   age078_m62            0.0000     1.9399E+00    13.1751   2.3304   100.8700
 40      0.0000     0.0000E+00    0.0000E+00    2.512000E+07  0.02000  4.532E-03    0   0.8099   age090_m62            0.0000     2.0118E+00    13.3135   2.3259   100.4705
 41      0.0000     0.0000E+00    0.0000E+00    5.500000E+07  0.02000  2.733E-03    0   0.7595   age110_m62            0.0000     1.5997E+00    11.5203   2.3488    99.9375
 42      0.0000     0.0000E+00    0.0000E+00    1.609000E+08  0.02000  1.369E-03    0   0.6985   age120_m62            0.0000     1.4115E+00    10.4432   2.2003   102.1892
 43      0.0000     0.0000E+00    0.0000E+00    2.861200E+08  0.02000  9.013E-04    0   0.6714   age125_m62            0.0000     1.2912E+00     9.8517   1.9527   104.9930
 44      0.0000     0.0000E+00    0.0000E+00    5.088000E+08  0.02000  5.028E-04    0   0.6449   age130_m62            0.0000     1.0209E+00     8.5946   1.5823   107.6477
 45      0.0000     0.0000E+00    0.0000E+00    9.047900E+08  0.02000  2.428E-04    0   0.6179   age135_m62            0.0000     7.3017E-01     7.2829   0.9903   107.5537
 46      0.0000     0.0000E+00    0.0000E+00    1.434000E+09  0.02000  1.263E-04    0   0.5908   age139_m62            0.0000     6.1268E-01     6.6931   0.5389   106.4609
 47      0.0000     0.0000E+00    0.0000E+00    2.500000E+09  0.02000  5.985E-05    0   0.5673   age150_m62            0.0000     5.1033E-01     6.0534   0.1695   105.4415
 48     30.8161     1.7272E+01    1.8353E+01    4.250000E+09  0.02000  3.271E-05    0   0.5468   age158_m62            0.0000     4.5370E-01     5.5150  -0.1364   104.8636
 49      7.5472     1.0174E+01    1.0216E+01    1.000000E+10  0.02000  1.360E-05    0   0.5167   age181_m62            0.0000     5.0308E-01     5.5625  -0.4826   104.6699
 50      0.0000     0.0000E+00    0.0000E+00    1.800000E+10  0.02000  7.124E-06    0   0.5013   age213_m62            0.0000     6.0704E-01     5.9331  -0.6881   103.9056
 51      0.0000     0.0000E+00    0.0000E+00    1.000000E+06  0.05000  2.592E-02    0   0.9998   age020_m72            0.0000     1.6863E+00    12.2982   3.5816    90.4185
 52      0.0000     0.0000E+00    0.0000E+00    3.160000E+06  0.05000  4.845E-02    0   0.9577   age045_m72            0.0000     1.5767E+00    11.6000   3.4199    92.1291
 53      0.0000     0.0000E+00    0.0000E+00    5.010000E+06  0.05000  3.072E-02    0   0.9147   age055_m72            0.0000     1.8107E+00    12.6778   2.9334    96.7018
 54      0.0000     0.0000E+00    0.0000E+00    6.610000E+06  0.05000  1.455E-02    0   0.8877   age061_m72            0.0000     3.5844E+00    18.1178   2.1788   103.1148
 55      0.0000     0.0000E+00    0.0000E+00    1.000000E+07  0.05000  9.074E-03    0   0.8524   age070_m72            0.0000     1.9304E+00    12.9519   3.1379    96.0631
 56      0.0000     0.0000E+00    0.0000E+00    2.512000E+07  0.05000  4.250E-03    0   0.7902   age090_m72            0.0000     1.8388E+00    12.3983   2.8293    97.8032
 57      0.0000     0.0000E+00    0.0000E+00    4.000000E+07  0.05000  3.087E-03    0   0.7618   age104_m72            0.0000     1.8799E+00    12.4214   2.5995    99.4530
 58      0.0000     0.0000E+00    0.0000E+00    1.015200E+08  0.05000  1.700E-03    0   0.7096   age116_m72            0.0000     1.5365E+00    10.9541   2.3428   101.7836
 59      0.0000     0.0000E+00    0.0000E+00    2.861200E+08  0.05000  7.384E-04    0   0.6633   age125_m72            0.0000     1.1572E+00     9.2340   1.8248   106.3460
 60      0.0000     0.0000E+00    0.0000E+00    5.088000E+08  0.05000  3.819E-04    0   0.6372   age130_m72            0.0000     8.4950E-01     7.8461   1.3296   108.3644
 61      0.0000     0.0000E+00    0.0000E+00    9.047900E+08  0.05000  1.676E-04    0   0.6110   age135_m72            0.0000     5.9345E-01     6.4431   0.6298   107.0564
 62      0.0000     0.0000E+00    0.0000E+00    1.434000E+09  0.05000  8.837E-05    0   0.5874   age139_m72            0.0000     5.0792E-01     5.9705   0.1704   106.9511
 63     17.5947     7.6205E+00    8.2900E+00    2.500000E+09  0.05000  4.233E-05    0   0.5598   age150_m72            0.0000     4.6828E-01     5.5745  -0.1353   105.7797
 64      0.7434     9.4978E-01    9.6881E-01    6.250000E+09  0.05000  1.435E-05    0   0.5249   age166_m72            0.0000     5.4164E-01     5.7246  -0.5777   104.2506
 65      0.0000     0.0000E+00    0.0000E+00    1.300000E+10  0.05000  6.513E-06    0   0.5036   age193_m72            0.0000     7.0418E-01     6.2846  -0.8514   105.2943
 66      0.0000     0.0000E+00    0.0000E+00    1.800000E+10  0.05000  4.527E-06    0   0.4945   age213_m72            0.0000     8.4849E-01     6.8204  -1.0000   104.7334


## Synthesis Results - Average & Chains ##

# j      x_j: min, <> & last-chain-values for 1 ...  7 chains
  1      0.0000      0.0175      0.0000      0.0000      0.0168      0.0000      0.0000      0.0000      0.0000
  2      0.0000      0.0380      0.0000      0.0000      0.0000      0.0000      0.0000      0.0029      0.0000
  3      0.0000      0.0125      0.0000      0.0000      0.0000      0.0000      0.0000      0.1656      0.0000
  4      0.0000      0.0192      0.0000      0.0000      0.0000      0.0000      0.0000      0.0000      0.0000
  5      0.0000      0.0114      0.0000      0.0000      0.0000      0.0000      0.0000      0.0000      0.0000
  6      0.0000      0.0288      0.0000      0.0000      0.0000      0.0000      0.0000      0.0000      0.0000
  7      0.0000      0.0400      0.0000      0.0000      0.0000      0.0000      0.0000      0.0000      0.0000
  8      0.0000      0.0240      0.0000      0.0000      0.0000      0.0000      0.0000      0.0000      0.0000
  9      0.0000      0.0500      0.0000      0.0000      0.0000      0.0000      0.0000      0.0000      0.0000
 10      0.0000      0.0326      0.0000      0.0000      0.0000      0.0000      0.0000      0.0000      0.0000
 11      0.0000      0.0633      0.0000      0.0000      0.0000      0.0000      0.0000      1.5004      0.0000
 12      0.0000      0.0914      0.5987      0.0000      0.0000      0.0000      0.0000      0.0000      0.0000
 13      7.2856      0.9211      1.9960      2.4603      0.0044      0.0000      7.2990      0.0000      0.0000
 14      0.0000      0.5228      1.3853      0.4345      0.0000      0.0000      0.0000      2.1570      0.0000
 15      0.0000      1.8953      0.0000      0.0000      0.0000      0.8102      1.5312      2.7599      0.0000
 16      0.0000      4.2586      0.0000      0.0000      7.0350      9.3623      0.0000      3.2385      2.2606
 17      5.9891      2.5163      1.9293      6.2708      3.3229      0.0000      2.2011      0.0000      6.0322
 18      0.0000      0.0103      0.0000      0.0000      0.0000      0.0000      0.0000      0.0000      0.0000
 19      0.0000      0.0044      0.0000      0.0000      0.0000      0.0000      0.0000      0.0000      0.0000
 20      0.0000      0.0528      0.0000      0.0164      0.0000      0.0000      0.0000      0.0000      0.0000
 21      0.0000      0.0305      0.0000      0.0000      0.0000      0.0000      0.0000      0.0000      0.0000
 22      0.0000      0.0299      0.0000      0.0000      0.0000      0.0000      0.0000      0.0000      0.0000
 23      0.0000      0.0112      0.0000      0.0000      0.0000      0.0000      0.0000      0.0000      0.0000
 24      0.0000      0.0357      0.0000      0.0000      0.0000      0.0000      0.0000      0.0000      0.0000
 25      0.0000      0.0432      0.0000      0.0000      0.0000      0.0000      0.0000      0.0000      0.0000
 26      0.0000      0.0367      0.0000      0.0000      0.0000      0.0000      0.0000      0.0000      0.0000
 27      0.0000      0.1842      0.0000      0.0000      0.0000      0.0000      0.0000      0.0000      0.0000
 28      4.6309      1.6931      1.3330      2.4673      0.9465      0.0000      0.6442      4.3364      2.7089
 29      0.0000      0.3696      0.0000      0.0000      0.0000      0.4677      0.0000      0.0000      2.4146
 30      0.0000      1.9761      0.1200      4.6210      0.9836      1.8340      1.1243      0.0189      2.2015
 31      0.0000      1.4345      0.7335      4.1581      0.9093      0.0000      0.0000      0.0078      0.0000
 32      0.0047      5.2400     20.8567      2.9388      2.8492      1.7160      4.0240      2.7784      9.7101
 33      0.0000      0.2883      0.0000      0.0000      0.0000      0.0000      0.0000      0.1383      0.0000
 34     30.1341      0.2753      1.6169      0.0000      0.0000      0.9249      2.1711      0.0000      0.0000
 35      0.0000      0.0170      0.0000      0.0000      0.0000      0.0000      0.0000      0.0000      0.0000
 36      0.0000      0.0162      0.0000      0.0000      0.0000      0.0000      0.0000      0.0000      0.0000
 37      0.0000      0.0216      0.0000      0.0137      0.0000      0.0000      0.0000      0.0000      0.0000
 38      0.0000      0.0192      0.0000      0.0000      0.0000      0.0000      0.0000      0.0000      0.0000
 39      0.0000      0.0414      0.0000      0.0000      0.0000      0.0000      0.0000      0.0000      0.0000
 40      0.0000      0.0267      0.0000      0.0000      0.0000      0.0000      0.0000      0.0000      0.0000
 41      0.0000      0.0200      0.0000      0.1211      0.0000      0.0000      0.0000      0.0000      0.0000
 42      0.0000      0.0365      0.0000      0.0000      0.0000      0.0000      0.0000      0.0000      0.1100
 43      0.0000      0.1686      0.0000      0.0000      0.0000      0.0000      0.0000      0.0000      0.0000
 44      0.0000      0.2112      0.0000      0.0000      0.0000      0.0000      0.0000      0.0000      0.0000
 45      0.0000      2.7844      3.9182      0.0000      5.4009      2.1173      6.3016      2.9523      1.1616
 46      0.0000      1.0919      0.0000      0.0000      0.0000      1.0853      0.4095      0.3878      0.9928
 47      0.0000      2.1360      0.0000      0.0000      1.9519      1.3988      0.0000      1.5799      0.4030
 48     30.8161     19.7552     18.2056     20.1638     24.0997     19.7169     22.3291     28.2392     23.7581
 49      7.5472      2.3036      1.4434      1.9353      3.2387      3.1024      2.5095      3.1838      1.2816
 50      0.0000      0.1964      0.0000      0.0000      1.1498      0.0000      0.0000      2.0027      0.0000
 51      0.0000      0.0148      0.0000      0.0000      0.0000      0.0000      0.0000      0.0000      0.0000
 52      0.0000      0.0029      0.0000      0.0000      0.0146      0.0000      0.0000      0.0000      0.0000
 53      0.0000      0.0166      0.0000      0.0000      0.0000      0.0000      0.0000      0.0000      0.0000
 54      0.0000      0.0116      0.0000      0.0000      0.0000      0.0000      0.0000      0.0000      0.0000
 55      0.0000      0.0169      0.0000      0.0000      0.0000      0.0000      0.0000      0.0000      0.0000
 56      0.0000      0.0542      0.0000      0.0000      0.0025      0.0000      0.0000      0.0000      0.0000
 57      0.0000      0.0200      0.0000      0.0000      0.0000      0.0000      0.0000      0.0000      0.0000
 58      0.0000      0.0502      0.0000      0.0000      0.3274      0.0000      0.0000      0.0000      0.0000
 59      0.0000      0.2658      0.0000      1.4194      0.1776      1.6100      1.8882      0.0000      0.0000
 60      0.0000      0.1216      0.0114      0.0000      0.0000      0.7679      0.0000      0.0000      0.0327
 61      0.0000     14.1583     11.8587     13.2926     17.7115     16.3417     10.4308     11.8182     12.6992
 62      0.0000      2.7211      1.0137      1.1137      0.0000      0.5405      0.0000      2.6662      2.7745
 63     17.5947     34.2084     33.8002     40.5426     34.3100     38.6076     40.8666     34.7834     34.4024
 64      0.7434      2.1845      3.6091      2.7356      0.6584      4.4413      1.9794      0.3399      1.9193
 65      0.0000      0.1390      0.0000      0.0000      0.0000      0.6335      0.0691      0.0000      0.0000
 66      0.0000      0.1699      0.9883      0.0000      0.2403      0.0832      0.0000      0.0000      0.0000

# j      m_j: min, <> & last-chain-values for 1 ...  7 chains
  1  0.0000E+00  1.0853E-04  0.0000E+00  0.0000E+00  9.8600E-05  0.0000E+00  0.0000E+00  0.0000E+00  0.0000E+00
  2  0.0000E+00  6.4417E-05  0.0000E+00  0.0000E+00  0.0000E+00  0.0000E+00  0.0000E+00  4.8080E-06  0.0000E+00
  3  0.0000E+00  3.1648E-05  0.0000E+00  0.0000E+00  0.0000E+00  0.0000E+00  0.0000E+00  4.1384E-04  0.0000E+00
  4  0.0000E+00  4.6005E-05  0.0000E+00  0.0000E+00  0.0000E+00  0.0000E+00  0.0000E+00  0.0000E+00  0.0000E+00
  5  0.0000E+00  5.1900E-05  0.0000E+00  0.0000E+00  0.0000E+00  0.0000E+00  0.0000E+00  0.0000E+00  0.0000E+00
  6  0.0000E+00  2.1265E-04  0.0000E+00  0.0000E+00  0.0000E+00  0.0000E+00  0.0000E+00  0.0000E+00  0.0000E+00
  7  0.0000E+00  4.2326E-04  0.0000E+00  0.0000E+00  0.0000E+00  0.0000E+00  0.0000E+00  0.0000E+00  0.0000E+00
  8  0.0000E+00  3.5131E-04  0.0000E+00  0.0000E+00  0.0000E+00  0.0000E+00  0.0000E+00  0.0000E+00  0.0000E+00
  9  0.0000E+00  8.3705E-04  0.0000E+00  0.0000E+00  0.0000E+00  0.0000E+00  0.0000E+00  0.0000E+00  0.0000E+00
 10  0.0000E+00  7.1617E-04  0.0000E+00  0.0000E+00  0.0000E+00  0.0000E+00  0.0000E+00  0.0000E+00  0.0000E+00
 11  0.0000E+00  2.6201E-03  0.0000E+00  0.0000E+00  0.0000E+00  0.0000E+00  0.0000E+00  6.1042E-02  0.0000E+00
 12  0.0000E+00  5.9973E-03  3.5372E-02  0.0000E+00  0.0000E+00  0.0000E+00  0.0000E+00  0.0000E+00  0.0000E+00
 13  7.0590E-01  1.7036E-01  3.3240E-01  4.5888E-01  7.6934E-04  0.0000E+00  1.3733E+00  0.0000E+00  0.0000E+00
 14  0.0000E+00  3.2433E-01  7.7375E-01  2.7179E-01  0.0000E+00  0.0000E+00  0.0000E+00  1.3160E+00  0.0000E+00
 15  0.0000E+00  1.9141E+00  0.0000E+00  0.0000E+00  0.0000E+00  7.4936E-01  1.5731E+00  2.7412E+00  0.0000E+00
 16  0.0000E+00  7.2720E+00  0.0000E+00  0.0000E+00  1.1315E+01  1.4641E+01  0.0000E+00  5.4386E+00  3.8011E+00
 17  6.9499E+00  5.5741E+00  3.8479E+00  1.4008E+01  6.9330E+00  0.0000E+00  4.9600E+00  0.0000E+00  1.3158E+01
 18  0.0000E+00  5.6508E-05  0.0000E+00  0.0000E+00  0.0000E+00  0.0000E+00  0.0000E+00  0.0000E+00  0.0000E+00
 19  0.0000E+00  9.7059E-06  0.0000E+00  0.0000E+00  0.0000E+00  0.0000E+00  0.0000E+00  0.0000E+00  0.0000E+00
 20  0.0000E+00  1.2719E-04  0.0000E+00  3.9751E-05  0.0000E+00  0.0000E+00  0.0000E+00  0.0000E+00  0.0000E+00
 21  0.0000E+00  8.9027E-05  0.0000E+00  0.0000E+00  0.0000E+00  0.0000E+00  0.0000E+00  0.0000E+00  0.0000E+00
 22  0.0000E+00  1.4797E-04  0.0000E+00  0.0000E+00  0.0000E+00  0.0000E+00  0.0000E+00  0.0000E+00  0.0000E+00
 23  0.0000E+00  7.4923E-05  0.0000E+00  0.0000E+00  0.0000E+00  0.0000E+00  0.0000E+00  0.0000E+00  0.0000E+00
 24  0.0000E+00  3.5408E-04  0.0000E+00  0.0000E+00  0.0000E+00  0.0000E+00  0.0000E+00  0.0000E+00  0.0000E+00
 25  0.0000E+00  5.9131E-04  0.0000E+00  0.0000E+00  0.0000E+00  0.0000E+00  0.0000E+00  0.0000E+00  0.0000E+00
 26  0.0000E+00  8.3988E-04  0.0000E+00  0.0000E+00  0.0000E+00  0.0000E+00  0.0000E+00  0.0000E+00  0.0000E+00
 27  0.0000E+00  8.4354E-03  0.0000E+00  0.0000E+00  0.0000E+00  0.0000E+00  0.0000E+00  0.0000E+00  0.0000E+00
 28  3.2241E-01  2.2502E-01  1.5952E-01  3.3067E-01  1.1848E-01  0.0000E+00  8.7099E-02  5.6682E-01  3.5452E-01
 29  0.0000E+00  8.5581E-02  0.0000E+00  0.0000E+00  0.0000E+00  9.9186E-02  0.0000E+00  0.0000E+00  5.5061E-01
 30  0.0000E+00  9.5612E-01  5.2275E-02  2.2545E+00  4.4824E-01  8.1263E-01  5.5339E-01  9.0143E-03  1.0488E+00
 31  0.0000E+00  1.2209E+00  5.6210E-01  3.5686E+00  7.2889E-01  0.0000E+00  0.0000E+00  6.5541E-03  0.0000E+00
 32  2.8303E-03  6.0007E+00  2.1505E+01  3.3936E+00  3.0731E+00  1.7996E+00  4.6878E+00  3.1292E+00  1.0949E+01
 33  0.0000E+00  7.3077E-01  0.0000E+00  0.0000E+00  0.0000E+00  0.0000E+00  0.0000E+00  3.4483E-01  0.0000E+00
 34  5.4191E+01  9.4521E-01  4.9977E+00  0.0000E+00  0.0000E+00  2.9078E+00  7.5819E+00  0.0000E+00  0.0000E+00
 35  0.0000E+00  7.4884E-05  0.0000E+00  0.0000E+00  0.0000E+00  0.0000E+00  0.0000E+00  0.0000E+00  0.0000E+00
 36  0.0000E+00  2.8946E-05  0.0000E+00  0.0000E+00  0.0000E+00  0.0000E+00  0.0000E+00  0.0000E+00  0.0000E+00
 37  0.0000E+00  4.1683E-05  0.0000E+00  2.6612E-05  0.0000E+00  0.0000E+00  0.0000E+00  0.0000E+00  0.0000E+00
 38  0.0000E+00  1.0026E-04  0.0000E+00  0.0000E+00  0.0000E+00  0.0000E+00  0.0000E+00  0.0000E+00  0.0000E+00
 39  0.0000E+00  3.1122E-04  0.0000E+00  0.0000E+00  0.0000E+00  0.0000E+00  0.0000E+00  0.0000E+00  0.0000E+00
 40  0.0000E+00  3.2403E-04  0.0000E+00  0.0000E+00  0.0000E+00  0.0000E+00  0.0000E+00  0.0000E+00  0.0000E+00
 41  0.0000E+00  3.7764E-04  0.0000E+00  2.3083E-03  0.0000E+00  0.0000E+00  0.0000E+00  0.0000E+00  0.0000E+00
 42  0.0000E+00  1.2681E-03  0.0000E+00  0.0000E+00  0.0000E+00  0.0000E+00  0.0000E+00  0.0000E+00  3.7597E-03
 43  0.0000E+00  8.5414E-03  0.0000E+00  0.0000E+00  0.0000E+00  0.0000E+00  0.0000E+00  0.0000E+00  0.0000E+00
 44  0.0000E+00  1.8422E-02  0.0000E+00  0.0000E+00  0.0000E+00  0.0000E+00  0.0000E+00  0.0000E+00  0.0000E+00
 45  0.0000E+00  4.8194E-01  6.1061E-01  0.0000E+00  8.8047E-01  3.3561E-01  1.1096E+00  5.0256E-01  1.9797E-01
 46  0.0000E+00  3.4738E-01  0.0000E+00  0.0000E+00  0.0000E+00  3.1621E-01  1.3254E-01  1.2133E-01  3.1102E-01
 47  0.0000E+00  1.3770E+00  0.0000E+00  0.0000E+00  1.1852E+00  8.2586E-01  0.0000E+00  1.0017E+00  2.5585E-01
 48  1.8353E+01  2.2461E+01  1.8636E+01  2.3117E+01  2.5807E+01  2.0529E+01  2.5825E+01  3.1576E+01  2.6598E+01
 49  1.0216E+01  5.9524E+00  3.3582E+00  5.0426E+00  7.8821E+00  7.3415E+00  6.5965E+00  8.0909E+00  3.2609E+00
 50  0.0000E+00  9.4011E-01  0.0000E+00  0.0000E+00  5.1828E+00  0.0000E+00  0.0000E+00  9.4263E+00  0.0000E+00
 51  0.0000E+00  3.8918E-05  0.0000E+00  0.0000E+00  0.0000E+00  0.0000E+00  0.0000E+00  0.0000E+00  0.0000E+00
 52  0.0000E+00  3.8827E-06  0.0000E+00  0.0000E+00  1.8479E-05  0.0000E+00  0.0000E+00  0.0000E+00  0.0000E+00
 53  0.0000E+00  3.3557E-05  0.0000E+00  0.0000E+00  0.0000E+00  0.0000E+00  0.0000E+00  0.0000E+00  0.0000E+00
 54  0.0000E+00  4.8197E-05  0.0000E+00  0.0000E+00  0.0000E+00  0.0000E+00  0.0000E+00  0.0000E+00  0.0000E+00
 55  0.0000E+00  1.0774E-04  0.0000E+00  0.0000E+00  0.0000E+00  0.0000E+00  0.0000E+00  0.0000E+00  0.0000E+00
 56  0.0000E+00  6.8487E-04  0.0000E+00  0.0000E+00  2.9218E-05  0.0000E+00  0.0000E+00  0.0000E+00  0.0000E+00
 57  0.0000E+00  3.3527E-04  0.0000E+00  0.0000E+00  0.0000E+00  0.0000E+00  0.0000E+00  0.0000E+00  0.0000E+00
 58  0.0000E+00  1.4239E-03  0.0000E+00  0.0000E+00  8.7537E-03  0.0000E+00  0.0000E+00  0.0000E+00  0.0000E+00
 59  0.0000E+00  1.6236E-02  0.0000E+00  8.7448E-02  1.0221E-02  9.0082E-02  1.1735E-01  0.0000E+00  0.0000E+00
 60  0.0000E+00  1.3803E-02  1.1634E-03  0.0000E+00  0.0000E+00  7.9804E-02  0.0000E+00  0.0000E+00  3.6570E-03
 61  0.0000E+00  3.5105E+00  2.6474E+00  3.3235E+00  4.1362E+00  3.7107E+00  2.6310E+00  2.8819E+00  3.1005E+00
 62  0.0000E+00  1.2302E+00  4.1263E-01  5.0768E-01  0.0000E+00  2.2379E-01  0.0000E+00  1.1854E+00  1.2351E+00
 63  8.2900E+00  3.0769E+01  2.7372E+01  3.6771E+01  2.9066E+01  3.1801E+01  3.7392E+01  3.0769E+01  3.0469E+01
 64  9.6881E-01  5.4346E+00  8.0842E+00  6.8626E+00  1.5428E+00  1.0119E+01  5.0095E+00  8.3154E-01  4.7017E+00
 65  0.0000E+00  7.3116E-01  0.0000E+00  0.0000E+00  0.0000E+00  3.0511E+00  3.6971E-01  0.0000E+00  0.0000E+00
 66  0.0000E+00  1.2621E+00  6.6110E+00  0.0000E+00  1.6818E+00  5.6637E-01  0.0000E+00  0.0000E+00  0.0000E+00

# AV, chi2 & Mass for <> & i_chain = 1 ...  7 solutions
AV      -0.2336      0.0498     -0.0129      0.0348      0.0329     -0.0078      0.0412      0.0368      0.0200
chi2 4.4249E-01  4.7130E-01  4.6250E-01  4.6807E-01  4.6737E-01  4.6410E-01  4.6635E-01  4.6755E-01  4.6574E-01
Mass 3.9952E-13  3.0626E-13  3.1264E-13  2.9766E-13  3.1785E-13  3.0952E-13  2.9759E-13  3.0600E-13  2.9882E-13
  48.09                                  [v0_min (km/s) before EX0s...]
 226.22                                  [vd_min (km/s) before EX0s...]


## Synthetic spectrum (Best Model) ##l_obs f_obs f_syn wei
 3478    [Nl_obs]
 3741.00    0.40277   0.50796    0.000
 3742.00    0.40785   0.51350    0.000
 3743.00    0.39045   0.50616    0.000
 3744.00    0.33761   0.48780    0.000
 3745.00    0.26839   0.46296    6.193
 3746.00    0.20831   0.43761    6.245
 3747.00    0.17113   0.41770    6.900
 3748.00    0.16725   0.40771    7.867
 3749.00    0.20672   0.41004    7.924
 3750.00    0.28170   0.42562    6.985
 3751.00    0.36424   0.45291    6.512
 3752.00    0.44274   0.48709    6.764
 3753.00    0.53096   0.52218    6.982
 3754.00    0.62983   0.55203    6.668
 3755.00    0.71952   0.57104    6.233
 3756.00    0.79153   0.57676    6.110
 3757.00    0.85053   0.57133    6.471
 3758.00    0.88117   0.55960    6.951
 3759.00    0.85247   0.54619    6.699
 3760.00    0.76109   0.53520    6.196
 3761.00    0.63479   0.52945    6.488
 3762.00    0.50940   0.52942    7.500
 3763.00    0.41516   0.53306    7.888
 3764.00    0.36057   0.53711    7.321
 3765.00    0.33835   0.53971    6.909
 3766.00    0.34321   0.54137    6.978
 3767.00    0.36979   0.54392    7.342
 3768.00    0.40410   0.54930    7.586
 3769.00    0.43273   0.55798    7.388
 3770.00    0.45781   0.56944    7.143
 3771.00    0.49059   0.58401    7.289
 3772.00    0.53974   0.60096    7.633
 3773.00    0.60296   0.61783    7.717
 3774.00    0.66090   0.63335    7.465
 3775.00    0.69698   0.64811    7.184
 3776.00    0.71611   0.66199    7.250
 3777.00    0.72970   0.67452    7.710
 3778.00    0.74134   0.68651    7.895
 3779.00    0.75008   0.69882    7.416
 3780.00    0.75419   0.71073    7.026
 3781.00    0.75412   0.71979    7.141
 3782.00    0.75223   0.72351    7.453
 3783.00    0.74001   0.72039    7.565
 3784.00    0.69815   0.70923    7.437
 3785.00    0.63580   0.69033    7.282
 3786.00    0.59778   0.66641    7.352
 3787.00    0.60442   0.64090    7.661
 3788.00    0.63447   0.61626    7.904
 3789.00    0.66814   0.59445    7.773
 3790.00    0.69930   0.57732    7.312
 3791.00    0.71622   0.56478    7.029
 3792.00    0.70392   0.55423    7.428
 3793.00    0.67162   0.54312    8.090
 3794.00    0.64676   0.53048    7.651
 3795.00    0.63734   0.51689    6.705
 3796.00    0.63059   0.50449    6.553
 3797.00    0.61406   0.49688    7.160
 3798.00    0.58298   0.49745    7.693
 3799.00    0.54476   0.50773    7.394
 3800.00    0.51273   0.52680    6.551
 3801.00    0.49360   0.55221    6.056
 3802.00    0.48608   0.58077    6.376
 3803.00    0.48260   0.60839    7.351
 3804.00    0.47325   0.63120    8.219
 3805.00    0.45127   0.64743    8.331
 3806.00    0.41926   0.65778    7.992
 3807.00    0.39473   0.66373    8.057
 3808.00    0.39687   0.66619    8.943
 3809.00    0.43197   0.66558    9.688
 3810.00    0.49405   0.66183    9.084
 3811.00    0.56738   0.65404    8.298
 3812.00    0.63199   0.64107    8.260
 3813.00    0.66920   0.62295    8.701
 3814.00    0.66978   0.60127    9.039
 3815.00    0.63831   0.57828    8.900
 3816.00    0.58470   0.55638    8.548
 3817.00    0.51904   0.53801    8.689
 3818.00    0.45394   0.52406    9.503
 3819.00    0.40367   0.51328   10.161
 3820.00    0.37291   0.50365    9.880
 3821.00    0.35389   0.49309    9.182
 3822.00    0.33772   0.48068    8.864
 3823.00    0.31904   0.46765    9.387
 3824.00    0.29482   0.45576   10.395
 3825.00    0.26492   0.44497   10.337
 3826.00    0.23553   0.43410    9.279
 3827.00    0.21605   0.42314    8.755
 3828.00    0.20759   0.41359    9.068
 3829.00    0.20388   0.40624    9.748
 3830.00    0.20173   0.39997    9.942
 3831.00    0.20018   0.39349    9.164
 3832.00    0.19357   0.38669    8.438
 3833.00    0.18065   0.37999    8.696
 3834.00    0.18365   0.37382    9.616
 3835.00    0.22781   0.36940    9.974
 3836.00    0.30254   0.36860    9.560
 3837.00    0.37839   0.37262    9.180
 3838.00    0.44083   0.38192    9.147
 3839.00    0.48856   0.39632    9.375
 3840.00    0.52454   0.41540    9.543
 3841.00    0.55028   0.43899    9.351
 3842.00    0.56179   0.46659    8.909
 3843.00    0.56116   0.49622    8.564
 3844.00    0.56628   0.52481    8.648
 3845.00    0.58859   0.54896    9.206
 3846.00    0.61546   0.56592    9.654
 3847.00    0.63031   0.57596    0.000
 3848.00    0.62865   0.58111    0.000
 3849.00    0.61408   0.58302    0.000
 3850.00    0.59376   0.58289    0.000
 3851.00    0.57231   0.58086    0.000
 3852.00    0.55068   0.57673    0.000
 3853.00    0.53817   0.57147    0.000
 3854.00    0.55215   0.56524    0.000
 3855.00    0.58837   0.55605    0.000
 3856.00    0.61746   0.54343    0.000
 3857.00    0.62458   0.53052    0.000
 3858.00    0.61842   0.52111    0.000
 3859.00    0.60649   0.51741    0.000
 3860.00    0.58924   0.52024    0.000
 3861.00    0.56929   0.52857    0.000
 3862.00    0.55187   0.54104    0.000
 3863.00    0.53817   0.55651    0.000
 3864.00    0.52514   0.57202    0.000
 3865.00    0.50928   0.58315    0.000
 3866.00    0.48958   0.58669    0.000
 3867.00    0.47162   0.58269    0.000
 3868.00    0.46449   0.57363    0.000
 3869.00    0.47399   0.56268    0.000
 3870.00    0.49938   0.55264    0.000
 3871.00    0.53092   0.54543    0.000
 3872.00    0.55965   0.54190    0.000
 3873.00    0.59016   0.54174    0.000
 3874.00    0.62551   0.54400    0.000
 3875.00    0.64892   0.54765    0.000
 3876.00    0.64691   0.55150    0.000
 3877.00    0.63342   0.55305    0.000
 3878.00    0.62537   0.54982    0.000
 3879.00    0.61949   0.54278    0.000
 3880.00    0.60862   0.53532    0.000
 3881.00    0.59539   0.52971    9.355
 3882.00    0.58211   0.52608    9.827
 3883.00    0.56434   0.52241   10.287
 3884.00    0.54145   0.51693   10.218
 3885.00    0.52171   0.51102    9.795
 3886.00    0.51174   0.50750    9.493
 3887.00    0.51127   0.50730    9.684
 3888.00    0.51704   0.51047   10.312
 3889.00    0.52515   0.51966   10.702
 3890.00    0.53198   0.53668   10.330
 3891.00    0.53551   0.55858    9.524
 3892.00    0.53877   0.58185    8.951
 3893.00    0.54916   0.60492    9.063
 3894.00    0.57226   0.62501    9.675
 3895.00    0.60823   0.63942    9.922
 3896.00    0.64764   0.64839    9.378
 3897.00    0.67443   0.65433    8.612
 3898.00    0.67615   0.65906    8.421
 3899.00    0.65082   0.66311    9.320
 3900.00    0.61511   0.66564   10.573
 3901.00    0.59196   0.66532   10.075
 3902.00    0.58454   0.66308    8.827
 3903.00    0.58478   0.66144    8.618
 3904.00    0.59547   0.66188    9.325
 3905.00    0.62512   0.66412   10.071
 3906.00    0.67495   0.66975   10.220
 3907.00    0.73509   0.68061    9.821
 3908.00    0.78357   0.69558    9.318
 3909.00    0.80186   0.71372    9.098
 3910.00    0.79179   0.73310    9.335
 3911.00    0.76572   0.74936    9.917
 3912.00    0.73434   0.75953   10.145
 3913.00    0.70104   0.76317    9.630
 3914.00    0.65965   0.76138    9.167
 3915.00    0.60834   0.75418    9.319
 3916.00    0.55859   0.74108    9.941
 3917.00    0.52242   0.72370   10.621
 3918.00    0.50388   0.70420   10.902
 3919.00    0.50232   0.68384   10.545
 3920.00    0.51434   0.66440    9.780
 3921.00    0.53184   0.64636    9.201
 3922.00    0.54366   0.62879    9.365
 3923.00    0.54694   0.61118   10.100
 3924.00    0.54901   0.59271   10.216
 3925.00    0.55376   0.57107    9.467
 3926.00    0.55515   0.54368    8.975
 3927.00    0.53477   0.50951    9.064
 3928.00    0.47475   0.46878    9.250
 3929.00    0.39775   0.42429    8.672
 3930.00    0.35235   0.37992    7.239
 3931.00    0.34379   0.33962    6.234
 3932.00    0.33974   0.30776    6.397
 3933.00    0.32646   0.28726    7.700
 3934.00    0.30977   0.27970    9.383
 3935.00    0.29028   0.28590   10.187
 3936.00    0.26762   0.30545    9.919
 3937.00    0.25638   0.33617    9.501
 3938.00    0.27674   0.37407    9.631
 3939.00    0.33552   0.41447   10.197
 3940.00    0.42431   0.45313   10.608
 3941.00    0.52160   0.48820   10.439
 3942.00    0.60354   0.52023    9.741
 3943.00    0.65660   0.54929    8.909
 3944.00    0.67949   0.57517    8.531
 3945.00    0.68268   0.59933    9.493
 3946.00    0.67702   0.62357   12.709
 3947.00    0.66476   0.64896   14.709
 3948.00    0.65191   0.67449   11.532
 3949.00    0.65598   0.69607    8.926
 3950.00    0.68388   0.71215    8.587
 3951.00    0.71875   0.72543    9.808
 3952.00    0.74090   0.73645   12.057
 3953.00    0.74199   0.74274   13.747
 3954.00    0.72620   0.74323   13.825
 3955.00    0.70729   0.73945   14.354
 3956.00    0.69321   0.73322   14.709
 3957.00    0.68020   0.72203   13.383
 3958.00    0.65954   0.70136   10.654
 3959.00    0.62295   0.67258   10.686
 3960.00    0.57101   0.63962    0.000
 3961.00    0.51291   0.60226    0.000
 3962.00    0.45574   0.55856    0.000
 3963.00    0.40346   0.50904    0.000
 3964.00    0.36378   0.45782    0.000
 3965.00    0.34500   0.41038    0.000
 3966.00    0.34356   0.36923    0.000
 3967.00    0.34837   0.33528    0.000
 3968.00    0.35641   0.31117    0.000
 3969.00    0.37151   0.30023    0.000
 3970.00    0.39553   0.30474    0.000
 3971.00    0.42732   0.32531    0.000
 3972.00    0.46398   0.36044    0.000
 3973.00    0.50308   0.40645    0.000
 3974.00    0.54537   0.45903    0.000
 3975.00    0.59185   0.51462    0.000
 3976.00    0.63991   0.57037    0.000
 3977.00    0.68881   0.62382    0.000
 3978.00    0.74501   0.67186    0.000
 3979.00    0.80761   0.71237    0.000
 3980.00    0.85582   0.74573    0.000
 3981.00    0.87239   0.77282    9.863
 3982.00    0.86335   0.79400   10.538
 3983.00    0.84410   0.80966   10.780
 3984.00    0.82726   0.82177   10.519
 3985.00    0.82128   0.83371   10.104
 3986.00    0.82961   0.84623    9.826
 3987.00    0.84826   0.85866    9.808
 3988.00    0.86722   0.87091   10.025
 3989.00    0.88506   0.88226   10.254
 3990.00    0.91134   0.89237   10.131
 3991.00    0.94380   0.89991    9.785
 3992.00    0.96586   0.90353    9.780
 3993.00    0.97812   0.90471   10.184
 3994.00    0.99798   0.90464   10.470
 3995.00    1.01544   0.90366   10.374
 3996.00    0.99671   0.90342   10.159
 3997.00    0.94118   0.90493    9.918
 3998.00    0.88300   0.90870    9.599
 3999.00    0.84877   0.91542    9.515
 4000.00    0.84581   0.92449   10.071
 4001.00    0.86249   0.93274   10.924
 4002.00    0.88010   0.93616   10.996
 4003.00    0.89574   0.93412   10.336
 4004.00    0.91659   0.92976    9.844
 4005.00    0.94146   0.92572    9.792
 4006.00    0.96253   0.92208   10.088
 4007.00    0.97328   0.91994   10.581
 4008.00    0.97303   0.92355   10.949
 4009.00    0.97074   0.93511   10.639
 4010.00    0.97671   0.95069    9.701
 4011.00    0.99228   0.96494    9.096
 4012.00    1.01139   0.97686    9.353
 4013.00    1.02445   0.98672   10.195
 4014.00    1.02617   0.99369   10.897
 4015.00    1.02131   0.99887   10.826
 4016.00    1.01309   1.00385   10.190
 4017.00    0.99526   1.00785    9.899
 4018.00    0.96616   1.01010   10.396
 4019.00    0.93750   1.01061   11.389
 4020.00    0.92338   1.01042   12.080
 4021.00    0.93192   1.01048   11.680
 4022.00    0.96039   1.01013   10.662
 4023.00    0.99473   1.00915   10.202
 4024.00    1.01905   1.00886   10.489
 4025.00    1.02211   1.00954   10.838
 4026.00    1.00395   1.00836   10.956
 4027.00    0.97563   1.00227   11.333
 4028.00    0.94837   0.99214   11.796
 4029.00    0.92875   0.97867   11.351
 4030.00    0.91717   0.96107   10.431
 4031.00    0.90978   0.94130   10.251
 4032.00    0.90520   0.92350   10.846
 4033.00    0.90581   0.91387   11.354
 4034.00    0.91612   0.91713   11.220
 4035.00    0.93917   0.93134   10.716
 4036.00    0.97006   0.95151   10.342
 4037.00    1.00000   0.97340   10.404
 4038.00    1.02648   0.99352   10.791
 4039.00    1.05039   1.00857   11.144
 4040.00    1.06815   1.01348   11.257
 4041.00    1.07392   1.00424   11.128
 4042.00    1.06495   0.98258   10.825
 4043.00    1.04604   0.95662   10.491
 4044.00    1.03320   0.93524   10.359
 4045.00    1.03893   0.91997   10.548
 4046.00    1.05632   0.90932   10.871
 4047.00    1.07162   0.90672   10.976
 4048.00    1.07812   0.91667   10.634
 4049.00    1.07470   0.93756   10.056
 4050.00    1.06350   0.96052    9.802
 4051.00    1.04978   0.97641   10.134
 4052.00    1.04059   0.98359   10.780
 4053.00    1.03517   0.98404   11.247
 4054.00    1.02128   0.97766   11.210
 4055.00    0.99222   0.96629   10.836
 4056.00    0.95547   0.95466   10.641
 4057.00    0.92367   0.94588   10.788
 4058.00    0.90752   0.93973   10.987
 4059.00    0.90588   0.93253   11.110
 4060.00    0.90622   0.92222   11.373
 4061.00    0.90284   0.91306   11.686
 4062.00    0.90103   0.90815   11.545
 4063.00    0.90600   0.90378   10.930
 4064.00    0.91894   0.89735   10.372
 4065.00    0.93770   0.89354   10.291
 4066.00    0.95756   0.89898   10.881
 4067.00    0.97288   0.91228   11.773
 4068.00    0.97914   0.92392   11.987
 4069.00    0.97662   0.93036   11.450
 4070.00    0.96947   0.93672   10.971
 4071.00    0.96226   0.94294   10.888
 4072.00    0.95799   0.94272   11.148
 4073.00    0.95599   0.93375   11.533
 4074.00    0.95489   0.92237   11.743
 4075.00    0.95735   0.91607   11.622
 4076.00    0.96720   0.91422   11.266
 4077.00    0.98455   0.91377   10.955
 4078.00    1.00580   0.91617   10.941
 4079.00    1.02477   0.92396   11.310
 4080.00    1.03694   0.93807   11.893
 4081.00    1.04347   0.95684   12.056
 4082.00    1.04857   0.97627   11.452
 4083.00    1.05636   0.99332   10.734
 4084.00    1.06738   1.00712   10.471
 4085.00    1.07695   1.01869   10.750
 4086.00    1.08235   1.03004   11.359
 4087.00    1.08667   1.04166   11.735
 4088.00    1.09006   1.05262   11.568
 4089.00    1.08634   1.06135   11.285
 4090.00    1.07645   1.06610   11.161
 4091.00    1.07233   1.06459   11.029
 4092.00    1.07944   1.05471    0.000
 4093.00    1.09057   1.03736    0.000
 4094.00    1.09643   1.01555    0.000
 4095.00    1.09027   0.99182    0.000
 4096.00    1.06737   0.96596    0.000
 4097.00    1.02716   0.93553    0.000
 4098.00    0.98016   0.90221    0.000
 4099.00    0.94379   0.87271    0.000
 4100.00    0.92455   0.85146    0.000
 4101.00    0.91767   0.83814    0.000
 4102.00    0.91899   0.83204    0.000
 4103.00    0.92584   0.83493    0.000
 4104.00    0.93250   0.84914    0.000
 4105.00    0.93403   0.87254    0.000
 4106.00    0.93497   0.89826    0.000
 4107.00    0.94355   0.92136    0.000
 4108.00    0.95974   0.94066    0.000
 4109.00    0.97904   0.95569    0.000
 4110.00    1.00051   0.96713    0.000
 4111.00    1.02284   0.97646    0.000
 4112.00    1.03841   0.98497    0.000
 4113.00    1.04138   0.99407   10.764
 4114.00    1.03699   1.00339   11.009
 4115.00    1.03398   1.01059   11.687
 4116.00    1.03626   1.01398   12.066
 4117.00    1.04306   1.01453   11.623
 4118.00    1.05030   1.01346   11.071
 4119.00    1.05399   1.00985   10.953
 4120.00    1.05251   1.00385   11.046
 4121.00    1.04407   0.99957   11.184
 4122.00    1.02641   1.00021   11.644
 4123.00    1.00452   1.00246   12.300
 4124.00    0.99192   1.00228   12.146
 4125.00    0.99302   1.00008   11.232
 4126.00    0.99777   0.99748   10.866
 4127.00    0.99870   0.99323   11.334
 4128.00    0.99727   0.98441   11.834
 4129.00    0.99686   0.97124   11.905
 4130.00    0.99895   0.95768   12.006
 4131.00    1.00031   0.94754   12.211
 4132.00    0.99433   0.94240   12.028
 4133.00    0.97773   0.94234   11.535
 4134.00    0.95289   0.94678   11.293
 4135.00    0.92813   0.95679   11.479
 4136.00    0.91484   0.97191   11.930
 4137.00    0.92053   0.98860   12.350
 4138.00    0.94658   1.00168   12.454
 4139.00    0.98722   1.00535   12.303
 4140.00    1.03266   0.99920   12.116
 4141.00    1.07488   0.98755   11.825
 4142.00    1.10578   0.97468   11.387
 4143.00    1.11328   0.96227   11.210
 4144.00    1.09061   0.95029   11.627
 4145.00    1.04890   0.94194   12.259
 4146.00    1.00631   0.94183   12.441
 4147.00    0.97322   0.94885   12.275
 4148.00    0.95408   0.95688   12.169
 4149.00    0.95120   0.96179   12.107
 4150.00    0.96390   0.96315   12.054
 4151.00    0.98787   0.96128   12.291
 4152.00    1.01778   0.95813   12.808
 4153.00    1.04904   0.95582   12.793
 4154.00    1.07339   0.95448   12.003
 4155.00    1.07789   0.95530   11.449
 4156.00    1.05882   0.95978   11.569
 4157.00    1.02814   0.96833   11.869
 4158.00    1.00030   0.97956   11.988
 4159.00    0.98486   0.99291   12.203
 4160.00    0.98763   1.00829   12.627
 4161.00    1.01032   1.02195   12.848
 4162.00    1.04627   1.03079   12.604
 4163.00    1.08206   1.03510   12.125
 4164.00    1.10954   1.03589   11.790
 4165.00    1.12809   1.03237   11.871
 4166.00    1.13708   1.02475   12.287
 4167.00    1.13482   1.01532   12.638
 4168.00    1.12291   1.00364   12.709
 4169.00    1.10508   0.98802   12.593
 4170.00    1.08151   0.97134   12.369
 4171.00    1.04906   0.95728   12.084
 4172.00    1.00478   0.94500   11.911
 4173.00    0.95118   0.93254   12.040
 4174.00    0.90387   0.92097   12.473
 4175.00    0.88097   0.91489   13.047
 4176.00    0.88373   0.91683   13.522
 4177.00    0.90337   0.92385   13.628
 4178.00    0.93535   0.93138   13.213
 4179.00    0.97512   0.93737   12.514
 4180.00    1.01092   0.94387   12.162
 4181.00    1.03248   0.95297   12.442
 4182.00    1.04110   0.96241   12.799
 4183.00    1.04130   0.96824   12.724
 4184.00    1.03222   0.96973   12.832
 4185.00    1.01459   0.97081   13.496
 4186.00    0.99647   0.97487   13.614
 4187.00    0.98586   0.97999   12.649
 4188.00    0.98506   0.98132   12.009
 4189.00    0.99317   0.98045   12.305
 4190.00    1.00796   0.98507   12.740
 4191.00    1.02538   0.99394   12.636
 4192.00    1.03935   0.99784   12.419
 4193.00    1.04278   0.99407   12.313
 4194.00    1.02985   0.98780   11.940
 4195.00    1.00370   0.98014   11.460
 4196.00    0.97698   0.96688   11.568
 4197.00    0.96033   0.94953   12.355
 4198.00    0.95719   0.93401   13.091
 4199.00    0.96240   0.92268   13.289
 4200.00    0.96603   0.91616   13.237
 4201.00    0.96591   0.91700   13.042
 4202.00    0.96868   0.92474   12.550
 4203.00    0.98246   0.93568   12.014
 4204.00    1.01143   0.95015   11.850
 4205.00    1.04842   0.96948   12.083
 4206.00    1.07866   0.98955   12.460
 4207.00    1.09071   1.00598   12.736
 4208.00    1.08146   1.01919   12.793
 4209.00    1.06027   1.03022   12.743
 4210.00    1.04151   1.03756   12.748
 4211.00    1.03193   1.03830   12.744
 4212.00    1.03090   1.03306   12.611
 4213.00    1.03365   1.02682   12.450
 4214.00    1.03382   1.02367   12.472
 4215.00    1.02635   1.02344   12.832
 4216.00    1.01096   1.02373   13.382
 4217.00    0.99475   1.02504   13.350
 4218.00    0.98583   1.03121   12.495
 4219.00    0.98713   1.03995   11.860
 4220.00    0.99610   1.04114   11.966
 4221.00    1.00582   1.03045   12.242
 4222.00    1.01208   1.01006   12.101
 4223.00    1.01703   0.98045   11.775
 4224.00    1.02069   0.94325   11.699
 4225.00    1.01699   0.90830   12.091
 4226.00    1.00184   0.88532   -2.000
 4227.00    0.97629   0.87440   -2.000
 4228.00    0.93927   0.87435   -2.000
 4229.00    0.88565   0.88888   -2.000
 4230.00    0.81336   0.91637   -2.000
 4231.00    0.72791   0.94526   -2.000
 4232.00    0.64736   0.96744   -2.000
 4233.00    0.60138   0.98149   -2.000
 4234.00    0.62244   0.98714   -2.000
 4235.00    0.72866   0.98816   -2.000
 4236.00    0.88599   0.98931   -2.000
 4237.00    1.02531   0.99039   -2.000
 4238.00    1.10964   0.99319   -2.000
 4239.00    1.14131   1.00237   -2.000
 4240.00    1.14004   1.01530   -2.000
 4241.00    1.12919   1.02893   -2.000
 4242.00    1.11950   1.04445   11.836
 4243.00    1.11169   1.05862   11.631
 4244.00    1.10584   1.06479   11.626
 4245.00    1.10193   1.06347   11.899
 4246.00    1.09843   1.05919   12.155
 4247.00    1.09333   1.04884   12.122
 4248.00    1.08584   1.03078   12.180
 4249.00    1.07845   1.01286   12.649
 4250.00    1.07824   1.00068   12.934
 4251.00    1.08992   0.99051   12.480
 4252.00    1.10928   0.98037   11.966
 4253.00    1.12724   0.97750   11.947
 4254.00    1.13483   0.98354   12.115
 4255.00    1.12975   0.98828   12.191
 4256.00    1.11946   0.98677   12.505
 4257.00    1.11030   0.98535   13.130
 4258.00    1.10141   0.98868   13.261
 4259.00    1.09321   0.99427   12.603
 4260.00    1.09071   0.99927   12.032
 4261.00    1.09370   1.00563   11.987
 4262.00    1.09450   1.01635   12.225
 4263.00    1.09089   1.03286   12.551
 4264.00    1.08950   1.05174   13.021
 4265.00    1.09541   1.06375   13.488
 4266.00    1.10747   1.06486   13.500
 4267.00    1.11707   1.05693   13.002
 4268.00    1.11178   1.03856   12.438
 4269.00    1.08708   1.00881   12.222
 4270.00    1.04882   0.97694   12.544
 4271.00    1.00989   0.95047   13.071
 4272.00    0.98360   0.92750   13.129
 4273.00    0.97096   0.91116   12.850
 4274.00    0.96431   0.91160   12.885
 4275.00    0.96043   0.92775   13.222
 4276.00    0.96134   0.94724   13.365
 4277.00    0.97092   0.96630   13.059
 4278.00    0.99008   0.98734   12.450
 4279.00    1.01085   1.00708   11.888
 4280.00    1.02302   1.01964   11.652
 4281.00    1.02422   1.02291   11.830
 4282.00    1.01708   1.01907   12.351
 4283.00    1.00444   1.01244   12.895
 4284.00    0.99120   1.00438   13.099
 4285.00    0.98573   0.99448   12.978
 4286.00    0.98844   0.98091   12.701
 4287.00    0.98345   0.96219   12.298
 4288.00    0.95871   0.94539   11.937
 4289.00    0.92074   0.93646   12.033
 4290.00    0.87791   0.93135   12.693
 4291.00    0.83059   0.92496   13.333
 4292.00    0.78942   0.92058   13.448
 4293.00    0.77938   0.92254   13.358
 4294.00    0.79666   0.92535   13.199
 4295.00    0.79951   0.91980   12.565
 4296.00    0.77875   0.90297   11.669
 4297.00    0.77307   0.88049   11.253
 4298.00    0.78850   0.85686   11.569
 4299.00    0.78425   0.83167   12.408
 4300.00    0.74806   0.80484   13.321
 4301.00    0.70878   0.77969   13.705
 4302.00    0.68526   0.76279   13.568
 4303.00    0.67489   0.75392   13.497
 4304.00    0.66954   0.74624   13.532
 4305.00    0.66271   0.73843   13.290
 4306.00    0.65506   0.73406   12.926
 4307.00    0.65260   0.73399   12.887
 4308.00    0.66011   0.73834   13.113
 4309.00    0.67949   0.74829   13.224
 4310.00    0.70977   0.76695   13.153
 4311.00    0.74820   0.79792   13.075
 4312.00    0.79232   0.83965   13.027
 4313.00    0.84223   0.89016   12.931
 4314.00    0.90271   0.94757   12.716
 4315.00    0.97273   1.00497   12.380
 4316.00    1.03312   1.05583   12.017
 4317.00    1.06516   1.09969   11.760
 4318.00    1.07175   1.13384   11.716
 4319.00    1.06420   1.14943   11.931
 4320.00    1.04715   1.14579   12.340
 4321.00    1.02106   1.12772   12.774
 4322.00    0.98599   1.09880   12.989
 4323.00    0.94562   1.06435   12.877
 4324.00    0.90913   1.03452   12.611
 4325.00    0.88466   1.01489   12.413
 4326.00    0.87522   1.00670   12.399
 4327.00    0.88141   1.01024   12.533
 4328.00    0.90197   1.02729   12.645
 4329.00    0.92734   1.05784   12.715
 4330.00    0.94191   1.09111    0.000
 4331.00    0.94818   1.11529    0.000
 4332.00    0.96858   1.12943    0.000
 4333.00    1.01007   1.13734    0.000
 4334.00    1.05686   1.13417    0.000
 4335.00    1.09457   1.11427    0.000
 4336.00    1.11675   1.08468    0.000
 4337.00    1.11852   1.05179    0.000
 4338.00    1.09750   1.01409    0.000
 4339.00    1.06119   0.97818    0.000
 4340.00    1.02472   0.95683    0.000
 4341.00    1.00096   0.94919    0.000
 4342.00    0.99765   0.95168    0.000
 4343.00    1.01627   0.97102    0.000
 4344.00    1.05094   1.00287    0.000
 4345.00    1.08736   1.03247    0.000
 4346.00    1.10944   1.05920    0.000
 4347.00    1.10960   1.08683    0.000
 4348.00    1.08872   1.10390    0.000
 4349.00    1.05371   1.10460    0.000
 4350.00    1.01560   1.10190    0.000
 4351.00    0.98711   1.10277   13.068
 4352.00    0.97713   1.09776   12.829
 4353.00    0.98549   1.08671   12.556
 4354.00    1.00564   1.08577   12.383
 4355.00    1.02825   1.09862   12.179
 4356.00    1.04634   1.11094   11.909
 4357.00    1.05876   1.11926   11.829
 4358.00    1.06764   1.13404   12.104
 4359.00    1.07613   1.15394   12.586
 4360.00    1.08740   1.16744   12.966
 4361.00    1.10386   1.17583   12.938
 4362.00    1.12613   1.18950   12.485
 4363.00    1.15239   1.20517   11.914
 4364.00    1.17826   1.21114   11.450
 4365.00    1.19819   1.20815   11.154
 4366.00    1.21178   1.20568   11.064
 4367.00    1.22339   1.20220   11.222
 4368.00    1.23142   1.18963   11.572
 4369.00    1.22728   1.17179   11.934
 4370.00    1.20495   1.15772   12.126
 4371.00    1.16591   1.14557   12.062
 4372.00    1.12347   1.12994   11.770
 4373.00    1.09541   1.11568   11.370
 4374.00    1.08351   1.10858   11.005
 4375.00    1.07699   1.10505   10.778
 4376.00    1.07047   1.10021   10.692
 4377.00    1.06373   1.09548   10.705
 4378.00    1.05409   1.09315   10.814
 4379.00    1.03753   1.08897   11.042
 4380.00    1.01310   1.07381   11.384
 4381.00    0.98277   1.04610   11.695
 4382.00    0.95007   1.01748   11.564
 4383.00    0.92072   0.99686   10.910
 4384.00    0.90314   0.97961   10.443
 4385.00    0.90253   0.96397   10.568
 4386.00    0.91488   0.96195   10.727
 4387.00    0.93305   0.97773   10.450
 4388.00    0.95310   0.99913   10.409
 4389.00    0.97174   1.01783   11.145
 4390.00    0.98453   1.03786   12.086
 4391.00    0.99270   1.05914   12.251
 4392.00    1.00658   1.07554   11.694
 4393.00    1.03280   1.08886   11.030
 4394.00    1.06661   1.10480   10.631
 4395.00    1.09882   1.12009   10.541
 4396.00    1.12085   1.12906   10.581
 4397.00    1.12800   1.13382   10.667
 4398.00    1.12016   1.13710   10.906
 4399.00    1.09801   1.13762   11.326
 4400.00    1.06318   1.13322   11.748
 4401.00    1.02535   1.12001   11.913
 4402.00    0.99874   1.09850   11.682
 4403.00    0.98083   1.08182   11.294
 4404.00    0.95513   1.07570   11.133
 4405.00    0.92088   1.06713   11.138
 4406.00    0.89394   1.05560   10.955
 4407.00    0.88524   1.05994   10.621
 4408.00    0.89484   1.08086   10.454
 4409.00    0.91233   1.09994   10.541
 4410.00    0.92595   1.11582   10.781
 4411.00    0.93997   1.13643   11.070
 4412.00    0.96608   1.15369   11.296
 4413.00    1.00285   1.16033   11.304
 4414.00    1.04247   1.16448   11.060
 4415.00    1.08633   1.16803   10.838
 4416.00    1.13719   1.16634   10.816
 4417.00    1.18606   1.16621   10.639
 4418.00    1.22294   1.17403   10.120
 4419.00    1.25042   1.18193    9.875
 4420.00    1.26981   1.18560   10.334
 4421.00    1.26699   1.19046   11.022
 4422.00    1.23318   1.19586   11.238
 4423.00    1.18316   1.19512   11.231
 4424.00    1.13589   1.18983   11.379
 4425.00    1.09857   1.18761   11.358
 4426.00    1.07432   1.18922   10.979
 4427.00    1.06738   1.18758   10.670
 4428.00    1.07532   1.18134   10.569
 4429.00    1.08664   1.17810   10.294
 4430.00    1.09462   1.17866    9.971
 4431.00    1.10267   1.17435   10.348
 4432.00    1.11246   1.16437   11.481
 4433.00    1.12032   1.15885   11.976
 4434.00    1.12689   1.16032   11.231
 4435.00    1.13771   1.16275   10.576
 4436.00    1.15027   1.16527   10.471
 4437.00    1.15435   1.17227   10.472
 4438.00    1.14847   1.18342   10.308
 4439.00    1.14110   1.19336   10.076
 4440.00    1.13904   1.19886    9.933
 4441.00    1.14477   1.20140    9.976
 4442.00    1.15845   1.20379   10.194
 4443.00    1.17730   1.20734   10.498
 4444.00    1.19371   1.21064   10.829
 4445.00    1.19989   1.21478   11.101
 4446.00    1.19717   1.22462   11.044
 4447.00    1.19403   1.23628   10.533
 4448.00    1.19970   1.24043   10.029
 4449.00    1.21723   1.23928    9.953
 4450.00    1.23597   1.23818   10.178
 4451.00    1.24327   1.23053   10.353
 4452.00    1.24002   1.21192   10.331
 4453.00    1.23168   1.19078   10.211
 4454.00    1.21668   1.17297   10.228
 4455.00    1.19130   1.15360   10.451
 4456.00    1.15613   1.13147   10.530
 4457.00    1.11977   1.11476   10.194
 4458.00    1.09901   1.10761    9.715
 4459.00    1.09898   1.10286    9.456
 4460.00    1.10157   1.09975    9.593
 4461.00    1.09004   1.10606    0.000
 4462.00    1.06512   1.11805    0.000
 4463.00    1.03918   1.12753    0.000
 4464.00    1.02803   1.13917    0.000
 4465.00    1.02998   1.15653    0.000
 4466.00    1.02655   1.17083    0.000
 4467.00    1.03200   1.17922    0.000
 4468.00    1.09022   1.18967    0.000
 4469.00    1.17629   1.20303    0.000
 4470.00    1.20236   1.21527    0.000
 4471.00    1.16917   1.22861    0.000
 4472.00    1.16622   1.24594    0.000
 4473.00    1.21600   1.26315    0.000
 4474.00    1.26628   1.27851    0.000
 4475.00    1.29483   1.29335    0.000
 4476.00    1.31536   1.30305    0.000
 4477.00    1.32688   1.30333    0.000
 4478.00    1.31294   1.29829    0.000
 4479.00    1.26441   1.29154    0.000
 4480.00    1.19188   1.28214    0.000
 4481.00    1.13706   1.27271    0.000
 4482.00    1.13586   1.26714    6.757
 4483.00    1.16209   1.26609    6.952
 4484.00    1.17766   1.26967    6.890
 4485.00    1.20709   1.27636    6.656
 4486.00    1.27315   1.28107    6.460
 4487.00    1.31665   1.28147    6.369
 4488.00    1.28700   1.27961    6.374
 4489.00    1.23635   1.27600    6.470
 4490.00    1.21742   1.26953    6.628
 4491.00    1.19258   1.26091    6.768
 4492.00    1.13598   1.25282    6.806
 4493.00    1.10775   1.24896    6.721
 4494.00    1.14478   1.24872    6.567
 4495.00    1.19582   1.24940    6.449
 4496.00    1.22970   1.25284    6.424
 4497.00    1.28544   1.26224    6.475
 4498.00    1.35890   1.27533    6.547
 4499.00    1.37044   1.28832    6.581
 4500.00    1.31595   1.30471    6.556
 4501.00    1.29777   1.32548    6.501
 4502.00    1.34513   1.34374    6.456
 4503.00    1.38022   1.35755    6.450
 4504.00    1.37521   1.37198    6.494
 4505.00    1.37460   1.38562    6.582
 4506.00    1.37794   1.39265    6.689
 4507.00    1.34341   1.39469    6.773
 4508.00    1.30282   1.39506    6.766
 4509.00    1.33179   1.39181    6.631
 4510.00    1.40047   1.38427    6.464
 4511.00    1.41418   1.37528    6.404
 4512.00    1.37701   1.36554    6.461
 4513.00    1.36633   1.35492    6.551
 4514.00    1.41807   1.34526    6.590
 4515.00    1.49999   1.33630    6.549
 4516.00    1.51041   1.32812    6.509
 4517.00    1.38851   1.32401    6.567
 4518.00    1.26056   1.32336    6.715
 4519.00    1.26431   1.32168    6.870
 4520.00    1.31523   1.31658    6.949
 4521.00    1.28869   1.31057    6.913
 4522.00    1.24056   1.30375    6.807
 4523.00    1.25198   1.29051    6.716
 4524.00    1.26969   1.26981    6.710
 4525.00    1.24825   1.24764    6.744
 4526.00    1.26356   1.22688    6.610
 4527.00    1.33868   1.20553    6.341
 4528.00    1.33910   1.18623    6.322
 4529.00    1.20853   1.17265    6.668
 4530.00    1.09052   1.16623    6.917
 4531.00    1.08416   1.16480    6.782
 4532.00    1.12632   1.16677    6.677
 4533.00    1.15105   1.17300    6.793
 4534.00    1.16167   1.18569    6.827
 4535.00    1.16866   1.20267    6.682
 4536.00    1.16894   1.21841    6.650
 4537.00    1.18073   1.23392    6.774
 4538.00    1.23500   1.25137    6.782
 4539.00    1.30009   1.26735    6.647
 4540.00    1.29810   1.27832    6.625
 4541.00    1.22946   1.28530    6.766
 4542.00    1.17076   1.28746    6.908
 4543.00    1.17035   1.28527    6.989
 4544.00    1.22348   1.28328    7.058
 4545.00    1.28234   1.28043    7.028
 4546.00    1.29628   1.27315    6.807
 4547.00    1.28376   1.26408    6.618
 4548.00    1.28657   1.25928    6.722
 4549.00    1.26865   1.25690    7.000
 4550.00    1.18232   1.25144    0.000
 4551.00    1.09118   1.24668    0.000
 4552.00    1.08080   1.24778    0.000
 4553.00    1.11964   1.25173    0.000
 4554.00    1.14874   1.25645    0.000
 4555.00    1.20157   1.26590    0.000
 4556.00    1.30848   1.27890    0.000
 4557.00    1.39396   1.29227    0.000
 4558.00    1.39006   1.30626    0.000
 4559.00    1.33950   1.31993    0.000
 4560.00    1.30524   1.32995    0.000
 4561.00    1.29601   1.33414    0.000
 4562.00    1.31094   1.33393    0.000
 4563.00    1.36558   1.33199    0.000
 4564.00    1.43116   1.32975    0.000
 4565.00    1.42325   1.32739    0.000
 4566.00    1.35180   1.32537    0.000
 4567.00    1.35109   1.32656    0.000
 4568.00    1.42666   1.33106    0.000
 4569.00    1.40636   1.33345    0.000
 4570.00    1.24871   1.33488    0.000
 4571.00    1.11018   1.34051    0.000
 4572.00    1.10712   1.34400    0.000
 4573.00    1.23043   1.34147    0.000
 4574.00    1.36655   1.34147    0.000
 4575.00    1.37600   1.34364    0.000
 4576.00    1.28355   1.33909    0.000
 4577.00    1.23675   1.32981    0.000
 4578.00    1.27658   1.32077    0.000
 4579.00    1.33789   1.31056    0.000
 4580.00    1.37296   1.29909    0.000
 4581.00    1.37258   1.28790    0.000
 4582.00    1.35340   1.27965    0.000
 4583.00    1.33703   1.27659    0.000
 4584.00    1.32178   1.27707    0.000
 4585.00    1.30607   1.28052    0.000
 4586.00    1.32497   1.28751    0.000
 4587.00    1.39315   1.29593    0.000
 4588.00    1.43432   1.30306    0.000
 4589.00    1.38145   1.30828    0.000
 4590.00    1.28897   1.31095    0.000
 4591.00    1.23672   1.31076    0.000
 4592.00    1.22779   1.30743    0.000
 4593.00    1.22220   1.30109    0.000
 4594.00    1.18091   1.29510    0.000
 4595.00    1.11825   1.29037    0.000
 4596.00    1.11938   1.28621    0.000
 4597.00    1.20462   1.28441    0.000
 4598.00    1.26863   1.28378    0.000
 4599.00    1.26192   1.28403    0.000
 4600.00    1.26342   1.28710    0.000
 4601.00    1.29319   1.29114    0.000
 4602.00    1.26203   1.29445    0.000
 4603.00    1.18603   1.30014    0.000
 4604.00    1.21546   1.30936    0.000
 4605.00    1.36685   1.31926    0.000
 4606.00    1.48639   1.33109    0.000
 4607.00    1.48990   1.34474    0.000
 4608.00    1.41805   1.35697    0.000
 4609.00    1.34645   1.36771    0.000
 4610.00    1.33809   1.37718    0.000
 4611.00    1.39554   1.38263    0.000
 4612.00    1.46718   1.38496    0.000
 4613.00    1.49112   1.38679    0.000
 4614.00    1.43378   1.38608    0.000
 4615.00    1.34290   1.38515    0.000
 4616.00    1.30016   1.38654    0.000
 4617.00    1.32133   1.38624    0.000
 4618.00    1.36765   1.38589    0.000
 4619.00    1.39274   1.38971    0.000
 4620.00    1.38393   1.39128    0.000
 4621.00    1.40092   1.38986    0.000
 4622.00    1.48065   1.39256    0.000
 4623.00    1.53094   1.39426    0.000
 4624.00    1.47490   1.39097    0.000
 4625.00    1.39849   1.39018    0.000
 4626.00    1.39326   1.39090    0.000
 4627.00    1.41248   1.38638    0.000
 4628.00    1.39171   1.38209    0.000
 4629.00    1.34975   1.38227    0.000
 4630.00    1.34028   1.37920    0.000
 4631.00    1.40220   1.37158    0.000
 4632.00    1.49896   1.36669    0.000
 4633.00    1.51362   1.36266    0.000
 4634.00    1.41963   1.35351    0.000
 4635.00    1.33292   1.34249    0.000
 4636.00    1.31074   1.33486    0.000
 4637.00    1.29331   1.32758    0.000
 4638.00    1.27252   1.31840    0.000
 4639.00    1.31554   1.31244    0.000
 4640.00    1.38785   1.30960    0.000
 4641.00    1.36167   1.30465    0.000
 4642.00    1.24909   1.29903    0.000
 4643.00    1.19466   1.29521    0.000
 4644.00    1.24501   1.28833    0.000
 4645.00    1.32477   1.27893    0.000
 4646.00    1.34090   1.27298    0.000
 4647.00    1.24749   1.26930    0.000
 4648.00    1.12201   1.26672    0.000
 4649.00    1.09242   1.26835    0.000
 4650.00    1.17314   1.27469    0.000
 4651.00    1.27816   1.28325    0.000
 4652.00    1.29851   1.29135    0.000
 4653.00    1.20057   1.29948    0.000
 4654.00    1.13502   1.30874    0.000
 4655.00    1.24449   1.31747    0.000
 4656.00    1.41684   1.32549    0.000
 4657.00    1.47363   1.33481    0.000
 4658.00    1.40691   1.34395    0.000
 4659.00    1.31066   1.35034    0.000
 4660.00    1.28003   1.35379    0.000
 4661.00    1.32762   1.35140    0.000
 4662.00    1.34252   1.34237    0.000
 4663.00    1.27626   1.32912    0.000
 4664.00    1.25167   1.31016    0.000
 4665.00    1.32422   1.28714    0.000
 4666.00    1.36021   1.26786    0.000
 4667.00    1.28798   1.25416    0.000
 4668.00    1.21038   1.24374    0.000
 4669.00    1.20073   1.24087    0.000
 4670.00    1.22102   1.24768    0.000
 4671.00    1.24183   1.25868    0.000
 4672.00    1.27596   1.27100    0.000
 4673.00    1.29177   1.28528    0.000
 4674.00    1.22524   1.29938    0.000
 4675.00    1.13595   1.30929    0.000
 4676.00    1.17014   1.31411    0.000
 4677.00    1.29605   1.31596    0.000
 4678.00    1.33423   1.31582    0.000
 4679.00    1.24219   1.31202    0.000
 4680.00    1.12488   1.30695    0.000
 4681.00    1.08333   1.30531    0.000
 4682.00    1.14947   1.30461    0.000
 4683.00    1.23370   1.30342    0.000
 4684.00    1.22477   1.30582    0.000
 4685.00    1.17510   1.30991    0.000
 4686.00    1.20009   1.31183    0.000
 4687.00    1.27961   1.31428    0.000
 4688.00    1.32895   1.31728    0.000
 4689.00    1.33286   1.31752    0.000
 4690.00    1.31745   1.31816    0.000
 4691.00    1.29667   1.32112    0.000
 4692.00    1.27901   1.32257    0.000
 4693.00    1.27948   1.32357    0.000
 4694.00    1.30500   1.32652    0.000
 4695.00    1.34029   1.32740    0.000
 4696.00    1.35060   1.32346    0.000
 4697.00    1.29528   1.31801    0.000
 4698.00    1.20250   1.31184    0.000
 4699.00    1.19098   1.30239    0.000
 4700.00    1.27678   1.29096    0.000
 4701.00    1.30162   1.28132    0.000
 4702.00    1.20857   1.27469    0.000
 4703.00    1.14063   1.26923    0.000
 4704.00    1.17541   1.26483    0.000
 4705.00    1.23515   1.26367    0.000
 4706.00    1.25830   1.26585    0.000
 4707.00    1.25668   1.26802    0.000
 4708.00    1.25044   1.27019    0.000
 4709.00    1.24727   1.27558    0.000
 4710.00    1.25630   1.28247    0.000
 4711.00    1.28582   1.28897    0.000
 4712.00    1.32442   1.29619    0.000
 4713.00    1.35005   1.30510    0.000
 4714.00    1.36387   1.31575    0.000
 4715.00    1.37615   1.32685    0.000
 4716.00    1.36043   1.33801    0.000
 4717.00    1.29370   1.35102    0.000
 4718.00    1.24468   1.36501    0.000
 4719.00    1.29171   1.37613    0.000
 4720.00    1.36861   1.38495    0.000
 4721.00    1.37022   1.39254    0.000
 4722.00    1.33251   1.39555    0.000
 4723.00    1.33609   1.39320    0.000
 4724.00    1.35857   1.38707    0.000
 4725.00    1.35209   1.37624    0.000
 4726.00    1.34203   1.36193    0.000
 4727.00    1.34919   1.34722    0.000
 4728.00    1.31652   1.33182    0.000
 4729.00    1.22882   1.31724    0.000
 4730.00    1.19770   1.30861    0.000
 4731.00    1.27347   1.30434    0.000
 4732.00    1.33008   1.30206    0.000
 4733.00    1.28746   1.30614    0.000
 4734.00    1.23477   1.31331    0.000
 4735.00    1.24947   1.31861    0.000
 4736.00    1.30250   1.32681    0.000
 4737.00    1.34073   1.33641    0.000
 4738.00    1.33660   1.34137    0.000
 4739.00    1.30644   1.34647    0.000
 4740.00    1.29608   1.35449    0.000
 4741.00    1.29848   1.36021    0.000
 4742.00    1.26000   1.36422    0.000
 4743.00    1.20970   1.36974    0.000
 4744.00    1.24136   1.37614    0.000
 4745.00    1.33060   1.38172    0.000
 4746.00    1.36199   1.38510    0.000
 4747.00    1.33960   1.38786    0.000
 4748.00    1.35461   1.39120    0.000
 4749.00    1.38803   1.39116    0.000
 4750.00    1.35853   1.38731    0.000
 4751.00    1.30410   1.38348    0.000
 4752.00    1.31488   1.37846    0.000
 4753.00    1.35699   1.37077    0.000
 4754.00    1.34361   1.36339    0.000
 4755.00    1.28759   1.35772    0.000
 4756.00    1.25388   1.35185    0.000
 4757.00    1.26457   1.34608    0.000
 4758.00    1.29832   1.34202    0.000
 4759.00    1.30874   1.33707    0.000
 4760.00    1.27175   1.32932    0.000
 4761.00    1.22715   1.32151    8.314
 4762.00    1.22378   1.31394    8.297
 4763.00    1.26548   1.30394    8.249
 4764.00    1.31272   1.29522    8.232
 4765.00    1.30145   1.29185    8.213
 4766.00    1.24288   1.29043    8.159
 4767.00    1.26033   1.29154    8.104
 4768.00    1.38072   1.29911    8.086
 4769.00    1.44885   1.30956    8.119
 4770.00    1.38093   1.31959    8.194
 4771.00    1.27160   1.33160    8.281
 4772.00    1.22377   1.34516    8.308
 4773.00    1.26225   1.35615    8.201
 4774.00    1.33183   1.36494    8.078
 4775.00    1.33776   1.37433    8.180
 4776.00    1.28578   1.38201    8.466
 4777.00    1.27681   1.38458    8.584
 4778.00    1.32863   1.38446    8.449
 4779.00    1.36435   1.38444    8.322
 4780.00    1.34177   1.38041    8.332
 4781.00    1.28369   1.37081    8.420
 4782.00    1.25802   1.36289    8.453
 4783.00    1.31898   1.35666    8.342
 4784.00    1.39880   1.34579    8.227
 4785.00    1.39016   1.33681    8.299
 4786.00    1.33647   1.33467    8.486
 4787.00    1.34360   1.33138    8.571
 4788.00    1.38324   1.32905    8.542
 4789.00    1.37512   1.33494    8.524
 4790.00    1.34545   1.34253    8.570
 4791.00    1.35183   1.34947    8.603
 4792.00    1.36603   1.36147    8.416
 4793.00    1.34215   1.37392    7.985
 4794.00    1.30357   1.38224    7.658
 4795.00    1.29404   1.38994    7.610
 4796.00    1.32235   1.39543    7.572
 4797.00    1.37508   1.39575    7.306
 4798.00    1.43250   1.39397    6.977
 4799.00    1.47366   1.39164    6.780
 4800.00    1.48063   1.38797    6.753
 4801.00    1.44706   1.38469    6.901
 4802.00    1.38449   1.38206    7.233
 4803.00    1.32663   1.37893    7.581
 4804.00    1.31925   1.37656    7.538
 4805.00    1.35848   1.37387    7.244
 4806.00    1.38072   1.36936    7.399
 4807.00    1.35753   1.36637    8.130
 4808.00    1.32284   1.36537    8.610
 4809.00    1.31018   1.36393    8.405
 4810.00    1.32703   1.36464    8.231
 4811.00    1.35555   1.36901    8.363
 4812.00    1.36640   1.37393    8.463
 4813.00    1.35663   1.37943    8.393
 4814.00    1.34953   1.38702    8.332
 4815.00    1.36412   1.39434    8.336
 4816.00    1.39924   1.40032    8.335
 4817.00    1.41801   1.40590    8.349
 4818.00    1.38521   1.40878    8.422
 4819.00    1.34452   1.40844    8.383
 4820.00    1.36071   1.40675    8.092
 4821.00    1.39676   1.40139    7.881
 4822.00    1.38410   1.39301    8.092
 4823.00    1.35773   1.38602    8.496
 4824.00    1.38236   1.37871    8.587
 4825.00    1.43055   1.37080    8.366
 4826.00    1.44500   1.36586    8.150
 4827.00    1.42785   1.36241    8.096
 4828.00    1.40478   1.35944    8.197
 4829.00    1.37798   1.35767    8.304
 4830.00    1.33538   1.35543    8.324
 4831.00    1.26706   1.35424    8.385
 4832.00    1.19739   1.35474    8.514
 4833.00    1.19705   1.35370    8.405
 4834.00    1.29068   1.35254    8.000
 4835.00    1.40479   1.35342    7.722
 4836.00    1.45820   1.35305    7.760
 4837.00    1.42297   1.35003    7.898
 4838.00    1.33418   1.34695    7.930
 4839.00    1.27307   1.34470    7.881
 4840.00    1.27198   1.34155    7.818
 4841.00    1.28944   1.33764    7.766
 4842.00    1.29672   1.33644    7.745
 4843.00    1.30486   1.33751    7.772
 4844.00    1.32708   1.33766    7.795
 4845.00    1.36210   1.33882    7.725
 4846.00    1.38763   1.34080    7.632
 4847.00    1.37725   1.34048    7.682
 4848.00    1.35037   1.33963    0.000
 4849.00    1.34999   1.33707    0.000
 4850.00    1.35736   1.33008    0.000
 4851.00    1.32428   1.32265    0.000
 4852.00    1.28317   1.31321    0.000
 4853.00    1.29566   1.29683    0.000
 4854.00    1.31766   1.27874    0.000
 4855.00    1.27040   1.26005    0.000
 4856.00    1.19213   1.23453    0.000
 4857.00    1.15976   1.20722    0.000
 4858.00    1.14695   1.18312    0.000
 4859.00    1.10102   1.15715    0.000
 4860.00    1.05924   1.13460    0.000
 4861.00    1.07868   1.12278    0.000
 4862.00    1.14527   1.11590    0.000
 4863.00    1.19816   1.11610    0.000
 4864.00    1.17109   1.12920    0.000
 4865.00    1.06772   1.14594    0.000
 4866.00    1.00445   1.16175    0.000
 4867.00    1.06319   1.18128    0.000
 4868.00    1.19242   1.19896    0.000
 4869.00    1.31109   1.20845    0.000
 4870.00    1.38100   1.21578    0.000
 4871.00    1.39689   1.22446    0.000
 4872.00    1.37448   1.22974    0.000
 4873.00    1.33178   1.23417    0.000
 4874.00    1.28155   1.24493    0.000
 4875.00    1.24024   1.25819    8.313
 4876.00    1.22813   1.26884    8.393
 4877.00    1.25450   1.28224    8.494
 4878.00    1.30789   1.29752    8.360
 4879.00    1.34476   1.30584    8.138
 4880.00    1.31764   1.31048    8.229
 4881.00    1.26589   1.31527    8.547
 4882.00    1.27720   1.31326    8.585
 4883.00    1.32150   1.30560    8.380
 4884.00    1.29830   1.29893    8.386
 4885.00    1.23869   1.29066    8.562
 4886.00    1.24445   1.27954    8.563
 4887.00    1.28043   1.27171    8.490
 4888.00    1.26003   1.26817    8.632
 4889.00    1.25816   1.26588    8.736
 4890.00    1.37444   1.26980    8.440
 4891.00    1.48143   1.28175    8.139
 4892.00    1.42514   1.29597    8.271
 4893.00    1.32738   1.31524    8.563
 4894.00    1.35601   1.33931    8.537
 4895.00    1.42469   1.36011    8.349
 4896.00    1.39114   1.37897    8.346
 4897.00    1.28805   1.39504    8.527
 4898.00    1.22041   1.40273    8.734
 4899.00    1.24678   1.40633    8.839
 4900.00    1.34510   1.40723    8.789
 4901.00    1.41191   1.40245    8.635
 4902.00    1.39986   1.39724    8.465
 4903.00    1.39025   1.39396    8.356
 4904.00    1.43279   1.38915    8.346
 4905.00    1.46582   1.38383    8.436
 4906.00    1.44345   1.37998    8.595
 4907.00    1.39202   1.37577    8.768
 4908.00    1.33494   1.36931    8.888
 4909.00    1.26748   1.36284    8.917
 4910.00    1.20802   1.35833    8.933
 4911.00    1.20245   1.35349    9.074
 4912.00    1.26124   1.34863    9.206
 4913.00    1.34605   1.34573    9.002
 4914.00    1.40263   1.34165    8.644
 4915.00    1.39179   1.33384    8.611
 4916.00    1.34186   1.32342    8.862
 4917.00    1.32052   1.31023    8.958
 4918.00    1.33346   1.29395    8.818
 4919.00    1.34070   1.27731    8.729
 4920.00    1.34281   1.26446    8.803
 4921.00    1.36268   1.25715    8.965
 4922.00    1.37866   1.25538    9.071
 4923.00    1.35369   1.26167    9.025
 4924.00    1.30152   1.27635    8.927
 4925.00    1.26521   1.29406    8.927
 4926.00    1.27025   1.31343    9.007
 4927.00    1.31239   1.33585    9.065
 4928.00    1.35400   1.35448    9.063
 4929.00    1.36740   1.36654    9.009
 4930.00    1.37787   1.37676    8.922
 4931.00    1.40794   1.37998    8.857
 4932.00    1.42466   1.37461    8.912
 4933.00    1.39502   1.36850    9.096
 4934.00    1.33441   1.35872    9.212
 4935.00    1.28196   1.34495    9.134
 4936.00    1.27442   1.33534    9.010
 4937.00    1.31527   1.32795    8.984
 4938.00    1.36291   1.32264    9.034
 4939.00    1.37472   1.32469    9.095
 4940.00    1.33535   1.33060    0.000
 4941.00    1.26549   1.33980    0.000
 4942.00    1.21566   1.35464    0.000
 4943.00    1.22274   1.36938    0.000
 4944.00    1.28887   1.38274    0.000
 4945.00    1.37773   1.39756    0.000
 4946.00    1.43239   1.40950    0.000
 4947.00    1.43832   1.41699    0.000
 4948.00    1.42575   1.42346    0.000
 4949.00    1.41301   1.42724    0.000
 4950.00    1.39950   1.42607    0.000
 4951.00    1.39220   1.42160    0.000
 4952.00    1.40289   1.41346    0.000
 4953.00    1.42617   1.40081    0.000
 4954.00    1.44311   1.38619    0.000
 4955.00    1.43902   1.36928    0.000
 4956.00    1.41283   1.35225    0.000
 4957.00    1.38588   1.34086    0.000
 4958.00    1.37848   1.33219    0.000
 4959.00    1.37395   1.32682    0.000
 4960.00    1.34580   1.32936    0.000
 4961.00    1.30044   1.33409    0.000
 4962.00    1.26389   1.33837    0.000
 4963.00    1.25786   1.34310    0.000
 4964.00    1.28054   1.34607    0.000
 4965.00    1.29480   1.34690    0.000
 4966.00    1.28138   1.34520    0.000
 4967.00    1.28062   1.34353    0.000
 4968.00    1.32503   1.34380    0.000
 4969.00    1.38732   1.34445    0.000
 4970.00    1.41782   1.34766    0.000
 4971.00    1.38197   1.35302    0.000
 4972.00    1.31002   1.35825    0.000
 4973.00    1.29799   1.36343    0.000
 4974.00    1.35362   1.36566    0.000
 4975.00    1.35723   1.36459    0.000
 4976.00    1.27655   1.35975    0.000
 4977.00    1.22250   1.34889    0.000
 4978.00    1.24836   1.33493    0.000
 4979.00    1.29693   1.31855    0.000
 4980.00    1.32180   1.29925    0.000
 4981.00    1.32118   1.28149    0.000
 4982.00    1.29941   1.26768    0.000
 4983.00    1.25938   1.25695    0.000
 4984.00    1.21716   1.25145    0.000
 4985.00    1.20050   1.25371    0.000
 4986.00    1.23458   1.25996    0.000
 4987.00    1.31714   1.26858    0.000
 4988.00    1.37742   1.28131    0.000
 4989.00    1.34471   1.29292    0.000
 4990.00    1.28552   1.30258    0.000
 4991.00    1.31110   1.31233    0.000
 4992.00    1.39063   1.31758    0.000
 4993.00    1.42219   1.32127    0.000
 4994.00    1.37658   1.32427    0.000
 4995.00    1.29139   1.32185    0.000
 4996.00    1.23318   1.31909    0.000
 4997.00    1.23861   1.31470    0.000
 4998.00    1.26165   1.30499    0.000
 4999.00    1.25201   1.29571    0.000
 5000.00    1.23038   1.28521    0.000
 5001.00    1.22956   1.27213    0.000
 5002.00    1.24225   1.26154    0.000
 5003.00    1.25264   1.25221    0.000
 5004.00    1.26063   1.24336    0.000
 5005.00    1.26389   1.23805    0.000
 5006.00    1.25021   1.23551    0.000
 5007.00    1.22782   1.23328    0.000
 5008.00    1.23141   1.23224    0.000
 5009.00    1.26171   1.23245    0.000
 5010.00    1.27107   1.23005    0.000
 5011.00    1.23755   1.22596    0.000
 5012.00    1.18673   1.22202    0.000
 5013.00    1.14491   1.21581    0.000
 5014.00    1.12457   1.21025    0.000
 5015.00    1.13920   1.20690    0.000
 5016.00    1.19505   1.20449    0.000
 5017.00    1.25280   1.20567    0.000
 5018.00    1.25497   1.20933    0.000
 5019.00    1.22329   1.21425    0.000
 5020.00    1.22401   1.22126    0.000
 5021.00    1.23513   1.22921    0.000
 5022.00    1.19584   1.23763    0.000
 5023.00    1.15996   1.24530    0.000
 5024.00    1.21882   1.25390    0.000
 5025.00    1.31990   1.26323    0.000
 5026.00    1.35267   1.27039    0.000
 5027.00    1.32314   1.27981    0.000
 5028.00    1.29877   1.28972    0.000
 5029.00    1.29988   1.29715    9.688
 5030.00    1.30296   1.30651    9.834
 5031.00    1.26657   1.31335   10.065
 5032.00    1.19194   1.31600   10.230
 5033.00    1.16969   1.31696   10.175
 5034.00    1.25224   1.31154    9.923
 5035.00    1.35016   1.30194    9.739
 5036.00    1.37579   1.28943    9.753
 5037.00    1.35421   1.27225    9.775
 5038.00    1.33771   1.25748    9.670
 5039.00    1.33973   1.24440    9.580
 5040.00    1.33722   1.23343    9.623
 5041.00    1.28769   1.23200    9.745
 5042.00    1.19956   1.23518    9.836
 5043.00    1.14840   1.24255    9.813
 5044.00    1.17418   1.25689    9.658
 5045.00    1.24473   1.27015    9.428
 5046.00    1.31227   1.28177    9.200
 5047.00    1.34135   1.29246    9.047
 5048.00    1.31975   1.29818    9.022
 5049.00    1.26069   1.30062    9.130
 5050.00    1.19744   1.30217    9.221
 5051.00    1.17044   1.30411    9.091
 5052.00    1.19739   1.30730    8.917
 5053.00    1.26312   1.31275    9.044
 5054.00    1.31724   1.32175    9.358
 5055.00    1.30963   1.33207    9.418
 5056.00    1.26380   1.34281    9.239
 5057.00    1.24430   1.35340    9.158
 5058.00    1.26850   1.36153    9.195
 5059.00    1.31045   1.36728    9.194
 5060.00    1.33562   1.36879    9.169
 5061.00    1.32564   1.36612    9.183
 5062.00    1.30305   1.36098    9.103
 5063.00    1.29937   1.35132    8.857
 5064.00    1.31237   1.34016    8.732
 5065.00    1.32622   1.32930    8.916
 5066.00    1.33838   1.31743    9.096
 5067.00    1.34902   1.30844    8.940
 5068.00    1.34856   1.30200    8.689
 5069.00    1.32257   1.29658    8.651
 5070.00    1.26140   1.29389    8.835
 5071.00    1.19412   1.29279    9.064
 5072.00    1.19576   1.29128    9.081
 5073.00    1.26876   1.28870    8.899
 5074.00    1.29647   1.28583    8.901
 5075.00    1.23236   1.28122    9.190
 5076.00    1.17733   1.27361    9.349
 5077.00    1.20207   1.26503    9.200
 5078.00    1.27104   1.25624    9.118
 5079.00    1.32113   1.24756    9.239
 5080.00    1.30824   1.23990    9.300
 5081.00    1.24177   1.23570    9.261
 5082.00    1.17878   1.23639    9.391
 5083.00    1.16103   1.24004    9.619
 5084.00    1.19056   1.24707    9.539
 5085.00    1.22446   1.25849    9.233
 5086.00    1.21029   1.27133    9.158
 5087.00    1.17719   1.28383    9.351
 5088.00    1.19889   1.29658    9.502
 5089.00    1.25946   1.30825    9.452
 5090.00    1.29020   1.31744    9.284
 5091.00    1.30059   1.32390    9.157
 5092.00    1.33715   1.32718    9.174
 5093.00    1.36983   1.32740    9.265
 5094.00    1.34436   1.32392    9.325
 5095.00    1.28821   1.31675    9.454
 5096.00    1.26009   1.30805    9.759
 5097.00    1.26286   1.29802   10.011
 5098.00    1.26587   1.28805    9.942
 5099.00    1.24641   1.28028    9.759
 5100.00    1.21052   1.27381    9.718
 5101.00    1.20314   1.27050    9.704
 5102.00    1.24332   1.26959    9.582
 5103.00    1.27551   1.26781    9.486
 5104.00    1.26419   1.26780    9.553
 5105.00    1.25843   1.26756    9.725
 5106.00    1.28414   1.26493    9.887
 5107.00    1.28343   1.26433    9.977
 5108.00    1.23253   1.26351    9.961
 5109.00    1.19605   1.26331    9.849
 5110.00    1.20979   1.26801    9.798
 5111.00    1.23479   1.27259   10.063
 5112.00    1.25065   1.27982   10.504
 5113.00    1.28393   1.29140   10.459
 5114.00    1.33534   1.30009    9.941
 5115.00    1.36461   1.30933    9.711
 5116.00    1.34825   1.31817    9.952
 5117.00    1.29870   1.32108   10.240
 5118.00    1.25482   1.32164   10.200
 5119.00    1.25551   1.31785    9.850
 5120.00    1.27853   1.30851    9.569
 5121.00    1.26632   1.29709    9.704
 5122.00    1.22730   1.28251    9.989
 5123.00    1.21863   1.26726    9.826
 5124.00    1.25776   1.25338    9.441
 5125.00    1.31844   1.24062    9.401
 5126.00    1.35955   1.23215    9.548
 5127.00    1.34303   1.22722    9.447
 5128.00    1.25506   1.22515    9.320
 5129.00    1.12935   1.22763    9.551
 5130.00    1.06806   1.23252    9.858
 5131.00    1.13671   1.23873    9.765
 5132.00    1.24050   1.24556    9.533
 5133.00    1.26596   1.25233    9.547
 5134.00    1.24352   1.25760    9.645
 5135.00    1.23987   1.25893    9.545
 5136.00    1.24405   1.26007    9.312
 5137.00    1.23164   1.25820    9.129
 5138.00    1.22242   1.25136    9.078
 5139.00    1.23447   1.24781    9.148
 5140.00    1.25154   1.24179    9.242
 5141.00    1.25954   1.23362    9.256
 5142.00    1.26631   1.23155    9.149
 5143.00    1.26786   1.22647    9.043
 5144.00    1.23956   1.22181    9.177
 5145.00    1.19416   1.22328    9.506
 5146.00    1.18974   1.22031    9.586
 5147.00    1.23432   1.21793    9.306
 5148.00    1.26809   1.22041    9.081
 5149.00    1.26099   1.21956    9.075
 5150.00    1.23599   1.21974    9.122
 5151.00    1.21598   1.22319    9.150
 5152.00    1.20505   1.22585    9.244
 5153.00    1.18982   1.23177    9.408
 5154.00    1.15869   1.23989    9.538
 5155.00    1.14743   1.24731    9.580
 5156.00    1.20231   1.25763    9.550
 5157.00    1.27394   1.26701    9.467
 5158.00    1.27469   1.27213    9.363
 5159.00    1.23560   1.27527    9.358
 5160.00    1.24251   1.27153    9.531
 5161.00    1.27526   1.26035    9.703
 5162.00    1.26292   1.24372    9.653
 5163.00    1.20767   1.21765    9.571
 5164.00    1.15174   1.18662    9.724
 5165.00    1.10920   1.15333    9.958
 5166.00    1.07590   1.11678   10.009
 5167.00    1.05113   1.08330    9.999
 5168.00    1.03134   1.05451   10.135
 5169.00    1.00309   1.03174   10.338
 5170.00    0.96176   1.01845   10.470
 5171.00    0.92636   1.01364   10.576
 5172.00    0.91572   1.01770   10.688
 5173.00    0.92984   1.03001   10.663
 5174.00    0.96060   1.04910   10.453
 5175.00    0.99961   1.07196   10.262
 5176.00    1.03375   1.09268   10.254
 5177.00    1.04710   1.11114   10.425
 5178.00    1.04691   1.12697   10.596
 5179.00    1.06549   1.13373   10.487
 5180.00    1.10282   1.13227   10.172
 5181.00    1.11732   1.12698   10.060
 5182.00    1.10116   1.11887   10.185
 5183.00    1.09078   1.11231   10.168
 5184.00    1.09119   1.10786    9.931
 5185.00    1.07254   1.10973    9.784
 5186.00    1.04707   1.12125    9.817
 5187.00    1.06164   1.13309    9.880
 5188.00    1.11032   1.14756    9.891
 5189.00    1.14177   1.16688    9.865
 5190.00    1.13616   1.18122    0.000
 5191.00    1.11332   1.19235    0.000
 5192.00    1.10864   1.20139    0.000
 5193.00    1.14620   1.20670    0.000
 5194.00    1.20095   1.21409    0.000
 5195.00    1.22706   1.22133    0.000
 5196.00    1.21448   1.22578    0.000
 5197.00    1.18531   1.23402    0.000
 5198.00    1.17325   1.24305    0.000
 5199.00    1.18841   1.24712    0.000
 5200.00    1.18399   1.24924    0.000
 5201.00    1.14074   1.24786    0.000
 5202.00    1.14988   1.24151    0.000
 5203.00    1.25774   1.23152    0.000
 5204.00    1.33066   1.21853    0.000
 5205.00    1.27105   1.20562    0.000
 5206.00    1.18575   1.19326    0.000
 5207.00    1.17676   1.18494    0.000
 5208.00    1.19583   1.18335    0.000
 5209.00    1.19251   1.18434    0.000
 5210.00    1.19943   1.19229    0.000
 5211.00    1.21991   1.20704    8.569
 5212.00    1.18993   1.22099    8.760
 5213.00    1.12997   1.23697    8.911
 5214.00    1.16814   1.25407    8.876
 5215.00    1.29905   1.26803    8.729
 5216.00    1.35328   1.27970    8.719
 5217.00    1.29576   1.28952    8.884
 5218.00    1.26499   1.29651    9.012
 5219.00    1.30829   1.29961    9.005
 5220.00    1.34386   1.29962    8.964
 5221.00    1.32018   1.29672    8.987
 5222.00    1.25242   1.28988    9.091
 5223.00    1.18841   1.27935    9.184
 5224.00    1.17611   1.26796    9.150
 5225.00    1.21319   1.25569    9.062
 5226.00    1.25732   1.24480    9.100
 5227.00    1.27030   1.23908    9.311
 5228.00    1.24513   1.23537    9.588
 5229.00    1.23373   1.23777    9.699
 5230.00    1.28440   1.24537    9.516
 5231.00    1.34562   1.25176    9.342
 5232.00    1.34751   1.26435    9.457
 5233.00    1.32350   1.27791    9.616
 5234.00    1.32901   1.28724    9.517
 5235.00    1.33458   1.30043    9.439
 5236.00    1.30624   1.31238    9.660
 5237.00    1.29141   1.32239    9.864
 5238.00    1.32634   1.33403    9.734
 5239.00    1.35630   1.34304    9.579
 5240.00    1.33559   1.35053    9.663
 5241.00    1.30369   1.35625    9.754
 5242.00    1.31602   1.35768    9.636
 5243.00    1.38757   1.35542    9.466
 5244.00    1.47156   1.35117    9.425
 5245.00    1.47257   1.34475    9.534
 5246.00    1.37674   1.33515    9.726
 5247.00    1.28831   1.32457    9.895
 5248.00    1.26865   1.31427    9.991
 5249.00    1.28299   1.30663   10.048
 5250.00    1.30327   1.30049   10.035
 5251.00    1.33531   1.29389    9.864
 5252.00    1.35697   1.29455    9.648
 5253.00    1.32564   1.29925    9.616
 5254.00    1.27162   1.30211    9.721
 5255.00    1.27614   1.30814    9.685
 5256.00    1.33126   1.31390    9.459
 5257.00    1.35701   1.31731    9.232
 5258.00    1.33582   1.31708    9.146
 5259.00    1.30546   1.30944    9.222
 5260.00    1.27515   1.29803    9.313
 5261.00    1.23410   1.28122    9.243
 5262.00    1.19929   1.25746    9.114
 5263.00    1.19624   1.23251    9.129
 5264.00    1.21455   1.20706    9.267
 5265.00    1.22158   1.18099    9.395
 5266.00    1.19358   1.16009    9.504
 5267.00    1.13624   1.14569    9.632
 5268.00    1.10034   1.13739    9.710
 5269.00    1.12530   1.13623    9.683
 5270.00    1.18047   1.14008    9.654
 5271.00    1.22156   1.15094    9.711
 5272.00    1.24764   1.17013    9.770
 5273.00    1.26751   1.18981    9.737
 5274.00    1.27087   1.20932    9.667
 5275.00    1.26113   1.23489    9.631
 5276.00    1.27291   1.25813    9.623
 5277.00    1.31362   1.27584    9.610
 5278.00    1.33720   1.29404    9.573
 5279.00    1.32040   1.30684    9.546
 5280.00    1.29652   1.31530    9.610
 5281.00    1.29621   1.32492    9.746
 5282.00    1.32104   1.33184    9.796
 5283.00    1.36505   1.33794    9.709
 5284.00    1.41859   1.34577    9.609
 5285.00    1.44459   1.35443    9.609
 5286.00    1.40039   1.36625    9.738
 5287.00    1.33869   1.37836    9.909
 5288.00    1.37366   1.38798    9.958
 5289.00    1.48485   1.39699    9.842
 5290.00    1.53948   1.40341    9.684
 5291.00    1.49907   1.40467    9.674
 5292.00    1.42679   1.40078    9.937
 5293.00    1.38030   1.39246   10.254
 5294.00    1.38190   1.38089   10.225
 5295.00    1.41124   1.36865    9.941
 5296.00    1.43787   1.35508    9.743
 5297.00    1.47634   1.34123    9.596
 5298.00    1.52938   1.33178   -2.000
 5299.00    1.49655   1.32686   -2.000
 5300.00    1.31252   1.32731   -2.000
 5301.00    1.13352   1.33219   -2.000
 5302.00    1.13202   1.33990   -2.000
 5303.00    1.24224   1.35261   -2.000
 5304.00    1.32328   1.36768   -2.000
 5305.00    1.35113   1.38147   -2.000
 5306.00    1.36420   1.39405   -2.000
 5307.00    1.39493   1.40532   -2.000
 5308.00    1.45272   1.41426   -2.000
 5309.00    1.51604   1.42023   -2.000
 5310.00    1.54306   1.42378   -2.000
 5311.00    1.49058   1.42433   -2.000
 5312.00    1.38207   1.42211    8.950
 5313.00    1.32298   1.41920    9.021
 5314.00    1.36103   1.41459    9.066
 5315.00    1.43216   1.40793    8.959
 5316.00    1.46904   1.40130    8.783
 5317.00    1.45269   1.39339    8.847
 5318.00    1.40346   1.38519    9.130
 5319.00    1.36631   1.37707    9.209
 5320.00    1.37536   1.36561    9.026
 5321.00    1.43251   1.35388    8.972
 5322.00    1.48363   1.34190    9.118
 5323.00    1.45234   1.32584    9.218
 5324.00    1.34991   1.30797    9.286
 5325.00    1.26119   1.29174    9.553
 5326.00    1.23710   1.27802    9.891
 5327.00    1.27277   1.26667    9.902
 5328.00    1.31968   1.25814    9.672
 5329.00    1.32971   1.25480    9.575
 5330.00    1.32737   1.26096    9.635
 5331.00    1.35766   1.27169    9.681
 5332.00    1.38456   1.28248    9.710
 5333.00    1.35696   1.29727    9.806
 5334.00    1.31943   1.31350    9.935
 5335.00    1.33166   1.32705   10.022
 5336.00    1.35493   1.33543   10.089
 5337.00    1.32968   1.34013   10.208
 5338.00    1.27234   1.34359   10.403
 5339.00    1.24055   1.34384   10.602
 5340.00    1.28365   1.34229   10.609
 5341.00    1.38788   1.33914   10.370
 5342.00    1.45148   1.33728   10.154
 5343.00    1.42541   1.33908   10.138
 5344.00    1.39508   1.33860   10.227
 5345.00    1.40962   1.33941   10.299
 5346.00    1.39628   1.34390   10.366
 5347.00    1.33954   1.34795   10.431
 5348.00    1.34648   1.35408   10.424
 5349.00    1.43782   1.36041   10.340
 5350.00    1.48768   1.36818   10.273
 5351.00    1.43462   1.38016   10.268
 5352.00    1.34711   1.39209   10.289
 5353.00    1.30492   1.40417   10.271
 5354.00    1.34262   1.41645   10.170
 5355.00    1.42398   1.42810   10.001
 5356.00    1.47050   1.43798    9.833
 5357.00    1.46642   1.44315    9.734
 5358.00    1.45830   1.44511    9.742
 5359.00    1.47301   1.44456    9.842
 5360.00    1.50275   1.43942    9.951
 5361.00    1.52124   1.43055    9.921
 5362.00    1.50645   1.41976    9.682
 5363.00    1.47553   1.40647    9.479
 5364.00    1.45884   1.39278    9.566
 5365.00    1.44517   1.37859    9.762
 5366.00    1.41233   1.36272    9.721
 5367.00    1.38485   1.34940    9.525
 5368.00    1.39191   1.33866    9.433
 5369.00    1.40436   1.33033    9.458
 5370.00    1.39330   1.32529    9.528
 5371.00    1.40030   1.32393    9.675
 5372.00    1.44899   1.32701    9.769
 5373.00    1.46063   1.33430    9.278
 5374.00    1.39867   1.34541    8.171
 5375.00    1.38290   1.35655    7.149
 5376.00    1.48498   1.36809    6.554
 5377.00    1.58637   1.37952    6.334
 5378.00    1.58845   1.38748    6.357
 5379.00    1.54506   1.39291    6.454
 5380.00    1.52034   1.39600    6.537
 5381.00    1.50779   1.39656    6.657
 5382.00    1.49726   1.39555    6.747
 5383.00    1.50263   1.39394    6.590
 5384.00    1.50991   1.39070    6.458
 5385.00    1.47307   1.38668    7.068
 5386.00    1.39928   1.38275    8.713
 5387.00    1.35590   1.37681   10.159
 5388.00    1.36784   1.37003   10.131
 5389.00    1.39954   1.36266    9.983
 5390.00    1.41773   1.35328   10.353
 5391.00    1.41127   1.34391   10.579
 5392.00    1.38814   1.33394   10.445
 5393.00    1.36839   1.32314   10.392
 5394.00    1.36941   1.31534   10.445
 5395.00    1.39399   1.30838   10.331
 5396.00    1.41443   1.30174   10.234
 5397.00    1.39745   1.29759   10.491
 5398.00    1.35464   1.29414   10.846
 5399.00    1.32265   1.29261   10.765
 5400.00    1.31638   1.29084   10.442
 5401.00    1.32951   1.28654   10.337
 5402.00    1.34676   1.28308   10.401
 5403.00    1.35473   1.28022   10.391
 5404.00    1.35244   1.27517   10.317
 5405.00    1.34234   1.26914   10.263
 5406.00    1.32076   1.26532   -2.000
 5407.00    1.29793   1.26530   -2.000
 5408.00    1.30950   1.26860   -2.000
 5409.00    1.33856   1.27426   -2.000
 5410.00    1.27849   1.28251   -2.000
 5411.00    1.16422   1.29408   -2.000
 5412.00    1.26878   1.30907   -2.000
 5413.00    1.57667   1.32383   -2.000
 5414.00    1.57314   1.33676   -2.000
 5415.00    1.05841   1.34942   -2.000
 5416.00    0.49598   1.36012   -2.000
 5417.00    0.34271   1.36881   -2.000
 5418.00    0.70104   1.37522   -2.000
 5419.00    1.35016   1.37737   -2.000
 5420.00    1.87891   1.37739   -2.000
 5421.00    2.10503   1.37731   -2.000
 5422.00    2.13717   1.37536   -2.000
 5423.00    2.03526   1.37261   -2.000
 5424.00    1.77347   1.36870   -2.000
 5425.00    1.47410   1.36183   -2.000
 5426.00    1.35123   1.35741   -2.000
 5427.00    1.39246   1.35338   -2.000
 5428.00    1.41623   1.34522   -2.000
 5429.00    1.38337   1.33800   -2.000
 5430.00    1.36890   1.33011    7.305
 5431.00    1.36872   1.32357    7.306
 5432.00    1.33573   1.32147    7.486
 5433.00    1.30507   1.31818    7.662
 5434.00    1.33729   1.31887    7.478
 5435.00    1.40338   1.32470    7.126
 5436.00    1.43865   1.33237    6.951
 5437.00    1.43482   1.34349    6.969
 5438.00    1.41306   1.35503    7.078
 5439.00    1.38015   1.36703    7.246
 5440.00    1.34975   1.37741    7.405
 5441.00    1.36248   1.38398    7.340
 5442.00    1.42100   1.38661    7.048
 5443.00    1.44504   1.38490    6.917
 5444.00    1.40197   1.38136    7.103
 5445.00    1.38886   1.37404    7.216
 5446.00    1.45107   1.36511    6.971
 5447.00    1.48246   1.35724    6.695
 5448.00    1.42452   1.35009    6.795
 5449.00    1.36210   1.34638    7.606
 5450.00    1.35329   1.34294    9.241
 5451.00    1.35738   1.33911   10.655
 5452.00    1.34511   1.33778   10.629
 5453.00    1.33889   1.33706   10.163
 5454.00    1.35424   1.33561   10.020
 5455.00    1.37842   1.33465    9.962
 5456.00    1.38492   1.33337    9.905
 5457.00    1.35458   1.33377   10.063
 5458.00    1.32186   1.33638   10.308
 5459.00    1.34617   1.33727   10.199
 5460.00    1.39697   1.33925    9.816
 5461.00    1.39254   1.34145    9.603
 5462.00    1.36545   1.34232    9.573
 5463.00    1.40994   1.34416    9.478
 5464.00    1.49126   1.34462    9.347
 5465.00    1.50551   1.34546    9.362
 5466.00    1.46078   1.34662    9.498
 5467.00    1.42887   1.34586    9.625
 5468.00    1.41565   1.34539    9.775
 5469.00    1.39390   1.34349   10.022
 5470.00    1.37692   1.33982   10.231
 5471.00    1.38345   1.33506   10.266
 5472.00    1.38527   1.32750   10.324
 5473.00    1.35726   1.32011   10.560
 5474.00    1.33277   1.31289   10.638
 5475.00    1.33620   1.30526   10.323
 5476.00    1.32306   1.29974   10.054
 5477.00    1.27518   1.29434   10.178
 5478.00    1.26892   1.29223   10.499
 5479.00    1.33964   1.29463   10.703
 5480.00    1.39817   1.29750   10.723
 5481.00    1.37684   1.30221   10.675
 5482.00    1.31551   1.30768   10.712
 5483.00    1.27956   1.31440   10.839
 5484.00    1.30444   1.32234   10.871
 5485.00    1.37287   1.32911   10.779
 5486.00    1.42296   1.33456   10.784
 5487.00    1.42792   1.33908   10.926
 5488.00    1.41442   1.34263   10.979
 5489.00    1.39680   1.34520   10.859
 5490.00    1.36456   1.34803   10.717
 5491.00    1.32767   1.34938   10.628
 5492.00    1.31716   1.35012   10.548
 5493.00    1.34150   1.35087   10.459
 5494.00    1.38067   1.35086   10.377
 5495.00    1.40528   1.35152   10.268
 5496.00    1.39489   1.35127   10.103
 5497.00    1.36584   1.34991    9.995
 5498.00    1.35431   1.34820   10.062
 5499.00    1.37097   1.34658   10.160
 5500.00    1.39871   1.34482   10.049
 5501.00    1.40570   1.34174    9.820
 5502.00    1.37356   1.33742    9.690
 5503.00    1.33362   1.33387    9.659
 5504.00    1.32927   1.33140    9.633
 5505.00    1.36029   1.32783    9.609
 5506.00    1.39992   1.32472    9.602
 5507.00    1.42424   1.32147    9.531
 5508.00    1.42361   1.31852    9.376
 5509.00    1.40919   1.31787    9.297
 5510.00    1.39484   1.31602    9.383
 5511.00    1.38078   1.31458    9.468
 5512.00    1.35933   1.31516    9.438
 5513.00    1.32400   1.31577    9.449
 5514.00    1.29364   1.31964    9.512
 5515.00    1.31565   1.32496    9.306
 5516.00    1.38346   1.33087    8.868
 5517.00    1.41333   1.33898    8.723
 5518.00    1.39289   1.34656    9.018
 5519.00    1.41929   1.35428    9.318
 5520.00    1.49745   1.36077    9.274
 5521.00    1.50155   1.36419    9.033
 5522.00    1.41273   1.36564    8.822
 5523.00    1.35502   1.36458    8.744
 5524.00    1.36642   1.36102    8.812
 5525.00    1.36973   1.35662    8.963
 5526.00    1.34489   1.35104    9.053
 5527.00    1.34407   1.34515    8.955
 5528.00    1.38076   1.34070    8.812
 5529.00    1.42067   1.33715    8.891
 5530.00    1.43528   1.33628    9.164
 5531.00    1.41567   1.33712    9.373
 5532.00    1.37290   1.33860    9.430
 5533.00    1.33474   1.34125    9.460
 5534.00    1.33791   1.34415    9.610
 5535.00    1.39380   1.34848    9.929
 5536.00    1.44045   1.35261   10.198
 5537.00    1.41806   1.35680   10.138
 5538.00    1.37970   1.36114    9.866
 5539.00    1.39661   1.36436    9.676
 5540.00    1.42871   1.36835    9.715
 5541.00    1.41122   1.37184    9.931
 5542.00    1.36187   1.37440   10.014
 5543.00    1.33131   1.37696    9.805
 5544.00    1.34320   1.37881    9.667
 5545.00    1.38191   1.38094    9.850
 5546.00    1.39569   1.38368   10.080
 5547.00    1.36829   1.38581   10.032
 5548.00    1.35787   1.38800    9.775
 5549.00    1.40042   1.39024    9.544
 5550.00    1.45438   1.39150    9.506
 5551.00    1.45922   1.39210    9.656
 5552.00    1.38269   1.39164    9.807
 5553.00    1.27560   1.38986    9.887
 5554.00    1.25775   1.38740   10.032
 5555.00    1.34310   1.38444   10.210
 5556.00    1.41324   1.38087   10.147
 5557.00    1.41313   1.37746    9.893
 5558.00    1.39218   1.37358    9.827
 5559.00    1.38278   1.36916   10.069
 5560.00    1.37483   1.36546   10.440
 5561.00    1.36556   1.36099   10.712
 5562.00    1.36613   1.35635   10.750
 5563.00    1.37973   1.35185   10.620
 5564.00    1.39730   1.34681   10.501
 5565.00    1.40192   1.34311   10.458
 5566.00    1.38599   1.33933   10.451
 5567.00    1.38066   1.33631   10.430
 5568.00    1.41786   1.33431   10.394
 5569.00    1.45869   1.33295   10.445
 5570.00    1.44697   1.33354   10.658
 5571.00    1.40498   1.33419   10.860
 5572.00    1.38428   1.33617   10.832
 5573.00    1.38393   1.33883   10.688
 5574.00    1.37938   1.34125   10.627
 5575.00    1.36758   1.34526   10.623
 5576.00    1.35672   1.34896   10.574
 5577.00    1.35088   1.35122   10.475
 5578.00    1.35212   1.35323   10.348
 5579.00    1.36228   1.35367   10.185
 5580.00    1.37115   1.35212   10.046
 5581.00    1.35298   1.34909   10.092
 5582.00    1.30888   1.34289   10.292
 5583.00    1.28561   1.33433   10.291
 5584.00    1.30596   1.32537   10.024
 5585.00    1.33537   1.31454    9.933
 5586.00    1.33767   1.30353   10.129
 5587.00    1.30685   1.29360   10.169
 5588.00    1.26820   1.28426    9.949
 5589.00    1.26435   1.27917    9.915
 5590.00    1.30016   1.27681   10.079
 5591.00    1.33708   1.27681    9.937
 5592.00    1.35418   1.27987    9.572
 5593.00    1.35989   1.28307    9.584
 5594.00    1.35783   1.28790   10.018
 5595.00    1.34348   1.29304   10.334
 5596.00    1.32479   1.29736   10.243
 5597.00    1.31800   1.30123    9.943
 5598.00    1.32395   1.30328    9.623
 5599.00    1.32751   1.30409    9.367
 5600.00    1.30918   1.30618    9.252
 5601.00    1.26694   1.30959    9.283
 5602.00    1.24841   1.31396    9.235
 5603.00    1.29562   1.32050    8.983
 5604.00    1.35262   1.32792    8.994
 5605.00    1.35325   1.33824    9.509
 5606.00    1.35703   1.34922    9.298
 5607.00    1.42800   1.35860    7.787
 5608.00    1.47409   1.36655    6.789
 5609.00    1.40836   1.37124    6.946
 5610.00    1.32904   1.37386    7.532
 5611.00    1.33940   1.37286    7.537
 5612.00    1.37385   1.36880    7.270
 5613.00    1.35616   1.36252    7.321
 5614.00    1.33159   1.35361    7.528
 5615.00    1.34921   1.34483    7.514
 5616.00    1.37848   1.33597    7.199
 5617.00    1.38988   1.32956    6.949
 5618.00    1.40042   1.32604    7.367
 5619.00    1.40971   1.32277    8.669
 5620.00    1.37920   1.32077    9.777
 5621.00    1.32022   1.31964    9.518
 5622.00    1.30890   1.32063    8.956
 5623.00    1.35515   1.32293    8.822
 5624.00    1.38244   1.32464    8.853
 5625.00    1.37340   1.32640    8.787
 5626.00    1.38821   1.32944    8.632
 5627.00    1.43507   1.33462    8.524
 5628.00    1.45797   1.34015    8.626
 5629.00    1.43093   1.34497    9.038
 5630.00    1.37790   1.34933    9.640
 5631.00    1.34887   1.35289    9.592
 5632.00    1.37822   1.35563    8.336
 5633.00    1.41056   1.35636    7.229
 5634.00    1.36545   1.35475    7.162
 5635.00    1.29151   1.35182    7.704
 5636.00    1.28900   1.34791    7.829
 5637.00    1.32989   1.34338    7.531
 5638.00    1.33229   1.33900    7.467
 5639.00    1.31443   1.33548    7.601
 5640.00    1.33159   1.33284    7.568
 5641.00    1.36519   1.33166    7.331
 5642.00    1.36303   1.33109    7.195
 5643.00    1.30475   1.33196    7.672
 5644.00    1.22520   1.33448    9.195
 5645.00    1.21909   1.33716   11.087
 5646.00    1.32670   1.34054   11.396
 5647.00    1.44745   1.34325   10.617
 5648.00    1.48403   1.34573   10.163
 5649.00    1.45371   1.34778   10.116
 5650.00    1.42183   1.34834   10.169
 5651.00    1.43965   1.34764   10.083
 5652.00    1.48390   1.34542    9.923
 5653.00    1.45453   1.34177   10.039
 5654.00    1.34793   1.33648   10.453
 5655.00    1.29802   1.33000   10.632
 5656.00    1.33004   1.32265   10.441
 5657.00    1.31277   1.31586   10.426
 5658.00    1.24306   1.31002   10.627
 5659.00    1.27511   1.30440   10.442
 5660.00    1.40185   1.30137    9.898
 5661.00    1.44122   1.30120    9.621
 5662.00    1.35548   1.30263    9.723
 5663.00    1.27236   1.30515    9.869
 5664.00    1.26289   1.30865    9.852
 5665.00    1.30218   1.31436    9.726
 5666.00    1.32841   1.32104    9.653
 5667.00    1.29948   1.32724    9.742
 5668.00    1.27505   1.33268    9.834
 5669.00    1.33664   1.33879    9.695
 5670.00    1.41676   1.34570    9.490
 5671.00    1.40381   1.35249    9.504
 5672.00    1.35322   1.35871    9.671
 5673.00    1.37034   1.36437    9.782
 5674.00    1.40657   1.36936    9.866
 5675.00    1.38147   1.37319   10.025
 5676.00    1.35838   1.37499   10.136
 5677.00    1.41347   1.37532   10.079
 5678.00    1.48108   1.37437   10.026
 5679.00    1.47150   1.37148   10.142
 5680.00    1.39439   1.36705   10.323
 5681.00    1.31078   1.36135   10.433
 5682.00    1.27715   1.35585   10.532
 5683.00    1.29957   1.35008   10.660
 5684.00    1.31793   1.34534   10.675
 5685.00    1.30735   1.34190   10.528
 5686.00    1.32382   1.34009   10.391
 5687.00    1.37825   1.33952   10.387
 5688.00    1.39144   1.33993   10.463
 5689.00    1.33999   1.34253   10.506
 5690.00    1.29984   1.34640   10.420
 5691.00    1.30835   1.35136   10.239
 5692.00    1.32679   1.35507   10.096
 5693.00    1.33609   1.35836   10.010
 5694.00    1.35505   1.36046    9.883
 5695.00    1.37523   1.36050    9.717
 5696.00    1.36653   1.35945    9.599
 5697.00    1.35735   1.35603    9.499
 5698.00    1.40408   1.35177    9.321
 5699.00    1.45683   1.34543    9.129
 5700.00    1.41603   1.33815    9.073
 5701.00    1.33137   1.33126    9.153
 5702.00    1.32885   1.32338    9.266
 5703.00    1.38511   1.31610    9.354
 5704.00    1.39113   1.30926    9.417
 5705.00    1.33564   1.30251    9.474
 5706.00    1.27664   1.29648    9.550
 5707.00    1.25075   1.29086    9.662
 5708.00    1.26745   1.28680    9.790
 5709.00    1.31945   1.28542    9.832
 5710.00    1.37970   1.28562    9.752
 5711.00    1.40054   1.28904    9.730
 5712.00    1.35939   1.29510    9.936
 5713.00    1.30092   1.30290   10.299
 5714.00    1.28964   1.31380   10.546
 5715.00    1.35758   1.32536   -2.000
 5716.00    1.45530   1.33727   -2.000
 5717.00    1.44407   1.34925   -2.000
 5718.00    1.29276   1.36014   -2.000
 5719.00    1.17355   1.37003   -2.000
 5720.00    1.19818   1.37866   -2.000
 5721.00    1.28613   1.38500   -2.000
 5722.00    1.35114   1.38992   -2.000
 5723.00    1.38861   1.39327   -2.000
 5724.00    1.39234   1.39463   -2.000
 5725.00    1.33471   1.39447   -2.000
 5726.00    1.25346   1.39307   -2.000
 5727.00    1.24530   1.39151   -2.000
 5728.00    1.31607   1.38922   -2.000
 5729.00    1.37542   1.38770   -2.000
 5730.00    1.38919   1.38647   -2.000
 5731.00    1.39530   1.38555   -2.000
 5732.00    1.41332   1.38505   -2.000
 5733.00    1.43233   1.38507   -2.000
 5734.00    1.44339   1.38664   -2.000
 5735.00    1.44883   1.38793    9.542
 5736.00    1.46392   1.38896    9.381
 5737.00    1.49624   1.38954    9.394
 5738.00    1.51018   1.38986    9.552
 5739.00    1.47583   1.39045    9.627
 5740.00    1.45174   1.39051    0.000
 5741.00    1.49524   1.39012    0.000
 5742.00    1.52700   1.38936    0.000
 5743.00    1.46534   1.38862    0.000
 5744.00    1.40216   1.38775    0.000
 5745.00    1.43917   1.38683    0.000
 5746.00    1.50129   1.38531    0.000
 5747.00    1.49165   1.38293    0.000
 5748.00    1.44699   1.38003    0.000
 5749.00    1.43045   1.37674    0.000
 5750.00    1.43612   1.37428    0.000
 5751.00    1.44291   1.37178    0.000
 5752.00    1.45508   1.36913    0.000
 5753.00    1.46895   1.36630    0.000
 5754.00    1.45761   1.36419    0.000
 5755.00    1.41820   1.36326    0.000
 5756.00    1.38903   1.36349    0.000
 5757.00    1.39696   1.36433    0.000
 5758.00    1.43293   1.36492    0.000
 5759.00    1.46529   1.36534    0.000
 5760.00    1.45661   1.36558    0.000
 5761.00    1.40173   1.36613    0.000
 5762.00    1.33612   1.36728    0.000
 5763.00    1.31376   1.36941    0.000
 5764.00    1.37371   1.37210    0.000
 5765.00    1.46871   1.37614    0.000
 5766.00    1.49888   1.38001    0.000
 5767.00    1.44847   1.38352    0.000
 5768.00    1.38492   1.38652    0.000
 5769.00    1.37592   1.38870    0.000
 5770.00    1.43963   1.39008    0.000
 5771.00    1.49075   1.38995    0.000
 5772.00    1.43537   1.38880    0.000
 5773.00    1.34349   1.38592    0.000
 5774.00    1.33493   1.38201    0.000
 5775.00    1.37117   1.37691    0.000
 5776.00    1.36111   1.37064    0.000
 5777.00    1.33398   1.36391    0.000
 5778.00    1.34374   1.35585    0.000
 5779.00    1.34187   1.34692    0.000
 5780.00    1.28642   1.33761    0.000
 5781.00    1.25367   1.32886    0.000
 5782.00    1.29994   1.32084    0.000
 5783.00    1.34554   1.31539    0.000
 5784.00    1.32510   1.31201    0.000
 5785.00    1.29684   1.31103    0.000
 5786.00    1.31608   1.31235    0.000
 5787.00    1.35387   1.31596    0.000
 5788.00    1.37488   1.32253    0.000
 5789.00    1.38303   1.32917    0.000
 5790.00    1.39212   1.33678    0.000
 5791.00    1.40819   1.34428    0.000
 5792.00    1.42810   1.35099    0.000
 5793.00    1.44361   1.35852    0.000
 5794.00    1.45873   1.36511    0.000
 5795.00    1.48705   1.37107    0.000
 5796.00    1.51732   1.37622    0.000
 5797.00    1.51898   1.38024    0.000
 5798.00    1.49689   1.38388    0.000
 5799.00    1.48317   1.38685    0.000
 5800.00    1.46912   1.39019    0.000
 5801.00    1.42430   1.39293    0.000
 5802.00    1.38456   1.39419    0.000
 5803.00    1.40957   1.39463    0.000
 5804.00    1.45395   1.39435    0.000
 5805.00    1.43391   1.39337    0.000
 5806.00    1.39291   1.39255    0.000
 5807.00    1.41634   1.39203    0.000
 5808.00    1.45298   1.39149    0.000
 5809.00    1.41998   1.39107    0.000
 5810.00    1.38144   1.39050    0.000
 5811.00    1.42284   1.39041    0.000
 5812.00    1.47612   1.39050    0.000
 5813.00    1.45136   1.39048    0.000
 5814.00    1.39258   1.39080    0.000
 5815.00    1.37005   1.39114    0.000
 5816.00    1.36879   1.39191    0.000
 5817.00    1.35452   1.39335    0.000
 5818.00    1.33498   1.39555    0.000
 5819.00    1.33923   1.39880    0.000
 5820.00    1.39293   1.40178    0.000
 5821.00    1.47988   1.40472    0.000
 5822.00    1.53305   1.40757    0.000
 5823.00    1.52149   1.40995    0.000
 5824.00    1.48426   1.41222    0.000
 5825.00    1.44802   1.41382    0.000
 5826.00    1.39961   1.41538    0.000
 5827.00    1.35190   1.41607    0.000
 5828.00    1.35231   1.41630    0.000
 5829.00    1.40303   1.41619    0.000
 5830.00    1.45428   1.41575    0.000
 5831.00    1.48522   1.41512    0.000
 5832.00    1.51216   1.41392    0.000
 5833.00    1.53176   1.41281    0.000
 5834.00    1.52379   1.41170    0.000
 5835.00    1.50035   1.41072    0.000
 5836.00    1.49188   1.40990    0.000
 5837.00    1.48889   1.40980    0.000
 5838.00    1.46477   1.40993    0.000
 5839.00    1.44366   1.40991    0.000
 5840.00    1.46364   1.41017    0.000
 5841.00    1.49405   1.41043    0.000
 5842.00    1.48203   1.41013    0.000
 5843.00    1.44053   1.40883    0.000
 5844.00    1.40808   1.40676    0.000
 5845.00    1.38109   1.40342    0.000
 5846.00    1.34756   1.39890    0.000
 5847.00    1.33250   1.39354    0.000
 5848.00    1.35533   1.38742    0.000
 5849.00    1.38645   1.38087    0.000
 5850.00    1.39681   1.37379    0.000
 5851.00    1.40050   1.36644    0.000
 5852.00    1.40628   1.35877    0.000
 5853.00    1.38559   1.35157    0.000
 5854.00    1.33724   1.34459    0.000
 5855.00    1.31861   1.33894    0.000
 5856.00    1.34973   1.33444    0.000
 5857.00    1.37210   1.33103    0.000
 5858.00    1.35016   1.32883    0.000
 5859.00    1.31579   1.32818    0.000
 5860.00    1.31339   1.32997    0.000
 5861.00    1.36317   1.33223    0.000
 5862.00    1.42445   1.33603    0.000
 5863.00    1.41930   1.33991    0.000
 5864.00    1.36520   1.34424    0.000
 5865.00    1.36212   1.34871    0.000
 5866.00    1.40618   1.35313    0.000
 5867.00    1.40016   1.35752    0.000
 5868.00    1.34122   1.36134    0.000
 5869.00    1.31155   1.36544    0.000
 5870.00    1.33258   1.36854    0.000
 5871.00    1.36357   1.37099    0.000
 5872.00    1.37314   1.37235    0.000
 5873.00    1.35582   1.37287    0.000
 5874.00    1.33282   1.37207    0.000
 5875.00    1.32976   1.37036    0.000
 5876.00    1.34239   1.36790    0.000
 5877.00    1.35497   1.36387    0.000
 5878.00    1.37236   1.35896    0.000
 5879.00    1.40048   1.35265    0.000
 5880.00    1.41869   1.34539    0.000
 5881.00    1.40268   1.33609    0.000
 5882.00    1.35251   1.32515    0.000
 5883.00    1.28707   1.31240    0.000
 5884.00    1.23390   1.29664    0.000
 5885.00    1.21040   1.27841    0.000
 5886.00    1.21004   1.25810    0.000
 5887.00    1.21261   1.23560    0.000
 5888.00    1.19621   1.21173    0.000
 5889.00    1.16029   1.18792    0.000
 5890.00    1.13257   1.16634    0.000
 5891.00    1.12473   1.14805    0.000
 5892.00    1.11679   1.13707    0.000
 5893.00    1.10692   1.13190    0.000
 5894.00    1.12449   1.13023    0.000
 5895.00    1.17544   1.13413    0.000
 5896.00    1.22713   1.14246    0.000
 5897.00    1.24436   1.15449    0.000
 5898.00    1.21402   1.17268    0.000
 5899.00    1.17695   1.19395    0.000
 5900.00    1.20029   1.21535    0.000
 5901.00    1.26951   1.23647   12.110
 5902.00    1.30743   1.25659   12.073
 5903.00    1.30201   1.27467   12.115
 5904.00    1.29867   1.29003   12.210
 5905.00    1.30994   1.30353   12.283
 5906.00    1.31607   1.31409   12.260
 5907.00    1.30683   1.32180   12.208
 5908.00    1.28838   1.32734   12.221
 5909.00    1.27993   1.33100   12.223
 5910.00    1.29961   1.33276   12.108
 5911.00    1.34438   1.33312   11.988
 5912.00    1.39223   1.33290   11.989
 5913.00    1.41077   1.33168   11.975
 5914.00    1.38476   1.33049   11.858
 5915.00    1.34314   1.32891   11.933
 5916.00    1.32101   1.32885   12.388
 5917.00    1.31992   1.32915   12.779
 5918.00    1.32841   1.33045   12.674
 5919.00    1.34236   1.33253   12.453
 5920.00    1.35304   1.33454   12.520
 5921.00    1.34115   1.33710   12.753
 5922.00    1.31110   1.33911   12.904
 5923.00    1.30527   1.34102   12.898
 5924.00    1.34288   1.34252   12.747
 5925.00    1.39042   1.34363   12.496
 5926.00    1.40777   1.34387   12.256
 5927.00    1.37951   1.34354   12.172
 5928.00    1.33933   1.34293   12.170
 5929.00    1.35406   1.34161   11.994
 5930.00    1.41723   1.34084   11.726
 5931.00    1.44334   1.33987   11.756
 5932.00    1.40243   1.33990   12.105
 5933.00    1.34144   1.34013   12.359
 5934.00    1.29763   1.34036   12.258
 5935.00    1.27936   1.34091   11.912
 5936.00    1.29019   1.34146   11.551
 5937.00    1.32581   1.34290   11.353
 5938.00    1.35199   1.34398   11.344
 5939.00    1.33293   1.34478   11.451
 5940.00    1.29876   1.34547   11.614
 5941.00    1.30538   1.34565   11.781
 5942.00    1.33784   1.34545   11.888
 5943.00    1.34176   1.34531   11.920
 5944.00    1.30160   1.34517   12.026
 5945.00    1.24356   1.34459   12.332
 5946.00    1.21896   1.34385   12.658
 5947.00    1.25901   1.34264   12.736
 5948.00    1.32620   1.34095   12.633
 5949.00    1.36327   1.33897   12.591
 5950.00    1.35227   1.33705   12.763
 5951.00    1.30984   1.33573   13.105
 5952.00    1.27384   1.33472   13.292
 5953.00    1.27548   1.33390   13.139
 5954.00    1.31650   1.33340   12.957
 5955.00    1.36662   1.33418   12.984
 5956.00    1.37313   1.33557   13.061
 5957.00    1.32681   1.33731   13.036
 5958.00    1.28903   1.33965   12.993
 5959.00    1.30244   1.34300   12.932
 5960.00    1.34620   1.34655   12.677
 5961.00    1.37529   1.35040   12.316
 5962.00    1.35370   1.35390   12.203
 5963.00    1.30471   1.35729   12.336
 5964.00    1.30074   1.36005   12.301
 5965.00    1.34461   1.36254   12.001
 5966.00    1.36253   1.36467   11.764
 5967.00    1.33249   1.36603   11.760
 5968.00    1.30252   1.36766   11.911
 5969.00    1.31560   1.36840   11.996
 5970.00    1.37623   1.36864   11.825
 5971.00    1.42625   1.36804   11.636
 5972.00    1.39401   1.36675   11.821
 5973.00    1.31311   1.36453   12.282
 5974.00    1.27706   1.36151   12.565
 5975.00    1.30120   1.35799   12.583
 5976.00    1.33952   1.35387   12.547
 5977.00    1.35991   1.34980   12.419
 5978.00    1.35020   1.34600   12.156
 5979.00    1.30830   1.34270   12.145
 5980.00    1.25182   1.33968   12.693
 5981.00    1.22885   1.33736   13.315
 5982.00    1.26572   1.33514   13.300
 5983.00    1.31171   1.33330   12.964
 5984.00    1.31523   1.33199   12.856
 5985.00    1.30099   1.33134   12.861
 5986.00    1.30669   1.33179   12.750
 5987.00    1.32415   1.33358   12.648
 5988.00    1.33824   1.33541   12.699
 5989.00    1.35699   1.33797   12.825
 5990.00    1.38005   1.34063   12.883
 5991.00    1.38217   1.34339   12.805
 5992.00    1.35527   1.34564   12.637
 5993.00    1.32693   1.34742   12.509
 5994.00    1.31783   1.34898   12.436
 5995.00    1.32342   1.34952   12.298
 5996.00    1.33812   1.34923   12.141
 5997.00    1.36394   1.34797   12.189
 5998.00    1.39703   1.34612   12.394
 5999.00    1.42371   1.34390   12.406
 6000.00    1.42653   1.34175   12.216
 6001.00    1.39637   1.33925   12.162
 6002.00    1.36104   1.33667   12.225
 6003.00    1.36381   1.33402   12.105
 6004.00    1.38320   1.33115   11.960
 6005.00    1.35939   1.32897   12.215
 6006.00    1.30696   1.32687   12.741
 6007.00    1.29185   1.32466   12.972
 6008.00    1.32803   1.32314   12.862
 6009.00    1.37821   1.32167   12.805
 6010.00    1.39673   1.32123   12.882
 6011.00    1.36251   1.32123   12.951
 6012.00    1.31546   1.32077   12.995
 6013.00    1.30533   1.32017   13.071
 6014.00    1.31547   1.31933   13.179
 6015.00    1.30874   1.31881   13.290
 6016.00    1.29439   1.31826   13.410
 6017.00    1.29713   1.31748   13.511
 6018.00    1.31575   1.31670   13.469
 6019.00    1.33262   1.31672   13.237
 6020.00    1.32877   1.31713   12.979
 6021.00    1.30123   1.31777   12.833
 6022.00    1.27345   1.31973   12.760
 6023.00    1.27137   1.32237   12.703
 6024.00    1.30396   1.32624   12.683
 6025.00    1.35767   1.33049   12.685
 6026.00    1.40023   1.33550   12.605
 6027.00    1.41850   1.34114   12.406
 6028.00    1.43046   1.34629   12.191
 6029.00    1.43739   1.35205   12.134
 6030.00    1.41391   1.35718   12.388
 6031.00    1.37030   1.36206   12.775
 6032.00    1.35719   1.36607   12.777
 6033.00    1.37962   1.36973   12.422
 6034.00    1.38894   1.37260   12.315
 6035.00    1.36671   1.37475   12.631
 6036.00    1.33793   1.37621   13.062
 6037.00    1.32605   1.37726   13.330
 6038.00    1.33475   1.37784   13.386
 6039.00    1.33803   1.37827   13.391
 6040.00    1.30777   1.37861   13.531
 6041.00    1.27741   1.37884   13.688
 6042.00    1.30228   1.37970   13.596
 6043.00    1.35766   1.38042   13.340
 6044.00    1.37826   1.38166   13.194
 6045.00    1.35811   1.38292   13.226
 6046.00    1.33403   1.38391   13.341
 6047.00    1.33435   1.38470   13.418
 6048.00    1.36003   1.38490   13.407
 6049.00    1.37368   1.38471   13.424
 6050.00    1.34849   1.38358   13.525
 6051.00    1.32079   1.38219   13.454
 6052.00    1.32767   1.38002   13.048
 6053.00    1.34335   1.37745   12.594
 6054.00    1.33600   1.37462   12.275
 6055.00    1.31990   1.37165   11.872
 6056.00    1.32151   1.36919   11.323
 6057.00    1.34904   1.36648   10.959
 6058.00    1.39179   1.36460   10.928
 6059.00    1.42497   1.36275   11.010
 6060.00    1.43338   1.36143   11.052
 6061.00    1.42315   1.36021   11.182
 6062.00    1.40687   1.35916   11.481
 6063.00    1.39360   1.35870   11.837
 6064.00    1.38127   1.35847   12.192
 6065.00    1.35861   1.35957   12.633
 6066.00    1.32612   1.36111   13.107
 6067.00    1.30048   1.36407   13.338
 6068.00    1.29909   1.36833   13.211
 6069.00    1.32856   1.37239   12.934
 6070.00    1.36819   1.37649   12.842
 6071.00    1.38405   1.37976   13.191
 6072.00    1.37973   1.38232   13.794
 6073.00    1.38800   1.38341   14.049
 6074.00    1.41825   1.38320   13.699
 6075.00    1.45182   1.38126   13.010
 6076.00    1.45971   1.37814   12.308
 6077.00    1.42375   1.37366   11.794
 6078.00    1.36644   1.36854   11.538
 6079.00    1.33050   1.36296   11.533
 6080.00    1.33735   1.35733   11.709
 6081.00    1.37931   1.35267   11.952
 6082.00    1.42019   1.34813   12.136
 6083.00    1.42685   1.34438   12.189
 6084.00    1.40603   1.34142   12.159
 6085.00    1.38268   1.33967   12.146
 6086.00    1.37105   1.33800   12.210
 6087.00    1.36871   1.33724   12.356
 6088.00    1.35721   1.33687   12.542
 6089.00    1.33418   1.33697   12.722
 6090.00    1.33234   1.33724   12.903
 6091.00    1.35851   1.33752   13.086
 6092.00    1.36079   1.33840   13.224
 6093.00    1.31692   1.33954   13.209
 6094.00    1.27783   1.34051   12.938
 6095.00    1.27825   1.34132   12.663
 6096.00    1.29495   1.34190   12.916
 6097.00    1.30226   1.34150   13.666
 6098.00    1.29828   1.34022   13.996
 6099.00    1.29193   1.33837   13.649
 6100.00    1.29456   1.33617   13.531
 6101.00    1.31186   1.33349   13.849
 6102.00    1.33889   1.33085   13.909
 6103.00    1.35439   1.32852   13.502
 6104.00    1.33456   1.32703   13.095
 6105.00    1.29657   1.32836   12.816
 6106.00    1.28575   1.33020   12.479
 6107.00    1.31156   1.33284   12.128
 6108.00    1.34889   1.33602   11.954
 6109.00    1.37759   1.33940   12.001
 6110.00    1.38844   1.34307   12.203
 6111.00    1.37710   1.34633   12.544
 6112.00    1.34989   1.34846   12.960
 6113.00    1.33386   1.34969   13.096
 6114.00    1.34619   1.35022   12.561
 6115.00    1.34942   1.34921   -2.000
 6116.00    1.30064   1.34722   -2.000
 6117.00    1.22168   1.34365   -2.000
 6118.00    1.16246   1.33968   -2.000
 6119.00    1.14814   1.33530   -2.000
 6120.00    1.17826   1.33077   -2.000
 6121.00    1.23299   1.32608   -2.000
 6122.00    1.28503   1.32277   -2.000
 6123.00    1.31160   1.31986   -2.000
 6124.00    1.30911   1.31891   -2.000
 6125.00    1.30025   1.31952   -2.000
 6126.00    1.30755   1.32008   11.600
 6127.00    1.33473   1.32115   11.916
 6128.00    1.36832   1.32211   12.127
 6129.00    1.38405   1.32262   12.382
 6130.00    1.37208   1.32229   12.770
 6131.00    1.34545   1.32088   13.420
 6132.00    1.31724   1.31817   14.189
 6133.00    1.29203   1.31389   14.522
 6134.00    1.27639   1.30883   14.270
 6135.00    1.27865   1.30333   13.926
 6136.00    1.29311   1.29772   13.706
 6137.00    1.30176   1.29342   13.466
 6138.00    1.29689   1.29030   13.201
 6139.00    1.28590   1.29060   13.060
 6140.00    1.28439   1.29326   13.047
 6141.00    1.30484   1.29724   13.035
 6142.00    1.33563   1.30197   12.947
 6143.00    1.35048   1.30734   12.777
 6144.00    1.33788   1.31363   12.553
 6145.00    1.30422   1.31922   12.316
 6146.00    1.26748   1.32364   12.105
 6147.00    1.24910   1.32661   11.952
 6148.00    1.26268   1.32852   11.866
 6149.00    1.30467   1.32874   11.848
 6150.00    1.34598   1.32819   11.906
 6151.00    1.35767   1.32632   12.098
 6152.00    1.34272   1.32397   12.593
 6153.00    1.32023   1.32024   13.423
 6154.00    1.30392   1.31566   14.085
 6155.00    1.29926   1.30943   14.141
 6156.00    1.30321   1.30181   14.135
 6157.00    1.30934   1.29338   14.509
 6158.00    1.31193   1.28364   14.709
 6159.00    1.30539   1.27316   14.421
 6160.00    1.28493   1.26242   14.129
 6161.00    1.25558   1.25202   14.238
 6162.00    1.23369   1.24226   14.424
 6163.00    1.22246   1.23422   14.337
 6164.00    1.20546   1.22929   14.018
 6165.00    1.18394   1.22653   13.656
 6166.00    1.18545   1.22624   13.409
 6167.00    1.21915   1.22719   13.342
 6168.00    1.26160   1.23001   13.419
 6169.00    1.27897   1.23397   13.471
 6170.00    1.24767   1.23824   13.281
 6171.00    1.19122   1.24353   12.916
 6172.00    1.16650   1.24999   12.648
 6173.00    1.18983   1.25684   12.536
 6174.00    1.23233   1.26297   12.481
 6175.00    1.26413   1.26935   12.528
 6176.00    1.27087   1.27544   12.754
 6177.00    1.26361   1.28108   12.856
 6178.00    1.26275   1.28605   12.402
 6179.00    1.26392   1.29044   11.579
 6180.00    1.25304   1.29400   10.864
 6181.00    1.24179   1.29590   10.492
 6182.00    1.24750   1.29701   10.528
 6183.00    1.25609   1.29667   10.956
 6184.00    1.24918   1.29495   11.693
 6185.00    1.24415   1.29179   12.531
 6186.00    1.25984   1.28786   13.233
 6187.00    1.27438   1.28290   13.827
 6188.00    1.26170   1.27784   14.397
 6189.00    1.23117   1.27335   14.697
 6190.00    1.20623   1.26950   14.578
 6191.00    1.20145   1.26707   14.417
 6192.00    1.21845   1.26544   14.490
 6193.00    1.24571   1.26570   14.567
 6194.00    1.26957   1.26827   14.368
 6195.00    1.28254   1.27117   13.915
 6196.00    1.28586   1.27484   13.479
 6197.00    1.28813   1.27866   13.383
 6198.00    1.29089   1.28267   13.574
 6199.00    1.28496   1.28632   13.565
 6200.00    1.26947   1.28954   13.251
 6201.00    1.25740   1.29249   13.073
 6202.00    1.26156   1.29566   13.128
 6203.00    1.28703   1.29849   13.087
 6204.00    1.32599   1.30067   12.931
 6205.00    1.36027   1.30200   12.990
 6206.00    1.37488   1.30238   13.251
 6207.00    1.36367   1.30171   13.389
 6208.00    1.33282   1.29960   13.478
 6209.00    1.29726   1.29604   13.893
 6210.00    1.27030   1.29106   14.496
 6211.00    1.25624   1.28492   14.709
 6212.00    1.24144   1.27778   14.596
 6213.00    1.21157   1.27052   14.535
 6214.00    1.18457   1.26293   14.606
 6215.00    1.18594   1.25603   14.635
 6216.00    1.20183   1.25043   14.633
 6217.00    1.20583   1.24602   14.669
 6218.00    1.20501   1.24324   14.601
 6219.00    1.21520   1.24167   14.350
 6220.00    1.22545   1.24070   14.218
 6221.00    1.22716   1.24072   14.377
 6222.00    1.24539   1.24148   14.397
 6223.00    1.28744   1.24234   14.011
 6224.00    1.30070   1.24311   13.767
 6225.00    1.25894   1.24303   13.985
 6226.00    1.22366   1.24264   14.121
 6227.00    1.23549   1.24179   13.818
 6228.00    1.24607   1.24028   13.622
 6229.00    1.22077   1.23887   13.843
 6230.00    1.19465   1.23721   14.062
 6231.00    1.19318   1.23601   14.036
 6232.00    1.19652   1.23523   14.134
 6233.00    1.19636   1.23614   14.394
 6234.00    1.21197   1.23680   14.279
 6235.00    1.23244   1.23816   13.923
 6236.00    1.21452   1.23910   14.147
 6237.00    1.16986   1.23917   14.709
 6238.00    1.16403   1.23854   14.709
 6239.00    1.20351   1.23685   14.085
 6240.00    1.23172   1.23485   14.068
 6241.00    1.22756   1.23211   14.709
 6242.00    1.21543   1.22977   14.709
 6243.00    1.21590   1.22775   14.525
 6244.00    1.23319   1.22556   14.488
 6245.00    1.25671   1.22453   14.709
 6246.00    1.27154   1.22410   14.709
 6247.00    1.27720   1.22372   14.706
 6248.00    1.28116   1.22376   14.659
 6249.00    1.28191   1.22349   14.560
 6250.00    1.27321   1.22264   14.131
 6251.00    1.25473   1.22060   13.698
 6252.00    1.23252   1.21824   13.644
 6253.00    1.21691   1.21452   13.812
 6254.00    1.21413   1.21147   13.897
 6255.00    1.21753   1.20847   13.938
 6256.00    1.21332   1.20671   14.115
 6257.00    1.18960   1.20582   14.469
 6258.00    1.15661   1.20638   14.709
 6259.00    1.15649   1.20875   14.709
 6260.00    1.19980   1.21240   14.709
 6261.00    1.22893   1.21823   14.709
 6262.00    1.21713   1.22400   14.662
 6263.00    1.22040   1.23072   14.662
 6264.00    1.26467   1.23722   14.709
 6265.00    1.29450   1.24335   14.675
 6266.00    1.27682   1.24841   14.435
 6267.00    1.24413   1.25316   14.118
 6268.00    1.22934   1.25737   13.944
 6269.00    1.23619   1.26066   14.120
 6270.00    1.24824   1.26332   14.530
 6271.00    1.24397   1.26547   14.698
 6272.00    1.23339   1.26728   14.435
 6273.00    1.25004   1.26863   14.020
 6274.00    1.28742   1.26965   13.713
 6275.00    1.30354   1.26998   13.607
 6276.00    1.28659   1.27010   13.613
 6277.00    1.25686   1.26986   13.538
 6278.00    1.22842   1.26956   13.302
 6279.00    1.20903   1.26923   12.947
 6280.00    1.21847   1.26927    0.000
 6281.00    1.26728   1.26959    0.000
 6282.00    1.31418   1.27066    0.000
 6283.00    1.31063   1.27274    0.000
 6284.00    1.28074   1.27498    0.000
 6285.00    1.27443   1.27808    0.000
 6286.00    1.28677   1.28061    0.000
 6287.00    1.28753   1.28333    0.000
 6288.00    1.27026   1.28536    0.000
 6289.00    1.24557   1.28660    0.000
 6290.00    1.22690   1.28682    0.000
 6291.00    1.22312   1.28578    0.000
 6292.00    1.23350   1.28369    0.000
 6293.00    1.25305   1.28081    0.000
 6294.00    1.27666   1.27724    0.000
 6295.00    1.29448   1.27333    0.000
 6296.00    1.29182   1.26934    0.000
 6297.00    1.27240   1.26520    0.000
 6298.00    1.26582   1.26170    0.000
 6299.00    1.28428   1.25898    0.000
 6300.00    1.30477   1.25745    0.000
 6301.00    1.30506   1.25678    0.000
 6302.00    1.28313   1.25715    0.000
 6303.00    1.26001   1.25846    0.000
 6304.00    1.26651   1.26100    0.000
 6305.00    1.29130   1.26392    0.000
 6306.00    1.28767   1.26706    0.000
 6307.00    1.25931   1.26967    0.000
 6308.00    1.25473   1.27214    0.000
 6309.00    1.26929   1.27326    0.000
 6310.00    1.25511   1.27351    0.000
 6311.00    1.21760   1.27227    0.000
 6312.00    1.20227   1.27025    0.000
 6313.00    1.21189   1.26732    0.000
 6314.00    1.21890   1.26424    0.000
 6315.00    1.22443   1.26097    0.000
 6316.00    1.24272   1.25796    0.000
 6317.00    1.25682   1.25606    0.000
 6318.00    1.24491   1.25532    0.000
 6319.00    1.22857   1.25547    0.000
 6320.00    1.24206   1.25729    0.000
 6321.00    1.28386   1.26045   13.887
 6322.00    1.32841   1.26443   13.816
 6323.00    1.34863   1.26913   14.000
 6324.00    1.33738   1.27388   14.359
 6325.00    1.32251   1.27899   14.423
 6326.00    1.32595   1.28322   13.970
 6327.00    1.33055   1.28700   13.519
 6328.00    1.31848   1.28961   13.479
 6329.00    1.30027   1.29121   13.737
 6330.00    1.29192   1.29194   14.004
 6331.00    1.29741   1.29120   14.047
 6332.00    1.30807   1.28988   13.847
 6333.00    1.30704   1.28776   13.623
 6334.00    1.29157   1.28523   13.486
 6335.00    1.27881   1.28250   13.363
 6336.00    1.27825   1.27950   13.259
 6337.00    1.28172   1.27715   13.316
 6338.00    1.27598   1.27538   13.592
 6339.00    1.25304   1.27452   13.978
 6340.00    1.22638   1.27403   14.257
 6341.00    1.22376   1.27432   14.207
 6342.00    1.24827   1.27513   13.905
 6343.00    1.27759   1.27604   13.633
 6344.00    1.29499   1.27747   13.437
 6345.00    1.29809   1.27876   13.185
 6346.00    1.29829   1.28063   12.854
 6347.00    1.30845   1.28227   12.586
 6348.00    1.31887   1.28376   12.665
 6349.00    1.30958   1.28476   13.306
 6350.00    1.28115   1.28506   14.180
 6351.00    1.25153   1.28440   14.554
 6352.00    1.24119   1.28262   14.305
 6353.00    1.25633   1.27975   13.837
 6354.00    1.27131   1.27568   13.334
 6355.00    1.26123   1.27069   12.877
 6356.00    1.24229   1.26500   12.658
 6357.00    1.24018   1.25926   12.775
 6358.00    1.25227   1.25367   13.049
 6359.00    1.26029   1.24849   13.263
 6360.00    1.24735   1.24442   13.428
 6361.00    1.20889   1.24178   13.550
 6362.00    1.15897   1.24077   13.435
 6363.00    1.11794   1.24146   13.072
 6364.00    1.10200   1.24397   12.799
 6365.00    1.11773   1.24813   12.723
 6366.00    1.15962   1.25356   12.559
 6367.00    1.21471   1.26006   12.329
 6368.00    1.26665   1.26692   12.507
 6369.00    1.30256   1.27416   13.108
 6370.00    1.31570   1.28082   13.362
 6371.00    1.30248   1.28707   12.933
 6372.00    1.26514   1.29234   12.400
 6373.00    1.22638   1.29677   12.051
 6374.00    1.21901   1.30008   11.754
 6375.00    1.23533   1.30223   11.557
 6376.00    1.23767   1.30344   11.666
 6377.00    1.23598   1.30371   12.024
 6378.00    1.27246   1.30340   12.332
 6379.00    1.32729   1.30256   12.503
 6380.00    1.34320   1.30153   12.671
 6381.00    1.33070   1.30059   12.771
 6382.00    1.33838   1.29961   12.668
 6383.00    1.35242   1.29902   12.596
 6384.00    1.33254   1.29840   12.822
 6385.00    1.30304   1.29786   12.984
 6386.00    1.30889   1.29715   12.610
 6387.00    1.33059   1.29629   12.135
 6388.00    1.32761   1.29501   12.078
 6389.00    1.30880   1.29335   12.186
 6390.00    1.30100   1.29125   12.115
 6391.00    1.30401   1.28891   12.207
 6392.00    1.30573   1.28635   12.822
 6393.00    1.30234   1.28386   13.589
 6394.00    1.29712   1.28150   13.898
 6395.00    1.29628   1.27963   13.804
 6396.00    1.29622   1.27862   13.721
 6397.00    1.27906   1.27789   13.918
 6398.00    1.24941   1.27822   14.338
 6399.00    1.24869   1.27852   14.533
 6400.00    1.28633   1.27971   14.339
 6401.00    1.31294   1.28059   14.208
 6402.00    1.30225   1.28248   14.275
 6403.00    1.28260   1.28404   14.109
 6404.00    1.27547   1.28571   13.611
 6405.00    1.27424   1.28695   13.209
 6406.00    1.27785   1.28764   13.088
 6407.00    1.29581   1.28778   13.102
 6408.00    1.31635   1.28740   13.102
 6409.00    1.31029   1.28660   13.046
 6410.00    1.27756   1.28572   12.996
 6411.00    1.24625   1.28475   13.053
 6412.00    1.23104   1.28368   13.187
 6413.00    1.22957   1.28288   13.249
 6414.00    1.24099   1.28215   13.150
 6415.00    1.26330   1.28166   12.963
 6416.00    1.27932   1.28138   13.009
 6417.00    1.27381   1.28135   13.539
 6418.00    1.26797   1.28153   14.099
 6419.00    1.28920   1.28201   13.961
 6420.00    1.31605   1.28295   13.506
 6421.00    1.31595   1.28408   13.500
 6422.00    1.30689   1.28586   14.007
 6423.00    1.32025   1.28770   14.630
 6424.00    1.34690   1.29003   14.709
 6425.00    1.36096   1.29188   14.308
 6426.00    1.35191   1.29360   13.697
 6427.00    1.32063   1.29457   13.482
 6428.00    1.27346   1.29491   13.688
 6429.00    1.23020   1.29477   14.020
 6430.00    1.22531   1.29394   13.945
 6431.00    1.26469   1.29314   13.380
 6432.00    1.30312   1.29189   12.966
 6433.00    1.30656   1.29146   13.056
 6434.00    1.28863   1.29088   13.397
 6435.00    1.28187   1.29145   13.564
 6436.00    1.31143   1.29200   13.298
 6437.00    1.35394   1.29350   12.903
 6438.00    1.34320   1.29495   13.017
 6439.00    1.27928   1.29708   13.609
 6440.00    1.24190   1.29900   13.822
 6441.00    1.26174   1.30127   13.502
 6442.00    1.29597   1.30300   13.461
 6443.00    1.31224   1.30437   13.828
 6444.00    1.31176   1.30484   13.965
 6445.00    1.31207   1.30409   13.734
 6446.00    1.32964   1.30234   13.607
 6447.00    1.35086   1.29942   13.775
 6448.00    1.34810   1.29605   14.077
 6449.00    1.32971   1.29203   14.189
 6450.00    1.32385   1.28849   13.902
 6451.00    1.32685   1.28507   13.542
 6452.00    1.31943   1.28312   13.499
 6453.00    1.30983   1.28171   13.548
 6454.00    1.31461   1.28206   13.308
 6455.00    1.32107   1.28278   13.012
 6456.00    1.31141   1.28429   13.016
 6457.00    1.29927   1.28573   13.166
 6458.00    1.30199   1.28734   13.149
 6459.00    1.30667   1.28856   12.969
 6460.00    1.30439   1.28963   12.798
 6461.00    1.32331   1.29041   12.753
 6462.00    1.37795   1.29075   12.820
 6463.00    1.42808   1.29125   12.831
 6464.00    1.43479   1.29139   12.724
 6465.00    1.40399   1.29228   12.703
 6466.00    1.36476   1.29271   12.904
 6467.00    1.34702   1.29428   13.205
 6468.00    1.35075   1.29504   13.436
 6469.00    1.34125   1.29634   13.531
 6470.00    1.31866   1.29683   13.483
 6471.00    1.33323   1.29746   13.330
 6472.00    1.38506   1.29749   13.216
 6473.00    1.40596   1.29726   13.323
 6474.00    1.37635   1.29688   13.502
 6475.00    1.34637   1.29591   13.321
 6476.00    1.34027   1.29509   12.924
 6477.00    1.33811   1.29351   12.875
 6478.00    1.32687   1.29204   13.118
 6479.00    1.31131   1.28995   13.076
 6480.00    1.29891   1.28811   12.736
 6481.00    1.29449   1.28574   12.558
 6482.00    1.29780   1.28352   12.610
 6483.00    1.30263   1.28099   12.674
 6484.00    1.29681   1.27842   12.749
 6485.00    1.27592   1.27535   12.948
 6486.00    1.26613   1.27187   13.109
 6487.00    1.29089   1.26751   13.023
 6488.00    1.31523   1.26197   12.944
 6489.00    1.29637   1.25505   13.195
 6490.00    1.26228   1.24677   13.587
 6491.00    1.25991   1.23737   13.718
 6492.00    1.28143   1.22728   13.585
 6493.00    1.29578   1.21722   13.417
 6494.00    1.29099   1.20788   13.345
 6495.00    1.26436   1.20031   13.394
 6496.00    1.21194   1.19485   13.513
 6497.00    1.15416   1.19239   13.560
 6498.00    1.14718   1.19278   13.350
 6499.00    1.20200   1.19671   13.005
 6500.00    1.24276   1.20286   13.003
 6501.00    1.22701   1.21151   13.437
 6502.00    1.20590   1.22108   13.677
 6503.00    1.21297   1.23144   13.338
 6504.00    1.21622   1.24166   12.871
 6505.00    1.20381   1.25101   12.639
 6506.00    1.21125   1.25943   12.626
 6507.00    1.24873   1.26617   12.708
 6508.00    1.28314   1.27169   12.756
 6509.00    1.29221   1.27544   12.725
 6510.00    1.28191   1.27808   12.660
 6511.00    1.27321   1.27920   12.587
 6512.00    1.28550   1.27960   12.514
 6513.00    1.30413   1.27901   12.536
 6514.00    1.29557   1.27815   12.750
 6515.00    1.26778   1.27678   12.963
 6516.00    1.25748   1.27565   12.866
 6517.00    1.26912   1.27452   12.669
 6518.00    1.28428   1.27392   12.778
 6519.00    1.30539   1.27367   13.001
 6520.00    1.34228   1.27401   12.909
 6521.00    1.37653   1.27470   12.738
 6522.00    1.38136   1.27570   12.894
 6523.00    1.35935   1.27688   13.093
 6524.00    1.33474   1.27793   12.873
 6525.00    1.33429   1.27889   12.505
 6526.00    1.36103   1.27948   12.413
 6527.00    1.37213   1.27993   12.541
 6528.00    1.33452   1.28004    0.000
 6529.00    1.27860   1.28014    0.000
 6530.00    1.25088   1.28007    0.000
 6531.00    1.26715   1.28026    0.000
 6532.00    1.31063   1.28041    0.000
 6533.00    1.34033   1.28094    0.000
 6534.00    1.33910   1.28143    0.000
 6535.00    1.33700   1.28215    0.000
 6536.00    1.35413   1.28264    0.000
 6537.00    1.37113   1.28305    0.000
 6538.00    1.36244   1.28295    0.000
 6539.00    1.31958   1.28239    0.000
 6540.00    1.27147   1.28106    0.000
 6541.00    1.27188   1.27899    0.000
 6542.00    1.31511   1.27616    0.000
 6543.00    1.33430   1.27258    0.000
 6544.00    1.31512   1.26860    0.000
 6545.00    1.30445   1.26406    0.000
 6546.00    1.31188   1.25944    0.000
 6547.00    1.30709   1.25448    0.000
 6548.00    1.29574   1.24960    0.000
 6549.00    1.30829   1.24436    0.000
 6550.00    1.32654   1.23893    0.000
 6551.00    1.30784   1.23280    0.000
 6552.00    1.26902   1.22595    0.000
 6553.00    1.26008   1.21799    0.000
 6554.00    1.28600   1.20866    0.000
 6555.00    1.31369   1.19788    0.000
 6556.00    1.30698   1.18559    0.000
 6557.00    1.25426   1.17210    0.000
 6558.00    1.19519   1.15773    0.000
 6559.00    1.16771   1.14331    0.000
 6560.00    1.14477   1.12948    0.000
 6561.00    1.10383   1.11758    0.000
 6562.00    1.09984   1.10810    0.000
 6563.00    1.16607   1.10252    0.000
 6564.00    1.22707   1.10053    0.000
 6565.00    1.22080   1.10320    0.000
 6566.00    1.19353   1.10920    0.000
 6567.00    1.19888   1.11886    0.000
 6568.00    1.22650   1.13026    0.000
 6569.00    1.25580   1.14338    0.000
 6570.00    1.28716   1.15634    0.000
 6571.00    1.30537   1.16924    0.000
 6572.00    1.27422   1.18081    0.000
 6573.00    1.21541   1.19136    0.000
 6574.00    1.21381   1.20035    0.000
 6575.00    1.27192   1.20854    0.000
 6576.00    1.29275   1.21545    0.000
 6577.00    1.25336   1.22196    0.000
 6578.00    1.22815   1.22751    0.000
 6579.00    1.24585   1.23280    0.000
 6580.00    1.26863   1.23722    0.000
 6581.00    1.27165   1.24133    0.000
 6582.00    1.26192   1.24458    0.000
 6583.00    1.26454   1.24737    0.000
 6584.00    1.29822   1.24927    0.000
 6585.00    1.33200   1.25056    0.000
 6586.00    1.31982   1.25092    0.000
 6587.00    1.28255   1.25064    0.000
 6588.00    1.26783   1.24944    0.000
 6589.00    1.25857   1.24776    0.000
 6590.00    1.22282   1.24537    0.000
 6591.00    1.20530   1.24297    0.000
 6592.00    1.25682   1.24032    0.000
 6593.00    1.33057   1.23826    0.000
 6594.00    1.35481   1.23651    0.000
 6595.00    1.32849   1.23580    0.000
 6596.00    1.29475   1.23572    0.000
 6597.00    1.29862   1.23666    0.000
 6598.00    1.33919   1.23811    0.000
 6599.00    1.34415   1.24007    0.000
 6600.00    1.28000   1.24206    0.000
 6601.00    1.22217   1.24392    0.000
 6602.00    1.22948   1.24532    0.000
 6603.00    1.26698   1.24622    0.000
 6604.00    1.28395   1.24651    0.000
 6605.00    1.26377   1.24640    0.000
 6606.00    1.22065   1.24597    0.000
 6607.00    1.18882   1.24556    0.000
 6608.00    1.18729   1.24536    0.000
 6609.00    1.20828   1.24560   12.374
 6610.00    1.23655   1.24649   12.089
 6611.00    1.25755   1.24794   12.079
 6612.00    1.25698   1.25015   12.445
 6613.00    1.22874   1.25261   12.630
 6614.00    1.19883   1.25563   12.452
 6615.00    1.20664   1.25835   12.269
 6616.00    1.23706   1.26121   12.238
 6617.00    1.23757   1.26331   12.247
 6618.00    1.20071   1.26511   12.173
 6619.00    1.16213   1.26593   11.977
 6620.00    1.15543   1.26616   11.766
 6621.00    1.19390   1.26549   11.647
 6622.00    1.25635   1.26416   11.514
 6623.00    1.30648   1.26221   11.247
 6624.00    1.32746   1.25974   11.034
 6625.00    1.32415   1.25700   11.063
 6626.00    1.31666   1.25398   11.148
 6627.00    1.30966   1.25095   11.059
 6628.00    1.26214   1.24792   10.961
 6629.00    1.15768   1.24500   10.987
 6630.00    1.07307   1.24239   10.802
 6631.00    1.06880   1.23992   10.230
 6632.00    1.09159   1.23808    9.687
 6633.00    1.08587   1.23640    9.445
 6634.00    1.08296   1.23558    9.341
 6635.00    1.11847   1.23488    9.226
 6636.00    1.17343   1.23504    9.186
 6637.00    1.21752   1.23521    9.230
 6638.00    1.23984   1.23599    9.172
 6639.00    1.25037   1.23660    9.074
 6640.00    1.27220   1.23749    9.333
 6641.00    1.30426   1.23810   10.019
 6642.00    1.31668   1.23881   10.542
 6643.00    1.30914   1.23923   10.479
 6644.00    1.31558   1.23977   10.186
 6645.00    1.32709   1.24012   10.049
 6646.00    1.29771   1.24070   10.177
 6647.00    1.25832   1.24111   10.403
 6648.00    1.29232   1.24181   10.410
 6649.00    1.36068   1.24225   10.271
 6650.00    1.34292   1.24292   10.345
 6651.00    1.26311   1.24317   10.649
 6652.00    1.24326   1.24351   10.886
 6653.00    1.27812   1.24328   10.906
 6654.00    1.27670   1.24297   10.806
 6655.00    1.23642   1.24206   10.801
 6656.00    1.21645   1.24090   11.031
 6657.00    1.23570   1.23922   11.314
 6658.00    1.26830   1.23721   11.378
 6659.00    1.26613   1.23492   11.371
 6660.00    1.21192   1.23239   11.491
 6661.00    1.17554   1.22995   11.414
 6662.00    1.20655   1.22759   10.893
 6663.00    1.21684   1.22568   10.392
 6664.00    1.13145   1.22425   10.124
 6665.00    1.03666   1.22346    9.538
 6666.00    1.02273   1.22343    8.524
 6667.00    1.04717   1.22389    7.780
 6668.00    1.05901   1.22503    7.598
 6669.00    1.09181   1.22621    7.765
 6670.00    1.17430   1.22770    7.986
 6671.00    1.27284   1.22865    8.057
 6672.00    1.34266   1.22948    7.920
 6673.00    1.36301   1.22940    7.687
 6674.00    1.34679   1.22900    7.524
 6675.00    1.33327   1.22780    7.575
 6676.00    1.33628   1.22642    7.882
 6677.00    1.33377   1.22477    8.355
 6678.00    1.32196   1.22333    8.799
 6679.00    1.32167   1.22227    8.984
 6680.00    1.32262   1.22171    8.962
 6681.00    1.28791   1.22194    9.039
 6682.00    1.22736   1.22265    9.289
 6683.00    1.19198   1.22410    9.527
 6684.00    1.19847   1.22573    9.667
 6685.00    1.23065   1.22771    9.748
 6686.00    1.29049   1.22950    9.664
 6687.00    1.37116   1.23114    9.339
 6688.00    1.38189   1.23237    9.142
 6689.00    1.24895   1.23308    9.390
 6690.00    1.11444   1.23335    9.546
 6691.00    1.16798   1.23298    8.899
 6692.00    1.33570   1.23232    8.067
 6693.00    1.42614   1.23115    7.759
 6694.00    1.39657   1.22989    7.939
 6695.00    1.31817   1.22842    8.309
 6696.00    1.28247   1.22704    0.000
 6697.00    1.31718   1.22576    0.000
 6698.00    1.32346   1.22469    0.000
 6699.00    1.23628   1.22387    0.000
 6700.00    1.16052   1.22329    0.000
 6701.00    1.18304   1.22290    0.000
 6702.00    1.22790   1.22270    0.000
 6703.00    1.21977   1.22242    0.000
 6704.00    1.19715   1.22226    0.000
 6705.00    1.21633   1.22171    0.000
 6706.00    1.28508   1.22121    0.000
 6707.00    1.36590   1.22007    0.000
 6708.00    1.39449   1.21885    0.000
 6709.00    1.34979   1.21690    0.000
 6710.00    1.27335   1.21475    0.000
 6711.00    1.20429   1.21199    0.000
 6712.00    1.15819   1.20905    0.000
 6713.00    1.15688   1.20585    0.000
 6714.00    1.21853   1.20279    0.000
 6715.00    1.28954   1.19988    0.000
 6716.00    1.27873   1.19756    0.000
 6717.00    1.21560   1.19574    0.000
 6718.00    1.21511   1.19493    0.000
 6719.00    1.27733   1.19469    0.000
 6720.00    1.30633   1.19558    0.000
 6721.00    1.26316   1.19682    0.000
 6722.00    1.18158   1.19900    0.000
 6723.00    1.12974   1.20116    0.000
 6724.00    1.16423   1.20384    0.000
 6725.00    1.26783   1.20624    0.000
 6726.00    1.37198   1.20872    0.000
 6727.00    1.40812   1.21080    0.000
 6728.00    1.35221   1.21263    0.000
 6729.00    1.26666   1.21409    0.000
 6730.00    1.22584   1.21513    0.000
 6731.00    1.22901   1.21584    0.000
 6732.00    1.24501   1.21606    0.000
 6733.00    1.26432   1.21594    0.000
 6734.00    1.27589   1.21538    0.000
 6735.00    1.24864   1.21447    0.000
 6736.00    1.18310   1.21331    0.000
 6737.00    1.14012   1.21180    0.000
 6738.00    1.15150   1.21030    0.000
 6739.00    1.17133   1.20847    0.000
 6740.00    1.16139   1.20685    0.000
 6741.00    1.13698   1.20502    0.000
 6742.00    1.12608   1.20355    0.000
 6743.00    1.14578   1.20187    0.000
 6744.00    1.20054   1.20060    0.000
 6745.00    1.27585   1.19920    0.000
 6746.00    1.31591   1.19822    0.000
 6747.00    1.25136   1.19723    0.000
 6748.00    1.12358   1.19669    0.000
 6749.00    1.06041   1.19642    0.000
 6750.00    1.07092   1.19650    0.000
 6751.00    1.05895   1.19723    0.000
 6752.00    1.02804   1.19830    0.000
 6753.00    1.06297   1.20010    8.396
 6754.00    1.15702   1.20216    8.540
 6755.00    1.22647   1.20482    8.574
 6756.00    1.22517   1.20753    8.664
 6757.00    1.16801   1.21041    8.938
 6758.00    1.12594   1.21308    9.187
 6759.00    1.15896   1.21538    9.084
 6760.00    1.21807   1.21726    8.784
 6761.00    1.22558   1.21841    8.615
 6762.00    1.20228   1.21899    8.625
 6763.00    1.19984   1.21879    8.725
 6764.00    1.20307   1.21806    8.861
 6765.00    1.19238   1.21690    8.951
 6766.00    1.21352   1.21560    8.833
 6767.00    1.28119   1.21427    8.537
 6768.00    1.29979   1.21309    8.419
 6769.00    1.22392   1.21242    8.643
 6770.00    1.17042   1.21222    8.897
 6771.00    1.21334   1.21272    8.924
 6772.00    1.25632   1.21367    8.963
 6773.00    1.21942   1.21516    9.169
 6774.00    1.14631   1.21681    9.265
 6775.00    1.09826   1.21855    9.048
 6776.00    1.09308   1.22011    8.682
 6777.00    1.11856   1.22115    8.332
 6778.00    1.14747   1.22170    8.024
 6779.00    1.16625   1.22134    7.748
 6780.00    1.18276   1.22043    7.515
 6781.00    1.20903   1.21865    7.408
 6782.00    1.24919   1.21665    7.538
 6783.00    1.28357   1.21417    7.848
 6784.00    1.28017   1.21184    8.100
 6785.00    1.24119   1.20958    8.201
 6786.00    1.19875   1.20772    8.278
 6787.00    1.17078   1.20624    8.434
 6788.00    1.15997   1.20530    8.679
 6789.00    1.17580   1.20475    8.927
 6790.00    1.22107   1.20462    9.054
 6791.00    1.25891   1.20468    9.060
 6792.00    1.24842   1.20515    9.044
 6793.00    1.21251   1.20551    9.061
 6794.00    1.19821   1.20630    9.110
 6795.00    1.20319   1.20683    9.133
 6796.00    1.19938   1.20778    9.069
 6797.00    1.17771   1.20847    8.920
 6798.00    1.15121   1.20951    8.751
 6799.00    1.14862   1.21030    8.644
 6800.00    1.17445   1.21127    8.640
 6801.00    1.17863   1.21193    8.672
 6802.00    1.14256   1.21267    8.610
 6803.00    1.14304   1.21305    8.335
 6804.00    1.23342   1.21337    7.893
 6805.00    1.35788   1.21343    7.509
 6806.00    1.42975   1.21337    7.352
 6807.00    1.39576   1.21307    7.475
 6808.00    1.27285   1.21282    7.797
 6809.00    1.14924   1.21240    8.042
 6810.00    1.08588   1.21213    8.026
 6811.00    1.07528   1.21179    7.879
 6812.00    1.09448   1.21164    7.846
 6813.00    1.12800   1.21160    8.132
 6814.00    1.15657   1.21177    8.659
 6815.00    1.16403   1.21209    8.985
 6816.00    1.17654   1.21262    8.935
 6817.00    1.23924   1.21324    8.833
 6818.00    1.30585   1.21404    8.888
 6819.00    1.27991   1.21492    9.045
 6820.00    1.21096   1.21586    9.046
 6821.00    1.23580   1.21680    8.674
 6822.00    1.32202   1.21762    8.210
 6823.00    1.32766   1.21833    8.034
 6824.00    1.24458   1.21879    8.062
 6825.00    1.16417   1.21908    8.023
 6826.00    1.12546   1.21911    7.956
 6827.00    1.11576   1.21901    8.023
 6828.00    1.11599   1.21873    8.092
 6829.00    1.11495   1.21833    7.981
 6830.00    1.11824   1.21775    7.902
 6831.00    1.13833   1.21700    8.084
 6832.00    1.17969   1.21604    8.326
 6833.00    1.22390   1.21480    8.364
 6834.00    1.22163   1.21326    8.396
 6835.00    1.15587   1.21136    8.645
 6836.00    1.09146   1.20908    8.902
 6837.00    1.08148   1.20659    8.939
 6838.00    1.09666   1.20390    8.938
 6839.00    1.10747   1.20132    8.998
 6840.00    1.13636   1.19900    8.825
 6841.00    1.18239   1.19714    8.409
 6842.00    1.18883   1.19600    8.205
 6843.00    1.14525   1.19543    8.311
 6844.00    1.12212   1.19568    8.294
 6845.00    1.15257   1.19630    7.898
 6846.00    1.19199   1.19746    7.378
 6847.00    1.20107   1.19865    7.068
 6848.00    1.18530   1.19989    7.137
 6849.00    1.20131   1.20074    7.236
 6850.00    1.29071   1.20126    6.826
 6851.00    1.26844   1.20112    6.809
 6852.00    0.88026   1.20045    9.285
 6853.00    0.42982   1.19925   -1.000
 6854.00    0.52912   1.19766   -1.000
 6855.00    1.04635   1.19590    9.463
 6856.00    1.32924   1.19417    7.575
 6857.00    1.26367   1.19248    7.928
 6858.00    1.17323   1.19111    8.501
 6859.00    1.17798   1.19004    8.485
 6860.00    1.20404   1.18941    8.313
 6861.00    1.21027   1.18916    8.264
 6862.00    1.19924   1.18933    8.336
 6863.00    1.17662   1.18971    8.499
 6864.00    1.15189   1.19016    8.682
 6865.00    1.14532   1.19061    8.731
 6866.00    1.16475   1.19106    8.585
 6867.00    1.18203   1.19141    8.460
 6868.00    1.17351   1.19180    8.522
 6869.00    1.15894   1.19210    8.629
 6870.00    1.15956   1.19245    8.624
 6871.00    1.16212   1.19279    8.605
 6872.00    1.15313   1.19327    8.672
 6873.00    1.14432   1.19400    8.739
 6874.00    1.14809   1.19471    8.710
 6875.00    1.16080   1.19571    8.615
 6876.00    1.17087   1.19657    8.541
 6877.00    1.16711   1.19771    8.568
 6878.00    1.15272   1.19842    8.675
 6879.00    1.14667   1.19941    8.721
 6880.00    1.15716   1.19995    8.642
 6881.00    1.17340   1.20082    8.522
 6882.00    1.18227   1.20148    8.458
 6883.00    1.17579   1.20255    8.505
 6884.00    1.15229   1.20370    8.678
 6885.00    1.11803   1.20506    8.944
 6886.00    1.09044   1.20678    9.171
 6887.00    1.08884   1.20863    9.184
 6888.00    1.10788   1.21073    9.026
 6889.00    1.12615   1.21272    8.880
 6890.00    1.14242   1.21476    8.753
 6891.00    1.16802   1.21652    8.561
 6892.00    1.19458   1.21803    8.371
 6893.00    1.20392   1.21927    8.306
 6894.00    1.19728   1.22018    8.352
 6895.00    1.18661   1.22083    8.427
 6896.00    1.17321   1.22134    8.524
 6897.00    1.15535   1.22167    8.655
 6898.00    1.14264   1.22202    8.752
 6899.00    1.14670   1.22227    8.721
 6900.00    1.16743   1.22274    8.566
 6901.00    1.19241   1.22324    8.386
 6902.00    1.20054   1.22387    8.330
 6903.00    1.18762   1.22443    8.420
 6904.00    1.18409   1.22508    8.445
 6905.00    1.20317   1.22553    8.311
 6906.00    1.20574   1.22595    8.294
 6907.00    1.16945   1.22596    8.551
 6908.00    1.13095   1.22572    8.842
 6909.00    1.11958   1.22506    8.932
 6910.00    1.12068   1.22407    8.923
 6911.00    1.11928   1.22277    8.934
 6912.00    1.12114   1.22127    8.920
 6913.00    1.12837   1.21968    8.862
 6914.00    1.13176   1.21809    8.836
 6915.00    1.13109   1.21690    8.841
 6916.00    1.13797   1.21557    8.788
 6917.00    1.15270   1.21488    8.675
 6918.00    1.16254   1.21414    8.602
 6919.00    1.16457   1.21384    8.587
 6920.00    1.16700   1.21352    8.569
 6921.00    1.17118   1.21327    8.538
 6922.00    1.17080   1.21305    8.541
 6923.00    1.16337   1.21259    8.596
 6924.00    1.15424   1.21236    8.664
 6925.00    1.15834   1.21200    8.633
 6926.00    1.18502   1.21194    8.439
 6927.00    1.21034   1.21184    8.262
 6928.00    1.20784   1.21186    8.279
 6929.00    1.20572   1.21206    8.294
 6930.00    1.23501   1.21225    8.097
 6931.00    1.24499   1.21276    8.032
 6932.00    1.18570   1.21313    8.434
 6933.00    1.12214   1.21382    8.912
 6934.00    1.12996   1.21450    8.850
 6935.00    1.16878   1.21514    8.556
 6936.00    1.17380   1.21570    8.519
 6937.00    1.15600   1.21611    8.651
 6938.00    1.15277   1.21644    8.675
 6939.00    1.17589   1.21647    8.504
 6940.00    1.21178   1.21633    8.252
 6941.00    1.22947   1.21580    8.134
 6942.00    1.21374   1.21507    8.239
 6943.00    1.18295   1.21415    8.453
 6944.00    1.16245   1.21311    8.603
 6945.00    1.16451   1.21220    8.587
 6946.00    1.17246   1.21149    8.529
 6947.00    1.14720   1.21074    8.717
 6948.00    1.09190   1.21024    9.158
 6949.00    1.05938   1.20987    9.439
 6950.00    1.06313   1.20967    9.406
 6951.00    1.06418   1.20974    9.397
 6952.00    1.05202   1.21020    9.506
 6953.00    1.05162   1.21081    9.509
 6954.00    1.05724   1.21187    9.459
 6955.00    1.04185   1.21310    9.598
 6956.00    1.03568   1.21474    9.656
 6957.00    1.09664   1.21633    9.119
 6958.00    1.19480   1.21830   -2.000
 6959.00    1.24789   1.22012   -2.000
 6960.00    1.24741   1.22214   -2.000
 6961.00    1.23571   1.22397   -2.000
 6962.00    1.21972   1.22567   -2.000
 6963.00    1.19203   1.22718   -2.000
 6964.00    1.18574   1.22830   -2.000
 6965.00    1.22858   1.22913   -2.000
 6966.00    1.27327   1.22961   -2.000
 6967.00    1.26763   1.22977   -2.000
 6968.00    1.24498   1.22924   -2.000
 6969.00    1.25291   1.22822   -2.000
 6970.00    1.27139   1.22654   -2.000
 6971.00    1.26567   1.22435   -2.000
 6972.00    1.24047   1.22178   -2.000
 6973.00    1.21178   1.21854   -2.000
 6974.00    1.18128   1.21510   -2.000
 6975.00    1.14824   1.21146   -2.000
 6976.00    1.11890   1.20813   -2.000
 6977.00    1.10110   1.20515   -2.000
 6978.00    1.10081   1.20294   -2.000
 6979.00    1.12357   1.20220   -2.000
 6980.00    1.17217   1.20228   -2.000
 6981.00    1.23095   1.20349   -2.000
 6982.00    1.26827   1.20543   -2.000
 6983.00    1.27912   1.20811   -2.000
 6984.00    1.28933   1.21112   -2.000
 6985.00    1.30289   1.21434   -2.000
 6986.00    1.29843   1.21739   -2.000
 6987.00    1.28269   1.22018   -2.000
 6988.00    1.28592   1.22238   -2.000
 6989.00    1.29934   1.22428   -2.000
 6990.00    1.28684   1.22559   -2.000
 6991.00    1.25834   1.22648   -2.000
 6992.00    1.25629   1.22671   -2.000
 6993.00    1.28641   1.22654   -2.000
 6994.00    1.32122   1.22585   -2.000
 6995.00    1.33659   1.22502   -2.000
 6996.00    1.32070   1.22364   -2.000
 6997.00    1.27697   1.22218   -2.000
 6998.00    1.22581   1.22023   -2.000
 6999.00    1.20431   1.21838   -2.000
 7000.00    1.23346   1.21656   -2.000
 7001.00    1.27911   1.21499   -2.000
 7002.00    1.29187   1.21343   -2.000
 7003.00    1.25753   1.21193   -2.000
 7004.00    1.19332   1.21081   -2.000
 7005.00    1.13551   1.20994   -2.000
 7006.00    1.10912   1.20942   -2.000
 7007.00    1.10539   1.20898   -2.000
 7008.00    1.10771   1.20874   -2.000
 7009.00    1.11316   1.20838   -2.000
 7010.00    1.13173   1.20796   -2.000
 7011.00    1.17821   1.20737   -2.000
 7012.00    1.23283   1.20688   -2.000
 7013.00    1.23530   1.20606   -2.000
 7014.00    1.17539   1.20523   -2.000
 7015.00    1.11817   1.20409   -2.000
 7016.00    1.10069   1.20356   -2.000
 7017.00    1.10083   1.20359   -2.000
 7018.00    1.10724   1.20371   -2.000
 7019.00    1.13447   1.20408   -2.000
 7020.00    1.17496   1.20454   -2.000
 7021.00    1.19598   1.20524   -2.000
 7022.00    1.18294   1.20577   -2.000
 7023.00    1.15020   1.20664   -2.000
 7024.00    1.13230   1.20760   -2.000
 7025.00    1.15642   1.20893   -2.000
 7026.00    1.18723   1.21008   -2.000
 7027.00    1.17189   1.21135   -2.000
 7028.00    1.15366   1.21268   -2.000
 7029.00    1.20062   1.21400   -2.000
 7030.00    1.24330   1.21543   -2.000
 7031.00    1.18137   1.21665   -2.000
 7032.00    1.08762   1.21801   -2.000
 7033.00    1.07723   1.21930   -2.000
 7034.00    1.09448   1.22069   -2.000
 7035.00    1.04719   1.22233   -2.000
 7036.00    0.99298   1.22398   -2.000
 7037.00    1.00519   1.22569   -2.000
 7038.00    1.02051   1.22785   -2.000
 7039.00    0.97734   1.23091   -2.000
 7040.00    0.94525   1.23391   -2.000
 7041.00    0.99684   1.23717   -2.000
 7042.00    1.10093   1.24013   -2.000
 7043.00    1.18728   1.24296   -2.000
 7044.00    1.20494   1.24508   -2.000
 7045.00    1.15669   1.24689   -2.000
 7046.00    1.10401   1.24779   -2.000
 7047.00    1.08470   1.24774   -2.000
 7048.00    1.08050   1.24650   -2.000
 7049.00    1.08717   1.24399   -2.000
 7050.00    1.12545   1.24041   -2.000
 7051.00    1.13843   1.23565   -2.000
 7052.00    1.01579   1.23000   -2.000
 7053.00    0.84351   1.22407   -2.000
 7054.00    0.86629   1.21775   -2.000
 7055.00    1.06607   1.21172   -2.000
 7056.00    1.17815   1.20575   -2.000
 7057.00    1.13087   1.20020   -2.000
 7058.00    1.06512   1.19485   -2.000
 7059.00    1.06263   1.19007   -2.000
 7060.00    1.10553   1.18606   -2.000
 7061.00    1.14302   1.18276   -2.000
 7062.00    1.13921   1.18001   -2.000
 7063.00    1.13171   1.17781   -2.000
 7064.00    1.17571   1.17632   -2.000
 7065.00    1.23573   1.17488   -2.000
 7066.00    1.23877   1.17438   -2.000
 7067.00    1.17667   1.17400   -2.000
 7068.00    1.07961   1.17465   -2.000
 7069.00    0.96534   1.17589   -2.000
 7070.00    0.87483   1.17771   -2.000
 7071.00    0.90790   1.17966   -2.000
 7072.00    1.09151   1.18189   -2.000
 7073.00    1.26567   1.18424   -2.000
 7074.00    1.28675   1.18623   -2.000
 7075.00    1.19867   1.18807   -2.000
 7076.00    1.09328   1.18910   -2.000
 7077.00    0.99918   1.18969   -2.000
 7078.00    0.93673   1.18907   -2.000
 7079.00    0.94824   1.18766   -2.000
 7080.00    1.02331   1.18507   -2.000
 7081.00    1.07702   1.18139   -2.000
 7082.00    1.07468   1.17660   -2.000
 7083.00    1.07134   1.17093   -2.000
 7084.00    1.08858   1.16478   -2.000
 7085.00    1.08084   1.15877   -2.000
 7086.00    1.03150   1.15247   -2.000
 7087.00    0.97577   1.14636   -2.000
 7088.00    0.94146   1.14073   -2.000
 7089.00    0.93323   1.13581   -2.000
 7090.00    0.95010   1.13154   -2.000
 7091.00    0.98685   1.12863   -2.000
 7092.00    1.02318   1.12604   -2.000
 7093.00    1.03787   1.12490   -2.000
 7094.00    1.04677   1.12429   -2.000
 7095.00    1.08038   1.12449   -2.000
 7096.00    1.12156   1.12572   -2.000
 7097.00    1.12808   1.12680   -2.000
 7098.00    1.09467   1.12947   -2.000
 7099.00    1.04293   1.13101   -2.000
 7100.00    0.98855   1.13381   -2.000
 7101.00    0.94738   1.13540   -2.000
 7102.00    0.94789   1.13771   -2.000
 7103.00    0.98742   1.13929   -2.000
 7104.00    0.98599   1.14099   -2.000
 7105.00    0.88710   1.14206   -2.000
 7106.00    0.76137   1.14267   -2.000
 7107.00    0.71083   1.14327   -2.000
 7108.00    0.76916   1.14345   -2.000
 7109.00    0.90057   1.14365   -2.000
 7110.00    1.01701   1.14334   -2.000
 7111.00    1.06151   1.14352   -2.000
 7112.00    1.05754   1.14360   -2.000
 7113.00    1.04153   1.14405   -2.000
 7114.00    1.02143   1.14423   -2.000
 7115.00    0.99988   1.14468   -2.000
 7116.00    0.98605   1.14499   -2.000
 7117.00    0.98462   1.14502   -2.000
 7118.00    0.99125   1.14512   -2.000
 7119.00    0.99806   1.14448   -2.000
 7120.00    0.99676   1.14399   -2.000
 7121.00    0.98091   1.14242   -2.000
 7122.00    0.95145   1.14111   -2.000
 7123.00    0.93114   1.13924   -2.000
 7124.00    0.95173   1.13693   -2.000
 7125.00    1.00584   1.13432   -2.000
 7126.00    1.05369   1.13171   -2.000
 7127.00    1.07414   1.12941   -2.000
 7128.00    1.06758   1.12708   -2.000
 7129.00    1.03377   1.12515   -2.000
 7130.00    0.96816   1.12342   -2.000
 7131.00    0.86571   1.12295   -2.000
 7132.00    0.74745   1.12271   -2.000
 7133.00    0.69874   1.12342   -2.000
 7134.00    0.78936   1.12439   -2.000
 7135.00    0.95336   1.12573   -2.000
 7136.00    1.07508   1.12754   -2.000
 7137.00    1.12004   1.12916   -2.000
 7138.00    1.10914   1.13079   -2.000
 7139.00    1.07030   1.13221   -2.000
 7140.00    1.03218   1.13368   -2.000
 7141.00    1.02080   1.13458   -2.000
 7142.00    1.03872   1.13513   -2.000
 7143.00    1.05242   1.13551   -2.000
 7144.00    1.03547   1.13541   -2.000
 7145.00    0.99918   1.13541   -2.000
 7146.00    0.96562   1.13516   -2.000
 7147.00    0.94659   1.13476   -2.000
 7148.00    0.93672   1.13501   -2.000
 7149.00    0.91739   1.13573   -2.000
 7150.00    0.89512   1.13661   -2.000
 7151.00    0.90808   1.13799   -2.000
 7152.00    0.96542   1.13964   -2.000
 7153.00    1.03061   1.14132   -2.000
 7154.00    1.06818   1.14288   -2.000
 7155.00    1.06101   1.14432   -2.000
 7156.00    1.00256   1.14595   -2.000
 7157.00    0.89990   1.14665   -2.000
 7158.00    0.79099   1.14711   -2.000
 7159.00    0.73374   1.14691   -2.000
 7160.00    0.76323   1.14654   -2.000
 7161.00    0.87372   1.14600   -2.000
 7162.00    1.00604   1.14503   -2.000
 7163.00    1.08317   1.14403   -2.000
 7164.00    1.08663   1.14293   -2.000
 7165.00    1.04789   1.14303   -2.000
 7166.00    1.00425   1.14325   -2.000
 7167.00    0.98115   1.14422   -2.000
 7168.00    0.97815   1.14521   -2.000
 7169.00    0.98331   1.14663   -2.000
 7170.00    0.99508   1.14824   -2.000
 7171.00    1.01344   1.14986   -2.000
 7172.00    1.02631   1.15137   -2.000
 7173.00    1.01913   1.15234   -2.000
 7174.00    0.98711   1.15296   -2.000
 7175.00    0.93958   1.15279   -2.000
 7176.00    0.89995   1.15243   -2.000
 7177.00    0.88080   1.15166   -2.000
 7178.00    0.86859   1.15040   -2.000
 7179.00    0.86396   1.14852   -2.000
 7180.00    0.89976   1.14642   -2.000
 7181.00    0.96377   1.14442   -2.000
 7182.00    0.97426   1.14274   -2.000
 7183.00    0.92248   1.14099   -2.000
 7184.00    0.91471   1.13904   -2.000
 7185.00    0.98393   1.13734   -2.000
 7186.00    1.03565   1.13529   -2.000
 7187.00    1.01737   1.13386   -2.000
 7188.00    0.96807   1.13284   -2.000
 7189.00    0.92409   1.13213   -2.000
 7190.00    0.89119   1.13225   -2.000
 7191.00    0.87328   1.13216   -2.000
 7192.00    0.87567   1.13265   -2.000
 7193.00    0.88679   1.13336   -2.000
 7194.00    0.88619   1.13460   -2.000
 7195.00    0.87672   1.13592   -2.000
 7196.00    0.87815   1.13690   -2.000
 7197.00    0.89583   1.13828   -2.000
 7198.00    0.91613   1.13946   -2.000
 7199.00    0.91253   1.14044   -2.000
 7200.00    0.87508   1.14115   -2.000
 7201.00    0.85354   1.14129   -2.000
 7202.00    0.89892   1.14163   -2.000
 7203.00    0.97198   1.14168   -2.000
 7204.00    1.00578   1.14136   -2.000
 7205.00    1.00029   1.14085   -2.000
 7206.00    0.98545   1.13966   -2.000
 7207.00    0.96801   1.13936   -2.000
 7208.00    0.95279   1.13923   -2.000
 7209.00    0.96492   1.13950   -2.000
 7210.00    1.00645   1.14048   -2.000
 7211.00    1.02539   1.14124   -2.000
 7212.00    0.98855   1.14249   -2.000
 7213.00    0.93068   1.14374   -2.000
 7214.00    0.89131   1.14545   -2.000
 7215.00    0.87366   1.14730   -2.000
 7216.00    0.87172   1.14928   -2.000
 7217.00    0.88658   1.15158   -2.000
 7218.00    0.91962   1.15333   -2.000
