###################################################################
## OUTPUT of StarlightChains_v04.for    [Cid@UFSC - 01/Apr/2007] ##
###################################################################

## Some input info
2009fk.txt                               [arq_obs]
Base.CB07.vall.4m                        [arq_base]
Masks.EmLines.NEW.gm                     [arq_masks]
StCv04.C11.config                        [arq_config]
   66                                    [N_base]
    0                                    [N_YAV_components = # of components with extra extinction!]
    0                                    [i_FitPowerLaw (1/0 = Yes/No)]
-9.99                                    [alpha_PowerLaw]
CCM                                      [red_law_option]
 1.458241                                [q_norm = A(l_norm)/A(V)]

## (Re)Sampling Parameters
 3741.00                                 [l_ini (A)]
 7218.00                                 [l_fin (A)]
    1.00                                 [dl    (A)]     (OBS: dl_cushion =    50.00 A)

## Normalization info
 4020.00                                 [l_norm (A) - for base]
 4010.00                                 [llow_norm (A) - window for f_obs]
 4060.00                                 [lupp_norm (A) - window for f_obs]
2.301263E-16                             [fobs_norm (in input units)]

## S/N
 3691.00                                 [llow_SN (A) - window for S/N]
 7268.00                                 [lupp_SN (A) - window for S/N]
  11.198                                 [S/N in S/N window]
  11.407                                 [S/N in norm. window]
  27.584                                 [S/N_err in S/N window]
  28.097                                 [S/N_err in norm. window]
  1.0000                                 [fscale_chi2]

## etc...
    -2007355                             [idum_orig]
  2384                                   [NOl_eff]
  2380                                   [Nl_eff]
     4    NSIGMA                         [Ntot_cliped & clip_method]
  2245460                                [Nglobal_steps]
   7                                     [N_chains]
  35                                     [NEX0s_base = N_base in EX0s-fits]
 0   0   1        9   2.0   5.726E+01    [Clip-Bug, RC-Crash & Burn-In warning-flags, n_censored_weights, wei_nsig_threshold & wei_limit]
    18     17.630     17.127      0.503  [idt_all, wdt_TotTime, wdt_UsrTime & wdt_SysTime (sec)]

## Synthesis Results - Best model ##

 4.77556E-01                             [chi2/Nl_eff]
     1.80980                             [adev (%)]

   106.88229                             [sum-of-x (%)]
 3.68954E-16                             [Flux_tot (units of input spectrum!)]
 6.02331E-12                             [Mini_tot (???)]
 3.18926E-12                             [Mcor_tot (???)]

-125.40                                  [v0_min  (km/s)]
 185.22                                  [vd_min  (km/s)]
 0.3019                                  [AV_min  (mag)]
 0.0000                                  [YAV_min (mag)]

# j     x_j(%)      Mini_j(%)     Mcor_j(%)     age_j(yr)     Z_j      (L/M)_j    YAV?  Mstars   component_j        a/Fe...       SSP_chi2r SSP_adev(%)   SSP_AV   SSP_x(%)
  1      3.7152     1.9463E-02    3.6757E-02    1.000000E+06  0.00400  1.094E-02    0   1.0000   age020_m42            0.0000     3.8427E+00     4.7562   3.0280    91.8743
  2      0.0000     0.0000E+00    0.0000E+00    3.160000E+06  0.00400  4.007E-02    0   0.9999   age045_m42            0.0000     2.8764E+00     3.9652   2.3268    97.1331
  3      0.0000     0.0000E+00    0.0000E+00    5.010000E+06  0.00400  2.539E-02    0   0.9488   age055_m42            0.0000     3.1722E+00     4.1418   2.6356    95.2245
  4      0.0000     0.0000E+00    0.0000E+00    6.610000E+06  0.00400  2.620E-02    0   0.9220   age061_m42            0.0000     2.6917E+00     3.8664   2.2514    97.4604
  5      0.0000     0.0000E+00    0.0000E+00    1.000000E+07  0.00400  1.322E-02    0   0.8862   age070_m42            0.0000     2.2476E+00     3.5561   1.9394   101.0414
  6      0.0000     0.0000E+00    0.0000E+00    1.445000E+07  0.00400  7.883E-03    0   0.8571   age078_m42            0.0000     2.5193E+00     3.6783   2.2660    98.5033
  7      0.0000     0.0000E+00    0.0000E+00    2.512000E+07  0.00400  5.251E-03    0   0.8174   age090_m42            0.0000     2.2812E+00     3.6355   1.8051   101.8187
  8      0.0000     0.0000E+00    0.0000E+00    4.000000E+07  0.00400  3.649E-03    0   0.7851   age104_m42            0.0000     2.0538E+00     3.5070   1.5826   102.4149
  9      0.0000     0.0000E+00    0.0000E+00    5.500000E+07  0.00400  3.098E-03    0   0.7629   age110_m42            0.0000     2.1187E+00     3.5712   1.7548   101.5327
 10      0.0000     0.0000E+00    0.0000E+00    1.015200E+08  0.00400  2.228E-03    0   0.7207   age116_m42            0.0000     2.2368E+00     3.7308   1.7873   101.1382
 11      0.0000     0.0000E+00    0.0000E+00    2.861200E+08  0.00400  1.093E-03    0   0.6648   age125_m42            0.0000     2.0871E+00     3.9869   1.2201   104.3321
 12      0.0000     0.0000E+00    0.0000E+00    5.088000E+08  0.00400  6.597E-04    0   0.6365   age130_m42            0.0000     1.9967E+00     3.9065   1.2255   104.3707
 13      0.0000     0.0000E+00    0.0000E+00    1.434000E+09  0.00400  2.132E-04    0   0.5798   age139_m42            0.0000     1.0422E+00     2.9167   0.2560   106.1292
 14      0.0000     0.0000E+00    0.0000E+00    4.250000E+09  0.00400  5.895E-05    0   0.5377   age158_m42            0.0000     1.1228E+00     3.0846  -0.1748   101.4994
 15      0.0000     0.0000E+00    0.0000E+00    7.500000E+09  0.00400  3.510E-05    0   0.5212   age171_m42            0.0000     1.4953E+00     3.4983  -0.3505   100.3195
 16      4.5710     1.3066E+01    1.2422E+01    1.300000E+10  0.00400  2.005E-05    0   0.5034   age193_m42            0.0000     2.0004E+00     3.9467  -0.5038    99.3184
 17      0.0000     0.0000E+00    0.0000E+00    1.800000E+10  0.00400  1.525E-05    0   0.4967   age213_m42            0.0000     1.8969E+00     3.8420  -0.5319    99.0708
 18      3.9926     1.8483E-02    3.4907E-02    1.000000E+06  0.00800  1.238E-02    0   1.0000   age020_m52            0.0000     3.8404E+00     4.7640   3.0250    92.0229
 19      1.7372     3.2387E-03    6.0960E-03    3.160000E+06  0.00800  3.074E-02    0   0.9966   age045_m52            0.0000     3.7706E+00     4.6984   2.9498    92.7531
 20      2.2414     4.8147E-03    8.5867E-03    5.010000E+06  0.00800  2.668E-02    0   0.9443   age055_m52            0.0000     3.1768E+00     4.1841   2.7118    94.6281
 21      4.2781     1.1478E-02    1.9894E-02    6.610000E+06  0.00800  2.136E-02    0   0.9177   age061_m52            0.0000     1.4693E+00     2.9077   1.4324   102.4226
 22      0.0000     0.0000E+00    0.0000E+00    1.000000E+07  0.00800  1.215E-02    0   0.8827   age070_m52            0.0000     2.3582E+00     3.7222   2.1102   101.3078
 23      0.0000     0.0000E+00    0.0000E+00    1.445000E+07  0.00800  8.717E-03    0   0.8552   age078_m52            0.0000     2.3290E+00     3.5583   2.2299    99.9278
 24      0.0000     0.0000E+00    0.0000E+00    2.512000E+07  0.00800  5.592E-03    0   0.8162   age090_m52            0.0000     2.1554E+00     3.6220   1.8700   103.0256
 25      0.0000     0.0000E+00    0.0000E+00    4.000000E+07  0.00800  3.896E-03    0   0.7841   age104_m52            0.0000     2.0159E+00     3.5869   1.7946   103.2733
 26      0.0000     0.0000E+00    0.0000E+00    1.015200E+08  0.00800  2.148E-03    0   0.7226   age116_m52            0.0000     1.9489E+00     3.5486   1.7494   102.2751
 27      0.0000     0.0000E+00    0.0000E+00    2.861200E+08  0.00800  9.925E-04    0   0.6683   age125_m52            0.0000     1.8055E+00     3.7833   1.2912   105.3245
 28      2.9663     5.4122E-01    6.2741E-01    9.047900E+08  0.00800  3.141E-04    0   0.6138   age135_m52            0.0000     1.4153E+00     3.4788   0.5183   108.3607
 29      0.0000     0.0000E+00    0.0000E+00    1.434000E+09  0.00800  1.719E-04    0   0.5853   age139_m52            0.0000     1.0923E+00     3.0585  -0.0665   106.3517
 30      0.0000     0.0000E+00    0.0000E+00    2.500000E+09  0.00800  7.872E-05    0   0.5600   age150_m52            0.0000     1.6288E+00     3.7018  -0.3184   102.6294
 31      2.5664     3.3921E+00    3.4762E+00    4.250000E+09  0.00800  4.336E-05    0   0.5426   age158_m52            0.0000     1.7614E+00     3.8034  -0.3342   101.6747
 32      1.4186     2.5737E+00    2.5854E+00    6.250000E+09  0.00800  3.159E-05    0   0.5319   age166_m52            0.0000     2.5460E+00     4.5511  -0.5205   100.9591
 33      0.0000     0.0000E+00    0.0000E+00    1.300000E+10  0.00800  1.361E-05    0   0.5073   age193_m52            0.0000     3.8794E+00     5.6281  -0.9699    99.4157
 34      1.7398     1.0086E+01    9.5048E+00    1.800000E+10  0.00800  9.886E-06    0   0.4990   age213_m52            0.0000     5.1820E+00     6.4878  -1.0000    95.7388
 35      2.1235     7.8820E-03    1.4886E-02    1.000000E+06  0.02000  1.544E-02    0   1.0000   age020_m62            0.0000     3.8788E+00     4.8015   3.0203    92.2673
 36      1.6140     2.4588E-03    4.5779E-03    3.160000E+06  0.02000  3.762E-02    0   0.9858   age045_m62            0.0000     3.8982E+00     4.7914   2.9608    93.0106
 37      0.0000     0.0000E+00    0.0000E+00    5.010000E+06  0.02000  3.296E-02    0   0.9342   age055_m62            0.0000     3.0355E+00     4.1030   2.6017    96.1338
 38      5.3720     2.6679E-02    4.4647E-02    8.710000E+06  0.02000  1.154E-02    0   0.8861   age067_m62            0.0000     4.8736E+00     6.3981   1.5013   107.3969
 39      0.3913     2.9262E-03    4.6821E-03    1.445000E+07  0.02000  7.663E-03    0   0.8472   age078_m62            0.0000     2.5032E+00     4.2055   1.7426   104.4729
 40      0.0000     0.0000E+00    0.0000E+00    2.512000E+07  0.02000  4.532E-03    0   0.8099   age090_m62            0.0000     2.7951E+00     4.4725   1.7353   104.2269
 41      0.0000     0.0000E+00    0.0000E+00    5.500000E+07  0.02000  2.733E-03    0   0.7595   age110_m62            0.0000     1.9187E+00     3.4485   1.7737   102.6749
 42      0.0000     0.0000E+00    0.0000E+00    1.609000E+08  0.02000  1.369E-03    0   0.6985   age120_m62            0.0000     1.9722E+00     3.6984   1.6385   104.2342
 43      0.0000     0.0000E+00    0.0000E+00    2.861200E+08  0.02000  9.013E-04    0   0.6714   age125_m62            0.0000     2.0263E+00     3.9030   1.4005   106.5623
 44      0.0229     2.6088E-03    3.1775E-03    5.088000E+08  0.02000  5.028E-04    0   0.6449   age130_m62            0.0000     2.0163E+00     3.9685   1.0504   107.9944
 45      5.2040     1.2283E+00    1.4335E+00    9.047900E+08  0.02000  2.428E-04    0   0.6179   age135_m62            0.0000     1.4221E+00     3.4207   0.4731   106.9256
 46      9.4586     4.2920E+00    4.7890E+00    1.434000E+09  0.02000  1.263E-04    0   0.5908   age139_m62            0.0000     1.4814E+00     3.5008   0.0291   105.2913
 47      2.3020     2.2043E+00    2.3617E+00    2.500000E+09  0.02000  5.985E-05    0   0.5673   age150_m62            0.0000     2.4046E+00     4.5117  -0.3210   103.0796
 48      4.8919     8.5709E+00    8.8512E+00    4.250000E+09  0.02000  3.271E-05    0   0.5468   age158_m62            0.0000     3.8430E+00     5.7566  -0.6041   101.1641
 49      2.6600     1.1209E+01    1.0938E+01    1.000000E+10  0.02000  1.360E-05    0   0.5167   age181_m62            0.0000     6.0656E+00     7.2086  -0.9218    99.4062
 50      1.6997     1.3673E+01    1.2945E+01    1.800000E+10  0.02000  7.124E-06    0   0.5013   age213_m62            0.0000     8.3833E+00     8.3162  -1.0000    93.3012
 51      5.3342     1.1794E-02    2.2270E-02    1.000000E+06  0.05000  2.592E-02    0   0.9998   age020_m72            0.0000     3.9880E+00     4.9202   3.0079    92.4484
 52      1.8780     2.2214E-03    4.0179E-03    3.160000E+06  0.05000  4.845E-02    0   0.9577   age045_m72            0.0000     3.6643E+00     4.5594   2.8530    93.8525
 53      1.9627     3.6615E-03    6.3253E-03    5.010000E+06  0.05000  3.072E-02    0   0.9147   age055_m72            0.0000     2.6625E+00     4.1423   2.3555    99.4279
 54      0.8435     3.3226E-03    5.5704E-03    6.610000E+06  0.05000  1.455E-02    0   0.8877   age061_m72            0.0000     8.9111E+00     8.9977   1.5671   108.7093
 55      2.2285     1.4075E-02    2.2659E-02    1.000000E+07  0.05000  9.074E-03    0   0.8524   age070_m72            0.0000     3.4265E+00     4.9459   2.5712    98.3364
 56      0.0000     0.0000E+00    0.0000E+00    2.512000E+07  0.05000  4.250E-03    0   0.7902   age090_m72            0.0000     2.8562E+00     4.4652   2.2564   100.4222
 57      0.0000     0.0000E+00    0.0000E+00    4.000000E+07  0.05000  3.087E-03    0   0.7618   age104_m72            0.0000     2.9611E+00     4.6514   2.0235   102.3010
 58      0.0000     0.0000E+00    0.0000E+00    1.015200E+08  0.05000  1.700E-03    0   0.7096   age116_m72            0.0000     2.1985E+00     3.9594   1.7754   104.1834
 59      0.0000     0.0000E+00    0.0000E+00    2.861200E+08  0.05000  7.384E-04    0   0.6633   age125_m72            0.0000     1.9447E+00     3.8485   1.2825   107.2981
 60      9.6315     1.4454E+00    1.7394E+00    5.088000E+08  0.05000  3.819E-04    0   0.6372   age130_m72            0.0000     1.5877E+00     3.6028   0.8051   108.1621
 61      8.1276     2.7792E+00    3.2071E+00    9.047900E+08  0.05000  1.676E-04    0   0.6110   age135_m72            0.0000     2.2911E+00     4.5445   0.1305   105.1849
 62      4.7245     3.0639E+00    3.3991E+00    1.434000E+09  0.05000  8.837E-05    0   0.5874   age139_m72            0.0000     2.7316E+00     4.7827  -0.3169   104.3498
 63      4.9537     6.7068E+00    7.0907E+00    2.500000E+09  0.05000  4.233E-05    0   0.5598   age150_m72            0.0000     4.4568E+00     6.2084  -0.5972   101.6898
 64      1.5251     6.0909E+00    6.0381E+00    6.250000E+09  0.05000  1.435E-05    0   0.5249   age166_m72            0.0000     6.7620E+00     7.6399  -1.0000    98.1899
 65      0.0000     0.0000E+00    0.0000E+00    1.300000E+10  0.05000  6.513E-06    0   0.5036   age193_m72            0.0000     1.1494E+01     9.4009  -1.0000    87.9822
 66      0.7064     8.9426E+00    8.3517E+00    1.800000E+10  0.05000  4.527E-06    0   0.4945   age213_m72            0.0000     1.5921E+01    10.8215  -1.0000    81.8300


## Synthesis Results - Average & Chains ##

# j      x_j: min, <> & last-chain-values for 1 ...  7 chains
  1      3.7152      1.9525      2.1955      1.6899      1.8805      2.3780      2.2482      2.2391      2.0830
  2      0.0000      0.2186      0.0000      0.2143      0.6284      0.1985      0.7047      0.0000      0.0608
  3      0.0000      0.0745      0.0000      0.3261      0.0000      0.0000      0.0000      0.0000      0.0000
  4      0.0000      0.1189      0.2850      0.0000      0.0000      0.0000      0.0000      0.0993      0.0000
  5      0.0000      0.2545      0.7900      0.0000      0.0000      0.0000      0.0000      0.0528      0.0000
  6      0.0000      0.5711      0.4860      0.0385      0.0224      0.6318      0.8246      0.4516      0.4617
  7      0.0000      0.1238      0.0000      0.0000      0.0000      0.0188      0.0000      0.2555      0.0384
  8      0.0000      0.1876      0.0000      0.0000      0.0486      0.0000      0.2866      0.0133      0.7997
  9      0.0000      0.2373      0.0000      0.0000      0.0000      0.0000      0.0000      0.3590      0.0000
 10      0.0000      0.1599      0.0000      0.0614      0.0000      0.0000      0.0783      0.0000      0.0000
 11      0.0000      0.1584      0.4871      0.0000      0.0000      0.0000      0.0000      0.0000      0.1146
 12      0.0000      0.1738      0.0000      0.0000      0.1480      0.1230      0.0000      0.1512      0.0000
 13      0.0000      0.6707      0.2028      0.8310      0.7766      0.2809      0.1059      0.8626      0.4904
 14      0.0000      2.6035      2.8590      2.5916      2.5120      2.0181      3.0709      2.4198      2.5775
 15      0.0000      0.3873      0.2429      0.1604      0.0000      0.0000      0.0000      0.3290      0.0000
 16      4.5710      3.2283      3.2805      3.9186      3.0909      3.5439      3.1353      2.8244      3.2812
 17      0.0000      0.1975      0.0000      0.0000      0.0000      0.0000      0.3246      0.0585      0.0000
 18      3.9926      2.0521      2.4213      2.0294      2.1954      2.7335      1.9752      2.3163      2.0804
 19      1.7372      1.8071      1.8091      1.7913      1.7337      1.8374      1.9909      1.8982      1.9080
 20      2.2414      3.1886      3.8119      2.9801      3.1258      3.4206      3.0837      3.0859      2.9952
 21      4.2781      5.6541      5.9315      6.0535      5.5374      5.3783      6.2053      4.8474      5.3814
 22      0.0000      0.1172      0.2799      0.0000      0.0000      0.0000      0.0000      0.0000      0.4137
 23      0.0000      0.1362      0.0000      0.0000      0.0000      0.0000      0.4667      0.0000      0.0000
 24      0.0000      0.1193      0.0000      0.1118      0.0000      0.2486      0.7359      0.4500      0.0000
 25      0.0000      0.2973      0.0000      0.8268      0.4161      0.0000      0.1420      0.0000      0.0000
 26      0.0000      0.1013      0.0000      0.0000      0.0143      0.4144      0.2139      0.2677      0.0071
 27      0.0000      0.1896      0.0000      0.0000      0.0000      0.0000      0.0000      0.0000      0.0000
 28      2.9663      0.9202      0.2122      0.0000      1.1218      0.6820      0.9843      1.0382      1.5098
 29      0.0000      0.3859      0.1018      0.0000      0.0000      0.0000      0.3302      0.0000      0.0000
 30      0.0000      0.1859      0.0000      0.0000      0.0000      0.0000      0.2578      0.0000      0.3597
 31      2.5664      4.0697      4.2195      4.3271      5.1269      4.3420      4.0146      3.8374      3.9222
 32      1.4186      2.6062      2.5634      2.7541      3.2351      2.3229      2.4080      2.3318      2.4771
 33      0.0000      0.0377      0.0000      0.0000      0.0000      0.0000      0.0000      0.0000      0.0000
 34      1.7398      1.7515      1.6877      1.3479      1.9922      1.8298      1.8114      1.7711      2.2151
 35      2.1235      1.3244      1.3199      1.4898      1.2350      1.5026      1.4517      1.5820      1.5966
 36      1.6140      0.9343      0.9404      1.2015      1.1035      1.0160      1.7959      1.0018      1.8618
 37      0.0000      1.3691      1.1759      1.5498      1.3445      0.4228      1.3973      1.4976      1.0915
 38      5.3720      3.2338      3.0792      3.1087      4.0801      3.2108      3.0144      3.3546      3.4108
 39      0.3913      0.7019      0.7890      1.2901      0.7327      0.5649      0.0674      0.3299      0.9614
 40      0.0000      1.5653      1.7644      2.3132      1.8361      1.3984      0.6785      0.7973      2.4554
 41      0.0000      0.1423      0.0000      0.0000      0.0000      0.0000      0.0000      0.0000      0.0000
 42      0.0000      0.1419      0.0000      0.0000      0.0260      0.0473      0.0000      0.0000      0.0000
 43      0.0000      0.1764      0.0351      0.0000      0.0000      0.1066      0.3273      0.0000      0.0000
 44      0.0229      0.3261      0.3329      0.4516      0.0000      0.5499      0.1406      0.2760      0.0000
 45      5.2040      4.1390      2.7323      5.4024      4.1273      5.5499      2.9662      4.6877      6.1314
 46      9.4586      6.3172      6.8431      5.9689      4.2302      6.3647      6.4382      7.3070      4.9528
 47      2.3020      3.9394      3.9363      4.0773      3.7053      3.9871      3.8283      4.1675      4.0932
 48      4.8919      1.9603      2.1803      2.1042      2.4221      2.0870      2.1536      2.2708      2.5383
 49      2.6600      1.2932      1.1532      1.3144      1.2160      1.4106      1.1345      1.5238      1.5588
 50      1.6997      0.7091      0.9005      1.0372      0.8525      0.7684      0.7761      0.7998      0.3673
 51      5.3342      4.1455      3.9476      4.2058      5.2857      4.2576      4.3182      5.1479      3.5532
 52      1.8780      1.6857      1.7396      1.6648      1.4073      2.3647      2.0226      1.3009      1.8519
 53      1.9627      2.8890      3.1499      3.0642      2.9928      3.3587      2.7427      2.5383      2.9914
 54      0.8435      1.2166      1.8405      1.3085      1.4289      1.6936      0.7938      1.4439      1.2769
 55      2.2285      2.2279      1.3021      2.5804      2.1984      2.2136      2.3290      2.3737      1.7578
 56      0.0000      0.1335      0.0000      0.0000      0.0000      0.0000      0.4006      0.3494      0.0308
 57      0.0000      0.1353      0.4962      0.0000      0.0000      0.0000      0.0000      0.4120      0.0000
 58      0.0000      0.1353      0.0448      0.0000      0.0000      0.0000      0.0000      0.2191      0.0000
 59      0.0000      0.1410      0.2514      0.0365      0.0000      0.0000      0.4287      0.0000      0.0000
 60      9.6315      5.9924      7.1468      6.0603      7.1093      6.4681      6.2403      6.1512      5.9322
 61      8.1276     16.5034     16.4413     16.2913     17.7022     15.4995     15.9195     16.3079     16.6578
 62      4.7245      4.4359      4.8156      4.3353      4.3423      4.6296      4.7566      5.1163      5.1186
 63      4.9537      2.4072      2.8359      2.0703      2.6385      2.7567      3.2956      2.3478      2.1490
 64      1.5251      0.6629      0.9228      0.7424      0.5817      1.3702      0.8318      0.7185      0.4551
 65      0.0000      0.0695      0.0000      0.1457      0.0000      0.0631      0.1341      0.0000      0.0000
 66      0.7064      0.5253      0.4886      0.5484      0.4122      0.5408      0.7505      0.6086      0.5196

# j      m_j: min, <> & last-chain-values for 1 ...  7 chains
  1  3.6757E-02  2.4139E-02  2.6890E-02  2.0303E-02  2.3071E-02  2.8175E-02  2.6279E-02  2.7318E-02  2.6102E-02
  2  0.0000E+00  7.3773E-04  0.0000E+00  7.0298E-04  2.1046E-03  6.4215E-04  2.2487E-03  0.0000E+00  2.0786E-04
  3  0.0000E+00  3.7674E-04  0.0000E+00  1.6015E-03  0.0000E+00  0.0000E+00  0.0000E+00  0.0000E+00  0.0000E+00
  4  0.0000E+00  5.6615E-04  1.3438E-03  0.0000E+00  0.0000E+00  0.0000E+00  0.0000E+00  4.6643E-04  0.0000E+00
  5  0.0000E+00  2.3078E-03  7.0956E-03  0.0000E+00  0.0000E+00  0.0000E+00  0.0000E+00  4.7234E-04  0.0000E+00
  6  0.0000E+00  8.3990E-03  7.0799E-03  5.5014E-04  3.2745E-04  8.9047E-03  1.1465E-02  6.5543E-03  6.8824E-03
  7  0.0000E+00  2.6059E-03  0.0000E+00  0.0000E+00  0.0000E+00  3.7988E-04  0.0000E+00  5.3092E-03  8.2009E-04
  8  0.0000E+00  5.4579E-03  0.0000E+00  0.0000E+00  1.4034E-03  0.0000E+00  7.8858E-03  3.8337E-04  2.3587E-02
  9  0.0000E+00  7.9044E-03  0.0000E+00  0.0000E+00  0.0000E+00  0.0000E+00  0.0000E+00  1.1800E-02  0.0000E+00
 10  0.0000E+00  6.9967E-03  0.0000E+00  2.6105E-03  0.0000E+00  0.0000E+00  3.2369E-03  0.0000E+00  0.0000E+00
 11  0.0000E+00  1.3031E-02  3.9694E-02  0.0000E+00  0.0000E+00  0.0000E+00  0.0000E+00  0.0000E+00  9.5534E-03
 12  0.0000E+00  2.2681E-02  0.0000E+00  0.0000E+00  1.9165E-02  1.5388E-02  0.0000E+00  1.9473E-02  0.0000E+00
 13  0.0000E+00  2.4671E-01  7.3900E-02  2.9705E-01  2.8345E-01  9.9032E-02  3.6843E-02  3.1311E-01  1.8281E-01
 14  0.0000E+00  3.2119E+00  3.4943E+00  3.1070E+00  3.0752E+00  2.3860E+00  3.5819E+00  2.9461E+00  3.2229E+00
 15  0.0000E+00  7.7793E-01  4.8338E-01  3.1299E-01  0.0000E+00  0.0000E+00  0.0000E+00  6.5207E-01  0.0000E+00
 16  1.2422E+01  1.0963E+01  1.1036E+01  1.2931E+01  1.0416E+01  1.1533E+01  1.0066E+01  9.4652E+00  1.1294E+01
 17  0.0000E+00  8.6995E-01  0.0000E+00  0.0000E+00  0.0000E+00  0.0000E+00  1.3521E+00  2.5435E-01  0.0000E+00
 18  3.4907E-02  2.2420E-02  2.6207E-02  2.1546E-02  2.3801E-02  2.8621E-02  2.0402E-02  2.4973E-02  2.3037E-02
 19  6.0960E-03  7.9241E-03  7.8587E-03  7.6333E-03  7.5439E-03  7.7213E-03  8.2537E-03  8.2139E-03  8.4799E-03
 20  8.5867E-03  1.5264E-02  1.8078E-02  1.3863E-02  1.4849E-02  1.5693E-02  1.3957E-02  1.4578E-02  1.4533E-02
 21  1.9894E-02  3.2856E-02  3.4146E-02  3.4184E-02  3.1931E-02  2.9952E-02  3.4092E-02  2.7798E-02  3.1695E-02
 22  0.0000E+00  1.1519E-03  2.7245E-03  0.0000E+00  0.0000E+00  0.0000E+00  0.0000E+00  0.0000E+00  4.1204E-03
 23  0.0000E+00  1.8079E-03  0.0000E+00  0.0000E+00  0.0000E+00  0.0000E+00  5.8548E-03  0.0000E+00  0.0000E+00
 24  0.0000E+00  2.3557E-03  0.0000E+00  2.1450E-03  0.0000E+00  4.7034E-03  1.3736E-02  8.7667E-03  0.0000E+00
 25  0.0000E+00  8.0918E-03  0.0000E+00  2.1872E-02  1.1241E-02  0.0000E+00  3.6547E-03  0.0000E+00  0.0000E+00
 26  0.0000E+00  4.6097E-03  0.0000E+00  0.0000E+00  6.4677E-04  1.8072E-02  9.2012E-03  1.2021E-02  3.2557E-04
 27  0.0000E+00  1.7269E-02  0.0000E+00  0.0000E+00  0.0000E+00  0.0000E+00  0.0000E+00  0.0000E+00  0.0000E+00
 28  6.2741E-01  2.4321E-01  5.5563E-02  0.0000E+00  2.9421E-01  1.7275E-01  2.4596E-01  2.7079E-01  4.0446E-01
 29  0.0000E+00  1.7771E-01  4.6450E-02  0.0000E+00  0.0000E+00  0.0000E+00  1.4376E-01  0.0000E+00  0.0000E+00
 30  0.0000E+00  1.7888E-01  0.0000E+00  0.0000E+00  0.0000E+00  0.0000E+00  2.3451E-01  0.0000E+00  3.5081E-01
 31  3.4762E+00  6.8882E+00  7.0752E+00  7.1172E+00  8.6110E+00  7.0430E+00  6.4243E+00  6.4096E+00  6.7284E+00
 32  2.5854E+00  5.9352E+00  5.7833E+00  6.0950E+00  7.3110E+00  5.0698E+00  5.1846E+00  5.2404E+00  5.7178E+00
 33  0.0000E+00  1.9002E-01  0.0000E+00  0.0000E+00  0.0000E+00  0.0000E+00  0.0000E+00  0.0000E+00  0.0000E+00
 34  9.5048E+00  1.1958E+01  1.1414E+01  8.9427E+00  1.3496E+01  1.1972E+01  1.1692E+01  1.1932E+01  1.5327E+01
 35  1.4886E-02  1.1602E-02  1.1455E-02  1.2682E-02  1.0735E-02  1.2615E-02  1.2023E-02  1.3676E-02  1.4175E-02
 36  4.5779E-03  3.3112E-03  3.3021E-03  4.1382E-03  3.8810E-03  3.4509E-03  6.0179E-03  3.5040E-03  6.6882E-03
 37  0.0000E+00  5.2486E-03  4.4658E-03  5.7735E-03  5.1148E-03  1.5532E-03  5.0645E-03  5.6657E-03  4.2412E-03
 38  4.4647E-02  3.3584E-02  3.1681E-02  3.1374E-02  4.2049E-02  3.1957E-02  2.9598E-02  3.4381E-02  3.5904E-02
 39  4.6821E-03  1.0495E-02  1.1688E-02  1.8747E-02  1.0873E-02  8.0959E-03  9.5356E-04  4.8679E-03  1.4571E-02
 40  0.0000E+00  3.7835E-02  4.2249E-02  5.4334E-02  4.4040E-02  3.2393E-02  1.5506E-02  1.9017E-02  6.0153E-02
 41  0.0000E+00  5.3486E-03  0.0000E+00  0.0000E+00  0.0000E+00  0.0000E+00  0.0000E+00  0.0000E+00  0.0000E+00
 42  0.0000E+00  9.7898E-03  0.0000E+00  0.0000E+00  1.7804E-03  3.1269E-03  0.0000E+00  0.0000E+00  0.0000E+00
 43  0.0000E+00  1.7775E-02  3.5080E-03  0.0000E+00  0.0000E+00  1.0294E-02  3.1176E-02  0.0000E+00  0.0000E+00
 44  3.1775E-03  5.6566E-02  5.7220E-02  7.6137E-02  0.0000E+00  9.1421E-02  2.3061E-02  4.7255E-02  0.0000E+00
 45  1.4335E+00  1.4247E+00  9.3170E-01  1.8071E+00  1.4097E+00  1.8308E+00  9.6529E-01  1.5923E+00  2.1391E+00
 46  4.7890E+00  3.9968E+00  4.2892E+00  3.6699E+00  2.6558E+00  3.8592E+00  3.8511E+00  4.5622E+00  3.1760E+00
 47  2.3617E+00  5.0505E+00  4.9994E+00  5.0797E+00  4.7139E+00  4.8987E+00  4.6402E+00  5.2726E+00  5.3188E+00
 48  8.8512E+00  4.4322E+00  4.8838E+00  4.6234E+00  5.4344E+00  4.5223E+00  4.6036E+00  5.0667E+00  5.8168E+00
 49  1.0938E+01  6.6453E+00  5.8705E+00  6.5637E+00  6.2008E+00  6.9466E+00  5.5118E+00  7.7276E+00  8.1188E+00
 50  1.2945E+01  6.7493E+00  8.4909E+00  9.5931E+00  8.0513E+00  7.0090E+00  6.9833E+00  7.5121E+00  3.5429E+00
 51  2.2270E-02  2.1628E-02  2.0403E-02  2.1323E-02  2.7365E-02  2.1287E-02  2.1300E-02  2.6504E-02  1.8789E-02
 52  4.0179E-03  4.5068E-03  4.6076E-03  4.3254E-03  3.7335E-03  6.0588E-03  5.1124E-03  3.4323E-03  5.0183E-03
 53  6.3253E-03  1.1635E-02  1.2567E-02  1.1992E-02  1.1960E-02  1.2963E-02  1.0443E-02  1.0088E-02  1.2210E-02
 54  5.5704E-03  1.0039E-02  1.5046E-02  1.0493E-02  1.1701E-02  1.3394E-02  6.1929E-03  1.1758E-02  1.0680E-02
 55  2.2659E-02  2.8307E-02  1.6389E-02  3.1861E-02  2.7718E-02  2.6954E-02  2.7977E-02  2.9763E-02  2.2636E-02
 56  0.0000E+00  3.3579E-03  0.0000E+00  0.0000E+00  0.0000E+00  0.0000E+00  9.5239E-03  8.6716E-03  7.8461E-04
 57  0.0000E+00  4.5144E-03  1.6409E-02  0.0000E+00  0.0000E+00  0.0000E+00  0.0000E+00  1.3572E-02  0.0000E+00
 58  0.0000E+00  7.6384E-03  2.5061E-03  0.0000E+00  0.0000E+00  0.0000E+00  0.0000E+00  1.2204E-02  0.0000E+00
 59  0.0000E+00  1.7127E-02  3.0254E-02  4.3058E-03  0.0000E+00  0.0000E+00  4.9247E-02  0.0000E+00  0.0000E+00
 60  1.7394E+00  1.3523E+00  1.5978E+00  1.3290E+00  1.5921E+00  1.3989E+00  1.3314E+00  1.3699E+00  1.3569E+00
 61  3.2071E+00  8.1375E+00  8.0313E+00  7.8062E+00  8.6616E+00  7.3243E+00  7.4214E+00  7.9354E+00  8.3250E+00
 62  3.3991E+00  3.9880E+00  4.2891E+00  3.7876E+00  3.8739E+00  3.9889E+00  4.0431E+00  4.5393E+00  4.6642E+00
 63  7.0907E+00  4.3057E+00  5.0253E+00  3.5986E+00  4.6833E+00  4.7257E+00  5.5733E+00  4.1443E+00  3.8961E+00
 64  6.0381E+00  3.2795E+00  4.5228E+00  3.5691E+00  2.8560E+00  6.4969E+00  3.8909E+00  3.5079E+00  2.2821E+00
 65  0.0000E+00  7.2709E-01  0.0000E+00  1.4811E+00  0.0000E+00  6.3237E-01  1.3262E+00  0.0000E+00  0.0000E+00
 66  8.3517E+00  7.7613E+00  7.1509E+00  7.8737E+00  6.0433E+00  7.6570E+00  1.0483E+01  8.8733E+00  7.7802E+00

# AV, chi2 & Mass for <> & i_chain = 1 ...  7 solutions
AV       0.3019      0.3795      0.3723      0.3787      0.3694      0.3689      0.3677      0.3694      0.3756
chi2 4.7756E-01  5.0073E-01  4.9791E-01  4.9885E-01  4.9729E-01  4.9497E-01  4.9686E-01  4.9652E-01  4.9810E-01
Mass 3.1893E-12  2.8327E-12  2.8318E-12  2.9117E-12  2.8160E-12  2.9137E-12  2.9488E-12  2.8316E-12  2.7802E-12
-125.40                                  [v0_min (km/s) before EX0s...]
 185.22                                  [vd_min (km/s) before EX0s...]


## Synthetic spectrum (Best Model) ##l_obs f_obs f_syn wei
 3478    [Nl_obs]
 3741.00    0.82660   0.74410    0.000
 3742.00    0.79992   0.72610    0.000
 3743.00    0.75231   0.70110    0.000
 3744.00    0.69980   0.67242    0.000
 3745.00    0.66004   0.64380   12.090
 3746.00    0.63652   0.61991   12.940
 3747.00    0.62481   0.60620   13.762
 3748.00    0.62732   0.60723   14.047
 3749.00    0.65050   0.62446   13.604
 3750.00    0.69662   0.65492   13.082
 3751.00    0.75972   0.69168   13.068
 3752.00    0.82253   0.72629   13.290
 3753.00    0.86913   0.75165   13.196
 3754.00    0.90133   0.76442   12.852
 3755.00    0.92515   0.76585   12.671
 3756.00    0.93268   0.76084   12.949
 3757.00    0.91679   0.75530   13.667
 3758.00    0.88943   0.75325   14.138
 3759.00    0.86725   0.75527   13.805
 3760.00    0.85439   0.75906   13.436
 3761.00    0.84532   0.76119   13.750
 3762.00    0.83021   0.75872   14.384
 3763.00    0.80292   0.75014   14.654
 3764.00    0.76743   0.73560   14.548
 3765.00    0.73184   0.71696   14.413
 3766.00    0.70260   0.69756   14.424
 3767.00    0.68299   0.68170   14.475
 3768.00    0.67296   0.67361   14.195
 3769.00    0.67512   0.67609   13.629
 3770.00    0.69703   0.68939   13.438
 3771.00    0.73644   0.71116   13.889
 3772.00    0.77463   0.73756   14.419
 3773.00    0.80174   0.76497   14.497
 3774.00    0.82907   0.79126   14.388
 3775.00    0.86191   0.81574   14.484
 3776.00    0.88755   0.83829   14.846
 3777.00    0.90257   0.85859   15.231
 3778.00    0.92278   0.87582   15.180
 3779.00    0.95274   0.88873   14.731
 3780.00    0.97537   0.89599   14.507
 3781.00    0.98010   0.89647   14.735
 3782.00    0.97324   0.88963   15.031
 3783.00    0.96186   0.87596   15.050
 3784.00    0.94717   0.85740   14.840
 3785.00    0.92856   0.83694   14.774
 3786.00    0.90528   0.81759   15.299
 3787.00    0.87604   0.80100   16.192
 3788.00    0.83943   0.78673   16.406
 3789.00    0.79604   0.77252   15.885
 3790.00    0.75007   0.75544   15.764
 3791.00    0.71180   0.73329   16.345
 3792.00    0.69337   0.70583   16.946
 3793.00    0.69359   0.67535   16.937
 3794.00    0.70015   0.64651   16.375
 3795.00    0.70868   0.62543   16.017
 3796.00    0.72212   0.61789   16.634
 3797.00    0.73463   0.62723   17.857
 3798.00    0.73711   0.65269   18.161
 3799.00    0.74041   0.68935   17.358
 3800.00    0.76474   0.72989   16.702
 3801.00    0.80330   0.76718   16.755
 3802.00    0.83335   0.79668   17.370
 3803.00    0.85608   0.81744   17.812
 3804.00    0.88614   0.83167   17.336
 3805.00    0.91522   0.84288   16.682
 3806.00    0.92439   0.85358   16.949
 3807.00    0.91843   0.86371   17.941
 3808.00    0.91394   0.87076   18.573
 3809.00    0.90916   0.87164   18.385
 3810.00    0.89406   0.86494   17.844
 3811.00    0.87335   0.85210   17.607
 3812.00    0.85746   0.83665   17.989
 3813.00    0.84481   0.82224   18.506
 3814.00    0.83108   0.81070   18.471
 3815.00    0.82439   0.80162   18.163
 3816.00    0.83183   0.79355   18.201
 3817.00    0.84123   0.78583   18.605
 3818.00    0.83772   0.77905   19.023
 3819.00    0.82476   0.77408   19.100
 3820.00    0.81191   0.77045   18.817
 3821.00    0.79937   0.76628   18.700
 3822.00    0.78371   0.75955   19.151
 3823.00    0.76534   0.74968   19.891
 3824.00    0.74706   0.73764   20.315
 3825.00    0.73180   0.72468   20.102
 3826.00    0.71907   0.71094   19.582
 3827.00    0.70280   0.69507   19.628
 3828.00    0.67857   0.67517   20.478
 3829.00    0.64921   0.65026   20.916
 3830.00    0.62106   0.62153   20.161
 3831.00    0.60005   0.59260   19.500
 3832.00    0.58657   0.56851   19.789
 3833.00    0.57367   0.55400   20.411
 3834.00    0.55807   0.55181   20.596
 3835.00    0.54632   0.56213   20.419
 3836.00    0.54602   0.58308   20.275
 3837.00    0.56018   0.61192   20.407
 3838.00    0.58655   0.64579   20.820
 3839.00    0.61917   0.68197   21.227
 3840.00    0.65703   0.71775   21.075
 3841.00    0.70542   0.75050   19.946
 3842.00    0.75981   0.77822   18.606
 3843.00    0.80267   0.79998   18.335
 3844.00    0.82537   0.81593   19.055
 3845.00    0.83507   0.82692   19.183
 3846.00    0.84047   0.83419   18.320
 3847.00    0.84586   0.83914    0.000
 3848.00    0.85298   0.84310    0.000
 3849.00    0.86085   0.84671    0.000
 3850.00    0.86233   0.84963    0.000
 3851.00    0.84818   0.85074    0.000
 3852.00    0.82378   0.84902    0.000
 3853.00    0.80623   0.84438    0.000
 3854.00    0.79739   0.83776    0.000
 3855.00    0.78531   0.83086    0.000
 3856.00    0.77284   0.82571    0.000
 3857.00    0.77520   0.82420    0.000
 3858.00    0.79069   0.82755    0.000
 3859.00    0.80375   0.83554    0.000
 3860.00    0.81218   0.84624    0.000
 3861.00    0.82538   0.85675    0.000
 3862.00    0.84431   0.86449    0.000
 3863.00    0.86167   0.86827    0.000
 3864.00    0.87265   0.86827    0.000
 3865.00    0.87663   0.86520    0.000
 3866.00    0.87585   0.85954    0.000
 3867.00    0.87244   0.85147    0.000
 3868.00    0.86378   0.84164    0.000
 3869.00    0.84709   0.83175    0.000
 3870.00    0.82824   0.82414    0.000
 3871.00    0.81468   0.82042    0.000
 3872.00    0.80201   0.82014    0.000
 3873.00    0.78408   0.82081    0.000
 3874.00    0.77012   0.81950    0.000
 3875.00    0.77110   0.81463    0.000
 3876.00    0.77828   0.80667    0.000
 3877.00    0.77764   0.79710    0.000
 3878.00    0.77129   0.78684    0.000
 3879.00    0.76538   0.77545    0.000
 3880.00    0.75330   0.76142    0.000
 3881.00    0.72739   0.74302   22.608
 3882.00    0.69346   0.71923   22.872
 3883.00    0.66325   0.69056   22.691
 3884.00    0.64479   0.65977   22.388
 3885.00    0.63951   0.63194   22.282
 3886.00    0.64134   0.61322   22.569
 3887.00    0.64652   0.60870   23.118
 3888.00    0.66102   0.62014   23.281
 3889.00    0.68763   0.64506   22.784
 3890.00    0.71625   0.67780   22.385
 3891.00    0.73850   0.71195   22.671
 3892.00    0.75814   0.74274   23.370
 3893.00    0.77859   0.76809   23.805
 3894.00    0.79482   0.78811   23.410
 3895.00    0.80381   0.80398   22.547
 3896.00    0.81067   0.81699   22.414
 3897.00    0.81944   0.82810   23.317
 3898.00    0.82779   0.83765   23.997
 3899.00    0.83148   0.84535   23.624
 3900.00    0.82766   0.85063   23.201
 3901.00    0.81764   0.85340   23.630
 3902.00    0.80788   0.85477   24.907
 3903.00    0.80742   0.85703   26.159
 3904.00    0.82411   0.86258   25.811
 3905.00    0.85381   0.87269   24.121
 3906.00    0.88035   0.88658   23.097
 3907.00    0.89712   0.90179   23.431
 3908.00    0.91176   0.91525   24.443
 3909.00    0.92721   0.92457   25.012
 3910.00    0.93637   0.92874   24.286
 3911.00    0.93234   0.92799   22.991
 3912.00    0.91370   0.92322   22.626
 3913.00    0.88884   0.91542   23.442
 3914.00    0.87227   0.90532   24.471
 3915.00    0.86842   0.89353   24.623
 3916.00    0.86993   0.88086   23.637
 3917.00    0.86835   0.86849   22.602
 3918.00    0.85917   0.85782   22.798
 3919.00    0.84619   0.84969   24.002
 3920.00    0.83767   0.84371   24.689
 3921.00    0.83372   0.83803   24.325
 3922.00    0.82736   0.82982   23.815
 3923.00    0.81491   0.81643   23.794
 3924.00    0.79642   0.79636   24.305
 3925.00    0.77136   0.76954   24.828
 3926.00    0.73858   0.73719   24.673
 3927.00    0.69839   0.70130   24.097
 3928.00    0.65328   0.66441   23.925
 3929.00    0.60852   0.62968   24.576
 3930.00    0.57159   0.60092   25.984
 3931.00    0.55093   0.58224   27.337
 3932.00    0.55221   0.57702   27.427
 3933.00    0.57291   0.58669   26.262
 3934.00    0.60468   0.60998   24.895
 3935.00    0.63851   0.64303   24.260
 3936.00    0.66805   0.68049   24.655
 3937.00    0.69302   0.71698   25.257
 3938.00    0.71586   0.74846   25.007
 3939.00    0.73687   0.77313   24.289
 3940.00    0.75525   0.79147   24.035
 3941.00    0.77136   0.80563   24.508
 3942.00    0.78693   0.81817   25.296
 3943.00    0.80497   0.83067   25.250
 3944.00    0.82652   0.84326   23.947
 3945.00    0.84765   0.85508   22.881
 3946.00    0.86349   0.86523   23.107
 3947.00    0.87253   0.87333   24.067
 3948.00    0.87710   0.87945   24.631
 3949.00    0.88269   0.88377   24.286
 3950.00    0.88973   0.88623   23.467
 3951.00    0.88830   0.88667   23.180
 3952.00    0.87262   0.88486   23.878
 3953.00    0.85097   0.88065   24.896
 3954.00    0.83118   0.87395   25.278
 3955.00    0.81067   0.86445   24.799
 3956.00    0.78717   0.85130   23.981
 3957.00    0.76511   0.83305   23.620
 3958.00    0.74604   0.80843   24.114
 3959.00    0.72378   0.77712   25.256
 3960.00    0.69481   0.73997    0.000
 3961.00    0.66337   0.69838    0.000
 3962.00    0.63391   0.65360    0.000
 3963.00    0.60709   0.60681    0.000
 3964.00    0.58187   0.56001    0.000
 3965.00    0.55723   0.51700    0.000
 3966.00    0.53486   0.48322    0.000
 3967.00    0.51931   0.46436    0.000
 3968.00    0.51344   0.46442    0.000
 3969.00    0.51698   0.48405    0.000
 3970.00    0.52972   0.52032    0.000
 3971.00    0.55229   0.56787    0.000
 3972.00    0.58424   0.62069    0.000
 3973.00    0.62364   0.67373    0.000
 3974.00    0.66824   0.72358    0.000
 3975.00    0.71468   0.76824    0.000
 3976.00    0.75467   0.80656    0.000
 3977.00    0.77823   0.83779    0.000
 3978.00    0.78714   0.86165    0.000
 3979.00    0.79318   0.87875    0.000
 3980.00    0.80184   0.89080    0.000
 3981.00    0.81124   0.90022   16.298
 3982.00    0.82163   0.90918   14.356
 3983.00    0.83666   0.91888   15.666
 3984.00    0.85979   0.92936   20.240
 3985.00    0.89122   0.93989   23.840
 3986.00    0.92303   0.94965   23.190
 3987.00    0.94449   0.95819   22.900
 3988.00    0.95492   0.96539   24.465
 3989.00    0.96042   0.97113   25.863
 3990.00    0.96246   0.97494   24.812
 3991.00    0.96122   0.97615   22.346
 3992.00    0.96529   0.97451   23.061
 3993.00    0.98320   0.97089   30.487
 3994.00    1.00705   0.96740   27.871
 3995.00    1.02225   0.96657   14.090
 3996.00    1.02665   0.97006    9.813
 3997.00    1.02612   0.97750   11.752
 3998.00    1.02376   0.98651   21.804
 3999.00    1.01938   0.99359   30.855
 4000.00    1.01105   0.99581   24.376
 4001.00    0.99730   0.99225   22.274
 4002.00    0.97961   0.98453   24.040
 4003.00    0.96253   0.97625   24.667
 4004.00    0.95303   0.97128   23.812
 4005.00    0.95529   0.97192   23.819
 4006.00    0.96575   0.97807   24.978
 4007.00    0.98007   0.98769   26.305
 4008.00    0.99999   0.99822   26.322
 4009.00    1.02588   1.00781   24.628
 4010.00    1.05000   1.01572   22.751
 4011.00    1.06561   1.02197   21.819
 4012.00    1.07448   1.02691   21.867
 4013.00    1.07766   1.03088   22.528
 4014.00    1.06914   1.03416   23.179
 4015.00    1.04851   1.03693   23.469
 4016.00    1.02871   1.03903   23.836
 4017.00    1.01935   1.03978   24.599
 4018.00    1.01606   1.03812   25.283
 4019.00    1.01118   1.03328   25.447
 4020.00    1.00153   1.02545   25.357
 4021.00    0.99001   1.01619   25.204
 4022.00    0.98415   1.00783   24.764
 4023.00    0.98394   1.00232   24.508
 4024.00    0.97891   0.99998   25.654
 4025.00    0.96909   0.99894   27.394
 4026.00    0.96965   0.99619   25.812
 4027.00    0.97845   0.98943   22.949
 4028.00    0.96961   0.97881   24.433
 4029.00    0.93761   0.96733   28.088
 4030.00    0.90860   0.95944   20.627
 4031.00    0.90164   0.95903   12.845
 4032.00    0.91508   0.96766   10.481
 4033.00    0.93986   0.98401   10.523
 4034.00    0.96636   1.00440   10.174
 4035.00    0.98902   1.02409    9.570
 4036.00    1.00670   1.03882   11.325
 4037.00    1.01857   1.04598   18.697
 4038.00    1.02364   1.04488   29.731
 4039.00    1.02392   1.03625   26.618
 4040.00    1.02262   1.02166   22.166
 4041.00    1.01651   1.00361   22.095
 4042.00    1.00000   0.98579   23.788
 4043.00    0.98159   0.97284   25.260
 4044.00    0.97803   0.96866   25.801
 4045.00    0.98918   0.97444   25.546
 4046.00    1.00198   0.98767   25.041
 4047.00    1.01383   1.00325   24.640
 4048.00    1.02974   1.01583   24.510
 4049.00    1.04481   1.02194   24.899
 4050.00    1.04840   1.02088   25.909
 4051.00    1.03972   1.01428   26.734
 4052.00    1.02564   1.00492   26.265
 4053.00    1.01080   0.99567   25.160
 4054.00    0.99757   0.98858   24.713
 4055.00    0.98893   0.98459   24.990
 4056.00    0.98624   0.98322   25.419
 4057.00    0.98497   0.98282   25.754
 4058.00    0.97875   0.98114   25.986
 4059.00    0.96630   0.97660   25.945
 4060.00    0.95149   0.96946   25.584
 4061.00    0.94179   0.96193   25.380
 4062.00    0.94403   0.95699   25.768
 4063.00    0.95922   0.95654   26.473
 4064.00    0.98230   0.96039   26.840
 4065.00    1.00317   0.96646   26.503
 4066.00    1.01403   0.97203   25.664
 4067.00    1.01675   0.97503   25.014
 4068.00    1.01532   0.97481   25.084
 4069.00    1.00782   0.97196   25.870
 4070.00    0.99310   0.96746   26.904
 4071.00    0.97723   0.96170   27.263
 4072.00    0.96681   0.95443   26.572
 4073.00    0.96254   0.94584   25.835
 4074.00    0.96003   0.93769   25.994
 4075.00    0.95234   0.93323   27.158
 4076.00    0.94034   0.93541   28.711
 4077.00    0.93790   0.94478   29.186
 4078.00    0.94966   0.95873   28.035
 4079.00    0.95892   0.97277   26.767
 4080.00    0.95593   0.98308   26.449
 4081.00    0.95363   0.98838   26.909
 4082.00    0.96176   0.99019   27.696
 4083.00    0.97300   0.99135   28.453
 4084.00    0.98105   0.99400   28.667
 4085.00    0.98913   0.99837   27.801
 4086.00    0.99584   1.00289   26.434
 4087.00    0.99080   1.00525   25.953
 4088.00    0.97269   1.00354   26.693
 4089.00    0.95374   0.99682   27.652
 4090.00    0.93805   0.98485   27.953
 4091.00    0.91594   0.96764   27.709
 4092.00    0.88448   0.94521    0.000
 4093.00    0.85308   0.91769    0.000
 4094.00    0.82914   0.88551    0.000
 4095.00    0.81406   0.84960    0.000
 4096.00    0.81018   0.81161    0.000
 4097.00    0.82009   0.77441    0.000
 4098.00    0.83531   0.74246    0.000
 4099.00    0.83938   0.72123    0.000
 4100.00    0.82992   0.71544    0.000
 4101.00    0.81891   0.72684    0.000
 4102.00    0.81256   0.75291    0.000
 4103.00    0.80936   0.78773    0.000
 4104.00    0.81147   0.82419    0.000
 4105.00    0.82417   0.85658    0.000
 4106.00    0.84635   0.88217    0.000
 4107.00    0.87064   0.90127    0.000
 4108.00    0.88965   0.91609    0.000
 4109.00    0.89998   0.92921    0.000
 4110.00    0.90718   0.94229    0.000
 4111.00    0.91955   0.95541    0.000
 4112.00    0.93359   0.96729    0.000
 4113.00    0.94018   0.97607   26.675
 4114.00    0.94132   0.98035   26.945
 4115.00    0.94527   0.97997   27.500
 4116.00    0.95243   0.97628   28.069
 4117.00    0.95865   0.97160   28.482
 4118.00    0.96434   0.96833   28.499
 4119.00    0.97267   0.96798   28.013
 4120.00    0.98428   0.97069   27.352
 4121.00    0.99568   0.97535   27.008
 4122.00    0.99849   0.98002   27.322
 4123.00    0.98660   0.98269   28.282
 4124.00    0.96532   0.98203   29.129
 4125.00    0.94547   0.97780   28.991
 4126.00    0.93448   0.97076   28.155
 4127.00    0.93292   0.96236   27.469
 4128.00    0.93271   0.95430   27.479
 4129.00    0.92874   0.94844   28.369
 4130.00    0.93007   0.94663   29.842
 4131.00    0.94546   0.95028   30.767
 4132.00    0.96912   0.95969   29.288
 4133.00    0.99107   0.97357   25.990
 4134.00    1.00754   0.98926   23.845
 4135.00    1.01837   1.00331   23.821
 4136.00    1.02359   1.01244   24.606
 4137.00    1.02095   1.01418   24.915
 4138.00    1.00543   1.00772   25.294
 4139.00    0.97966   0.99454   26.443
 4140.00    0.95871   0.97841   27.735
 4141.00    0.94904   0.96440   28.319
 4142.00    0.93785   0.95672   28.380
 4143.00    0.92047   0.95681   28.550
 4144.00    0.91334   0.96288   29.236
 4145.00    0.92353   0.97112   30.129
 4146.00    0.93511   0.97788   30.033
 4147.00    0.93842   0.98111   28.694
 4148.00    0.94231   0.98067   27.391
 4149.00    0.95139   0.97759   26.995
 4150.00    0.95772   0.97323   27.576
 4151.00    0.95861   0.96890   28.790
 4152.00    0.96185   0.96587   29.870
 4153.00    0.97000   0.96531   30.057
 4154.00    0.97636   0.96805   29.190
 4155.00    0.97809   0.97421   27.995
 4156.00    0.97924   0.98307   27.502
 4157.00    0.98135   0.99325   28.010
 4158.00    0.98147   1.00324   29.094
 4159.00    0.97801   1.01177   30.157
 4160.00    0.97240   1.01789   30.618
 4161.00    0.96734   1.02104   30.097
 4162.00    0.96572   1.02103   28.775
 4163.00    0.96915   1.01814   27.697
 4164.00    0.97649   1.01297   27.964
 4165.00    0.98129   1.00615   29.372
 4166.00    0.97588   0.99783   30.475
 4167.00    0.96350   0.98766   30.349
 4168.00    0.95412   0.97542   29.391
 4169.00    0.94688   0.96183   28.510
 4170.00    0.93434   0.94876   28.386
 4171.00    0.92137   0.93859   28.899
 4172.00    0.91919   0.93300   29.479
 4173.00    0.92463   0.93222   30.027
 4174.00    0.92592   0.93522   30.684
 4175.00    0.92218   0.94052   30.828
 4176.00    0.92104   0.94690   29.729
 4177.00    0.92744   0.95351   28.126
 4178.00    0.94146   0.95981   27.211
 4179.00    0.95831   0.96542   27.413
 4180.00    0.97174   0.97007   28.610
 4181.00    0.97931   0.97356   30.035
 4182.00    0.98224   0.97572   30.546
 4183.00    0.98386   0.97659   29.855
 4184.00    0.98684   0.97664   28.633
 4185.00    0.98992   0.97695   27.764
 4186.00    0.99227   0.97882   27.749
 4187.00    0.99888   0.98299   28.409
 4188.00    1.01335   0.98915   29.206
 4189.00    1.02945   0.99580   29.593
 4190.00    1.03892   1.00062   29.379
 4191.00    1.04047   1.00126   29.027
 4192.00    1.03450   0.99622   28.972
 4193.00    1.01752   0.98561   29.055
 4194.00    0.99031   0.97125   29.116
 4195.00    0.96479   0.95609   29.509
 4196.00    0.95148   0.94317   30.353
 4197.00    0.94890   0.93461   30.849
 4198.00    0.95065   0.93126   30.384
 4199.00    0.95227   0.93297   29.582
 4200.00    0.95335   0.93902   29.169
 4201.00    0.95808   0.94849   29.245
 4202.00    0.96965   0.96037   29.586
 4203.00    0.98635   0.97346   29.851
 4204.00    1.00273   0.98638   29.895
 4205.00    1.01183   0.99780   29.914
 4206.00    1.01347   1.00671   29.836
 4207.00    1.01661   1.01265   29.157
 4208.00    1.02450   1.01550   28.100
 4209.00    1.02908   1.01530   27.737
 4210.00    1.02648   1.01229   28.542
 4211.00    1.02308   1.00725   30.007
 4212.00    1.02451   1.00193   31.166
 4213.00    1.03031   0.99879   31.129
 4214.00    1.03561   0.99989   30.199
 4215.00    1.03425   1.00554   29.645
 4216.00    1.02769   1.01379   29.713
 4217.00    1.02450   1.02089   29.578
 4218.00    1.02372   1.02254   29.342
 4219.00    1.01358   1.01546   30.110
 4220.00    0.99008   0.99857   31.610
 4221.00    0.96095   0.97369   31.816
 4222.00    0.93533   0.94547   30.564
 4223.00    0.91916   0.92045   29.817
 4224.00    0.91209   0.90522   30.059
 4225.00    0.90993   0.90377   30.381
 4226.00    0.91395   0.91565   30.433
 4227.00    0.92900   0.93617   30.623
 4228.00    0.95120   0.95826   30.950
 4229.00    0.96966   0.97557   31.006
 4230.00    0.97860   0.98485   30.852
 4231.00    0.97946   0.98639   30.872
 4232.00    0.97825   0.98296   30.915
 4233.00    0.98161   0.97810   30.618
 4234.00    0.98992   0.97475   30.448
 4235.00    0.99865   0.97468   31.132
 4236.00    1.00393   0.97846   32.195
 4237.00    1.00473   0.98585   32.370
 4238.00    1.00466   0.99596   31.513
 4239.00    1.00733   1.00730   30.466
 4240.00    1.00820   1.01792   29.849
 4241.00    1.00064   1.02572   29.894
 4242.00    0.98731   1.02892   30.488
 4243.00    0.97509   1.02653   31.260
 4244.00    0.96527   1.01887   31.693
 4245.00    0.95625   1.00770   31.337
 4246.00    0.94915   0.99563   30.153
 4247.00    0.94663   0.98507   28.588
 4248.00    0.95028   0.97765   27.378
 4249.00    0.95918   0.97397   27.042
 4250.00    0.96890   0.97368   27.681
 4251.00    0.97543   0.97586   29.104
 4252.00    0.97928   0.97932   30.721
 4253.00    0.98211   0.98277   31.691
 4254.00    0.98287   0.98488   31.553
 4255.00    0.98008   0.98478   30.639
 4256.00    0.97443   0.98283   29.895
 4257.00    0.96972   0.98094   29.930
 4258.00    0.97253   0.98189   30.557
 4259.00    0.98291   0.98798   31.261
 4260.00    0.98916   0.99936   31.575
 4261.00    0.98841   1.01351   31.408
 4262.00    0.99852   1.02631   31.171
 4263.00    1.02549   1.03364   30.994
 4264.00    1.04472   1.03264   30.393
 4265.00    1.03826   1.02251   29.523
 4266.00    1.01675   1.00465   29.541
 4267.00    0.99386   0.98220   30.891
 4268.00    0.97135   0.95906   32.490
 4269.00    0.95061   0.93933   33.091
 4270.00    0.93843   0.92666   32.683
 4271.00    0.93896   0.92327   31.748
 4272.00    0.95028   0.92932   30.627
 4273.00    0.96973   0.94284   29.772
 4274.00    0.99558   0.96026   29.695
 4275.00    1.02172   0.97745   30.213
 4276.00    1.03749   0.99095   30.377
 4277.00    1.03760   0.99885   29.974
 4278.00    1.02528   1.00114   29.858
 4279.00    1.00751   0.99916   30.357
 4280.00    0.99144   0.99455   30.920
 4281.00    0.97867   0.98850   -2.000
 4282.00    0.96563   0.98127   -2.000
 4283.00    0.95171   0.97232   -2.000
 4284.00    0.94026   0.96121   -2.000
 4285.00    0.93272   0.94862   -2.000
 4286.00    0.92756   0.93658   -2.000
 4287.00    0.92324   0.92768   -2.000
 4288.00    0.91968   0.92382   -2.000
 4289.00    0.91995   0.92525   -2.000
 4290.00    0.92732   0.93037   -2.000
 4291.00    0.93703   0.93596   -2.000
 4292.00    0.93963   0.93834   -2.000
 4293.00    0.93356   0.93474   -2.000
 4294.00    0.92310   0.92407   -2.000
 4295.00    0.90759   0.90742   -2.000
 4296.00    0.88431   0.88758   -2.000
 4297.00    0.85884   0.86783   30.870
 4298.00    0.84134   0.85138   30.411
 4299.00    0.83534   0.84035   30.414
 4300.00    0.83765   0.83479   30.675
 4301.00    0.84194   0.83305   31.188
 4302.00    0.84292   0.83277   32.028
 4303.00    0.84162   0.83200   32.877
 4304.00    0.84128   0.83055   33.230
 4305.00    0.84018   0.82986   33.032
 4306.00    0.83685   0.83215   32.543
 4307.00    0.83840   0.83930   31.917
 4308.00    0.85258   0.85212   31.243
 4309.00    0.87641   0.87022   30.682
 4310.00    0.90315   0.89288   30.519
 4311.00    0.93218   0.91933   31.205
 4312.00    0.96374   0.94816   32.827
 4313.00    0.99202   0.97726   34.208
 4314.00    1.00980   1.00391   34.002
 4315.00    1.01410   1.02492   32.798
 4316.00    1.00782   1.03750   31.836
 4317.00    0.99964   1.04020   31.571
 4318.00    0.99272   1.03273   31.903
 4319.00    0.97666   1.01605   32.357
 4320.00    0.94736   0.99268   32.590
 4321.00    0.92160   0.96701   32.835
 4322.00    0.91165   0.94485   33.323
 4323.00    0.90742   0.93132   33.804
 4324.00    0.90016   0.92891   33.918
 4325.00    0.89834   0.93664   33.558
 4326.00    0.90817   0.95079   32.827
 4327.00    0.92179   0.96653   31.954
 4328.00    0.93200   0.97941   31.320
 4329.00    0.94030   0.98652   31.394
 4330.00    0.94602   0.98634    0.000
 4331.00    0.94221   0.97767    0.000
 4332.00    0.93068   0.95890    0.000
 4333.00    0.92620   0.92920    0.000
 4334.00    0.93533   0.88984    0.000
 4335.00    0.94861   0.84459    0.000
 4336.00    0.95607   0.80027    0.000
 4337.00    0.95397   0.76534    0.000
 4338.00    0.94061   0.74659    0.000
 4339.00    0.91546   0.74665    0.000
 4340.00    0.88356   0.76434    0.000
 4341.00    0.85590   0.79521    0.000
 4342.00    0.84393   0.83288    0.000
 4343.00    0.85466   0.87118    0.000
 4344.00    0.88163   0.90555    0.000
 4345.00    0.90731   0.93253    0.000
 4346.00    0.92118   0.94971    0.000
 4347.00    0.92361   0.95698    0.000
 4348.00    0.91948   0.95738    0.000
 4349.00    0.91457   0.95558    0.000
 4350.00    0.91131   0.95571    0.000
 4351.00    0.90953   0.96051   33.686
 4352.00    0.91124   0.97070   34.272
 4353.00    0.91970   0.98437   33.937
 4354.00    0.93397   0.99842   32.794
 4355.00    0.95092   1.01083   31.808
 4356.00    0.97224   1.02161   31.545
 4357.00    1.00105   1.03161   32.041
 4358.00    1.03175   1.04159   32.690
 4359.00    1.05476   1.05191   32.707
 4360.00    1.06932   1.06219   32.422
 4361.00    1.07896   1.07076   32.652
 4362.00    1.07924   1.07527   33.197
 4363.00    1.06563   1.07436   33.251
 4364.00    1.04930   1.06873   32.655
 4365.00    1.04340   1.06024   31.860
 4366.00    1.03889   1.05079   31.371
 4367.00    1.02141   1.04192   31.490
 4368.00    0.99957   1.03403   32.150
 4369.00    0.98937   1.02628   33.138
 4370.00    0.98876   1.01803   34.389
 4371.00    0.98915   1.01048   35.521
 4372.00    0.99284   1.00603   35.180
 4373.00    1.00314   1.00630   32.981
 4374.00    1.01140   1.01067   31.001
 4375.00    1.00911   1.01648   30.710
 4376.00    1.00137   1.01994   31.649
 4377.00    0.99358   1.01720   32.788
 4378.00    0.97839   1.00518   33.626
 4379.00    0.95169   0.98386   34.196
 4380.00    0.92689   0.95812   34.838
 4381.00    0.91654   0.93528   35.636
 4382.00    0.91687   0.92097   35.951
 4383.00    0.92086   0.91710   35.357
 4384.00    0.92904   0.92267   34.423
 4385.00    0.94209   0.93488   33.764
 4386.00    0.95549   0.94987   33.480
 4387.00    0.96534   0.96473   33.572
 4388.00    0.97225   0.97817   34.169
 4389.00    0.97791   0.98941   35.226
 4390.00    0.98315   0.99816   36.294
 4391.00    0.98986   1.00534   36.797
 4392.00    1.00122   1.01261   36.412
 4393.00    1.01616   1.02040   35.402
 4394.00    1.02770   1.02727   34.458
 4395.00    1.03158   1.03139   33.840
 4396.00    1.02984   1.03161   33.293
 4397.00    1.02612   1.02838   32.967
 4398.00    1.02229   1.02290   33.526
 4399.00    1.01429   1.01522   34.968
 4400.00    0.99456   1.00517   36.219
 4401.00    0.96926   0.99467   36.585
 4402.00    0.95803   0.98666   36.468
 4403.00    0.96526   0.98264   36.012
 4404.00    0.97650   0.98314   34.872
 4405.00    0.98580   0.98905   33.401
 4406.00    0.99978   1.00029   32.482
 4407.00    1.01761   1.01472   32.434
 4408.00    1.02983   1.02900   33.053
 4409.00    1.03567   1.03960   34.057
 4410.00    1.04255   1.04344   35.131
 4411.00    1.04923   1.04011   35.860
 4412.00    1.04737   1.03292   35.930
 4413.00    1.03848   1.02641   35.670
 4414.00    1.03312   1.02404   35.675
 4415.00    1.03759   1.02742   35.664
 4416.00    1.05080   1.03532   34.910
 4417.00    1.06511   1.04431   33.798
 4418.00    1.07138   1.05105   33.275
 4419.00    1.06888   1.05439   33.495
 4420.00    1.06357   1.05507   34.054
 4421.00    1.06030   1.05426   34.659
 4422.00    1.06102   1.05287   35.176
 4423.00    1.06432   1.05169   35.481
 4424.00    1.06755   1.05111   35.398
 4425.00    1.07036   1.05062   34.687
 4426.00    1.07340   1.04907   33.451
 4427.00    1.07532   1.04616   32.515
 4428.00    1.07390   1.04244   32.523
 4429.00    1.06846   1.03777   33.013
 4430.00    1.06031   1.03196   33.240
 4431.00    1.05287   1.02629   33.501
 4432.00    1.04946   1.02343   34.366
 4433.00    1.05078   1.02571   35.354
 4434.00    1.05654   1.03324   35.353
 4435.00    1.06731   1.04361   33.810
 4436.00    1.07721   1.05298   31.550
 4437.00    1.06793   1.05780   30.358
 4438.00    1.03522   1.05670   30.682
 4439.00    1.01269   1.05147   30.400
 4440.00    1.02847   1.04610   28.116
 4441.00    1.06486   1.04458   25.902
 4442.00    1.08873   1.04836   25.411
 4443.00    1.08282   1.05586   26.737
 4444.00    1.05450   1.06468   29.339
 4445.00    1.03631   1.07270   31.641
 4446.00    1.04810   1.07753   32.125
 4447.00    1.07196   1.07782   31.601
 4448.00    1.08422   1.07383   31.208
 4449.00    1.07912   1.06579   30.782
 4450.00    1.06413   1.05365   30.167
 4451.00    1.05312   1.03840   29.900
 4452.00    1.04944   1.02263   30.417
 4453.00    1.03987   1.00909   31.688
 4454.00    1.01952   0.99880   33.364
 4455.00    1.00231   0.99162   34.795
 4456.00    0.99761   0.98751   35.449
 4457.00    1.00042   0.98627   35.332
 4458.00    1.00658   0.98756   34.706
 4459.00    1.01845   0.99196   33.836
 4460.00    1.03491   0.99962   32.974
 4461.00    1.04876   1.00855    0.000
 4462.00    1.05623   1.01657    0.000
 4463.00    1.05954   1.02251    0.000
 4464.00    1.06059   1.02570    0.000
 4465.00    1.05972   1.02623    0.000
 4466.00    1.06052   1.02565    0.000
 4467.00    1.06877   1.02663    0.000
 4468.00    1.08288   1.03137    0.000
 4469.00    1.09422   1.04102    0.000
 4470.00    1.09843   1.05495    0.000
 4471.00    1.09790   1.07066    0.000
 4472.00    1.09803   1.08521    0.000
 4473.00    1.10326   1.09662    0.000
 4474.00    1.10975   1.10314    0.000
 4475.00    1.10865   1.10278    0.000
 4476.00    1.09923   1.09495    0.000
 4477.00    1.08884   1.08202    0.000
 4478.00    1.08502   1.06882    0.000
 4479.00    1.09117   1.06055    0.000
 4480.00    1.10188   1.06010    0.000
 4481.00    1.10881   1.06653    0.000
 4482.00    1.11405   1.07649   35.770
 4483.00    1.12360   1.08594   35.148
 4484.00    1.13043   1.09112   34.687
 4485.00    1.12405   1.09031   33.873
 4486.00    1.11175   1.08491   33.098
 4487.00    1.10697   1.07823   33.045
 4488.00    1.10542   1.07299   33.672
 4489.00    1.09724   1.06981   34.527
 4490.00    1.09027   1.06769   35.361
 4491.00    1.09700   1.06590   36.067
 4492.00    1.11216   1.06549   36.452
 4493.00    1.12259   1.06773   36.377
 4494.00    1.12404   1.07299   35.995
 4495.00    1.11979   1.08097   35.628
 4496.00    1.11631   1.09035   35.555
 4497.00    1.11914   1.09978   35.737
 4498.00    1.12911   1.10900   35.582
 4499.00    1.14445   1.11944   34.792
 4500.00    1.16327   1.13149   34.123
 4501.00    1.18213   1.14293   34.253
 4502.00    1.19499   1.15168   34.950
 4503.00    1.19914   1.15683   35.701
 4504.00    1.19974   1.15831   36.322
 4505.00    1.20153   1.15707   36.730
 4506.00    1.20211   1.15447   36.699
 4507.00    1.19779   1.15105   36.248
 4508.00    1.18826   1.14628   35.825
 4509.00    1.17515   1.13966   35.614
 4510.00    1.16058   1.13166   35.215
 4511.00    1.14748   1.12321   34.531
 4512.00    1.13924   1.11566   34.161
 4513.00    1.13600   1.11020   34.411
 4514.00    1.13359   1.10672   34.902
 4515.00    1.13117   1.10498   35.482
 4516.00    1.13387   1.10513   36.619
 4517.00    1.14213   1.10598   38.046
 4518.00    1.14793   1.10552   38.177
 4519.00    1.14602   1.10157   37.008
 4520.00    1.13844   1.09376   36.682
 4521.00    1.12771   1.08303   37.381
 4522.00    1.11370   1.06948   36.760
 4523.00    1.09468   1.05386   34.956
 4524.00    1.06923   1.03804   34.745
 4525.00    1.04153   1.02400   35.752
 4526.00    1.02122   1.01363   34.175
 4527.00    1.01502   1.00808   30.296
 4528.00    1.02285   1.00702   27.682
 4529.00    1.03626   1.00934   26.993
 4530.00    1.04309   1.01321   27.220
 4531.00    1.04372   1.01807   27.663
 4532.00    1.04930   1.02534   28.116
 4533.00    1.06069   1.03649   28.414
 4534.00    1.06863   1.05081   28.358
 4535.00    1.07181   1.06475   27.924
 4536.00    1.07646   1.07507   27.341
 4537.00    1.08192   1.08089   27.100
 4538.00    1.08221   1.08315   27.625
 4539.00    1.07865   1.08366   28.532
 4540.00    1.07786   1.08317   28.861
 4541.00    1.08076   1.08108   28.488
 4542.00    1.08293   1.07764   28.066
 4543.00    1.08054   1.07390   27.902
 4544.00    1.07273   1.06987   27.950
 4545.00    1.06333   1.06475   28.131
 4546.00    1.05724   1.05865   28.362
 4547.00    1.05361   1.05359   28.522
 4548.00    1.04902   1.05091   28.560
 4549.00    1.04466   1.04956   28.680
 4550.00    1.04411   1.04887    0.000
 4551.00    1.04804   1.04962    0.000
 4552.00    1.05453   1.05311    0.000
 4553.00    1.06076   1.06059    0.000
 4554.00    1.06504   1.07193    0.000
 4555.00    1.06904   1.08488    0.000
 4556.00    1.07572   1.09696    0.000
 4557.00    1.08619   1.10642    0.000
 4558.00    1.09779   1.11215    0.000
 4559.00    1.10291   1.11351    0.000
 4560.00    1.09725   1.11050    0.000
 4561.00    1.08791   1.10498    0.000
 4562.00    1.08434   1.10030    0.000
 4563.00    1.08864   1.09902    0.000
 4564.00    1.09746   1.10149    0.000
 4565.00    1.10521   1.10586    0.000
 4566.00    1.10896   1.10989    0.000
 4567.00    1.11174   1.11213    0.000
 4568.00    1.11677   1.11206    0.000
 4569.00    1.12307   1.11133    0.000
 4570.00    1.12940   1.11225    0.000
 4571.00    1.13691   1.11418    0.000
 4572.00    1.14440   1.11515    0.000
 4573.00    1.14618   1.11447    0.000
 4574.00    1.13926   1.11167    0.000
 4575.00    1.12722   1.10591    0.000
 4576.00    1.11362   1.09694    0.000
 4577.00    1.09872   1.08608    0.000
 4578.00    1.08386   1.07586    0.000
 4579.00    1.07362   1.06827    0.000
 4580.00    1.07315   1.06378    0.000
 4581.00    1.08538   1.06239    0.000
 4582.00    1.10460   1.06424    0.000
 4583.00    1.11718   1.06887    0.000
 4584.00    1.11849   1.07546    0.000
 4585.00    1.11652   1.08280    0.000
 4586.00    1.11536   1.08899    0.000
 4587.00    1.11098   1.09223    0.000
 4588.00    1.10250   1.09179    0.000
 4589.00    1.09426   1.08855    0.000
 4590.00    1.08756   1.08440    0.000
 4591.00    1.08044   1.08060    0.000
 4592.00    1.07685   1.07752    0.000
 4593.00    1.08508   1.07562    0.000
 4594.00    1.10368   1.07528    0.000
 4595.00    1.12157   1.07620    0.000
 4596.00    1.13086   1.07765    0.000
 4597.00    1.13051   1.07875    0.000
 4598.00    1.12565   1.07952    0.000
 4599.00    1.12240   1.08107    0.000
 4600.00    1.11614   1.08381    0.000
 4601.00    1.09831   1.08760    0.000
 4602.00    1.07790   1.09265    0.000
 4603.00    1.07392   1.09945    0.000
 4604.00    1.08932   1.10830    0.000
 4605.00    1.11291   1.11838    0.000
 4606.00    1.13419   1.12777    0.000
 4607.00    1.14722   1.13433    0.000
 4608.00    1.15234   1.13716    0.000
 4609.00    1.15446   1.13705    0.000
 4610.00    1.15968   1.13532    0.000
 4611.00    1.17145   1.13324    0.000
 4612.00    1.18568   1.13169    0.000
 4613.00    1.19512   1.13047    0.000
 4614.00    1.19668   1.12942    0.000
 4615.00    1.19024   1.12877    0.000
 4616.00    1.17592   1.12826    0.000
 4617.00    1.15741   1.12850    0.000
 4618.00    1.14605   1.13036    0.000
 4619.00    1.15124   1.13292    0.000
 4620.00    1.16892   1.13487    0.000
 4621.00    1.18632   1.13590    0.000
 4622.00    1.18954   1.13568    0.000
 4623.00    1.17351   1.13416    0.000
 4624.00    1.15013   1.13214    0.000
 4625.00    1.13420   1.12998    0.000
 4626.00    1.12971   1.12734    0.000
 4627.00    1.13477   1.12470    0.000
 4628.00    1.14687   1.12293    0.000
 4629.00    1.16292   1.12109    0.000
 4630.00    1.17870   1.11743    0.000
 4631.00    1.18805   1.11216    0.000
 4632.00    1.18331   1.10662    0.000
 4633.00    1.16359   1.10130    0.000
 4634.00    1.13898   1.09602    0.000
 4635.00    1.11948   1.09108    0.000
 4636.00    1.10787   1.08737    0.000
 4637.00    1.10289   1.08526    0.000
 4638.00    1.10179   1.08446    0.000
 4639.00    1.10234   1.08404    0.000
 4640.00    1.10356   1.08205    0.000
 4641.00    1.10424   1.07722    0.000
 4642.00    1.10238   1.06987    0.000
 4643.00    1.09712   1.06101    0.000
 4644.00    1.08970   1.05264    0.000
 4645.00    1.08374   1.04776    0.000
 4646.00    1.08388   1.04809    0.000
 4647.00    1.09017   1.05299    0.000
 4648.00    1.09737   1.06056    0.000
 4649.00    1.10192   1.06875    0.000
 4650.00    1.10441   1.07601    0.000
 4651.00    1.10813   1.08128    0.000
 4652.00    1.11624   1.08472    0.000
 4653.00    1.12418   1.08839    0.000
 4654.00    1.12278   1.09410    0.000
 4655.00    1.11545   1.10218    0.000
 4656.00    1.11592   1.11127    0.000
 4657.00    1.12624   1.11818    0.000
 4658.00    1.13658   1.11985    0.000
 4659.00    1.14248   1.11505    0.000
 4660.00    1.14538   1.10449    0.000
 4661.00    1.14219   1.09007    0.000
 4662.00    1.12690   1.07380    0.000
 4663.00    1.10044   1.05700    0.000
 4664.00    1.07095   1.04139    0.000
 4665.00    1.04910   1.03069    0.000
 4666.00    1.04307   1.02829    0.000
 4667.00    1.05080   1.03389    0.000
 4668.00    1.06382   1.04460    0.000
 4669.00    1.07706   1.05721    0.000
 4670.00    1.08915   1.06907    0.000
 4671.00    1.09981   1.07888    0.000
 4672.00    1.10941   1.08658    0.000
 4673.00    1.11912   1.09197    0.000
 4674.00    1.12855   1.09432    0.000
 4675.00    1.13259   1.09289    0.000
 4676.00    1.12656   1.08846    0.000
 4677.00    1.11372   1.08321    0.000
 4678.00    1.10210   1.07884    0.000
 4679.00    1.09886   1.07619    0.000
 4680.00    1.10633   1.07583    0.000
 4681.00    1.11863   1.07739    0.000
 4682.00    1.12795   1.07932    0.000
 4683.00    1.13184   1.08083    0.000
 4684.00    1.13117   1.08219    0.000
 4685.00    1.12722   1.08330    0.000
 4686.00    1.12194   1.08420    0.000
 4687.00    1.11826   1.08525    0.000
 4688.00    1.11712   1.08639    0.000
 4689.00    1.11535   1.08788    0.000
 4690.00    1.11042   1.09035    0.000
 4691.00    1.10422   1.09327    0.000
 4692.00    1.09997   1.09548    0.000
 4693.00    1.09929   1.09592    0.000
 4694.00    1.10021   1.09337    0.000
 4695.00    1.09693   1.08703    0.000
 4696.00    1.08729   1.07800    0.000
 4697.00    1.07652   1.06906    0.000
 4698.00    1.06891   1.06178    0.000
 4699.00    1.06343   1.05575    0.000
 4700.00    1.06052   1.05096    0.000
 4701.00    1.06463   1.04850    0.000
 4702.00    1.07496   1.04890    0.000
 4703.00    1.08250   1.05065    0.000
 4704.00    1.08092   1.05195    0.000
 4705.00    1.07173   1.05278    0.000
 4706.00    1.06193   1.05429    0.000
 4707.00    1.06049   1.05731    0.000
 4708.00    1.06851   1.06200    0.000
 4709.00    1.07799   1.06745    0.000
 4710.00    1.08423   1.07200    0.000
 4711.00    1.08922   1.07586    0.000
 4712.00    1.09527   1.08080    0.000
 4713.00    1.10260   1.08847    0.000
 4714.00    1.10964   1.09868    0.000
 4715.00    1.11465   1.10943    0.000
 4716.00    1.12003   1.11934    0.000
 4717.00    1.13029   1.12797    0.000
 4718.00    1.14184   1.13433    0.000
 4719.00    1.14527   1.13739    0.000
 4720.00    1.13993   1.13714    0.000
 4721.00    1.13321   1.13430    0.000
 4722.00    1.12844   1.12904    0.000
 4723.00    1.12356   1.12058    0.000
 4724.00    1.11590   1.10855    0.000
 4725.00    1.10422   1.09441    0.000
 4726.00    1.09067   1.08177    0.000
 4727.00    1.07900   1.07328    0.000
 4728.00    1.07018   1.06917    0.000
 4729.00    1.06444   1.06907    0.000
 4730.00    1.06649   1.07258    0.000
 4731.00    1.07951   1.07804    0.000
 4732.00    1.09339   1.08389    0.000
 4733.00    1.09509   1.08920    0.000
 4734.00    1.08853   1.09307    0.000
 4735.00    1.08603   1.09672    0.000
 4736.00    1.09065   1.10151    0.000
 4737.00    1.09934   1.10576    0.000
 4738.00    1.11125   1.10841    0.000
 4739.00    1.12563   1.11086    0.000
 4740.00    1.13772   1.11416    0.000
 4741.00    1.14279   1.11781    0.000
 4742.00    1.14138   1.12083    0.000
 4743.00    1.13688   1.12329    0.000
 4744.00    1.13186   1.12589    0.000
 4745.00    1.12766   1.12778    0.000
 4746.00    1.12443   1.12785    0.000
 4747.00    1.12253   1.12644    0.000
 4748.00    1.12355   1.12366    0.000
 4749.00    1.12796   1.11910    0.000
 4750.00    1.13303   1.11318    0.000
 4751.00    1.13526   1.10730    0.000
 4752.00    1.13265   1.10233    0.000
 4753.00    1.12507   1.09878    0.000
 4754.00    1.11414   1.09661    0.000
 4755.00    1.10120   1.09536    0.000
 4756.00    1.08641   1.09409    0.000
 4757.00    1.07327   1.09169    0.000
 4758.00    1.07007   1.08706    0.000
 4759.00    1.07850   1.07948    0.000
 4760.00    1.08815   1.07031    0.000
 4761.00    1.08803   1.06243   32.701
 4762.00    1.07433   1.05709   31.151
 4763.00    1.05308   1.05452   29.744
 4764.00    1.03839   1.05570   36.125
 4765.00    1.03683   1.06109   45.259
 4766.00    1.04208   1.06934   24.152
 4767.00    1.04876   1.07864   11.943
 4768.00    1.05765   1.08722    8.893
 4769.00    1.06871   1.09399    8.894
 4770.00    1.07888   1.10020    9.493
 4771.00    1.08689   1.10718    9.395
 4772.00    1.09442   1.11418    9.017
 4773.00    1.10281   1.11931    8.925
 4774.00    1.11183   1.12202    9.161
 4775.00    1.12045   1.12321    9.194
 4776.00    1.12739   1.12243    8.480
 4777.00    1.13247   1.11893    8.197
 4778.00    1.13643   1.11377   10.601
 4779.00    1.13917   1.10796   21.382
 4780.00    1.13931   1.10123   45.869
 4781.00    1.13453   1.09417   37.491
 4782.00    1.12309   1.08886   29.557
 4783.00    1.10756   1.08520   31.379
 4784.00    1.09409   1.08199   34.181
 4785.00    1.08838   1.08108   33.422
 4786.00    1.09257   1.08328   32.401
 4787.00    1.10086   1.08727   32.535
 4788.00    1.10400   1.09357   32.755
 4789.00    1.10048   1.10204   32.471
 4790.00    1.09555   1.11111   31.983
 4791.00    1.09438   1.11992   31.957
 4792.00    1.09865   1.12705   32.797
 4793.00    1.10305   1.13058   33.686
 4794.00    1.10063   1.13006   33.429
 4795.00    1.09259   1.12668   32.744
 4796.00    1.08582   1.12180   32.899
 4797.00    1.08624   1.11707   33.346
 4798.00    1.09455   1.11414   32.967
 4799.00    1.10215   1.11331   32.412
 4800.00    1.10068   1.11325   32.692
 4801.00    1.09509   1.11210   33.153
 4802.00    1.09360   1.10912   32.806
 4803.00    1.09359   1.10526   32.377
 4804.00    1.08893   1.10224   32.801
 4805.00    1.08049   1.10003   33.457
 4806.00    1.07296   1.09877   33.387
 4807.00    1.07010   1.09947   33.008
 4808.00    1.07332   1.10188   33.053
 4809.00    1.08092   1.10515   33.385
 4810.00    1.08865   1.10905   33.531
 4811.00    1.09098   1.11358   33.283
 4812.00    1.08648   1.11865   32.785
 4813.00    1.08162   1.12383   32.450
 4814.00    1.08362   1.12843   32.516
 4815.00    1.09407   1.13145   32.799
 4816.00    1.10774   1.13212   33.077
 4817.00    1.11337   1.13033   33.383
 4818.00    1.10456   1.12592   33.773
 4819.00    1.08651   1.11930   34.147
 4820.00    1.06945   1.11102   34.322
 4821.00    1.06283   1.10211   34.126
 4822.00    1.06829   1.09578   33.570
 4823.00    1.07744   1.09371   32.896
 4824.00    1.08271   1.09349   32.468
 4825.00    1.08306   1.09289   32.622
 4826.00    1.08064   1.09164   33.212
 4827.00    1.07837   1.09056   33.499
 4828.00    1.07791   1.09012   33.234
 4829.00    1.07926   1.08934   33.042
 4830.00    1.08314   1.08827   33.265
 4831.00    1.09111   1.08836   33.622
 4832.00    1.10120   1.08918   33.817
 4833.00    1.10762   1.08903   33.774
 4834.00    1.10692   1.08738   33.427
 4835.00    1.09978   1.08471   32.760
 4836.00    1.08835   1.08090   32.191
 4837.00    1.07502   1.07623   32.337
 4838.00    1.06177   1.07236   33.038
 4839.00    1.05033   1.07037   33.397
 4840.00    1.04331   1.06930   33.184
 4841.00    1.04278   1.06813   33.004
 4842.00    1.04526   1.06774   33.134
 4843.00    1.04403   1.06795   33.382
 4844.00    1.03916   1.06676   33.527
 4845.00    1.03573   1.06293   33.485
 4846.00    1.03305   1.05674   33.373
 4847.00    1.02602   1.04971   33.377
 4848.00    1.01470   1.04240    0.000
 4849.00    1.00275   1.03282    0.000
 4850.00    0.98940   1.01968    0.000
 4851.00    0.97305   1.00296    0.000
 4852.00    0.96166   0.98153    0.000
 4853.00    0.96977   0.95556    0.000
 4854.00    1.00885   0.92809    0.000
 4855.00    1.08099   0.90093    0.000
 4856.00    1.17153   0.87344    0.000
 4857.00    1.25507   0.84671    0.000
 4858.00    1.30732   0.82438    0.000
 4859.00    1.31163   0.81210    0.000
 4860.00    1.26581   0.81517    0.000
 4861.00    1.18275   0.83207    0.000
 4862.00    1.08919   0.85572    0.000
 4863.00    1.01280   0.88150    0.000
 4864.00    0.96613   0.90673    0.000
 4865.00    0.94799   0.92861    0.000
 4866.00    0.94825   0.94559    0.000
 4867.00    0.95488   0.95741    0.000
 4868.00    0.96111   0.96401    0.000
 4869.00    0.96481   0.96756    0.000
 4870.00    0.96664   0.97300    0.000
 4871.00    0.96753   0.98292    0.000
 4872.00    0.96665   0.99528    0.000
 4873.00    0.96507   1.00779    0.000
 4874.00    0.96855   1.02012    0.000
 4875.00    0.98147   1.03203   33.990
 4876.00    1.00183   1.04252   33.975
 4877.00    1.02261   1.05080   33.481
 4878.00    1.03452   1.05478   33.266
 4879.00    1.03529   1.05346   33.703
 4880.00    1.03420   1.04953   33.971
 4881.00    1.03724   1.04501   33.461
 4882.00    1.03848   1.03903   32.732
 4883.00    1.03132   1.03146   32.455
 4884.00    1.01588   1.02437   32.826
 4885.00    0.99849   1.02018   33.515
 4886.00    0.98930   1.01942   33.718
 4887.00    0.99233   1.02138   33.256
 4888.00    1.00217   1.02577   32.943
 4889.00    1.01505   1.03411   33.116
 4890.00    1.03278   1.04909   33.201
 4891.00    1.05423   1.06879   32.802
 4892.00    1.07289   1.08784   32.153
 4893.00    1.08362   1.10329   31.622
 4894.00    1.08611   1.11397   31.455
 4895.00    1.08627   1.11958   31.673
 4896.00    1.09357   1.12047   32.055
 4897.00    1.10963   1.11714   32.190
 4898.00    1.12667   1.11204   31.736
 4899.00    1.13700   1.10839   31.186
 4900.00    1.13710   1.10598   31.427
 4901.00    1.12926   1.10356   32.004
 4902.00    1.11945   1.10192   31.525
 4903.00    1.10964   1.10151   30.881
 4904.00    1.09795   1.10065   32.075
 4905.00    1.08550   1.09739   33.173
 4906.00    1.07658   1.09180   30.612
 4907.00    1.07420   1.08570   30.265
 4908.00    1.07823   1.08113   40.740
 4909.00    1.08409   1.07970   41.808
 4910.00    1.08550   1.08084   18.301
 4911.00    1.08122   1.08168   10.123
 4912.00    1.07376   1.07991    8.559
 4913.00    1.06396   1.07462    9.187
 4914.00    1.05129   1.06496    9.812
 4915.00    1.03673   1.05066    9.711
 4916.00    1.02200   1.03304    9.702
 4917.00    1.00760   1.01582    9.920
 4918.00    0.99532   1.00390    9.995
 4919.00    0.99260   1.00066   10.036
 4920.00    1.00526   1.00609   10.210
 4921.00    1.02594   1.01703    9.846
 4922.00    1.04200   1.03114    8.922
 4923.00    1.04905   1.04838    9.307
 4924.00    1.05090   1.06782   14.090
 4925.00    1.05639   1.08542   33.009
 4926.00    1.07147   1.09801   51.579
 4927.00    1.09051   1.10552   35.388
 4928.00    1.10402   1.10820   31.310
 4929.00    1.10845   1.10613   34.324
 4930.00    1.10467   1.09925   35.269
 4931.00    1.09511   1.08798   34.181
 4932.00    1.08297   1.07624   35.043
 4933.00    1.07146   1.06818   36.727
 4934.00    1.06255   1.06291   36.712
 4935.00    1.05598   1.05845   35.971
 4936.00    1.05199   1.05624   35.979
 4937.00    1.05304   1.05928   35.963
 4938.00    1.05975   1.06853   35.224
 4939.00    1.06816   1.08110   34.776
 4940.00    1.07509   1.09316    0.000
 4941.00    1.08174   1.10386    0.000
 4942.00    1.09027   1.11319    0.000
 4943.00    1.10112   1.12013    0.000
 4944.00    1.11298   1.12494    0.000
 4945.00    1.12304   1.12886    0.000
 4946.00    1.12859   1.13170    0.000
 4947.00    1.12809   1.13258    0.000
 4948.00    1.12168   1.13122    0.000
 4949.00    1.11107   1.12700    0.000
 4950.00    1.09793   1.11848    0.000
 4951.00    1.08353   1.10653    0.000
 4952.00    1.07113   1.09408    0.000
 4953.00    1.06590   1.08248    0.000
 4954.00    1.06954   1.07140    0.000
 4955.00    1.07875   1.06177    0.000
 4956.00    1.08926   1.05870    0.000
 4957.00    1.09783   1.06461    0.000
 4958.00    1.10377   1.07395    0.000
 4959.00    1.10780   1.08101    0.000
 4960.00    1.10647   1.08507    0.000
 4961.00    1.09378   1.08716    0.000
 4962.00    1.07277   1.08688    0.000
 4963.00    1.05465   1.08337    0.000
 4964.00    1.04479   1.07877    0.000
 4965.00    1.04148   1.07619    0.000
 4966.00    1.04481   1.07624    0.000
 4967.00    1.05667   1.07868    0.000
 4968.00    1.07408   1.08300    0.000
 4969.00    1.09044   1.08864    0.000
 4970.00    1.10256   1.09461    0.000
 4971.00    1.11095   1.09883    0.000
 4972.00    1.11641   1.10015    0.000
 4973.00    1.11831   1.09804    0.000
 4974.00    1.11291   1.09172    0.000
 4975.00    1.09688   1.08099    0.000
 4976.00    1.07466   1.06660    0.000
 4977.00    1.05430   1.05087    0.000
 4978.00    1.03767   1.03599    0.000
 4979.00    1.02275   1.02263    0.000
 4980.00    1.01035   1.01183    0.000
 4981.00    1.00376   1.00621    0.000
 4982.00    1.00622   1.00762    0.000
 4983.00    1.01854   1.01465    0.000
 4984.00    1.03635   1.02471    0.000
 4985.00    1.05247   1.03616    0.000
 4986.00    1.06087   1.04659    0.000
 4987.00    1.05972   1.05403    0.000
 4988.00    1.05409   1.05878    0.000
 4989.00    1.04955   1.06195    0.000
 4990.00    1.04480   1.06460    0.000
 4991.00    1.03726   1.06618    0.000
 4992.00    1.02966   1.06574    0.000
 4993.00    1.02578   1.06420    0.000
 4994.00    1.02567   1.06149    0.000
 4995.00    1.02705   1.05652    0.000
 4996.00    1.02744   1.04928    0.000
 4997.00    1.02603   1.04000    0.000
 4998.00    1.02511   1.02956    0.000
 4999.00    1.02804   1.01958    0.000
 5000.00    1.03756   1.01152    0.000
 5001.00    1.05467   1.00637    0.000
 5002.00    1.07789   1.00338    0.000
 5003.00    1.10243   1.00114    0.000
 5004.00    1.12017   1.00009    0.000
 5005.00    1.12306   1.00165    0.000
 5006.00    1.10631   1.00494    0.000
 5007.00    1.07435   1.00639    0.000
 5008.00    1.04177   1.00400    0.000
 5009.00    1.01822   0.99883    0.000
 5010.00    1.00168   0.99195    0.000
 5011.00    0.98827   0.98444    0.000
 5012.00    0.97716   0.97833    0.000
 5013.00    0.96792   0.97565    0.000
 5014.00    0.95977   0.97651    0.000
 5015.00    0.95470   0.97867    0.000
 5016.00    0.95713   0.98159    0.000
 5017.00    0.96657   0.98718    0.000
 5018.00    0.97678   0.99530    0.000
 5019.00    0.98479   1.00310    0.000
 5020.00    0.99275   1.00894    0.000
 5021.00    1.00193   1.01443    0.000
 5022.00    1.01136   1.02119    0.000
 5023.00    1.02087   1.02786    0.000
 5024.00    1.03112   1.03299    0.000
 5025.00    1.04027   1.03711    0.000
 5026.00    1.04501   1.04239    0.000
 5027.00    1.04623   1.04980    0.000
 5028.00    1.04851   1.05646    0.000
 5029.00    1.05411   1.06004   37.496
 5030.00    1.06117   1.06135   37.044
 5031.00    1.06356   1.06059   36.432
 5032.00    1.05437   1.05548   36.477
 5033.00    1.03391   1.04422   37.246
 5034.00    1.00916   1.02914   38.134
 5035.00    0.98831   1.01539   38.565
 5036.00    0.97778   1.00493   38.337
 5037.00    0.97873   0.99666   37.852
 5038.00    0.98751   0.99131   37.691
 5039.00    0.99795   0.99182   37.908
 5040.00    1.00450   1.00043   38.200
 5041.00    1.00668   1.01460   38.335
 5042.00    1.00781   1.02835   38.222
 5043.00    1.01154   1.03885   37.870
 5044.00    1.01932   1.04583   37.392
 5045.00    1.02769   1.04819   36.992
 5046.00    1.03170   1.04585   36.864
 5047.00    1.03006   1.04184   37.066
 5048.00    1.02604   1.03975   37.379
 5049.00    1.02720   1.04045   37.171
 5050.00    1.03742   1.04364   36.263
 5051.00    1.04841   1.04999   35.737
 5052.00    1.05055   1.05912   36.430
 5053.00    1.04547   1.06875   37.590
 5054.00    1.04134   1.07720   37.933
 5055.00    1.04584   1.08443   37.275
 5056.00    1.05943   1.09025   36.224
 5057.00    1.07068   1.09302   35.387
 5058.00    1.06895   1.09179   35.178
 5059.00    1.05556   1.08782   35.787
 5060.00    1.03898   1.08197   37.002
 5061.00    1.02907   1.07347   37.945
 5062.00    1.02937   1.06238   37.962
 5063.00    1.03284   1.05191   37.502
 5064.00    1.03341   1.04546   37.113
 5065.00    1.03350   1.04181   36.754
 5066.00    1.03699   1.03854   36.439
 5067.00    1.04412   1.03685   36.510
 5068.00    1.05143   1.03764   36.784
 5069.00    1.05320   1.03838   36.287
 5070.00    1.04816   1.03714   35.120
 5071.00    1.04164   1.03547   34.820
 5072.00    1.03574   1.03357   35.807
 5073.00    1.02584   1.02885   36.689
 5074.00    1.01043   1.02171   36.777
 5075.00    0.99494   1.01489   37.230
 5076.00    0.98570   1.00830   38.323
 5077.00    0.98610   1.00038   38.567
 5078.00    0.99278   0.99410   37.710
 5079.00    0.99716   0.99387   37.419
 5080.00    0.99763   0.99879   38.200
 5081.00    1.00156   1.00526   38.916
 5082.00    1.01435   1.01291   38.879
 5083.00    1.03541   1.02292   38.517
 5084.00    1.05866   1.03356   38.128
 5085.00    1.07530   1.04242   37.686
 5086.00    1.08136   1.04982   37.634
 5087.00    1.07921   1.05677   38.623
 5088.00    1.07463   1.06229   39.993
 5089.00    1.07350   1.06510   39.995
 5090.00    1.07555   1.06545   38.924
 5091.00    1.07538   1.06343   38.607
 5092.00    1.06945   1.05800   39.060
 5093.00    1.05738   1.04928   38.947
 5094.00    1.04073   1.03963   38.210
 5095.00    1.02274   1.03100   37.901
 5096.00    1.00856   1.02379   38.453
 5097.00    1.00273   1.01871   39.558
 5098.00    1.00424   1.01760   40.316
 5099.00    1.00882   1.02043   39.880
 5100.00    1.01515   1.02387   38.843
 5101.00    1.02330   1.02512   38.361
 5102.00    1.03032   1.02457   38.574
 5103.00    1.03218   1.02337   38.919
 5104.00    1.02834   1.02131   38.808
 5105.00    1.02140   1.01878   38.083
 5106.00    1.01543   1.01745   37.414
 5107.00    1.01427   1.01860   37.439
 5108.00    1.01960   1.02203   37.795
 5109.00    1.03052   1.02768   37.827
 5110.00    1.04366   1.03564   37.689
 5111.00    1.05513   1.04449   37.765
 5112.00    1.06283   1.05246   37.820
 5113.00    1.06580   1.05862   37.477
 5114.00    1.06328   1.06252   36.875
 5115.00    1.05670   1.06376   36.331
 5116.00    1.05125   1.06142   35.952
 5117.00    1.04927   1.05465   35.767
 5118.00    1.04444   1.04439   35.861
 5119.00    1.03082   1.03269   36.326
 5120.00    1.01117   1.02081   37.185
 5121.00    0.99244   1.00912   38.200
 5122.00    0.98086   0.99888   38.734
 5123.00    0.97758   0.99215   38.603
 5124.00    0.97685   0.98941   38.650
 5125.00    0.97515   0.98955   39.249
 5126.00    0.97693   0.99144   39.405
 5127.00    0.98508   0.99487   38.656
 5128.00    0.99546   1.00021   38.150
 5129.00    1.00507   1.00709   38.409
 5130.00    1.01622   1.01314   38.418
 5131.00    1.02842   1.01656   37.697
 5132.00    1.03482   1.01790   37.219
 5133.00    1.02990   1.01793   37.464
 5134.00    1.01415   1.01653   37.747
 5135.00    0.99517   1.01250   37.639
 5136.00    0.98483   1.00605   37.571
 5137.00    0.98458   1.00009   37.894
 5138.00    0.98290   0.99708   38.487
 5139.00    0.97558   0.99576   38.995
 5140.00    0.97061   0.99315   39.052
 5141.00    0.97105   0.99021   38.786
 5142.00    0.97116   0.99004   38.767
 5143.00    0.96881   0.99166   39.113
 5144.00    0.96835   0.99149   39.386
 5145.00    0.97329   0.98971   39.360
 5146.00    0.98379   0.98912   39.186
 5147.00    0.99714   0.99002   38.869
 5148.00    1.00865   0.99070   38.301
 5149.00    1.01395   0.99119   37.822
 5150.00    1.01079   0.99335   38.003
 5151.00    1.00230   0.99803   38.756
 5152.00    0.99566   1.00439   39.384
 5153.00    0.99652   1.01174   39.484
 5154.00    1.00633   1.02020   39.169
 5155.00    1.01969   1.02804   38.747
 5156.00    1.02792   1.03241   38.528
 5157.00    1.02818   1.03235   38.666
 5158.00    1.02245   1.02790   39.149
 5159.00    1.01135   1.01777   39.813
 5160.00    0.99401   1.00042   40.401
 5161.00    0.97041   0.97710   40.747
 5162.00    0.94137   0.95163   40.842
 5163.00    0.90777   0.92646   40.857
 5164.00    0.87185   0.90221   41.035
 5165.00    0.83968   0.87919   41.532
 5166.00    0.81817   0.86024   42.242
 5167.00    0.80999   0.85085   42.560
 5168.00    0.81383   0.85257   41.990
 5169.00    0.82603   0.85983   41.086
 5170.00    0.84209   0.86807   40.617
 5171.00    0.85846   0.88089   40.542
 5172.00    0.87396   0.90188   40.512
 5173.00    0.89085   0.92547   40.514
 5174.00    0.91035   0.94332   40.551
 5175.00    0.92774   0.95369   40.258
 5176.00    0.93765   0.95766   39.792
 5177.00    0.94013   0.95380   40.488
 5178.00    0.93731   0.94348   41.674
 5179.00    0.92979   0.93209   37.827
 5180.00    0.92023   0.92213   29.250
 5181.00    0.91597   0.91374   22.494
 5182.00    0.91970   0.91045   18.856
 5183.00    0.92269   0.91792   17.322
 5184.00    0.91866   0.93384   17.046
 5185.00    0.91417   0.94839   17.282
 5186.00    0.91799   0.95756   17.813
 5187.00    0.93254   0.96536   19.476
 5188.00    0.95413   0.97316   23.351
 5189.00    0.97468   0.97619   29.398
 5190.00    0.98895   0.97402    0.000
 5191.00    0.99857   0.97331    0.000
 5192.00    1.00738   0.97759    0.000
 5193.00    1.01810   0.98366    0.000
 5194.00    1.03055   0.98905    0.000
 5195.00    1.04131   0.99520    0.000
 5196.00    1.04705   1.00185    0.000
 5197.00    1.04645   1.00633    0.000
 5198.00    1.04039   1.00623    0.000
 5199.00    1.03135   1.00090    0.000
 5200.00    1.02040   0.99207    0.000
 5201.00    1.00657   0.98165    0.000
 5202.00    0.99006   0.96962    0.000
 5203.00    0.97324   0.95713    0.000
 5204.00    0.95941   0.94861    0.000
 5205.00    0.95182   0.94685    0.000
 5206.00    0.95223   0.95034    0.000
 5207.00    0.96006   0.95742    0.000
 5208.00    0.97146   0.96851    0.000
 5209.00    0.98093   0.98185    0.000
 5210.00    0.98727   0.99448    0.000
 5211.00    0.99342   1.00549   39.770
 5212.00    1.00091   1.01475   39.266
 5213.00    1.00873   1.02147   39.062
 5214.00    1.01497   1.02600   39.144
 5215.00    1.01844   1.03051   39.121
 5216.00    1.02150   1.03528   39.011
 5217.00    1.02761   1.03817   39.154
 5218.00    1.03431   1.03734   39.561
 5219.00    1.03534   1.03242   39.939
 5220.00    1.02848   1.02344   40.078
 5221.00    1.01549   1.01114   40.019
 5222.00    0.99879   0.99862   40.166
 5223.00    0.98167   0.98823   40.778
 5224.00    0.96988   0.98047   41.012
 5225.00    0.96852   0.97690   39.913
 5226.00    0.97637   0.97963   38.460
 5227.00    0.98859   0.98724   38.006
 5228.00    1.00243   0.99552   38.252
 5229.00    1.01638   1.00296   38.279
 5230.00    1.02771   1.01033   38.198
 5231.00    1.03401   1.01719   38.566
 5232.00    1.03582   1.02357   39.269
 5233.00    1.03636   1.03082   39.756
 5234.00    1.04047   1.03935   39.623
 5235.00    1.05008   1.04821   39.009
 5236.00    1.05948   1.05583   38.759
 5237.00    1.06230   1.06146   39.358
 5238.00    1.05949   1.06569   39.961
 5239.00    1.05524   1.06881   39.717
 5240.00    1.05202   1.06880   39.355
 5241.00    1.05080   1.06466   39.600
 5242.00    1.05177   1.05935   39.752
 5243.00    1.05414   1.05443   39.190
 5244.00    1.05599   1.04707   38.684
 5245.00    1.05481   1.03702   38.845
 5246.00    1.04825   1.02936   39.068
 5247.00    1.03668   1.02622   38.774
 5248.00    1.02464   1.02397   38.344
 5249.00    1.01732   1.02170   38.159
 5250.00    1.01764   1.02354   38.018
 5251.00    1.02441   1.03000   37.907
 5252.00    1.03225   1.03660   38.339
 5253.00    1.03801   1.04111   39.257
 5254.00    1.04363   1.04502   39.497
 5255.00    1.04933   1.04793   38.566
 5256.00    1.05050   1.04590   37.509
 5257.00    1.04292   1.03697   37.068
 5258.00    1.02587   1.02245   37.080
 5259.00    1.00357   1.00363   37.119
 5260.00    0.98377   0.98175   36.836
 5261.00    0.96933   0.96038   36.226
 5262.00    0.95634   0.94235   35.621
 5263.00    0.94321   0.92640   35.232
 5264.00    0.93306   0.91322   35.008
 5265.00    0.92761   0.90793   34.714
 5266.00    0.92538   0.91100   34.120
 5267.00    0.92450   0.91560   33.530
 5268.00    0.92441   0.92053   33.600
 5269.00    0.92764   0.93175   34.382
 5270.00    0.93830   0.94930   35.235
 5271.00    0.95560   0.96688   35.570
 5272.00    0.97417   0.98234   35.284
 5273.00    0.99132   0.99703   34.904
 5274.00    1.00756   1.01044   35.132
 5275.00    1.02235   1.02198   35.822
 5276.00    1.03395   1.03118   36.196
 5277.00    1.04226   1.03607   36.266
 5278.00    1.04874   1.03688   36.689
 5279.00    1.05438   1.03757   37.341
 5280.00    1.05941   1.04103   37.505
 5281.00    1.06365   1.04598   37.215
 5282.00    1.06705   1.05162   37.033
 5283.00    1.07066   1.06012   36.930
 5284.00    1.07562   1.07220   36.634
 5285.00    1.08109   1.08391   36.606
 5286.00    1.08572   1.09161   37.373
 5287.00    1.09074   1.09568   38.082
 5288.00    1.09747   1.09766   37.510
 5289.00    1.10253   1.09672   36.500
 5290.00    1.10087   1.09096   36.450
 5291.00    1.09135   1.08040   37.070
 5292.00    1.07657   1.06778   37.347
 5293.00    1.06116   1.05639   37.245
 5294.00    1.05002   1.04671   37.243
 5295.00    1.04610   1.03755   37.314
 5296.00    1.04960   1.03077   37.246
 5297.00    1.05749   1.03062   37.148
 5298.00    1.06571   1.03719   37.187
 5299.00    1.07188   1.04591   37.256
 5300.00    1.07570   1.05448   37.231
 5301.00    1.07904   1.06434   37.264
 5302.00    1.08430   1.07554   37.480
 5303.00    1.09265   1.08563   37.686
 5304.00    1.10323   1.09275   37.667
 5305.00    1.11277   1.09713   37.489
 5306.00    1.11791   1.09995   37.353
 5307.00    1.11725   1.10181   37.424
 5308.00    1.11162   1.10212   37.718
 5309.00    1.10387   1.10030   38.034
 5310.00    1.09612   1.09650   38.164
 5311.00    1.08814   1.09144   38.078
 5312.00    1.07964   1.08648   37.972
 5313.00    1.07191   1.08215   38.203
 5314.00    1.06729   1.07727   38.814
 5315.00    1.06824   1.07198   39.291
 5316.00    1.07429   1.06806   39.176
 5317.00    1.08099   1.06453   38.537
 5318.00    1.08415   1.05815   37.920
 5319.00    1.08181   1.04912   38.033
 5320.00    1.07235   1.04000   38.761
 5321.00    1.05421   1.02931   39.078
 5322.00    1.02956   1.01424   39.395
 5323.00    1.00495   0.99870   41.697
 5324.00    0.98657   0.98962   43.770
 5325.00    0.97796   0.98567   39.457
 5326.00    0.97924   0.98234   36.375
 5327.00    0.98750   0.98309   48.129
 5328.00    0.99909   0.99356   57.262
 5329.00    1.01114   1.00958   24.502
 5330.00    1.02326   1.02310   11.645
 5331.00    1.03676   1.03297    8.935
 5332.00    1.05008   1.04228    9.148
 5333.00    1.05911   1.05008    9.701
 5334.00    1.06261   1.05213    9.529
 5335.00    1.06222   1.04886    9.343
 5336.00    1.05803   1.04555    9.439
 5337.00    1.04908   1.04397    9.498
 5338.00    1.03782   1.04150    9.567
 5339.00    1.02927   1.03865    9.920
 5340.00    1.02609   1.03888    9.967
 5341.00    1.02844   1.04207    9.136
 5342.00    1.03636   1.04497    9.083
 5343.00    1.04920   1.04604   12.753
 5344.00    1.06339   1.04695   29.790
 5345.00    1.07431   1.05029   57.262
 5346.00    1.08080   1.05560   44.538
 5347.00    1.08435   1.06048   35.819
 5348.00    1.08628   1.06630   39.271
 5349.00    1.08764   1.07597   41.189
 5350.00    1.08977   1.08754   38.625
 5351.00    1.09351   1.09717   37.915
 5352.00    1.09774   1.10511   39.111
 5353.00    1.10080   1.11270   39.305
 5354.00    1.10282   1.11821   38.705
 5355.00    1.10546   1.11953   38.924
 5356.00    1.11096   1.11709   39.355
 5357.00    1.11906   1.11228   38.761
 5358.00    1.12387   1.10560   37.823
 5359.00    1.12028   1.09657   37.638
 5360.00    1.11128   1.08564   38.037
 5361.00    1.10190   1.07472   38.430
 5362.00    1.09203   1.06462   38.755
 5363.00    1.07945   1.05465   39.107
 5364.00    1.06355   1.04461   39.254
 5365.00    1.04598   1.03527   39.100
 5366.00    1.03064   1.02801   -2.000
 5367.00    1.02112   1.02449   -2.000
 5368.00    1.01873   1.02440   -2.000
 5369.00    1.02351   1.02681   -2.000
 5370.00    1.03493   1.03323   -2.000
 5371.00    1.04888   1.04398   -2.000
 5372.00    1.05694   1.05590   -2.000
 5373.00    1.05735   1.06615   -2.000
 5374.00    1.05997   1.07403   -2.000
 5375.00    1.06886   1.07897   -2.000
 5376.00    1.07365   1.08138   -2.000
 5377.00    1.06868   1.08188   -2.000
 5378.00    1.06228   1.08029   -2.000
 5379.00    1.06193   1.07793   -2.000
 5380.00    1.06655   1.07642   -2.000
 5381.00    1.07198   1.07497   38.943
 5382.00    1.07443   1.07310   39.436
 5383.00    1.07205   1.07162   39.965
 5384.00    1.06569   1.06949   40.326
 5385.00    1.05876   1.06538   40.288
 5386.00    1.05570   1.06019   39.856
 5387.00    1.05587   1.05412   39.406
 5388.00    1.05345   1.04670   39.502
 5389.00    1.04678   1.03938   40.197
 5390.00    1.03996   1.03306   40.943
 5391.00    1.03545   1.02611   41.279
 5392.00    1.03216   1.01932   41.154
 5393.00    1.02850   1.01616   40.853
 5394.00    1.02417   1.01508   40.739
 5395.00    1.02212   1.01233   40.694
 5396.00    1.02627   1.01045   40.292
 5397.00    1.03341   1.01223   39.715
 5398.00    1.03512   1.01266   39.600
 5399.00    1.02897   1.00814   40.117
 5400.00    1.01907   1.00232   40.911
 5401.00    1.00994   0.99778   41.440
 5402.00    1.00403   0.99295   41.344
 5403.00    0.99991   0.98738   41.086
 5404.00    0.99467   0.98338   41.406
 5405.00    0.98971   0.98368   41.997
 5406.00    0.98892   0.98906   42.027
 5407.00    0.99273   0.99673   41.854
 5408.00    0.99976   1.00439   42.318
 5409.00    1.01174   1.01337   42.844
 5410.00    1.03037   1.02511   42.240
 5411.00    1.05053   1.03728   40.863
 5412.00    1.06411   1.04688   39.855
 5413.00    1.06780   1.05397   39.631
 5414.00    1.06428   1.05982   39.994
 5415.00    1.06155   1.06408   40.333
 5416.00    1.06627   1.06606   40.142
 5417.00    1.07511   1.06623   39.775
 5418.00    1.08063   1.06435   39.753
 5419.00    1.08006   1.06086   39.883
 5420.00    1.07465   1.05840   39.872
 5421.00    1.06745   1.05746   40.097
 5422.00    1.06168   1.05535   40.808
 5423.00    1.05914   1.05096   41.184
 5424.00    1.05880   1.04608   40.626
 5425.00    1.05612   1.04269   40.157
 5426.00    1.04799   1.03957   40.683
 5427.00    1.03707   1.03307   41.594
 5428.00    1.02726   1.02502   42.132
 5429.00    1.01964   1.02117   42.759
 5430.00    1.01466   1.02133   43.738
 5431.00    1.01409   1.02171   43.861
 5432.00    1.01969   1.02407   42.589
 5433.00    1.03193   1.03132   41.460
 5434.00    1.04809   1.04171   41.461
 5435.00    1.06197   1.05265   41.886
 5436.00    1.06988   1.06317   41.997
 5437.00    1.07390   1.07231   42.027
 5438.00    1.07627   1.07826   42.195
 5439.00    1.07619   1.07979   42.153
 5440.00    1.07192   1.07658   41.730
 5441.00    1.06270   1.06928   41.279
 5442.00    1.05175   1.06066   41.114
 5443.00    1.04630   1.05338   41.256
 5444.00    1.04945   1.04704   41.501
 5445.00    1.05740   1.04157   41.527
 5446.00    1.06511   1.03934   41.219
 5447.00    1.06916   1.04077   40.785
 5448.00    1.06831   1.04227   40.518
 5449.00    1.06346   1.04137   40.627
 5450.00    1.05671   1.03862   41.004
 5451.00    1.05051   1.03669   41.230
 5452.00    1.04603   1.03639   41.030
 5453.00    1.04280   1.03551   40.457
 5454.00    1.03990   1.03423   39.781
 5455.00    1.03665   1.03585   39.330
 5456.00    1.03347   1.03997   39.281
 5457.00    1.03213   1.04201   39.611
 5458.00    1.03537   1.04156   40.071
 5459.00    1.04552   1.04219   40.315
 5460.00    1.06120   1.04341   40.358
 5461.00    1.07765   1.04239   40.471
 5462.00    1.09005   1.04156   40.555
 5463.00    1.09528   1.04386   40.355
 5464.00    1.09395   1.04587   40.302
 5465.00    1.08930   1.04521   41.059
 5466.00    1.08377   1.04480   42.149
 5467.00    1.07800   1.04408   42.285
 5468.00    1.07061   1.03951   41.212
 5469.00    1.06038   1.03342   39.976
 5470.00    1.05036   1.02819   40.199
 5471.00    1.04471   1.02046   42.273
 5472.00    1.04209   1.01149   41.790
 5473.00    1.03857   1.00738   37.334
 5474.00    1.03403   1.00622   39.759
 5475.00    1.02990   1.00326   57.262
 5476.00    1.02459   1.00241   46.763
 5477.00    1.01763   1.00767   -2.000
 5478.00    1.01610   1.01417   -2.000
 5479.00    1.02767   1.01872   -2.000
 5480.00    1.05071   1.02406   -2.000
 5481.00    1.07643   1.03047   -2.000
 5482.00    1.09379   1.03501   -2.000
 5483.00    1.09903   1.03840   -2.000
 5484.00    1.10391   1.04182   -2.000
 5485.00    1.11328   1.04313   -2.000
 5486.00    1.10405   1.04320   -2.000
 5487.00    1.06176   1.04442   -2.000
 5488.00    1.01401   1.04515   -2.000
 5489.00    0.98903   1.04476   -2.000
 5490.00    0.97866   1.04582   -2.000
 5491.00    0.96894   1.04680   -2.000
 5492.00    0.96665   1.04511   -2.000
 5493.00    0.98183   1.04417   -2.000
 5494.00    1.01265   1.04558   -2.000
 5495.00    1.04789   1.04482   -2.000
 5496.00    1.07143   1.04116   -2.000
 5497.00    1.07574   1.03901   -2.000
 5498.00    1.06879   1.03838   -2.000
 5499.00    1.05969   1.03584   -2.000
 5500.00    1.05040   1.03169   41.195
 5501.00    1.04234   1.02807   44.739
 5502.00    1.03959   1.02625   39.986
 5503.00    1.04329   1.02549   36.556
 5504.00    1.04970   1.02367   47.792
 5505.00    1.05591   1.02136   57.262
 5506.00    1.06181   1.02071   27.047
 5507.00    1.06508   1.02037   11.947
 5508.00    1.06095   1.01892    8.822
 5509.00    1.05171   1.01838    9.038
 5510.00    1.04737   1.01950    9.746
 5511.00    1.05115   1.02129    9.592
 5512.00    1.05649   1.02483    9.515
 5513.00    1.05824   1.03101    9.666
 5514.00    1.05641   1.03806    9.097
 5515.00    1.05421   1.04448    8.785
 5516.00    1.05587   1.05044   11.366
 5517.00    1.06252   1.05569   24.006
 5518.00    1.07153   1.05849   57.262
 5519.00    1.07853   1.05816   49.940
 5520.00    1.07923   1.05564   36.758
 5521.00    1.07257   1.05170   38.971
 5522.00    1.06111   1.04618   43.935
 5523.00    1.04990   1.03945   43.916
 5524.00    1.04413   1.03400   42.266
 5525.00    1.04468   1.03107   41.849
 5526.00    1.04825   1.02886   42.408
 5527.00    1.05035   1.02756   43.104
 5528.00    1.04796   1.02951   43.107
 5529.00    1.04345   1.03290   42.167
 5530.00    1.04226   1.03483   40.944
 5531.00    1.04705   1.03712   41.001
 5532.00    1.05734   1.04055   42.710
 5533.00    1.07097   1.04299   41.293
 5534.00    1.08449   1.04502   35.874
 5535.00    1.09359   1.04866   37.850
 5536.00    1.09517   1.05240   57.262
 5537.00    1.09040   1.05443   46.815
 5538.00    1.08311   1.05588   16.691
 5539.00    1.07682   1.05780    9.583
 5540.00    1.07333   1.05921    8.530
 5541.00    1.07171   1.05913    9.268
 5542.00    1.07063   1.05929    9.640
 5543.00    1.07147   1.06145    9.345
 5544.00    1.07647   1.06393    9.218
 5545.00    1.08619   1.06553    9.206
 5546.00    1.09860   1.06772    9.047
 5547.00    1.10869   1.07015    9.023
 5548.00    1.11264   1.07061    9.235
 5549.00    1.11163   1.06936    8.964
 5550.00    1.10879   1.06789    8.345
 5551.00    1.10607   1.06605    9.221
 5552.00    1.10383   1.06308   14.898
 5553.00    1.10091   1.05992   35.082
 5554.00    1.09517   1.05779   50.751
 5555.00    1.08434   1.05596   38.537
 5556.00    1.06910   1.05339   37.057
 5557.00    1.05468   1.05035   41.468
 5558.00    1.04552   1.04736   42.466
 5559.00    1.04186   1.04441   41.016
 5560.00    1.04162   1.04087   40.964
 5561.00    1.04217   1.03655   41.601
 5562.00    1.04319   1.03319   41.595
 5563.00    1.04733   1.03134   41.224
 5564.00    1.05514   1.02868   41.018
 5565.00    1.06313   1.02636   41.003
 5566.00    1.06853   1.02697   41.242
 5567.00    1.07142   1.02733   41.959
 5568.00    1.07268   1.02629   42.678
 5569.00    1.07267   1.02823   42.201
 5570.00    1.07029   1.03199   40.988
 5571.00    1.06346   1.03307   41.007
 5572.00    1.05299   1.03490   42.126
 5573.00    1.04333   1.03952   41.760
 5574.00    1.03926   1.04236   39.694
 5575.00    1.04366   1.04347   38.383
 5576.00    1.05443   1.04512   38.131
 5577.00    1.06500   1.04486   37.392
 5578.00    1.06954   1.04223   36.459
 5579.00    1.06491   1.03854   37.140
 5580.00    1.05109   1.03240   39.285
 5581.00    1.03127   1.02365   40.517
 5582.00    1.01175   1.01437   40.087
 5583.00    0.99966   1.00517   39.652
 5584.00    0.99725   0.99628   39.862
 5585.00    1.00175   0.98904   40.129
 5586.00    1.00890   0.98460   39.997
 5587.00    1.01442   0.98354   39.478
 5588.00    1.01542   0.98528   38.903
 5589.00    1.01141   0.98877   38.546
 5590.00    1.00570   0.99360   38.048
 5591.00    1.00316   0.99959   36.976
 5592.00    1.00542   1.00449   35.938
 5593.00    1.01039   1.00638   35.752
 5594.00    1.01327   1.00788   36.120
 5595.00    1.00986   1.00983   36.139
 5596.00    1.00154   1.00901   35.487
 5597.00    0.99304   1.00666   34.561
 5598.00    0.98761   1.00727   34.134
 5599.00    0.98641   1.01079   34.721
 5600.00    0.98899   1.01533   35.890
 5601.00    0.99462   1.02172   36.787
 5602.00    1.00401   1.03057   37.277
 5603.00    1.01745   1.04061   37.771
 5604.00    1.03229   1.04957   38.567
 5605.00    1.04540   1.05638   39.589
 5606.00    1.05613   1.06059   40.180
 5607.00    1.06469   1.06158   39.925
 5608.00    1.07013   1.05986   39.619
 5609.00    1.07094   1.05519   40.039
 5610.00    1.06604   1.04714   40.808
 5611.00    1.05578   1.03856   41.261
 5612.00    1.04265   1.03193   41.449
 5613.00    1.03030   1.02534   41.710
 5614.00    1.02243   1.01873   42.139
 5615.00    1.02101   1.01628   42.541
 5616.00    1.02502   1.01723   42.483
 5617.00    1.03106   1.01783   41.933
 5618.00    1.03460   1.01812   41.551
 5619.00    1.03379   1.01845   41.572
 5620.00    1.03159   1.01872   41.299
 5621.00    1.03128   1.01985   40.620
 5622.00    1.03352   1.02097   40.630
 5623.00    1.03777   1.02170   41.628
 5624.00    1.04314   1.02490   42.218
 5625.00    1.04818   1.03064   41.549
 5626.00    1.05092   1.03558   40.628
 5627.00    1.05008   1.03956   40.447
 5628.00    1.04594   1.04345   41.176
 5629.00    1.04106   1.04540   42.270
 5630.00    1.03964   1.04482   42.619
 5631.00    1.04269   1.04276   41.973
 5632.00    1.04674   1.03912   41.327
 5633.00    1.04764   1.03445   41.281
 5634.00    1.04280   1.03049   41.617
 5635.00    1.03325   1.02699   41.858
 5636.00    1.02316   1.02330   41.651
 5637.00    1.01494   1.02131   41.417
 5638.00    1.00866   1.02161   42.028
 5639.00    1.00569   1.02209   43.062
 5640.00    1.00869   1.02271   42.917
 5641.00    1.01764   1.02513   41.825
 5642.00    1.02934   1.02826   41.605
 5643.00    1.03994   1.03080   42.525
 5644.00    1.04623   1.03328   43.319
 5645.00    1.04717   1.03549   43.243
 5646.00    1.04404   1.03697   42.594
 5647.00    1.03981   1.03767   41.935
 5648.00    1.03737   1.03747   41.680
 5649.00    1.03604   1.03553   41.810
 5650.00    1.03273   1.03166   42.043
 5651.00    1.02638   1.02765   42.289
 5652.00    1.01773   1.02313   42.592
 5653.00    1.00704   1.01550   42.804
 5654.00    0.99477   1.00765   42.757
 5655.00    0.98353   1.00410   42.705
 5656.00    0.97691   1.00123   42.970
 5657.00    0.97690   0.99678   43.223
 5658.00    0.98348   0.99647   42.937
 5659.00    0.99480   1.00078   42.358
 5660.00    1.00813   1.00420   42.011
 5661.00    1.02113   1.00689   41.842
 5662.00    1.03165   1.01139   41.572
 5663.00    1.03725   1.01644   41.291
 5664.00    1.03702   1.02057   41.208
 5665.00    1.03393   1.02435   41.264
 5666.00    1.03286   1.02804   41.287
 5667.00    1.03756   1.03216   41.212
 5668.00    1.04783   1.03720   41.001
 5669.00    1.05717   1.04214   40.546
 5670.00    1.05958   1.04601   39.906
 5671.00    1.05645   1.04964   39.475
 5672.00    1.05224   1.05321   39.408
 5673.00    1.04955   1.05458   39.177
 5674.00    1.04855   1.05316   38.292
 5675.00    1.04727   1.05140   36.954
 5676.00    1.04423   1.04931   35.698
 5677.00    1.04051   1.04471   35.030
 5678.00    1.03752   1.03888   35.211
 5679.00    1.03517   1.03441   36.183
 5680.00    1.03147   1.03043   37.673
 5681.00    1.02291   1.02582   39.194
 5682.00    1.00868   1.02261   40.293
 5683.00    0.99278   1.02167   40.872
 5684.00    0.97996   1.02209   41.199
 5685.00    0.97308   1.02354   41.736
 5686.00    0.97365   1.02604   42.507
 5687.00    0.98188   1.02983   42.862
 5688.00    0.99553   1.03468   42.577
 5689.00    1.00990   1.03901   42.285
 5690.00    1.02172   1.04174   42.166
 5691.00    1.03030   1.04396   41.602
 5692.00    1.03423   1.04486   40.503
 5693.00    1.03084   1.04276   39.537
 5694.00    1.02094   1.03924   38.860
 5695.00    1.00978   1.03584   37.996
 5696.00    1.00238   1.03119   36.891
 5697.00    1.00115   1.02500   36.050
 5698.00    1.00419   1.01998   35.909
 5699.00    1.00638   1.01601   36.641
 5700.00    1.00513   1.01090   37.882
 5701.00    1.00128   1.00553   38.787
 5702.00    0.99540   1.00142   39.162
 5703.00    0.98750   0.99734   39.647
 5704.00    0.97985   0.99211   40.552
 5705.00    0.97662   0.98809   41.547
 5706.00    0.98075   0.98678   41.942
 5707.00    0.99231   0.98629   41.250
 5708.00    1.00667   0.98802   40.239
 5709.00    1.01700   0.99408   40.109
 5710.00    1.02091   1.00107   40.662
 5711.00    1.02059   1.00865   40.824
 5712.00    1.01956   1.01876   40.628
 5713.00    1.02112   1.02811   40.760
 5714.00    1.02698   1.03584   40.631
 5715.00    1.03721   1.04378   39.389
 5716.00    1.05080   1.05030   38.357
 5717.00    1.06542   1.05513   39.193
 5718.00    1.07708   1.05954   41.015
 5719.00    1.08218   1.06225   41.566
 5720.00    1.08096   1.06347   41.111
 5721.00    1.07684   1.06424   41.222
 5722.00    1.07442   1.06331   41.395
 5723.00    1.07618   1.06093   40.545
 5724.00    1.07862   1.05919   39.700
 5725.00    1.07659   1.05747   40.187
 5726.00    1.06966   1.05477   41.404
 5727.00    1.06104   1.05320   41.959
 5728.00    1.05504   1.05359   41.706
 5729.00    1.05424   1.05395   41.299
 5730.00    1.05679   1.05386   41.103
 5731.00    1.05948   1.05492   41.120
 5732.00    1.06115   1.05671   41.062
 5733.00    1.06140   1.05760   40.714
 5734.00    1.05916   1.05797   40.272
 5735.00    1.05475   1.05810   40.095
 5736.00    1.05159   1.05791   40.453
 5737.00    1.05382   1.05762   41.136
 5738.00    1.06371   1.05711   41.192
 5739.00    1.07930   1.05653   40.291
 5740.00    1.09353   1.05622    0.000
 5741.00    1.10060   1.05594    0.000
 5742.00    1.10046   1.05519    0.000
 5743.00    1.09582   1.05395    0.000
 5744.00    1.08969   1.05254    0.000
 5745.00    1.08374   1.05095    0.000
 5746.00    1.07760   1.04826    0.000
 5747.00    1.07050   1.04495    0.000
 5748.00    1.06229   1.04253    0.000
 5749.00    1.05384   1.04048    0.000
 5750.00    1.04726   1.03860    0.000
 5751.00    1.04571   1.03783    0.000
 5752.00    1.05211   1.03779    0.000
 5753.00    1.06394   1.03827    0.000
 5754.00    1.07280   1.03962    0.000
 5755.00    1.07416   1.04058    0.000
 5756.00    1.07019   1.04062    0.000
 5757.00    1.06367   1.04049    0.000
 5758.00    1.05608   1.03986    0.000
 5759.00    1.05030   1.03972    0.000
 5760.00    1.05042   1.04130    0.000
 5761.00    1.05716   1.04327    0.000
 5762.00    1.06699   1.04602    0.000
 5763.00    1.07461   1.05065    0.000
 5764.00    1.07562   1.05456    0.000
 5765.00    1.07181   1.05681    0.000
 5766.00    1.06984   1.05866    0.000
 5767.00    1.07313   1.05914    0.000
 5768.00    1.08030   1.05804    0.000
 5769.00    1.08725   1.05661    0.000
 5770.00    1.08904   1.05435    0.000
 5771.00    1.08306   1.05140    0.000
 5772.00    1.07009   1.04871    0.000
 5773.00    1.05480   1.04485    0.000
 5774.00    1.04258   1.03978    0.000
 5775.00    1.03272   1.03459    0.000
 5776.00    1.02128   1.02789    0.000
 5777.00    1.00922   1.01994    0.000
 5778.00    1.00113   1.01317    0.000
 5779.00    1.00016   1.00727    0.000
 5780.00    1.00580   1.00169    0.000
 5781.00    1.01229   0.99910    0.000
 5782.00    1.01311   1.00026    0.000
 5783.00    1.00836   1.00250    0.000
 5784.00    1.00264   1.00563    0.000
 5785.00    1.00027   1.01150    0.000
 5786.00    1.00331   1.01770    0.000
 5787.00    1.01006   1.02272    0.000
 5788.00    1.01723   1.02862    0.000
 5789.00    1.02287   1.03355    0.000
 5790.00    1.02602   1.03686   -2.000
 5791.00    1.02606   1.04116   -2.000
 5792.00    1.02387   1.04481   -2.000
 5793.00    1.02309   1.04674   -2.000
 5794.00    1.02601   1.04940   -2.000
 5795.00    1.02969   1.05258   -2.000
 5796.00    1.02947   1.05407   -2.000
 5797.00    1.02270   1.05517   -2.000
 5798.00    1.01096   1.05745   -2.000
 5799.00    1.00089   1.05841   -2.000
 5800.00    0.99788   1.05750   -2.000
 5801.00    1.00131   1.05700   -2.000
 5802.00    1.00868   1.05629   -2.000
 5803.00    1.01891   1.05464   -2.000
 5804.00    1.03071   1.05367   -2.000
 5805.00    1.04151   1.05349   -2.000
 5806.00    1.04872   1.05364   -2.000
 5807.00    1.05071   1.05387   -2.000
 5808.00    1.04761   1.05380   -2.000
 5809.00    1.04172   1.05385    0.000
 5810.00    1.03720   1.05389    0.000
 5811.00    1.03892   1.05327    0.000
 5812.00    1.04755   1.05287    0.000
 5813.00    1.05826   1.05370    0.000
 5814.00    1.06689   1.05499    0.000
 5815.00    1.07248   1.05633    0.000
 5816.00    1.07413   1.05890    0.000
 5817.00    1.07036   1.06225    0.000
 5818.00    1.06228   1.06469    0.000
 5819.00    1.05422   1.06658    0.000
 5820.00    1.05038   1.06851    0.000
 5821.00    1.05316   1.06980    0.000
 5822.00    1.06191   1.07033    0.000
 5823.00    1.07310   1.07071    0.000
 5824.00    1.08241   1.07112    0.000
 5825.00    1.08612   1.07123    0.000
 5826.00    1.08341   1.07086    0.000
 5827.00    1.07617   1.07009    0.000
 5828.00    1.06656   1.06949    0.000
 5829.00    1.05643   1.06866    0.000
 5830.00    1.04799   1.06695    0.000
 5831.00    1.04371   1.06561    0.000
 5832.00    1.04564   1.06528    0.000
 5833.00    1.05395   1.06454    0.000
 5834.00    1.06409   1.06382    0.000
 5835.00    1.06961   1.06479    0.000
 5836.00    1.06933   1.06602    0.000
 5837.00    1.06664   1.06630    0.000
 5838.00    1.06485   1.06700    0.000
 5839.00    1.06581   1.06768    0.000
 5840.00    1.06905   1.06693    0.000
 5841.00    1.07256   1.06523    0.000
 5842.00    1.07432   1.06286    0.000
 5843.00    1.07328   1.05941    0.000
 5844.00    1.07039   1.05539    0.000
 5845.00    1.06687   1.05099    0.000
 5846.00    1.06159   1.04598    0.000
 5847.00    1.05297   1.04104    0.000
 5848.00    1.04191   1.03600    0.000
 5849.00    1.03056   1.03027    0.000
 5850.00    1.02010   1.02498    0.000
 5851.00    1.01150   1.02032    0.000
 5852.00    1.00660   1.01534    0.000
 5853.00    1.00591   1.01130    0.000
 5854.00    1.00649   1.00964    0.000
 5855.00    1.00465   1.00890    0.000
 5856.00    0.99912   1.00866    0.000
 5857.00    0.99087   1.01066    0.000
 5858.00    0.98273   1.01384    0.000
 5859.00    0.97893   1.01697    0.000
 5860.00    0.98422   1.02096    0.000
 5861.00    0.99842   1.02457    0.000
 5862.00    1.01316   1.02732    0.000
 5863.00    1.02109   1.03064    0.000
 5864.00    1.02272   1.03394    0.000
 5865.00    1.02164   1.03598    0.000
 5866.00    1.02073   1.03781    0.000
 5867.00    1.02258   1.03994    0.000
 5868.00    1.02949   1.04086    0.000
 5869.00    1.04084   1.04064    0.000
 5870.00    1.05217   1.04010    0.000
 5871.00    1.05959   1.03861    0.000
 5872.00    1.06222   1.03602    0.000
 5873.00    1.06078   1.03334    0.000
 5874.00    1.05662   1.03074    0.000
 5875.00    1.05104   1.02732    0.000
 5876.00    1.04469   1.02358    0.000
 5877.00    1.03633   1.02036    0.000
 5878.00    1.02354   1.01624    0.000
 5879.00    1.00819   1.01003    0.000
 5880.00    0.99657   1.00260    0.000
 5881.00    0.99050   0.99334    0.000
 5882.00    0.98564   0.97965    0.000
 5883.00    0.97871   0.96317    0.000
 5884.00    0.96958   0.94596    0.000
 5885.00    0.95871   0.92544    0.000
 5886.00    0.94635   0.90536    0.000
 5887.00    0.93301   0.89116    0.000
 5888.00    0.91978   0.87752    0.000
 5889.00    0.90878   0.86686    0.000
 5890.00    0.90240   0.86668    0.000
 5891.00    0.90108   0.86847    0.000
 5892.00    0.90348   0.87101    0.000
 5893.00    0.90873   0.88262    0.000
 5894.00    0.91668   0.89552    0.000
 5895.00    0.92712   0.90693    0.000
 5896.00    0.93928   0.92499    0.000
 5897.00    0.95103   0.94398    0.000
 5898.00    0.96024   0.95851    0.000
 5899.00    0.96778   0.97340    0.000
 5900.00    0.97585   0.98743    0.000
 5901.00    0.98381   0.99690   41.405
 5902.00    0.98935   1.00415   41.329
 5903.00    0.99194   1.01041   41.522
 5904.00    0.99299   1.01434   41.708
 5905.00    0.99510   1.01644   41.409
 5906.00    1.00021   1.01782   40.471
 5907.00    1.00699   1.01843   39.696
 5908.00    1.01183   1.01783   39.842
 5909.00    1.01088   1.01610   40.490
 5910.00    1.00307   1.01436   40.818
 5911.00    0.99337   1.01307   40.870
 5912.00    0.98774   1.01150   41.077
 5913.00    0.98677   1.01081   41.400
 5914.00    0.98882   1.01163   41.614
 5915.00    0.99448   1.01277   41.750
 5916.00    1.00486   1.01495   41.975
 5917.00    1.01946   1.01745   42.388
 5918.00    1.03559   1.01929   42.872
 5919.00    1.04847   1.02154   43.000
 5920.00    1.05427   1.02317   42.573
 5921.00    1.05286   1.02357   42.066
 5922.00    1.04664   1.02395   42.011
 5923.00    1.03920   1.02359   42.524
 5924.00    1.03303   1.02256   43.334
 5925.00    1.02817   1.02155   43.815
 5926.00    1.02425   1.02003   43.624
 5927.00    1.02178   1.01894   43.157
 5928.00    1.02009   1.01860   42.813
 5929.00    1.01652   1.01814   42.545
 5930.00    1.01095   1.01815   42.221
 5931.00    1.00776   1.01911   41.846
 5932.00    1.01025   1.02049   41.594
 5933.00    1.01738   1.02109   41.733
 5934.00    1.02523   1.02164   42.235
 5935.00    1.02888   1.02324   42.645
 5936.00    1.02764   1.02369   42.647
 5937.00    1.02622   1.02307   42.361
 5938.00    1.02765   1.02359   42.015
 5939.00    1.03048   1.02375   41.775
 5940.00    1.03196   1.02291   41.780
 5941.00    1.03005   1.02271   42.124
 5942.00    1.02550   1.02255   42.705
 5943.00    1.02150   1.02181   43.185
 5944.00    1.01943   1.02073   43.204
 5945.00    1.01801   1.01914   42.666
 5946.00    1.01619   1.01785   42.258
 5947.00    1.01408   1.01672   42.947
 5948.00    1.01255   1.01473   44.097
 5949.00    1.01245   1.01342   43.736
 5950.00    1.01289   1.01370   42.357
 5951.00    1.01177   1.01350   42.292
 5952.00    1.00897   1.01307   43.573
 5953.00    1.00654   1.01451   44.195
 5954.00    1.00699   1.01663   43.598
 5955.00    1.01187   1.01822   42.981
 5956.00    1.01970   1.02068   42.877
 5957.00    1.02675   1.02397   43.028
 5958.00    1.03007   1.02665   43.216
 5959.00    1.02854   1.02899   43.381
 5960.00    1.02354   1.03161   43.522
 5961.00    1.01800   1.03332   43.643
 5962.00    1.01423   1.03433   43.716
 5963.00    1.01390   1.03601   43.695
 5964.00    1.01875   1.03714   43.549
 5965.00    1.02920   1.03761   43.291
 5966.00    1.04179   1.03873   42.996
 5967.00    1.05150   1.03931   42.744
 5968.00    1.05594   1.03857   42.551
 5969.00    1.05498   1.03748   42.422
 5970.00    1.04927   1.03573   42.446
 5971.00    1.04012   1.03262   42.649
 5972.00    1.02950   1.02915   42.793
 5973.00    1.01960   1.02605   42.640
 5974.00    1.01228   1.02266   42.329
 5975.00    1.00841   1.01970   42.283
 5976.00    1.00737   1.01767   43.014
 5977.00    1.00823   1.01546   44.413
 5978.00    1.01097   1.01374   44.875
 5979.00    1.01556   1.01250   43.493
 5980.00    1.02091   1.01050   42.253
 5981.00    1.02494   1.00954   42.641
 5982.00    1.02499   1.00979   43.488
 5983.00    1.02011   1.00953   43.386
 5984.00    1.01271   1.01046   42.999
 5985.00    1.00665   1.01308   43.176
 5986.00    1.00518   1.01546   43.440
 5987.00    1.00924   1.01744   43.400
 5988.00    1.01650   1.02000   43.708
 5989.00    1.02442   1.02249   44.425
 5990.00    1.03193   1.02345   44.132
 5991.00    1.03690   1.02379   42.791
 5992.00    1.03530   1.02412   42.755
 5993.00    1.02728   1.02309   44.739
 5994.00    1.01932   1.02159   46.082
 5995.00    1.01520   1.02014   45.113
 5996.00    1.01224   1.01816   44.029
 5997.00    1.00866   1.01664   44.067
 5998.00    1.00660   1.01483   44.014
 5999.00    1.00705   1.01267   43.319
 6000.00    1.00793   1.01151   43.064
 6001.00    1.00718   1.00952   43.670
 6002.00    1.00419   1.00729   44.304
 6003.00    0.99966   1.00633   44.406
 6004.00    0.99526   1.00461   44.276
 6005.00    0.99269   1.00347   44.240
 6006.00    0.99306   1.00366   44.286
 6007.00    0.99608   1.00325   44.028
 6008.00    1.00019   1.00328   43.042
 6009.00    1.00425   1.00340   41.850
 6010.00    1.00760   1.00309   41.485
 6011.00    1.00846   1.00315   41.914
 6012.00    1.00510   1.00197   42.206
 6013.00    1.00021   1.00053   42.152
 6014.00    0.99920   1.00039   42.295
 6015.00    1.00218   0.99924   42.572
 6016.00    1.00464   0.99781   42.413
 6017.00    1.00411   0.99812   41.977
 6018.00    1.00143   0.99897   41.953
 6019.00    0.99935   0.99980   42.490
 6020.00    1.00052   1.00153   43.207
 6021.00    1.00391   1.00496   43.661
 6022.00    1.00664   1.00868   43.636
 6023.00    1.00888   1.01178   43.467
 6024.00    1.01266   1.01624   43.620
 6025.00    1.01782   1.02101   43.883
 6026.00    1.02254   1.02433   43.766
 6027.00    1.02563   1.02790   43.471
 6028.00    1.02705   1.03163   43.479
 6029.00    1.02809   1.03414   43.696
 6030.00    1.02990   1.03605   43.754
 6031.00    1.03133   1.03788   43.663
 6032.00    1.03067   1.03889   43.635
 6033.00    1.02840   1.03922   43.709
 6034.00    1.02616   1.03945   43.790
 6035.00    1.02514   1.03908   43.753
 6036.00    1.02630   1.03866   43.470
 6037.00    1.03075   1.03871   42.844
 6038.00    1.03820   1.03835   42.043
 6039.00    1.04527   1.03863   41.630
 6040.00    1.04719   1.03980   41.986
 6041.00    1.04031   1.04046   42.797
 6042.00    1.02631   1.04147   43.363
 6043.00    1.01510   1.04298   43.067
 6044.00    1.01452   1.04360   42.140
 6045.00    1.02161   1.04360   41.885
 6046.00    1.02910   1.04346   42.839
 6047.00    1.03172   1.04251   43.618
 6048.00    1.02814   1.04061   43.245
 6049.00    1.02146   1.03832   43.074
 6050.00    1.01482   1.03607   43.895
 6051.00    1.00843   1.03365   44.234
 6052.00    1.00229   1.03114   43.310
 6053.00    0.99786   1.02952   42.782
 6054.00    0.99675   1.02847   43.496
 6055.00    0.99964   1.02725   44.134
 6056.00    1.00512   1.02659   43.775
 6057.00    1.00981   1.02622   43.308
 6058.00    1.01240   1.02494   43.247
 6059.00    1.01486   1.02393   42.913
 6060.00    1.01799   1.02371   42.088
 6061.00    1.01973   1.02277   41.516
 6062.00    1.01850   1.02308   41.677
 6063.00    1.01490   1.02559   42.437
 6064.00    1.01218   1.02778   43.434
 6065.00    1.01497   1.03103   44.197
 6066.00    1.02405   1.03576   44.196
 6067.00    1.03547   1.03938   43.176
 6068.00    1.04515   1.04220   41.920
 6069.00    1.05099   1.04446   41.665
 6070.00    1.05386   1.04512   42.290
 6071.00    1.05640   1.04401   42.475
 6072.00    1.05852   1.04161   42.000
 6073.00    1.05768   1.03861   41.877
 6074.00    1.05382   1.03424   42.315
 6075.00    1.04943   1.02922   42.643
 6076.00    1.04544   1.02541   42.637
 6077.00    1.04081   1.02129   42.646
 6078.00    1.03423   1.01705   42.802
 6079.00    1.02527   1.01498   42.966
 6080.00    1.01577   1.01334   43.068
 6081.00    1.00878   1.01143   43.113
 6082.00    1.00569   1.01099   43.016
 6083.00    1.00589   1.01087   42.695
 6084.00    1.00761   1.01049   42.320
 6085.00    1.00932   1.01054   42.184
 6086.00    1.01206   1.01038   42.401
 6087.00    1.01769   1.01069   42.884
 6088.00    1.02516   1.01153   43.368
 6089.00    1.03101   1.01181   43.602
 6090.00    1.03137   1.01289   43.695
 6091.00    1.02439   1.01480   43.889
 6092.00    1.01338   1.01541   44.124
 6093.00    1.00367   1.01565   44.229
 6094.00    0.99773   1.01618   44.291
 6095.00    0.99546   1.01449   44.513
 6096.00    0.99556   1.01158   44.964
 6097.00    0.99592   1.00953   45.495
 6098.00    0.99406   1.00579   45.679
 6099.00    0.98943   1.00206   45.228
 6100.00    0.98554   1.00151   44.445
 6101.00    0.98559   1.00069   43.797
 6102.00    0.98791   1.00081   43.470
 6103.00    0.98978   1.00435   43.465
 6104.00    0.99162   1.00733   43.703
 6105.00    0.99620   1.01040   44.049
 6106.00    1.00698   1.01470   44.332
 6107.00    1.02289   1.01738   44.493
 6108.00    1.03510   1.01965   44.663
 6109.00    1.03668   1.02168   44.738
 6110.00    1.02978   1.02203   44.176
 6111.00    1.01975   1.02197   43.173
 6112.00    1.01055   1.02067   43.060
 6113.00    1.00485   1.01818   44.228
 6114.00    1.00417   1.01554   45.092
 6115.00    1.00756   1.01092   44.632
 6116.00    1.01129   1.00636   44.114
 6117.00    1.01219   1.00310   44.423
 6118.00    1.00941   0.99839   44.860
 6119.00    1.00331   0.99550   44.711
 6120.00    0.99499   0.99550   44.108
 6121.00    0.98762   0.99445   43.381
 6122.00    0.98602   0.99529   42.743
 6123.00    0.99166   0.99853   42.584
 6124.00    1.00098   1.00010   43.436
 6125.00    1.00911   1.00175   45.079
 6126.00    1.01228   1.00407   46.265
 6127.00    1.01058   1.00407   46.354
 6128.00    1.00765   1.00246   45.977
 6129.00    1.00531   1.00017   45.466
 6130.00    1.00192   0.99557   44.531
 6131.00    0.99410   0.98980   43.280
 6132.00    0.97934   0.98438   42.144
 6133.00    0.96206   0.97861   40.861
 6134.00    0.95198   0.97464   38.871
 6135.00    0.95328   0.97352   36.778
 6136.00    0.96320   0.97389   35.704
 6137.00    0.97744   0.97663   35.902
 6138.00    0.99218   0.98160   36.963
 6139.00    1.00509   0.98736   38.332
 6140.00    1.01510   0.99278   39.460
 6141.00    1.02113   0.99749   40.190
 6142.00    1.02235   1.00185   40.736
 6143.00    1.01945   1.00452   41.157
 6144.00    1.01395   1.00520   41.455
 6145.00    1.00637   1.00551   42.097
 6146.00    0.99714   1.00519   43.584
 6147.00    0.98902   1.00374   45.237
 6148.00    0.98503   1.00210   45.728
 6149.00    0.98389   1.00073   45.313
 6150.00    0.98199   0.99846   45.209
 6151.00    0.97801   0.99517   45.628
 6152.00    0.97264   0.99181   45.971
 6153.00    0.96692   0.98676   45.554
 6154.00    0.96131   0.97958   44.019
 6155.00    0.95478   0.97226   41.683
 6156.00    0.94643   0.96401   39.330
 6157.00    0.93772   0.95452   37.877
 6158.00    0.93097   0.94653   37.822
 6159.00    0.92712   0.94033   38.901
 6160.00    0.92609   0.93533   40.446
 6161.00    0.92744   0.93302   41.745
 6162.00    0.93068   0.93284   42.417
 6163.00    0.93558   0.93421   42.863
 6164.00    0.94248   0.93727   43.375
 6165.00    0.95240   0.94004   43.225
 6166.00    0.96410   0.94337   42.206
 6167.00    0.97191   0.94824   41.813
 6168.00    0.97170   0.95203   43.035
 6169.00    0.96565   0.95556   44.838
 6170.00    0.95895   0.96092   45.670
 6171.00    0.95621   0.96588   45.361
 6172.00    0.95745   0.96965   44.663
 6173.00    0.95631   0.97401   44.344
 6174.00    0.94788   0.97862   44.504
 6175.00    0.93376   0.98196   44.420
 6176.00    0.91887   0.98432   43.992
 6177.00    0.90863   0.98705   -1.000
 6178.00    0.90590   0.98896   -1.000
 6179.00    0.90958   0.98875   -1.000
 6180.00    0.91687   0.98828   -1.000
 6181.00    0.92485   0.98705   46.799
 6182.00    0.93177   0.98347   46.175
 6183.00    0.93738   0.97955   44.375
 6184.00    0.94154   0.97538   41.676
 6185.00    0.94389   0.97036   39.644
 6186.00    0.94571   0.96662   38.956
 6187.00    0.94979   0.96340   39.347
 6188.00    0.95669   0.96144   40.436
 6189.00    0.96373   0.96240   41.889
 6190.00    0.96764   0.96346   43.331
 6191.00    0.96599   0.96572   44.416
 6192.00    0.95876   0.97012   45.197
 6193.00    0.94810   0.97323   45.887
 6194.00    0.93565   0.97599   -2.000
 6195.00    0.92275   0.97914   -2.000
 6196.00    0.91362   0.98126   -2.000
 6197.00    0.91406   0.98323   -2.000
 6198.00    0.92476   0.98507   -2.000
 6199.00    0.94118   0.98683   -2.000
 6200.00    0.95811   0.98903   -2.000
 6201.00    0.97173   0.99079   -2.000
 6202.00    0.98138   0.99203   -2.000
 6203.00    0.98870   0.99264   -2.000
 6204.00    0.99459   0.99197   -2.000
 6205.00    0.99863   0.99025   -2.000
 6206.00    0.99926   0.98682   37.429
 6207.00    0.99516   0.98190   37.674
 6208.00    0.98768   0.97667   39.609
 6209.00    0.97936   0.97022   42.224
 6210.00    0.97054   0.96359   44.376
 6211.00    0.96083   0.95830   45.459
 6212.00    0.95262   0.95302   46.125
 6213.00    0.94907   0.94911   47.329
 6214.00    0.94990   0.94733   48.420
 6215.00    0.95254   0.94582   48.122
 6216.00    0.95455   0.94583   46.949
 6217.00    0.95480   0.94714   46.065
 6218.00    0.95421   0.94815   45.445
 6219.00    0.95408   0.94979   44.650
 6220.00    0.95378   0.95129   43.849
 6221.00    0.95260   0.95197   43.574
 6222.00    0.95208   0.95229   44.358
 6223.00    0.95412   0.95120   45.957
 6224.00    0.95874   0.94952   46.309
 6225.00    0.96339   0.94787   44.042
 6226.00    0.96323   0.94507   41.174
 6227.00    0.95635   0.94308   39.524
 6228.00    0.94813   0.94282   38.927
 6229.00    0.94408   0.94235   39.027
 6230.00    0.94367   0.94322   40.275
 6231.00    0.94438   0.94566   42.859
 6232.00    0.94540   0.94701   45.482
 6233.00    0.94667   0.94791   46.663
 6234.00    0.94778   0.94852   46.848
 6235.00    0.94755   0.94757   47.020
 6236.00    0.94400   0.94508   47.286
 6237.00    0.93670   0.94242   47.603
 6238.00    0.92788   0.93993   48.249
 6239.00    0.91991   0.93646   49.128
 6240.00    0.91388   0.93451   49.416
 6241.00    0.91027   0.93434   48.683
 6242.00    0.90931   0.93328   47.487
 6243.00    0.91071   0.93392   46.444
 6244.00    0.91362   0.93597   45.761
 6245.00    0.91736   0.93609   45.260
 6246.00    0.92182   0.93624   44.585
 6247.00    0.92715   0.93643   44.011
 6248.00    0.93347   0.93420   44.361
 6249.00    0.93988   0.93127   45.426
 6250.00    0.94440   0.92850   45.688
 6251.00    0.94509   0.92487   44.606
 6252.00    0.94106   0.92173   43.237
 6253.00    0.93411   0.92033   42.331
 6254.00    0.92845   0.92003   41.947
 6255.00    0.92738   0.92106   42.000
 6256.00    0.93197   0.92444   42.375
 6257.00    0.94061   0.92871   42.789
 6258.00    0.94991   0.93347   42.778
 6259.00    0.95783   0.93954   41.901
 6260.00    0.96385   0.94470   40.144
 6261.00    0.96687   0.94885   38.399
 6262.00    0.96546   0.95332   37.790
 6263.00    0.95978   0.95658   38.749
 6264.00    0.95197   0.95832   41.115
 6265.00    0.94569   0.96026   43.937
 6266.00    0.94448   0.96226   45.643
 6267.00    0.94876   0.96325   46.195
 6268.00    0.95632   0.96421   46.895
 6269.00    0.96488   0.96568   47.795
 6270.00    0.97246   0.96643   47.992
 6271.00    0.97698   0.96669   47.567
 6272.00    0.97636   0.96705   47.220
 6273.00    0.96879   0.96650   46.911
 6274.00    0.95450   0.96564   46.304
 6275.00    0.93830   0.96516   45.734
 6276.00    0.92698   0.96408   45.680
 6277.00    0.92481   0.96372   45.902
 6278.00    0.93192   0.96445   45.901
 6279.00    0.94321   0.96509   45.713
 6280.00    0.95254   0.96710    0.000
 6281.00    0.95824   0.96973    0.000
 6282.00    0.96143   0.97205    0.000
 6283.00    0.96319   0.97496    0.000
 6284.00    0.96437   0.97691    0.000
 6285.00    0.96571   0.97814    0.000
 6286.00    0.96735   0.97883    0.000
 6287.00    0.96830   0.97793    0.000
 6288.00    0.96770   0.97650    0.000
 6289.00    0.96603   0.97415    0.000
 6290.00    0.96462   0.97095    0.000
 6291.00    0.96510   0.96791    0.000
 6292.00    0.96878   0.96418    0.000
 6293.00    0.97624   0.96057    0.000
 6294.00    0.98712   0.95774    0.000
 6295.00    1.00005   0.95487    0.000
 6296.00    1.01204   0.95273    0.000
 6297.00    1.01860   0.95181    0.000
 6298.00    1.01688   0.95174    0.000
 6299.00    1.00759   0.95272    0.000
 6300.00    0.99418   0.95463    0.000
 6301.00    0.98159   0.95723    0.000
 6302.00    0.97349   0.96043    0.000
 6303.00    0.97070   0.96370    0.000
 6304.00    0.97176   0.96619    0.000
 6305.00    0.97360   0.96777    0.000
 6306.00    0.97297   0.96862    0.000
 6307.00    0.96772   0.96819    0.000
 6308.00    0.95893   0.96615    0.000
 6309.00    0.95078   0.96334    0.000
 6310.00    0.94577   0.96022    0.000
 6311.00    0.94332   0.95638    0.000
 6312.00    0.94287   0.95316    0.000
 6313.00    0.94473   0.95079    0.000
 6314.00    0.94866   0.94851    0.000
 6315.00    0.95357   0.94842    0.000
 6316.00    0.95896   0.94998    0.000
 6317.00    0.96472   0.95150    0.000
 6318.00    0.96921   0.95477    0.000
 6319.00    0.97003   0.95942    0.000
 6320.00    0.96829   0.96368    0.000
 6321.00    0.96811   0.96755   47.639
 6322.00    0.97140   0.97166   47.078
 6323.00    0.97702   0.97512   46.950
 6324.00    0.98239   0.97713   47.447
 6325.00    0.98485   0.97873   48.032
 6326.00    0.98381   0.97900   48.119
 6327.00    0.98026   0.97826   47.524
 6328.00    0.97472   0.97732   46.937
 6329.00    0.96768   0.97477   47.199
 6330.00    0.96166   0.97181   47.913
 6331.00    0.95959   0.96921   48.013
 6332.00    0.96109   0.96621   47.569
 6333.00    0.96350   0.96377   47.334
 6334.00    0.96501   0.96194   47.285
 6335.00    0.96539   0.96051   47.055
 6336.00    0.96619   0.96048   46.985
 6337.00    0.96891   0.96077   47.654
 6338.00    0.97231   0.96051   48.957
 6339.00    0.97394   0.96134   50.242
 6340.00    0.97303   0.96228   50.807
 6341.00    0.97041   0.96268   50.299
 6342.00    0.96775   0.96380   49.092
 6343.00    0.96668   0.96496   47.993
 6344.00    0.96764   0.96661   47.824
 6345.00    0.97002   0.96845   48.696
 6346.00    0.97240   0.96941   49.214
 6347.00    0.97367   0.97050   48.213
 6348.00    0.97404   0.97084   46.860
 6349.00    0.97391   0.96933   46.466
 6350.00    0.97272   0.96715   46.734
 6351.00    0.96977   0.96402   46.964
 6352.00    0.96497   0.95965   47.120
 6353.00    0.95854   0.95478   47.383
 6354.00    0.95070   0.94959   47.670
 6355.00    0.94254   0.94486   47.675
 6356.00    0.93637   0.94092   47.020
 6357.00    0.93367   0.93738   45.819
 6358.00    0.93369   0.93538   44.803
 6359.00    0.93545   0.93558   44.159
 6360.00    0.93885   0.93682   43.156
 6361.00    0.94329   0.93929   41.671
 6362.00    0.94694   0.94358   40.669
 6363.00    0.94873   0.94868   40.621
 6364.00    0.94935   0.95405   41.021
 6365.00    0.94967   0.95948   41.399
 6366.00    0.95003   0.96467   41.811
 6367.00    0.95070   0.96962   42.335
 6368.00    0.95216   0.97373   42.861
 6369.00    0.95449   0.97683   43.488
 6370.00    0.95739   0.97941   44.592
 6371.00    0.96102   0.98129   45.961
 6372.00    0.96605   0.98210   46.586
 6373.00    0.97220   0.98225   46.249
 6374.00    0.97773   0.98179   45.940
 6375.00    0.98033   0.98085   46.202
 6376.00    0.97801   0.98000   46.811
 6377.00    0.97100   0.97890   47.649
 6378.00    0.96218   0.97803   48.834
 6379.00    0.95590   0.97791   49.927
 6380.00    0.95628   0.97773   50.015
 6381.00    0.96323   0.97792   49.215
 6382.00    0.97273   0.97850   48.587
 6383.00    0.98119   0.97845   48.569
 6384.00    0.98654   0.97793   48.835
 6385.00    0.98795   0.97740   48.819
 6386.00    0.98520   0.97618   48.188
 6387.00    0.97755   0.97389   47.617
 6388.00    0.96467   0.97171   48.058
 6389.00    0.94930   0.96962   48.991
 6390.00    0.93575   0.96721   48.728
 6391.00    0.92569   0.96531   46.430
 6392.00    0.91876   0.96405   42.918
 6393.00    0.91554   0.96326   40.049
 6394.00    0.91712   0.96305   39.052
 6395.00    0.92335   0.96339   39.607
 6396.00    0.93247   0.96376   40.716
 6397.00    0.94111   0.96500   41.767
 6398.00    0.94678   0.96653   42.533
 6399.00    0.95145   0.96706   42.890
 6400.00    0.95838   0.96905   42.952
 6401.00    0.96664   0.97087   43.288
 6402.00    0.97300   0.97043   44.397
 6403.00    0.97555   0.97084   45.960
 6404.00    0.97426   0.97081   47.220
 6405.00    0.97086   0.96932   47.865
 6406.00    0.96751   0.96830   47.992
 6407.00    0.96525   0.96700   47.768
 6408.00    0.96365   0.96609   47.449
 6409.00    0.96081   0.96600   47.419
 6410.00    0.95534   0.96511   47.889
 6411.00    0.94824   0.96468   48.598
 6412.00    0.94168   0.96517   49.021
 6413.00    0.93751   0.96481   48.695
 6414.00    0.93660   0.96439   47.708
 6415.00    0.93840   0.96459   46.861
 6416.00    0.94189   0.96478   46.545
 6417.00    0.94637   0.96569   46.171
 6418.00    0.95116   0.96719   45.582
 6419.00    0.95543   0.96901   45.817
 6420.00    0.95911   0.97137   47.265
 6421.00    0.96316   0.97382   48.507
 6422.00    0.96744   0.97607   48.423
 6423.00    0.96985   0.97739   47.839
 6424.00    0.96975   0.97748   47.116
 6425.00    0.96943   0.97704   45.193
 6426.00    0.96944   0.97604   42.410
 6427.00    0.96686   0.97430   40.694
 6428.00    0.96058   0.97292   40.535
 6429.00    0.95351   0.97161   40.755
 6430.00    0.94899   0.97048   40.870
 6431.00    0.94886   0.97089   41.856
 6432.00    0.95307   0.97116   44.257
 6433.00    0.95948   0.97125   47.282
 6434.00    0.96414   0.97269   49.424
 6435.00    0.96269   0.97412   49.396
 6436.00    0.95561   0.97585   47.687
 6437.00    0.94853   0.97799   46.090
 6438.00    0.94596   0.97970   45.316
 6439.00    0.94865   0.98214   44.988
 6440.00    0.95292   0.98380   44.981
 6441.00    0.95301   0.98362   45.581
 6442.00    0.94898   0.98306   46.782
 6443.00    0.94617   0.98062   47.961
 6444.00    0.94666   0.97674   47.741
 6445.00    0.94816   0.97308   45.156
 6446.00    0.94808   0.96876   41.932
 6447.00    0.94533   0.96532   40.248
 6448.00    0.94173   0.96294   39.800
 6449.00    0.94065   0.96114   39.258
 6450.00    0.94305   0.96168   39.209
 6451.00    0.94742   0.96309   41.274
 6452.00    0.95182   0.96453   45.043
 6453.00    0.95501   0.96662   47.724
 6454.00    0.95779   0.96836   47.817
 6455.00    0.96160   0.96959   46.645
 6456.00    0.96550   0.97002   46.049
 6457.00    0.96733   0.97011   46.943
 6458.00    0.96682   0.97019   48.245
 6459.00    0.96523   0.96989   48.101
 6460.00    0.96403   0.97014   46.970
 6461.00    0.96467   0.97036   46.325
 6462.00    0.96849   0.97091   46.099
 6463.00    0.97586   0.97271   45.569
 6464.00    0.98496   0.97417   44.810
 6465.00    0.99259   0.97498   44.438
 6466.00    0.99559   0.97609   45.068
 6467.00    0.99320   0.97711   46.516
 6468.00    0.98942   0.97708   46.696
 6469.00    0.98846   0.97691   44.293
 6470.00    0.98956   0.97677   41.677
 6471.00    0.98976   0.97635   40.758
 6472.00    0.98731   0.97604   40.800
 6473.00    0.98187   0.97526   40.890
 6474.00    0.97423   0.97407   41.797
 6475.00    0.96568   0.97271   44.255
 6476.00    0.95743   0.97099   47.030
 6477.00    0.95064   0.96894   48.383
 6478.00    0.94637   0.96704   48.660
 6479.00    0.94466   0.96556   48.912
 6480.00    0.94407   0.96406   49.192
 6481.00    0.94399   0.96259   49.261
 6482.00    0.94588   0.96156   49.203
 6483.00    0.94998   0.96018   49.182
 6484.00    0.95356   0.95750   49.233
 6485.00    0.95400   0.95339   49.289
 6486.00    0.95081   0.94804   49.203
 6487.00    0.94544   0.94089   48.794
 6488.00    0.94040   0.93164   47.949
 6489.00    0.93516   0.92214   46.920
 6490.00    0.92535   0.91289   46.306
 6491.00    0.90989   0.90474   46.526
 6492.00    0.89347   0.89922   47.611
 6493.00    0.88119   0.89534   48.921
 6494.00    0.87586   0.89539   49.144
 6495.00    0.87789   0.89917   47.843
 6496.00    0.88574   0.90457   45.932
 6497.00    0.89795   0.91266   44.230
 6498.00    0.91360   0.92145   43.096
 6499.00    0.93116   0.93039   42.945
 6500.00    0.94814   0.93947   44.227
 6501.00    0.96139   0.94688   46.485
 6502.00    0.96801   0.95302   48.170
 6503.00    0.96751   0.95800   48.772
 6504.00    0.96222   0.96158   49.339
 6505.00    0.95623   0.96401   50.095
 6506.00    0.95383   0.96519   50.210
 6507.00    0.95630   0.96546   49.679
 6508.00    0.96183   0.96515   49.272
 6509.00    0.96777   0.96411   48.987
 6510.00    0.97174   0.96254   48.340
 6511.00    0.97287   0.96089   47.805
 6512.00    0.97170   0.95907   48.223
 6513.00    0.96929   0.95756   49.033
 6514.00    0.96657   0.95674   48.952
 6515.00    0.96343   0.95629   48.473
 6516.00    0.95934   0.95672   48.896
 6517.00    0.95484   0.95753   49.597
 6518.00    0.95097   0.95860   49.033
 6519.00    0.94776   0.96036   47.684
 6520.00    0.94503   0.96142   47.024
 6521.00    0.94387   0.96193   47.339
 6522.00    0.94537   0.96250   48.012
 6523.00    0.94827   0.96255   48.133
 6524.00    0.95083   0.96234   47.260
 6525.00    0.95383   0.96171   46.294
 6526.00    0.95873   0.96086   46.209
 6527.00    0.96485   0.96054   46.680
 6528.00    0.97031   0.96038    0.000
 6529.00    0.97378   0.96046    0.000
 6530.00    0.97504   0.96080    0.000
 6531.00    0.97529   0.96110    0.000
 6532.00    0.97565   0.96166    0.000
 6533.00    0.97574   0.96242    0.000
 6534.00    0.97550   0.96285    0.000
 6535.00    0.97686   0.96264    0.000
 6536.00    0.98098   0.96168    0.000
 6537.00    0.98601   0.95998    0.000
 6538.00    0.99159   0.95775    0.000
 6539.00    1.00271   0.95453    0.000
 6540.00    1.02666   0.95017    0.000
 6541.00    1.06943   0.94606    0.000
 6542.00    1.12753   0.94202    0.000
 6543.00    1.18391   0.93777    0.000
 6544.00    1.22039   0.93377    0.000
 6545.00    1.22678   0.92939    0.000
 6546.00    1.20184   0.92545    0.000
 6547.00    1.15310   0.92144    0.000
 6548.00    1.09360   0.91605    0.000
 6549.00    1.03853   0.90981    0.000
 6550.00    0.99749   0.90244    0.000
 6551.00    0.97319   0.89350    0.000
 6552.00    0.97651   0.88287    0.000
 6553.00    1.03394   0.87019    0.000
 6554.00    1.18489   0.85610    0.000
 6555.00    1.46815   0.84127    0.000
 6556.00    1.87016   0.82447    0.000
 6557.00    2.31095   0.80863    0.000
 6558.00    2.68298   0.79810    0.000
 6559.00    2.88059   0.79069    0.000
 6560.00    2.84675   0.78724    0.000
 6561.00    2.59064   0.78929    0.000
 6562.00    2.18491   0.79593    0.000
 6563.00    1.74556   0.80821    0.000
 6564.00    1.37185   0.82274    0.000
 6565.00    1.12080   0.83704    0.000
 6566.00    0.99328   0.85165    0.000
 6567.00    0.94616   0.86480    0.000
 6568.00    0.93774   0.87553    0.000
 6569.00    0.94125   0.88451    0.000
 6570.00    0.94481   0.89241    0.000
 6571.00    0.94794   0.89901    0.000
 6572.00    0.95341   0.90476    0.000
 6573.00    0.96786   0.91028    0.000
 6574.00    1.00748   0.91512    0.000
 6575.00    1.09229   0.91962    0.000
 6576.00    1.23137   0.92400    0.000
 6577.00    1.41458   0.92769    0.000
 6578.00    1.60335   0.93073    0.000
 6579.00    1.74477   0.93341    0.000
 6580.00    1.80029   0.93514    0.000
 6581.00    1.75526   0.93677    0.000
 6582.00    1.62560   0.93812    0.000
 6583.00    1.44970   0.93834    0.000
 6584.00    1.27338   0.93833    0.000
 6585.00    1.13418   0.93746    0.000
 6586.00    1.04258   0.93552    0.000
 6587.00    0.98947   0.93299    0.000
 6588.00    0.96026   0.93063    0.000
 6589.00    0.94225   0.92883    0.000
 6590.00    0.93114   0.92708    0.000
 6591.00    0.92724   0.92605    0.000
 6592.00    0.93014   0.92590    0.000
 6593.00    0.93819   0.92719    0.000
 6594.00    0.94873   0.92981    0.000
 6595.00    0.95874   0.93230    0.000
 6596.00    0.96560   0.93489    0.000
 6597.00    0.96817   0.93740    0.000
 6598.00    0.96771   0.93908    0.000
 6599.00    0.96713   0.94013    0.000
 6600.00    0.96975   0.94036    0.000
 6601.00    0.97563   0.93969    0.000
 6602.00    0.97935   0.93861    0.000
 6603.00    0.97664   0.93714    0.000
 6604.00    0.96912   0.93624    0.000
 6605.00    0.96129   0.93617    0.000
 6606.00    0.95751   0.93633    0.000
 6607.00    0.95833   0.93722    0.000
 6608.00    0.95918   0.93883    0.000
 6609.00    0.95720   0.94147   47.336
 6610.00    0.95461   0.94438   47.723
 6611.00    0.95401   0.94676   48.038
 6612.00    0.95563   0.94914   48.089
 6613.00    0.95818   0.95122   47.927
 6614.00    0.95973   0.95288   47.797
 6615.00    0.95986   0.95380   47.996
 6616.00    0.96014   0.95377   48.709
 6617.00    0.96158   0.95324   49.456
 6618.00    0.96367   0.95205   49.149
 6619.00    0.96540   0.95026   47.874
 6620.00    0.96585   0.94850   46.986
 6621.00    0.96463   0.94628   47.023
 6622.00    0.96199   0.94386   47.473
 6623.00    0.95846   0.94167   47.938
 6624.00    0.95437   0.93938   48.426
 6625.00    0.94880   0.93748   48.855
 6626.00    0.94041   0.93550   48.994
 6627.00    0.93102   0.93328   48.839
 6628.00    0.92491   0.93151   48.617
 6629.00    0.92359   0.93032   48.407
 6630.00    0.92536   0.92955   48.137
 6631.00    0.92849   0.92920   47.853
 6632.00    0.93183   0.92931   47.754
 6633.00    0.93437   0.92988   48.093
 6634.00    0.93547   0.93103   48.984
 6635.00    0.93570   0.93239   49.921
 6636.00    0.93660   0.93334   50.048
 6637.00    0.93952   0.93372   49.289
 6638.00    0.94463   0.93417   48.326
 6639.00    0.94932   0.93465   47.908
 6640.00    0.95031   0.93481   48.418
 6641.00    0.94793   0.93486   49.336
 6642.00    0.94513   0.93487   49.794
 6643.00    0.94437   0.93536   49.947
 6644.00    0.94684   0.93617   50.328
 6645.00    0.95213   0.93666   50.343
 6646.00    0.95857   0.93714   49.301
 6647.00    0.96380   0.93769   48.221
 6648.00    0.96544   0.93806   48.275
 6649.00    0.96188   0.93824   48.897
 6650.00    0.95311   0.93799   49.007
 6651.00    0.94154   0.93748   48.883
 6652.00    0.93051   0.93682   49.214
 6653.00    0.92237   0.93569   49.691
 6654.00    0.91804   0.93425   49.726
 6655.00    0.91681   0.93240   49.486
 6656.00    0.91708   0.93025   49.399
 6657.00    0.91727   0.92779   49.545
 6658.00    0.91723   0.92551   49.823
 6659.00    0.91917   0.92370   50.157
 6660.00    0.92393   0.92192   50.400
 6661.00    0.92805   0.92102   50.280
 6662.00    0.92884   0.92082   49.829
 6663.00    0.92839   0.92149   49.615
 6664.00    0.92978   0.92312   49.836
 6665.00    0.93394   0.92470   49.813
 6666.00    0.93971   0.92638   49.354
 6667.00    0.94430   0.92802   49.477
 6668.00    0.94523   0.92915   50.450
 6669.00    0.94162   0.92949   50.766
 6670.00    0.93480   0.92881   49.804
 6671.00    0.92800   0.92708   49.182
 6672.00    0.92336   0.92477   49.718
 6673.00    0.92056   0.92273   50.294
 6674.00    0.91895   0.92075   50.059
 6675.00    0.91864   0.91886   49.573
 6676.00    0.91963   0.91802   49.471
 6677.00    0.92148   0.91814   49.822
 6678.00    0.92408   0.91945   50.327
 6679.00    0.92779   0.92155   50.501
 6680.00    0.93288   0.92353   50.237
 6681.00    0.93902   0.92592   49.929
 6682.00    0.94422   0.92822   49.934
 6683.00    0.94542   0.93014   50.306
 6684.00    0.94203   0.93156   50.576
 6685.00    0.93644   0.93227   50.075
 6686.00    0.93082   0.93259   49.365
 6687.00    0.92604   0.93235   49.819
 6688.00    0.92164   0.93169   51.234
 6689.00    0.91667   0.93063   51.832
 6690.00    0.91192   0.92910   51.194
 6691.00    0.90947   0.92768   50.498
 6692.00    0.90949   0.92634   49.942
 6693.00    0.91062   0.92497   48.946
 6694.00    0.91288   0.92416   48.084
 6695.00    0.91713   0.92346   48.479
 6696.00    0.92185   0.92317    0.000
 6697.00    0.92414   0.92331    0.000
 6698.00    0.92361   0.92327    0.000
 6699.00    0.92192   0.92354    0.000
 6700.00    0.92002   0.92370    0.000
 6701.00    0.91764   0.92359    0.000
 6702.00    0.91346   0.92336    0.000
 6703.00    0.90723   0.92299    0.000
 6704.00    0.90308   0.92229    0.000
 6705.00    0.90693   0.92130    0.000
 6706.00    0.92121   0.91995    0.000
 6707.00    0.94626   0.91787    0.000
 6708.00    0.98374   0.91570    0.000
 6709.00    1.03488   0.91302    0.000
 6710.00    1.09741   0.91008    0.000
 6711.00    1.16265   0.90744    0.000
 6712.00    1.21305   0.90494    0.000
 6713.00    1.23116   0.90344    0.000
 6714.00    1.21116   0.90247    0.000
 6715.00    1.15920   0.90229    0.000
 6716.00    1.09163   0.90327    0.000
 6717.00    1.02656   0.90486    0.000
 6718.00    0.97522   0.90714    0.000
 6719.00    0.94210   0.90934    0.000
 6720.00    0.92643   0.91147    0.000
 6721.00    0.92580   0.91370    0.000
 6722.00    0.93949   0.91567    0.000
 6723.00    0.96792   0.91728    0.000
 6724.00    1.01138   0.91857    0.000
 6725.00    1.06396   0.91958    0.000
 6726.00    1.11027   0.92044    0.000
 6727.00    1.13582   0.92108    0.000
 6728.00    1.13492   0.92138    0.000
 6729.00    1.10993   0.92140    0.000
 6730.00    1.06965   0.92106    0.000
 6731.00    1.02523   0.92036    0.000
 6732.00    0.98680   0.91933    0.000
 6733.00    0.95922   0.91821    0.000
 6734.00    0.94053   0.91689    0.000
 6735.00    0.92710   0.91541    0.000
 6736.00    0.91674   0.91387    0.000
 6737.00    0.90970   0.91236    0.000
 6738.00    0.90814   0.91117    0.000
 6739.00    0.91160   0.91006    0.000
 6740.00    0.91589   0.90888    0.000
 6741.00    0.91786   0.90788    0.000
 6742.00    0.91718   0.90682    0.000
 6743.00    0.91450   0.90607    0.000
 6744.00    0.91041   0.90539    0.000
 6745.00    0.90506   0.90472    0.000
 6746.00    0.89834   0.90459    0.000
 6747.00    0.89136   0.90448    0.000
 6748.00    0.88669   0.90526    0.000
 6749.00    0.88745   0.90642    0.000
 6750.00    0.89529   0.90790    0.000
 6751.00    0.90559   0.91020    0.000
 6752.00    0.90950   0.91241    0.000
 6753.00    0.90387   0.91507   32.310
 6754.00    0.89208   0.91760   28.329
 6755.00    0.87886   0.91972   27.724
 6756.00    0.87019   0.92155   36.552
 6757.00    0.87640   0.92273   41.195
 6758.00    0.90627   0.92325   20.471
 6759.00    0.95244   0.92294   11.407
 6760.00    0.99634   0.92211    9.336
 6761.00    1.02536   0.92079    9.557
 6762.00    1.03615   0.91928    9.927
 6763.00    1.03374   0.91775    9.753
 6764.00    1.02666   0.91622    9.574
 6765.00    1.01871   0.91518    9.748
 6766.00    1.00985   0.91492   10.183
 6767.00    1.00009   0.91530   10.131
 6768.00    0.98976   0.91636    9.416
 6769.00    0.97880   0.91785    9.892
 6770.00    0.96736   0.91964   14.947
 6771.00    0.95662   0.92174   36.048
 6772.00    0.94690   0.92359   57.262
 6773.00    0.93533   0.92504   43.173
 6774.00    0.92255   0.92565   39.226
 6775.00    0.92029   0.92537   45.203
 6776.00    0.93617   0.92438   44.656
 6777.00    0.95623   0.92257   38.877
 6778.00    0.96296   0.92030   36.547
 6779.00    0.95621   0.91771   37.158
 6780.00    0.94508   0.91511   38.354
 6781.00    0.93714   0.91282   39.205
 6782.00    0.93583   0.91117   40.146
 6783.00    0.93924   0.91014   42.481
 6784.00    0.94323   0.90981   45.418
 6785.00    0.94464   0.91000   43.191
 6786.00    0.94411   0.91037   38.546
 6787.00    0.94682   0.91096   43.919
 6788.00    0.95238   0.91150   57.262
 6789.00    0.94984   0.91208   33.852
 6790.00    0.93834   0.91246   14.980
 6791.00    0.93706   0.91281   10.233
 6792.00    0.95177   0.91322    9.816
 6793.00    0.95903   0.91359   10.602
 6794.00    0.94825   0.91433   10.846
 6795.00    0.94118   0.91496   10.527
 6796.00    0.95114   0.91559   10.317
 6797.00    0.96442   0.91634   10.488
 6798.00    0.96803   0.91676   10.673
 6799.00    0.96330   0.91719   10.090
 6800.00    0.95653   0.91743    9.631
 6801.00    0.95320   0.91720   11.736
 6802.00    0.95445   0.91706   21.797
 6803.00    0.95626   0.91667   50.358
 6804.00    0.95228   0.91619   50.285
 6805.00    0.93800   0.91595   39.485
 6806.00    0.92090   0.91538   42.499
 6807.00    0.91746   0.91494   47.887
 6808.00    0.92794   0.91480   45.333
 6809.00    0.93577   0.91463   40.821
 6810.00    0.93595   0.91481   38.151
 6811.00    0.93769   0.91501   36.197
 6812.00    0.94209   0.91514   34.846
 6813.00    0.94076   0.91577   35.044
 6814.00    0.93270   0.91648   37.021
 6815.00    0.92521   0.91736   40.150
 6816.00    0.92316   0.91836   43.436
 6817.00    0.92669   0.91903   45.763
 6818.00    0.93298   0.91989   46.792
 6819.00    0.93796   0.92054   47.151
 6820.00    0.93914   0.92096   47.335
 6821.00    0.93609   0.92129   47.446
 6822.00    0.93004   0.92119   47.476
 6823.00    0.92292   0.92105   47.337
 6824.00    0.91573   0.92064   46.808
 6825.00    0.90893   0.92007   45.569
 6826.00    0.90362   0.91967   43.343
 6827.00    0.90112   0.91928   40.508
 6828.00    0.90173   0.91893   38.479
 6829.00    0.90490   0.91840   38.394
 6830.00    0.90972   0.91749   40.189
 6831.00    0.91532   0.91620   43.029
 6832.00    0.92127   0.91453   45.541
 6833.00    0.92692   0.91231   45.970
 6834.00    0.93052   0.90981   43.456
 6835.00    0.93083   0.90720   39.215
 6836.00    0.92914   0.90465   35.600
 6837.00    0.92661   0.90276   33.787
 6838.00    0.92102   0.90135   33.573
 6839.00    0.90995   0.90092   34.624
 6840.00    0.89480   0.90142   37.110
 6841.00    0.88167   0.90265   41.034
 6842.00    0.88076   0.90454   44.766
 6843.00    0.89531   0.90651   46.144
 6844.00    0.91273   0.90839   45.935
 6845.00    0.92085   0.90992   45.914
 6846.00    0.92220   0.91069   46.173
 6847.00    0.92405   0.91072   46.254
 6848.00    0.92903   0.91021   46.254
 6849.00    0.93421   0.90906   46.613
 6850.00    0.93227   0.90756   47.782
 6851.00    0.92121   0.90580   49.254
 6852.00    0.90965   0.90378   49.054
 6853.00    0.90487   0.90206   47.378
 6854.00    0.90558   0.90070   47.492
 6855.00    0.90852   0.89993   48.253
 6856.00    0.91216   0.89988   43.124
 6857.00    0.91230   0.89993   38.207
 6858.00    0.90204   0.90018   47.010
 6859.00    0.88564   0.90062   57.262
 6860.00    0.88114   0.90117   32.169
 6861.00    0.89530   0.90202   14.303
 6862.00    0.91540   0.90262   10.280
 6863.00    0.93015   0.90285   10.203
 6864.00    0.93821   0.90268   10.897
 6865.00    0.94054   0.90238   10.827
 6866.00    0.93748   0.90239   10.579
 6867.00    0.93049   0.90248   10.681
 6868.00    0.92215   0.90271   10.879
 6869.00    0.91294   0.90304   10.977
 6870.00    0.90094   0.90360   11.086
 6871.00    0.88466   0.90432   11.295
 6872.00    0.86436   0.90512   11.575
 6873.00    0.84267   0.90589   11.870
 6874.00    0.82385   0.90648   12.136
 6875.00    0.81082   0.90694   12.332
 6876.00    0.80518   0.90729   12.420
 6877.00    0.80976   0.90757   12.350
 6878.00    0.82677   0.90753   12.095
 6879.00    0.85173   0.90775   11.741
 6880.00    0.87531   0.90822   11.425
 6881.00    0.89142   0.90919   11.218
 6882.00    0.89861   0.91058   11.128
 6883.00    0.89893   0.91211   11.124
 6884.00    0.89678   0.91400   11.151
 6885.00    0.89700   0.91580   11.148
 6886.00    0.90269   0.91764   11.078
 6887.00    0.91183   0.91921   10.967
 6888.00    0.92004   0.92043   10.869
 6889.00    0.92634   0.92133   10.795
 6890.00    0.93186   0.92183   10.731
 6891.00    0.93602   0.92211   10.684
 6892.00    0.93758   0.92201   10.666
 6893.00    0.93703   0.92203   10.672
 6894.00    0.93589   0.92218   10.685
 6895.00    0.93515   0.92237   10.693
 6896.00    0.93518   0.92266   10.693
 6897.00    0.93568   0.92297   10.687
 6898.00    0.93530   0.92356   10.692
 6899.00    0.93125   0.92434   10.738
 6900.00    0.92229   0.92501   10.843
 6901.00    0.91184   0.92565   10.967
 6902.00    0.90489   0.92614   11.051
 6903.00    0.90423   0.92627   11.059
 6904.00    0.90904   0.92626   11.001
 6905.00    0.91433   0.92578   10.937
 6906.00    0.91565   0.92488   10.921
 6907.00    0.91319   0.92379   10.951
 6908.00    0.90884   0.92231   11.003
 6909.00    0.90345   0.92074   11.069
 6910.00    0.89772   0.91933   11.139
 6911.00    0.89301   0.91795   11.198
 6912.00    0.89163   0.91720   11.215
 6913.00    0.89640   0.91677   11.156
 6914.00    0.90679   0.91656   11.028
 6915.00    0.91721   0.91681   10.903
 6916.00    0.92403   0.91680   10.822
 6917.00    0.92909   0.91697   10.763
 6918.00    0.93361   0.91698   10.711
 6919.00    0.93515   0.91687   10.693
 6920.00    0.93167   0.91662   10.733
 6921.00    0.92370   0.91592   10.826
 6922.00    0.91384   0.91545   10.943
 6923.00    0.90568   0.91505   11.041
 6924.00    0.90019   0.91509   11.109
 6925.00    0.89531   0.91521   11.169
 6926.00    0.89138   0.91555   11.219
 6927.00    0.89177   0.91615   11.214
 6928.00    0.89576   0.91655   11.164
 6929.00    0.89769   0.91716   11.140
 6930.00    0.89542   0.91760   11.168
 6931.00    0.89210   0.91833   11.210
 6932.00    0.89096   0.91909   11.224
 6933.00    0.89289   0.91961   11.200
 6934.00    0.89504   0.92004   11.173
 6935.00    0.89272   0.92006   11.202
 6936.00    0.88637   0.91993   11.282
 6937.00    0.88151   0.91939   11.344
 6938.00    0.88245   0.91882   11.332
 6939.00    0.88997   0.91804   11.236
 6940.00    0.90011   0.91695   11.110
 6941.00    0.90658   0.91591   11.031
 6942.00    0.90720   0.91480   11.023
 6943.00    0.90465   0.91413   11.054
 6944.00    0.90434   0.91382   11.058
 6945.00    0.91034   0.91362   10.985
 6946.00    0.91823   0.91364   10.891
 6947.00    0.91990   0.91370   10.871
 6948.00    0.91552   0.91373   10.923
 6949.00    0.91089   0.91412   10.978
 6950.00    0.90867   0.91465   11.005
 6951.00    0.90862   0.91550   11.006
 6952.00    0.91056   0.91660   10.982
 6953.00    0.91407   0.91793   10.940
 6954.00    0.91734   0.91949   10.901
 6955.00    0.91919   0.92089   10.879
 6956.00    0.92209   0.92246   10.845
 6957.00    0.92842   0.92378   10.771
 6958.00    0.93515   0.92503   10.694
 6959.00    0.93809   0.92616   10.660
 6960.00    0.93789   0.92709   10.662
 6961.00    0.93668   0.92783   10.676
 6962.00    0.93375   0.92816   10.710
 6963.00    0.92782   0.92818   10.778
 6964.00    0.92016   0.92815   10.868
 6965.00    0.91349   0.92790   10.947
 6966.00    0.91050   0.92700   10.983
 6967.00    0.91242   0.92556   10.960
 6968.00    0.91785   0.92330   10.895
 6969.00    0.92423   0.92064   10.820
 6970.00    0.92898   0.91757   10.765
 6971.00    0.92885   0.91410   10.766
 6972.00    0.91996   0.91095   10.870
 6973.00    0.90347   0.90796   11.068
 6974.00    0.88846   0.90566   11.255
 6975.00    0.88212   0.90421   11.336
 6976.00    0.88350   0.90400   11.319
 6977.00    0.88937   0.90558   11.244
 6978.00    0.89812   0.90796   11.134
 6979.00    0.90796   0.91104   11.014
 6980.00    0.91618   0.91445   10.915
 6981.00    0.92124   0.91757   10.855
 6982.00    0.92364   0.92044   10.827
 6983.00    0.92413   0.92277   10.821
 6984.00    0.92284   0.92466   10.836
 6985.00    0.92011   0.92595   10.868
 6986.00    0.91670   0.92648   10.909
 6987.00    0.91316   0.92683   10.951
 6988.00    0.90968   0.92700   10.993
 6989.00    0.90703   0.92689   11.025
 6990.00    0.90639   0.92654   11.033
 6991.00    0.90704   0.92573   11.025
 6992.00    0.90655   0.92473   11.031
 6993.00    0.90450   0.92360   11.056
 6994.00    0.90300   0.92226   11.074
 6995.00    0.90382   0.92079   11.064
 6996.00    0.90737   0.91895   11.021
 6997.00    0.91257   0.91724   10.958
 6998.00    0.91701   0.91592   10.905
 6999.00    0.91745   0.91498   10.900
 7000.00    0.91144   0.91431   10.972
 7001.00    0.90121   0.91369   -2.000
 7002.00    0.89235   0.91345   -2.000
 7003.00    0.88847   0.91336   -2.000
 7004.00    0.88990   0.91357   -2.000
 7005.00    0.89432   0.91384   -2.000
 7006.00    0.89837   0.91395   -2.000
 7007.00    0.90072   0.91366   -2.000
 7008.00    0.90171   0.91283   -2.000
 7009.00    0.90125   0.91200   -2.000
 7010.00    0.89911   0.91127   -2.000
 7011.00    0.89631   0.91044   -2.000
 7012.00    0.89437   0.90959   -2.000
 7013.00    0.89369   0.90867   -2.000
 7014.00    0.89375   0.90840   -2.000
 7015.00    0.89390   0.90886   -2.000
 7016.00    0.89397   0.90952   -2.000
 7017.00    0.89478   0.91039   -2.000
 7018.00    0.89732   0.91117   -2.000
 7019.00    0.90137   0.91169   -2.000
 7020.00    0.90531   0.91195   -2.000
 7021.00    0.90623   0.91244   -2.000
 7022.00    0.90275   0.91333   -2.000
 7023.00    0.89786   0.91447   -2.000
 7024.00    0.89523   0.91550   -2.000
 7025.00    0.89477   0.91665   -2.000
 7026.00    0.89494   0.91790   -2.000
 7027.00    0.89551   0.91893   -2.000
 7028.00    0.89759   0.91994   -2.000
 7029.00    0.90309   0.92072   -2.000
 7030.00    0.91133   0.92148   -2.000
 7031.00    0.91692   0.92220   -2.000
 7032.00    0.91640   0.92306   -2.000
 7033.00    0.91328   0.92436   -2.000
 7034.00    0.91246   0.92581   -2.000
 7035.00    0.91544   0.92729   -2.000
 7036.00    0.91937   0.92947   -2.000
 7037.00    0.91820   0.93238   -2.000
 7038.00    0.91347   0.93540   -2.000
 7039.00    0.91805   0.93828   -2.000
 7040.00    0.93470   0.94072   -2.000
 7041.00    0.94702   0.94242   -2.000
 7042.00    0.94610   0.94308   -2.000
 7043.00    0.94230   0.94317   -2.000
 7044.00    0.94308   0.94246   -2.000
 7045.00    0.94298   0.94062   -2.000
 7046.00    0.93612   0.93776   -2.000
 7047.00    0.92261   0.93381   -2.000
 7048.00    0.90813   0.92923   -2.000
 7049.00    0.90093   0.92393   -2.000
 7050.00    0.90114   0.91842   -2.000
 7051.00    0.89973   0.91335   -2.000
 7052.00    0.89268   0.90860   -2.000
 7053.00    0.88438   0.90465   -2.000
 7054.00    0.87852   0.90131   -2.000
 7055.00    0.87504   0.89848   -2.000
 7056.00    0.87197   0.89599   -2.000
 7057.00    0.86731   0.89380   -2.000
 7058.00    0.86309   0.89222   -2.000
 7059.00    0.86453   0.89112   -2.000
 7060.00    0.87400   0.89021   -2.000
 7061.00    0.88866   0.88965   -2.000
 7062.00    0.89910   0.88929   -2.000
 7063.00    0.89498   0.88886   -2.000
 7064.00    0.87957   0.88893   -2.000
 7065.00    0.86669   0.88932   -2.000
 7066.00    0.86492   0.89045   -2.000
 7067.00    0.87566   0.89226   -2.000
 7068.00    0.89741   0.89433   -2.000
 7069.00    0.92541   0.89640   -2.000
 7070.00    0.94919   0.89837   -2.000
 7071.00    0.95731   0.90015   -2.000
 7072.00    0.94706   0.90137   -2.000
 7073.00    0.92423   0.90206   -2.000
 7074.00    0.89938   0.90192   -2.000
 7075.00    0.88225   0.90102   -2.000
 7076.00    0.87418   0.89912   -2.000
 7077.00    0.87206   0.89628   -2.000
 7078.00    0.87589   0.89273   -2.000
 7079.00    0.88503   0.88826   -2.000
 7080.00    0.89182   0.88322   -2.000
 7081.00    0.88807   0.87788   -2.000
 7082.00    0.87446   0.87274   -2.000
 7083.00    0.85731   0.86829   -2.000
 7084.00    0.84302   0.86422   -2.000
 7085.00    0.83661   0.86066   -2.000
 7086.00    0.84046   0.85796   -2.000
 7087.00    0.85163   0.85586   -2.000
 7088.00    0.86010   0.85454   -2.000
 7089.00    0.85863   0.85435   -2.000
 7090.00    0.85172   0.85435   -2.000
 7091.00    0.84696   0.85528   -2.000
 7092.00    0.84647   0.85631   -2.000
 7093.00    0.84866   0.85774   -2.000
 7094.00    0.85064   0.85964   -2.000
 7095.00    0.85046   0.86131   -2.000
 7096.00    0.84863   0.86362   -2.000
 7097.00    0.84603   0.86506   -2.000
 7098.00    0.84267   0.86664   -2.000
 7099.00    0.84004   0.86765   -2.000
 7100.00    0.84189   0.86837   -2.000
 7101.00    0.84841   0.86888   -2.000
 7102.00    0.85376   0.86903   -2.000
 7103.00    0.85395   0.86890   -2.000
 7104.00    0.85052   0.86832   -2.000
 7105.00    0.84456   0.86773   -2.000
 7106.00    0.83467   0.86728   -2.000
 7107.00    0.82350   0.86676   -2.000
 7108.00    0.81908   0.86633   -2.000
 7109.00    0.82465   0.86634   -2.000
 7110.00    0.83540   0.86663   -2.000
 7111.00    0.84558   0.86719   -2.000
 7112.00    0.85133   0.86753   -2.000
 7113.00    0.84887   0.86815   -2.000
 7114.00    0.83548   0.86846   -2.000
 7115.00    0.81616   0.86841   -2.000
 7116.00    0.80225   0.86819   -2.000
 7117.00    0.79797   0.86747   -2.000
 7118.00    0.79847   0.86669   -2.000
 7119.00    0.79880   0.86519   -2.000
 7120.00    0.79694   0.86366   -2.000
 7121.00    0.79331   0.86208   -2.000
 7122.00    0.78972   0.86008   -2.000
 7123.00    0.78675   0.85815   -2.000
 7124.00    0.78448   0.85644   -2.000
 7125.00    0.78594   0.85520   -2.000
 7126.00    0.79574   0.85428   -2.000
 7127.00    0.81465   0.85378   -2.000
 7128.00    0.83981   0.85386   -2.000
 7129.00    0.86810   0.85489   -2.000
 7130.00    0.89446   0.85633   -2.000
 7131.00    0.90702   0.85826   -2.000
 7132.00    0.89518   0.86030   -2.000
 7133.00    0.86643   0.86208   -2.000
 7134.00    0.83931   0.86396   -2.000
 7135.00    0.82511   0.86526   -2.000
 7136.00    0.82538   0.86618   -2.000
 7137.00    0.83372   0.86668   -2.000
 7138.00    0.84086   0.86692   -2.000
 7139.00    0.84208   0.86671   -2.000
 7140.00    0.83708   0.86605   -2.000
 7141.00    0.82823   0.86542   -2.000
 7142.00    0.81858   0.86462   -2.000
 7143.00    0.80961   0.86406   -2.000
 7144.00    0.80208   0.86379   -2.000
 7145.00    0.79734   0.86355   -2.000
 7146.00    0.79663   0.86438   -2.000
 7147.00    0.80008   0.86599   -2.000
 7148.00    0.80564   0.86775   -2.000
 7149.00    0.80859   0.86992   -2.000
 7150.00    0.80741   0.87212   -2.000
 7151.00    0.80856   0.87400   -2.000
 7152.00    0.81507   0.87534   -2.000
 7153.00    0.81706   0.87612   -2.000
 7154.00    0.80671   0.87678   -2.000
 7155.00    0.79067   0.87619   -2.000
 7156.00    0.77801   0.87506   -2.000
 7157.00    0.77054   0.87351   -2.000
 7158.00    0.76980   0.87163   -2.000
 7159.00    0.78162   0.87014   -2.000
 7160.00    0.80770   0.86828   -2.000
 7161.00    0.84062   0.86707   -2.000
 7162.00    0.87165   0.86630   -2.000
 7163.00    0.89611   0.86691   -2.000
 7164.00    0.91396   0.86828   -2.000
 7165.00    0.92860   0.87000   -2.000
 7166.00    0.93946   0.87185   -2.000
 7167.00    0.93914   0.87354   -2.000
 7168.00    0.92011   0.87519   -2.000
 7169.00    0.88023   0.87640   -2.000
 7170.00    0.83128   0.87703   -2.000
 7171.00    0.79747   0.87695   -2.000
 7172.00    0.79038   0.87622   -2.000
 7173.00    0.80119   0.87492   -2.000
 7174.00    0.81611   0.87344   -2.000
 7175.00    0.82512   0.87203   -2.000
 7176.00    0.82940   0.87023   -2.000
 7177.00    0.83768   0.86813   -2.000
 7178.00    0.84398   0.86623   -2.000
 7179.00    0.83024   0.86471   -2.000
 7180.00    0.80115   0.86365   -2.000
 7181.00    0.78223   0.86248   -2.000
 7182.00    0.77800   0.86105   -2.000
 7183.00    0.77051   0.85987   -2.000
 7184.00    0.75268   0.85840   -2.000
 7185.00    0.73316   0.85757   -2.000
 7186.00    0.72263   0.85736   -2.000
 7187.00    0.72719   0.85744   -2.000
 7188.00    0.74167   0.85826   -2.000
 7189.00    0.75434   0.85893   -2.000
 7190.00    0.76100   0.85996   -2.000
 7191.00    0.76452   0.86114   -2.000
 7192.00    0.76671   0.86264   -2.000
 7193.00    0.76701   0.86406   -2.000
 7194.00    0.76326   0.86499   -2.000
 7195.00    0.75397   0.86603   -2.000
 7196.00    0.74189   0.86682   -2.000
 7197.00    0.73443   0.86706   -2.000
 7198.00    0.74278   0.86703   -2.000
 7199.00    0.77305   0.86654   -2.000
 7200.00    0.81310   0.86606   -2.000
 7201.00    0.84274   0.86555   -2.000
 7202.00    0.85160   0.86470   -2.000
 7203.00    0.84085   0.86394   -2.000
 7204.00    0.82127   0.86293   -2.000
 7205.00    0.80450   0.86292   -2.000
 7206.00    0.79265   0.86357   -2.000
 7207.00    0.78309   0.86454   -2.000
 7208.00    0.77559   0.86613   -2.000
 7209.00    0.77111   0.86745   -2.000
 7210.00    0.76993   0.86891   -2.000
 7211.00    0.77520   0.87028   -2.000
 7212.00    0.79545   0.87181   -2.000
 7213.00    0.83095   0.87331   -2.000
 7214.00    0.86264   0.87469   -2.000
 7215.00    0.87211   0.87613   -2.000
 7216.00    0.85940   0.87708   -2.000
 7217.00    0.83350   0.87807   -2.000
 7218.00    0.80325   0.87904   -2.000
