###################################################################
## OUTPUT of StarlightChains_v04.for    [Cid@UFSC - 01/Apr/2007] ##
###################################################################

## Some input info
2010iz.txt                               [arq_obs]
Base.CB07.vall.4m                        [arq_base]
Masks.EmLines.NEW.gm                     [arq_masks]
StCv04.C11.config                        [arq_config]
   66                                    [N_base]
    0                                    [N_YAV_components = # of components with extra extinction!]
    0                                    [i_FitPowerLaw (1/0 = Yes/No)]
-9.99                                    [alpha_PowerLaw]
CCM                                      [red_law_option]
 1.458241                                [q_norm = A(l_norm)/A(V)]

## (Re)Sampling Parameters
 3741.00                                 [l_ini (A)]
 7218.00                                 [l_fin (A)]
    1.00                                 [dl    (A)]     (OBS: dl_cushion =    50.00 A)

## Normalization info
 4020.00                                 [l_norm (A) - for base]
 4010.00                                 [llow_norm (A) - window for f_obs]
 4060.00                                 [lupp_norm (A) - window for f_obs]
1.435993E-16                             [fobs_norm (in input units)]

## S/N
 3691.00                                 [llow_SN (A) - window for S/N]
 7268.00                                 [lupp_SN (A) - window for S/N]
   3.899                                 [S/N in S/N window]
   6.114                                 [S/N in norm. window]
   6.913                                 [S/N_err in S/N window]
  10.841                                 [S/N_err in norm. window]
  1.0000                                 [fscale_chi2]

## etc...
    -2007368                             [idum_orig]
  2384                                   [NOl_eff]
  2384                                   [Nl_eff]
     0    NSIGMA                         [Ntot_cliped & clip_method]
   920150                                [Nglobal_steps]
   7                                     [N_chains]
  14                                     [NEX0s_base = N_base in EX0s-fits]
 0   0   1        0   2.0   3.348E+01    [Clip-Bug, RC-Crash & Burn-In warning-flags, n_censored_weights, wei_nsig_threshold & wei_limit]
    10     10.621     10.115      0.506  [idt_all, wdt_TotTime, wdt_UsrTime & wdt_SysTime (sec)]

## Synthesis Results - Best model ##

 3.42804E-01                             [chi2/Nl_eff]
     6.41991                             [adev (%)]

    97.29884                             [sum-of-x (%)]
 1.41244E-16                             [Flux_tot (units of input spectrum!)]
 2.63974E-13                             [Mini_tot (???)]
 1.67121E-13                             [Mcor_tot (???)]

 -38.71                                  [v0_min  (km/s)]
 143.74                                  [vd_min  (km/s)]
 0.0081                                  [AV_min  (mag)]
 0.0000                                  [YAV_min (mag)]

# j     x_j(%)      Mini_j(%)     Mcor_j(%)     age_j(yr)     Z_j      (L/M)_j    YAV?  Mstars   component_j        a/Fe...       SSP_chi2r SSP_adev(%)   SSP_AV   SSP_x(%)
  1      0.0000     0.0000E+00    0.0000E+00    1.000000E+06  0.00400  1.094E-02    0   1.0000   age020_m42            0.0000     5.4202E-01     8.2840   2.1094    80.0150
  2      0.0000     0.0000E+00    0.0000E+00    3.160000E+06  0.00400  4.007E-02    0   0.9999   age045_m42            0.0000     4.7067E-01     7.3911   1.3671    86.2235
  3      0.0000     0.0000E+00    0.0000E+00    5.010000E+06  0.00400  2.539E-02    0   0.9488   age055_m42            0.0000     4.9504E-01     7.7121   1.6896    83.9777
  4      0.0000     0.0000E+00    0.0000E+00    6.610000E+06  0.00400  2.620E-02    0   0.9220   age061_m42            0.0000     4.5335E-01     7.2731   1.2808    86.9135
  5      0.0000     0.0000E+00    0.0000E+00    1.000000E+07  0.00400  1.322E-02    0   0.8862   age070_m42            0.0000     4.0369E-01     7.1289   0.9158    92.1169
  6      0.0000     0.0000E+00    0.0000E+00    1.445000E+07  0.00400  7.883E-03    0   0.8571   age078_m42            0.0000     4.3071E-01     7.4045   1.2556    89.2499
  7     11.2667     1.1799E+00    1.5234E+00    2.512000E+07  0.00400  5.251E-03    0   0.8174   age090_m42            0.0000     3.9555E-01     7.0956   0.7701    93.2907
  8      0.0565     8.5216E-03    1.0568E-02    4.000000E+07  0.00400  3.649E-03    0   0.7851   age104_m42            0.0000     3.8397E-01     6.9282   0.5482    93.8551
  9      0.0000     0.0000E+00    0.0000E+00    5.500000E+07  0.00400  3.098E-03    0   0.7629   age110_m42            0.0000     3.9430E-01     6.8594   0.7340    92.5415
 10      0.0000     0.0000E+00    0.0000E+00    1.015200E+08  0.00400  2.228E-03    0   0.7207   age116_m42            0.0000     4.0041E-01     6.8842   0.7755    91.8570
 11      0.0000     0.0000E+00    0.0000E+00    2.861200E+08  0.00400  1.093E-03    0   0.6648   age125_m42            0.0000     4.2003E-01     6.8892   0.1629    96.5069
 12      0.0000     0.0000E+00    0.0000E+00    5.088000E+08  0.00400  6.597E-04    0   0.6365   age130_m42            0.0000     4.0803E-01     6.8822   0.1906    95.7178
 13      0.0000     0.0000E+00    0.0000E+00    1.434000E+09  0.00400  2.132E-04    0   0.5798   age139_m42            0.0000     3.5509E-01     6.4243  -0.7558    96.5605
 14      0.0000     0.0000E+00    0.0000E+00    4.250000E+09  0.00400  5.895E-05    0   0.5377   age158_m42            0.0000     4.3273E-01     7.2949  -1.0000    84.6311
 15      0.0000     0.0000E+00    0.0000E+00    7.500000E+09  0.00400  3.510E-05    0   0.5212   age171_m42            0.0000     5.8571E-01     8.8496  -1.0000    76.7446
 16      0.0000     0.0000E+00    0.0000E+00    1.300000E+10  0.00400  2.005E-05    0   0.5034   age193_m42            0.0000     8.0034E-01    10.5782  -1.0000    70.3747
 17      0.0000     0.0000E+00    0.0000E+00    1.800000E+10  0.00400  1.525E-05    0   0.4967   age213_m42            0.0000     8.3907E-01    10.8369  -1.0000    69.2311
 18      0.0000     0.0000E+00    0.0000E+00    1.000000E+06  0.00800  1.238E-02    0   1.0000   age020_m52            0.0000     5.4129E-01     8.2815   2.1071    80.1180
 19      2.0197     3.6131E-02    5.6876E-02    3.160000E+06  0.00800  3.074E-02    0   0.9966   age045_m52            0.0000     5.3794E-01     8.2195   2.0326    80.7550
 20      0.0088     1.8198E-04    2.7144E-04    5.010000E+06  0.00800  2.668E-02    0   0.9443   age055_m52            0.0000     4.9522E-01     7.7879   1.7717    83.2229
 21      9.0604     2.3326E-01    3.3812E-01    6.610000E+06  0.00800  2.136E-02    0   0.9177   age061_m52            0.0000     3.7472E-01     7.0022   0.4311    92.5277
 22      0.0000     0.0000E+00    0.0000E+00    1.000000E+07  0.00800  1.215E-02    0   0.8827   age070_m52            0.0000     4.2252E-01     7.3867   1.0719    92.8531
 23      0.0000     0.0000E+00    0.0000E+00    1.445000E+07  0.00800  8.717E-03    0   0.8552   age078_m52            0.0000     4.1825E-01     7.2916   1.2159    90.7012
 24      2.1936     2.1572E-01    2.7811E-01    2.512000E+07  0.00800  5.592E-03    0   0.8162   age090_m52            0.0000     3.9824E-01     7.1014   0.8249    94.7884
 25      0.0000     0.0000E+00    0.0000E+00    4.000000E+07  0.00800  3.896E-03    0   0.7841   age104_m52            0.0000     3.9617E-01     6.9525   0.7486    95.0638
 26      0.0000     0.0000E+00    0.0000E+00    1.015200E+08  0.00800  2.148E-03    0   0.7226   age116_m52            0.0000     3.8915E-01     6.7881   0.7230    93.4192
 27      0.0000     0.0000E+00    0.0000E+00    2.861200E+08  0.00800  9.925E-04    0   0.6683   age125_m52            0.0000     3.9193E-01     6.8080   0.2517    96.7566
 28      0.0000     0.0000E+00    0.0000E+00    9.047900E+08  0.00800  3.141E-04    0   0.6138   age135_m52            0.0000     4.0229E-01     6.9106  -0.5008    98.8117
 29      0.0000     0.0000E+00    0.0000E+00    1.434000E+09  0.00800  1.719E-04    0   0.5853   age139_m52            0.0000     4.3450E-01     7.0285  -1.0000    93.1197
 30      0.0000     0.0000E+00    0.0000E+00    2.500000E+09  0.00800  7.872E-05    0   0.5600   age150_m52            0.0000     5.8120E-01     8.8447  -1.0000    79.7163
 31      0.0000     0.0000E+00    0.0000E+00    4.250000E+09  0.00800  4.336E-05    0   0.5426   age158_m52            0.0000     5.9458E-01     8.9628  -1.0000    78.3956
 32      0.0000     0.0000E+00    0.0000E+00    6.250000E+09  0.00800  3.159E-05    0   0.5319   age166_m52            0.0000     8.4197E-01    11.0289  -1.0000    71.0092
 33      0.0000     0.0000E+00    0.0000E+00    1.300000E+10  0.00800  1.361E-05    0   0.5073   age193_m52            0.0000     1.7223E+00    16.5472  -1.0000    55.6584
 34      0.0000     0.0000E+00    0.0000E+00    1.800000E+10  0.00800  9.886E-06    0   0.4990   age213_m52            0.0000     1.9390E+00    17.7297  -1.0000    52.5197
 35      0.0000     0.0000E+00    0.0000E+00    1.000000E+06  0.02000  1.544E-02    0   1.0000   age020_m62            0.0000     5.4408E-01     8.3188   2.1034    80.2929
 36      0.0000     0.0000E+00    0.0000E+00    3.160000E+06  0.02000  3.762E-02    0   0.9858   age045_m62            0.0000     5.5048E-01     8.3444   2.0450    80.9045
 37      0.0000     0.0000E+00    0.0000E+00    5.010000E+06  0.02000  3.296E-02    0   0.9342   age055_m62            0.0000     4.8580E-01     7.5651   1.6562    84.7748
 38     18.2020     8.6739E-01    1.2140E+00    8.710000E+06  0.02000  1.154E-02    0   0.8861   age067_m62            0.0000     5.9072E-01     9.2038   0.3794   101.7546
 39      0.0000     0.0000E+00    0.0000E+00    1.445000E+07  0.02000  7.663E-03    0   0.8472   age078_m62            0.0000     4.6394E-01     7.7975   0.6670    97.1954
 40      0.0000     0.0000E+00    0.0000E+00    2.512000E+07  0.02000  4.532E-03    0   0.8099   age090_m62            0.0000     4.8660E-01     7.8950   0.6476    97.4414
 41      0.0130     2.6214E-03    3.1448E-03    5.500000E+07  0.02000  2.733E-03    0   0.7595   age110_m62            0.0000     3.9324E-01     6.9686   0.7340    94.2558
 42      0.0085     3.4284E-03    3.7826E-03    1.609000E+08  0.02000  1.369E-03    0   0.6985   age120_m62            0.0000     3.8469E-01     6.8012   0.6063    95.4666
 43      3.9119     2.3868E+00    2.5312E+00    2.861200E+08  0.02000  9.013E-04    0   0.6714   age125_m62            0.0000     3.7816E-01     6.8347   0.3703    97.6079
 44      0.0000     0.0000E+00    0.0000E+00    5.088000E+08  0.02000  5.028E-04    0   0.6449   age130_m62            0.0000     4.0392E-01     7.1254   0.0434    98.0292
 45      0.0000     0.0000E+00    0.0000E+00    9.047900E+08  0.02000  2.428E-04    0   0.6179   age135_m62            0.0000     4.0622E-01     7.0907  -0.5075    95.9429
 46      0.0000     0.0000E+00    0.0000E+00    1.434000E+09  0.02000  1.263E-04    0   0.5908   age139_m62            0.0000     4.2837E-01     7.2740  -0.9268    93.4691
 47      0.0000     0.0000E+00    0.0000E+00    2.500000E+09  0.02000  5.985E-05    0   0.5673   age150_m62            0.0000     6.0081E-01     9.1461  -1.0000    80.1241
 48      0.0000     0.0000E+00    0.0000E+00    4.250000E+09  0.02000  3.271E-05    0   0.5468   age158_m62            0.0000     9.7129E-01    12.1601  -1.0000    68.4362
 49      0.0000     0.0000E+00    0.0000E+00    1.000000E+10  0.02000  1.360E-05    0   0.5167   age181_m62            0.0000     1.6103E+00    16.1571  -1.0000    57.2622
 50      0.0000     0.0000E+00    0.0000E+00    1.800000E+10  0.02000  7.124E-06    0   0.5013   age213_m62            0.0000     2.0621E+00    18.5090  -1.0000    51.1301
 51      0.0000     0.0000E+00    0.0000E+00    1.000000E+06  0.05000  2.592E-02    0   0.9998   age020_m72            0.0000     5.4751E-01     8.4170   2.0924    80.3994
 52      0.0000     0.0000E+00    0.0000E+00    3.160000E+06  0.05000  4.845E-02    0   0.9577   age045_m72            0.0000     5.3492E-01     8.0618   1.9326    81.8276
 53      0.0000     0.0000E+00    0.0000E+00    5.010000E+06  0.05000  3.072E-02    0   0.9147   age055_m72            0.0000     5.2703E-01     8.0955   1.3118    91.1101
 54      0.0000     0.0000E+00    0.0000E+00    6.610000E+06  0.05000  1.455E-02    0   0.8877   age061_m72            0.0000     1.2405E+00    12.0134   0.3527   106.2555
 55      0.0000     0.0000E+00    0.0000E+00    1.000000E+07  0.05000  9.074E-03    0   0.8524   age070_m72            0.0000     7.3088E-01     8.9106   1.4840    91.4303
 56      0.0000     0.0000E+00    0.0000E+00    2.512000E+07  0.05000  4.250E-03    0   0.7902   age090_m72            0.0000     5.7972E-01     8.0539   1.1757    93.4117
 57      0.0000     0.0000E+00    0.0000E+00    4.000000E+07  0.05000  3.087E-03    0   0.7618   age104_m72            0.0000     5.8268E-01     7.9753   0.9285    95.8021
 58      0.0000     0.0000E+00    0.0000E+00    1.015200E+08  0.05000  1.700E-03    0   0.7096   age116_m72            0.0000     4.1273E-01     6.9446   0.7216    96.2155
 59      0.0000     0.0000E+00    0.0000E+00    2.861200E+08  0.05000  7.384E-04    0   0.6633   age125_m72            0.0000     3.8434E-01     6.9486   0.2620    97.9318
 60     38.4649     5.5388E+01    5.5747E+01    5.088000E+08  0.05000  3.819E-04    0   0.6372   age130_m72            0.0000     3.9157E-01     7.0143  -0.1742    97.0871
 61     12.0927     3.9678E+01    3.8293E+01    9.047900E+08  0.05000  1.676E-04    0   0.6110   age135_m72            0.0000     4.7651E-01     7.8414  -0.7848    91.8302
 62      0.0000     0.0000E+00    0.0000E+00    1.434000E+09  0.05000  8.837E-05    0   0.5874   age139_m72            0.0000     6.1692E-01     9.2943  -1.0000    81.2882
 63      0.0000     0.0000E+00    0.0000E+00    2.500000E+09  0.05000  4.233E-05    0   0.5598   age150_m72            0.0000     9.8880E-01    12.2928  -1.0000    69.0686
 64      0.0000     0.0000E+00    0.0000E+00    6.250000E+09  0.05000  1.435E-05    0   0.5249   age166_m72            0.0000     1.8227E+00    17.2675  -1.0000    54.3077
 65      0.0000     0.0000E+00    0.0000E+00    1.300000E+10  0.05000  6.513E-06    0   0.5036   age193_m72            0.0000     2.4741E+00    20.3876  -1.0000    47.5754
 66      0.0000     0.0000E+00    0.0000E+00    1.800000E+10  0.05000  4.527E-06    0   0.4945   age213_m72            0.0000     2.8828E+00    22.0987  -1.0000    43.7398


## Synthesis Results - Average & Chains ##

# j      x_j: min, <> & last-chain-values for 1 ...  7 chains
  1      0.0000      0.2395      0.0000      0.0000      0.0000      0.0000      0.0000      1.1687      0.0000
  2      0.0000      0.3907      1.9900      0.2267      0.3038      1.2030      0.9372      0.0000      0.5407
  3      0.0000      0.3378      0.4757      0.0000      0.0000      3.2074      1.3333      0.9690      0.5713
  4      0.0000      0.4744      0.0000      0.0000      0.1665      0.0000      0.0000      0.0000      0.0000
  5      0.0000      0.6597      0.0000      0.0000      0.0933      0.0000      0.0000      0.0000      2.8141
  6      0.0000      0.7092      0.1575      0.0000      1.0367      0.0000      2.8993      0.0000      1.2787
  7     11.2667      5.2468      3.4112      9.2099      0.3805      9.2173     11.1459      5.5443      5.1981
  8      0.0565      3.2493      4.8525      6.5135      0.0000      4.3613      1.5727      8.0933      2.9249
  9      0.0000      1.1168      0.5417      0.0000      0.0000      0.3950      0.0000      1.9210      0.3262
 10      0.0000      1.2755      0.0000      0.0000      0.0000      0.0000      0.0000      0.0000      2.5926
 11      0.0000      0.6081      0.1196      0.0000      0.0000      0.0000      0.0000      0.0000      0.0000
 12      0.0000      0.8693      0.3959      0.0000      0.0000      0.5128      0.0000      0.0000      0.0000
 13      0.0000      0.2027      0.0000      0.0000      0.0000      0.0000      1.0130      0.0000      0.0000
 14      0.0000      0.0272      0.3579      0.0000      0.0000      0.0000      0.0000      0.3764      0.0000
 15      0.0000      0.0696      0.0000      0.0000      0.0000      0.6684      0.2719      0.0000      0.0000
 16      0.0000      0.0168      0.1125      0.0000      0.0000      0.0000      0.0000      0.0000      0.0000
 17      0.0000      0.0748      0.0000      0.0000      0.0000      0.0000      0.0000      0.9436      0.0000
 18      0.0000      0.7024      1.7324      0.0000      0.0000      0.0000      0.0000      2.1744      0.0000
 19      2.0197      0.3270      0.0000      1.1155      0.0000      0.0483      0.0000      0.0982      0.0000
 20      0.0088      0.3728      0.6939      1.8169      0.0000      0.0000      2.1402      0.4402      0.0000
 21      9.0604     12.6735     10.2474     19.6674     19.1798     21.7245     12.0961     14.9251     22.2439
 22      0.0000      0.7097      0.0000      0.0000      3.2906      0.0000      0.2499      0.0000      0.2087
 23      0.0000      0.5025      0.0000      0.0000      0.0000      0.0000      0.0000      0.6895      0.0000
 24      2.1936      1.1396      3.0337      2.2652      0.3190      2.1739      0.0000      0.0105      0.0000
 25      0.0000      0.7270      3.1895      0.3281      0.0000      0.0000      0.0000      0.9247      0.0000
 26      0.0000      1.0758      0.0000      0.0000      0.0000      0.4185      0.0000      1.7266      0.0000
 27      0.0000      1.2994      0.1852      0.0000      0.0000      0.0335      0.0000      0.5254      0.0000
 28      0.0000      0.5669      0.0000      0.0000      0.0000      0.0000      0.0000      0.0000      0.0000
 29      0.0000      0.0437      0.0000      0.3577      0.0000      0.0000      0.0000      0.0000      0.0000
 30      0.0000      0.0530      0.0000      0.0000      0.0000      0.0000      0.0000      0.0000      0.0746
 31      0.0000      0.0234      0.0000      0.0000      0.0000      0.0000      0.0000      0.0000      0.0000
 32      0.0000      0.0894      0.0000      0.5161      0.0000      0.0000      0.0000      0.0000      0.0000
 33      0.0000      0.0677      0.0000      0.0000      0.0000      0.0000      0.0000      0.0000      0.7439
 34      0.0000      0.0167      0.0000      0.0000      0.0000      0.0000      0.0000      0.0000      0.0000
 35      0.0000      0.8323      0.3647      0.0000      1.1518      0.7911      0.0000      0.2049      1.4727
 36      0.0000      0.4144      0.0000      2.1227      0.3445      0.0000      0.0000      0.0000      0.0000
 37      0.0000      0.6712      1.4193      0.0000      2.3416      0.0000      2.4981      0.6747      0.0000
 38     18.2020      5.4960      6.2558      5.1388      9.5652      3.2501      6.4861      3.2461      6.5365
 39      0.0000      0.9835      0.0000      0.0000      0.0000      2.5850      1.6651      0.0000      0.9281
 40      0.0000      0.7175      0.0000      0.0000      0.0000      0.3548      0.0000      0.9427      0.0000
 41      0.0130      1.2575      2.5668      1.4770      3.3948      3.5350      3.8102      0.8874      3.4931
 42      0.0085      1.4443      0.0000      1.4921      0.0000      0.0000      0.0000      2.0252      0.8244
 43      3.9119      9.5682     11.0869     10.0522      8.4183      9.1844     11.2123      8.8990     10.0462
 44      0.0000      2.6263      1.5796      0.0000      0.0000      0.0000      0.0000      1.6754      0.0000
 45      0.0000      0.5286      3.0982      0.0000      0.0000      0.0000      0.0000      0.0000      2.9925
 46      0.0000      0.1079      0.0000      0.2140      0.3409      0.0000      0.0000      0.1624      0.0000
 47      0.0000      0.1345      0.0000      0.0000      0.5476      0.0000      0.1028      0.0000      0.0000
 48      0.0000      0.0411      0.3050      0.0000      0.0231      0.0000      0.0000      0.0000      0.0000
 49      0.0000      0.0255      0.0000      0.0000      0.0000      0.0000      0.0000      0.4656      0.0000
 50      0.0000      0.0174      0.0000      0.0000      0.0000      0.0000      0.0000      0.0000      0.0000
 51      0.0000      0.3649      0.2430      0.0000      0.7093      0.0000      0.8386      3.2197      0.0000
 52      0.0000      0.2375      0.0000      0.0498      0.0000      0.0000      0.0000      0.0000      0.0000
 53      0.0000      0.3645      0.0000      0.0000      0.0000      0.0000      0.0000      0.0000      0.0000
 54      0.0000      0.1142      0.0000      0.0000      0.0000      0.0000      0.0000      0.0000      0.0000
 55      0.0000      0.1503      0.0000      0.0000      0.0000      0.0000      0.0000      0.0000      0.0000
 56      0.0000      0.3120      0.0000      0.0000      0.0000      0.0000      0.0000      0.0000      0.0000
 57      0.0000      0.2737      0.0000      0.0000      0.0000      0.0000      0.0000      0.0000      0.0000
 58      0.0000      1.3558      2.0893      0.0000      0.0000      0.4396      0.0000      0.0000      0.7020
 59      0.0000      7.9600     13.3085      1.5636     15.0708      7.0364      5.0483      1.5937      5.4830
 60     38.4649     21.7441     17.9390     27.8653     27.5909     20.3170     27.3322     29.3506     20.9587
 61     12.0927      2.3514      1.0962      4.0261      2.4574      2.6750      3.1788      2.4237      2.9042
 62      0.0000      0.3663      1.6231      0.0000      0.0000      1.5768      0.0000      0.0000      0.4326
 63      0.0000      0.2580      2.7948      0.0000      0.0000      0.6904      0.8053      0.0000      0.1628
 64      0.0000      0.0488      0.0000      0.0837      0.0000      0.0000      0.0000      0.0000      0.0000
 65      0.0000      0.0254      0.0000      0.0000      0.0000      0.0000      0.0000      0.1084      0.0000
 66      0.0000      0.0441      0.1022      0.0000      0.0000      0.0000      0.0000      0.2606      0.0000

# j      m_j: min, <> & last-chain-values for 1 ...  7 chains
  1  0.0000E+00  2.1285E-02  0.0000E+00  0.0000E+00  0.0000E+00  0.0000E+00  0.0000E+00  6.4908E-02  0.0000E+00
  2  0.0000E+00  9.4780E-03  3.5383E-02  6.2967E-03  8.9059E-03  3.2385E-02  2.5036E-02  0.0000E+00  1.2857E-02
  3  0.0000E+00  1.2275E-02  1.2667E-02  0.0000E+00  0.0000E+00  1.2930E-01  5.3336E-02  2.2002E-02  2.0345E-02
  4  0.0000E+00  1.6231E-02  0.0000E+00  0.0000E+00  6.8843E-03  0.0000E+00  0.0000E+00  0.0000E+00  0.0000E+00
  5  0.0000E+00  4.2996E-02  0.0000E+00  0.0000E+00  7.3500E-03  0.0000E+00  0.0000E+00  0.0000E+00  1.7976E-01
  6  0.0000E+00  7.4968E-02  1.2205E-02  0.0000E+00  1.3240E-01  0.0000E+00  3.3745E-01  0.0000E+00  1.3248E-01
  7  1.5234E+00  7.9410E-01  3.7835E-01  1.5958E+00  6.9572E-02  1.5478E+00  1.8573E+00  5.2439E-01  7.7105E-01
  8  1.0568E-02  6.7972E-01  7.4390E-01  1.5599E+00  0.0000E+00  1.0123E+00  3.6222E-01  1.0580E+00  5.9965E-01
  9  0.0000E+00  2.6739E-01  9.5049E-02  0.0000E+00  0.0000E+00  1.0493E-01  0.0000E+00  2.8743E-01  7.6535E-02
 10  0.0000E+00  4.0115E-01  0.0000E+00  0.0000E+00  0.0000E+00  0.0000E+00  0.0000E+00  0.0000E+00  7.9911E-01
 11  0.0000E+00  3.5958E-01  5.1810E-02  0.0000E+00  0.0000E+00  0.0000E+00  0.0000E+00  0.0000E+00  0.0000E+00
 12  0.0000E+00  8.1551E-01  2.7219E-01  0.0000E+00  0.0000E+00  5.3369E-01  0.0000E+00  0.0000E+00  0.0000E+00
 13  0.0000E+00  5.3583E-01  0.0000E+00  0.0000E+00  0.0000E+00  0.0000E+00  2.9492E+00  0.0000E+00  0.0000E+00
 14  0.0000E+00  2.4120E-01  2.3258E+00  0.0000E+00  0.0000E+00  0.0000E+00  0.0000E+00  2.0858E+00  0.0000E+00
 15  0.0000E+00  1.0054E+00  0.0000E+00  0.0000E+00  0.0000E+00  1.0707E+01  4.3215E+00  0.0000E+00  0.0000E+00
 16  0.0000E+00  4.0909E-01  2.0117E+00  0.0000E+00  0.0000E+00  0.0000E+00  0.0000E+00  0.0000E+00  0.0000E+00
 17  0.0000E+00  2.3693E+00  0.0000E+00  0.0000E+00  0.0000E+00  0.0000E+00  0.0000E+00  1.8674E+01  0.0000E+00
 18  0.0000E+00  5.5163E-02  9.9708E-02  0.0000E+00  0.0000E+00  0.0000E+00  0.0000E+00  1.0672E-01  0.0000E+00
 19  5.6876E-02  1.0308E-02  0.0000E+00  4.0257E-02  0.0000E+00  1.6909E-03  0.0000E+00  1.9350E-03  0.0000E+00
 20  2.7144E-04  1.2827E-02  1.7499E-02  7.1579E-02  0.0000E+00  0.0000E+00  8.1087E-02  9.4663E-03  0.0000E+00
 21  3.3812E-01  5.2940E-01  3.1370E-01  9.4054E-01  9.6796E-01  1.0069E+00  5.5632E-01  3.8961E-01  9.1065E-01
 22  0.0000E+00  5.0130E-02  0.0000E+00  0.0000E+00  2.8082E-01  0.0000E+00  1.9431E-02  0.0000E+00  1.4447E-02
 23  0.0000E+00  4.7931E-02  0.0000E+00  0.0000E+00  0.0000E+00  0.0000E+00  0.0000E+00  4.1102E-02  0.0000E+00
 24  2.7811E-01  1.6172E-01  3.1550E-01  3.6802E-01  5.4690E-02  3.4229E-01  0.0000E+00  9.2736E-04  0.0000E+00
 25  0.0000E+00  1.4226E-01  4.5737E-01  7.3492E-02  0.0000E+00  0.0000E+00  0.0000E+00  1.1308E-01  0.0000E+00
 26  0.0000E+00  3.5187E-01  0.0000E+00  0.0000E+00  0.0000E+00  1.5188E-01  0.0000E+00  3.5293E-01  0.0000E+00
 27  0.0000E+00  8.5070E-01  8.8859E-02  0.0000E+00  0.0000E+00  2.4360E-02  0.0000E+00  2.1496E-01  0.0000E+00
 28  0.0000E+00  1.0770E+00  0.0000E+00  0.0000E+00  0.0000E+00  0.0000E+00  0.0000E+00  0.0000E+00  0.0000E+00
 29  0.0000E+00  1.4477E-01  0.0000E+00  1.3556E+00  0.0000E+00  0.0000E+00  0.0000E+00  0.0000E+00  0.0000E+00
 30  0.0000E+00  3.6646E-01  0.0000E+00  0.0000E+00  0.0000E+00  0.0000E+00  0.0000E+00  0.0000E+00  5.0569E-01
 31  0.0000E+00  2.8423E-01  0.0000E+00  0.0000E+00  0.0000E+00  0.0000E+00  0.0000E+00  0.0000E+00  0.0000E+00
 32  0.0000E+00  1.4635E+00  0.0000E+00  9.6728E+00  0.0000E+00  0.0000E+00  0.0000E+00  0.0000E+00  0.0000E+00
 33  0.0000E+00  2.4532E+00  0.0000E+00  0.0000E+00  0.0000E+00  0.0000E+00  0.0000E+00  0.0000E+00  2.6422E+01
 34  0.0000E+00  8.1791E-01  0.0000E+00  0.0000E+00  0.0000E+00  0.0000E+00  0.0000E+00  0.0000E+00  0.0000E+00
 35  0.0000E+00  5.2412E-02  1.6829E-02  0.0000E+00  8.7628E-02  5.5276E-02  0.0000E+00  8.0652E-03  9.0889E-02
 36  0.0000E+00  1.0558E-02  0.0000E+00  6.1915E-02  1.0603E-02  0.0000E+00  0.0000E+00  0.0000E+00  0.0000E+00
 37  0.0000E+00  1.8498E-02  2.8662E-02  0.0000E+00  7.7962E-02  0.0000E+00  7.5797E-02  1.1620E-02  0.0000E+00
 38  1.2140E+00  4.1031E-01  3.4226E-01  4.3920E-01  8.6276E-01  2.6922E-01  5.3314E-01  1.5144E-01  4.7826E-01
 39  0.0000E+00  1.0572E-01  0.0000E+00  0.0000E+00  0.0000E+00  3.0830E-01  1.9707E-01  0.0000E+00  9.7774E-02
 40  0.0000E+00  1.2466E-01  0.0000E+00  0.0000E+00  0.0000E+00  6.8410E-02  0.0000E+00  1.0236E-01  0.0000E+00
 41  3.1448E-03  3.3977E-01  5.0824E-01  4.5689E-01  1.1082E+00  1.0598E+00  1.1335E+00  1.4985E-01  9.2500E-01
 42  3.7826E-03  7.1651E-01  0.0000E+00  8.4739E-01  0.0000E+00  0.0000E+00  0.0000E+00  6.2783E-01  4.0083E-01
 43  2.5312E+00  6.9299E+00  5.8846E+00  8.3350E+00  7.3664E+00  7.3807E+00  8.9411E+00  4.0278E+00  7.1310E+00
 44  0.0000E+00  3.2752E+00  1.4436E+00  0.0000E+00  0.0000E+00  0.0000E+00  0.0000E+00  1.3057E+00  0.0000E+00
 45  0.0000E+00  1.3079E+00  5.6179E+00  0.0000E+00  0.0000E+00  0.0000E+00  0.0000E+00  0.0000E+00  7.2568E+00
 46  0.0000E+00  4.9053E-01  0.0000E+00  1.1143E+00  1.8733E+00  0.0000E+00  0.0000E+00  4.6171E-01  0.0000E+00
 47  0.0000E+00  1.2399E+00  0.0000E+00  0.0000E+00  6.0969E+00  0.0000E+00  1.0431E+00  0.0000E+00  0.0000E+00
 48  0.0000E+00  6.6846E-01  3.6325E+00  0.0000E+00  4.5293E-01  0.0000E+00  0.0000E+00  0.0000E+00  0.0000E+00
 49  0.0000E+00  9.4321E-01  0.0000E+00  0.0000E+00  0.0000E+00  0.0000E+00  0.0000E+00  1.0748E+01  0.0000E+00
 50  0.0000E+00  1.1938E+00  0.0000E+00  0.0000E+00  0.0000E+00  0.0000E+00  0.0000E+00  0.0000E+00  0.0000E+00
 51  0.0000E+00  1.3684E-02  6.6786E-03  0.0000E+00  3.2140E-02  0.0000E+00  3.4627E-02  7.5459E-02  0.0000E+00
 52  0.0000E+00  4.5640E-03  0.0000E+00  1.0956E-03  0.0000E+00  0.0000E+00  0.0000E+00  0.0000E+00  0.0000E+00
 53  0.0000E+00  1.0553E-02  0.0000E+00  0.0000E+00  0.0000E+00  0.0000E+00  0.0000E+00  0.0000E+00  0.0000E+00
 54  0.0000E+00  6.7734E-03  0.0000E+00  0.0000E+00  0.0000E+00  0.0000E+00  0.0000E+00  0.0000E+00  0.0000E+00
 55  0.0000E+00  1.3731E-02  0.0000E+00  0.0000E+00  0.0000E+00  0.0000E+00  0.0000E+00  0.0000E+00  0.0000E+00
 56  0.0000E+00  5.6400E-02  0.0000E+00  0.0000E+00  0.0000E+00  0.0000E+00  0.0000E+00  0.0000E+00  0.0000E+00
 57  0.0000E+00  6.5667E-02  0.0000E+00  0.0000E+00  0.0000E+00  0.0000E+00  0.0000E+00  0.0000E+00  0.0000E+00
 58  0.0000E+00  5.5023E-01  6.2139E-01  0.0000E+00  0.0000E+00  1.9795E-01  0.0000E+00  0.0000E+00  2.7921E-01
 59  0.0000E+00  6.9522E+00  8.5181E+00  1.5634E+00  1.5903E+01  6.8187E+00  4.8544E+00  8.6987E-01  4.6933E+00
 60  5.5747E+01  3.5274E+01  2.1327E+01  5.1751E+01  5.4076E+01  3.6569E+01  4.8818E+01  2.9755E+01  3.3322E+01
 61  3.8293E+01  8.3347E+00  2.8473E+00  1.6337E+01  1.0524E+01  1.0520E+01  1.2405E+01  5.3687E+00  1.0089E+01
 62  0.0000E+00  2.3674E+00  7.6871E+00  0.0000E+00  0.0000E+00  1.1307E+01  0.0000E+00  0.0000E+00  2.7398E+00
 63  0.0000E+00  3.3170E+00  2.6335E+01  0.0000E+00  0.0000E+00  9.8499E+00  1.1401E+01  0.0000E+00  2.0520E+00
 64  0.0000E+00  1.7368E+00  0.0000E+00  3.4079E+00  0.0000E+00  0.0000E+00  0.0000E+00  0.0000E+00  0.0000E+00
 65  0.0000E+00  1.9061E+00  0.0000E+00  0.0000E+00  0.0000E+00  0.0000E+00  0.0000E+00  5.0950E+00  0.0000E+00
 66  0.0000E+00  4.6879E+00  7.9517E+00  0.0000E+00  0.0000E+00  0.0000E+00  0.0000E+00  1.7294E+01  0.0000E+00

# AV, chi2 & Mass for <> & i_chain = 1 ...  7 solutions
AV       0.0081      0.2254      0.1161      0.2038      0.2049      0.2095      0.2235      0.1813      0.1884
chi2 3.4280E-01  3.5467E-01  3.5133E-01  3.5009E-01  3.5062E-01  3.5226E-01  3.5108E-01  3.5047E-01  3.5119E-01
Mass 1.6712E-13  1.9991E-13  2.3554E-13  1.6963E-13  1.6097E-13  1.7638E-13  1.8111E-13  3.0150E-13  1.9409E-13
 -38.71                                  [v0_min (km/s) before EX0s...]
 143.74                                  [vd_min (km/s) before EX0s...]


## Synthetic spectrum (Best Model) ##l_obs f_obs f_syn wei
 3478    [Nl_obs]
 3741.00    0.22886   0.69874    0.000
 3742.00    0.20196   0.69425    0.000
 3743.00    0.19715   0.67887    0.000
 3744.00    0.21880   0.65481    0.000
 3745.00    0.26588   0.62379    3.343
 3746.00    0.31181   0.58722    3.317
 3747.00    0.34344   0.54934    2.782
 3748.00    0.42608   0.51857    2.383
 3749.00    0.61917   0.50422    2.455
 3750.00    0.83694   0.51237    2.847
 3751.00    0.93896   0.54220    3.098
 3752.00    0.88849   0.58585    3.071
 3753.00    0.75100   0.63192    3.045
 3754.00    0.65512   0.67041    3.057
 3755.00    0.68115   0.69553    3.033
 3756.00    0.74116   0.70694    3.050
 3757.00    0.72337   0.70921    3.206
 3758.00    0.66497   0.70862    3.442
 3759.00    0.64154   0.70994    3.610
 3760.00    0.63592   0.71410    3.675
 3761.00    0.61917   0.71829    3.698
 3762.00    0.63473   0.71862    3.730
 3763.00    0.70191   0.71244    3.792
 3764.00    0.73430   0.69753    3.878
 3765.00    0.67939   0.67316    3.970
 3766.00    0.62804   0.64102    4.056
 3767.00    0.66648   0.60411    4.093
 3768.00    0.75981   0.56840    4.000
 3769.00    0.82800   0.54269    3.824
 3770.00    0.81339   0.53452    3.763
 3771.00    0.70849   0.54642    3.912
 3772.00    0.56720   0.57528    4.170
 3773.00    0.46897   0.61345    4.388
 3774.00    0.48412   0.65300    4.518
 3775.00    0.60940   0.69005    4.545
 3776.00    0.74946   0.72387    4.434
 3777.00    0.82494   0.75466    4.260
 3778.00    0.82649   0.78218    4.188
 3779.00    0.77324   0.80510    4.222
 3780.00    0.68988   0.82233    4.171
 3781.00    0.60788   0.83352    3.960
 3782.00    0.56449   0.83829    3.728
 3783.00    0.59344   0.83605    3.602
 3784.00    0.70485   0.82662    3.629
 3785.00    0.82209   0.81153    3.743
 3786.00    0.80665   0.79336    3.775
 3787.00    0.64935   0.77528    3.714
 3788.00    0.48947   0.75968    3.741
 3789.00    0.41900   0.74565    3.902
 3790.00    0.43241   0.72990    4.056
 3791.00    0.49933   0.70883    4.069
 3792.00    0.58400   0.67977    3.944
 3793.00    0.62826   0.64238    3.817
 3794.00    0.58000   0.59901    3.844
 3795.00    0.48562   0.55502    4.080
 3796.00    0.45309   0.51900    4.438
 3797.00    0.48855   0.50060    4.527
 3798.00    0.51298   0.50584    4.032
 3799.00    0.50864   0.53454    3.520
 3800.00    0.52348   0.58002    3.470
 3801.00    0.59747   0.63141    3.762
 3802.00    0.73432   0.67851    3.920
 3803.00    0.88076   0.71550    3.759
 3804.00    0.96394   0.74144    3.558
 3805.00    0.97083   0.75968    3.538
 3806.00    0.93038   0.77597    3.790
 3807.00    0.85382   0.79443    4.211
 3808.00    0.74779   0.81525    4.482
 3809.00    0.65343   0.83418    4.495
 3810.00    0.61781   0.84499    4.431
 3811.00    0.64039   0.84458    4.389
 3812.00    0.69253   0.83532    4.366
 3813.00    0.75780   0.82284    4.338
 3814.00    0.82894   0.81268    4.292
 3815.00    0.89580   0.80739    4.261
 3816.00    0.94584   0.80401    4.258
 3817.00    0.96730   0.79786    4.215
 3818.00    0.95608   0.78869    4.109
 3819.00    0.92176   0.78039    4.081
 3820.00    0.86879   0.77670    4.242
 3821.00    0.77929   0.77766    4.482
 3822.00    0.66067   0.77843    4.610
 3823.00    0.58640   0.77359    4.630
 3824.00    0.59699   0.76148    4.619
 3825.00    0.61618   0.74447    4.539
 3826.00    0.58192   0.72619    4.396
 3827.00    0.55304   0.70739    4.335
 3828.00    0.57233   0.68602    4.351
 3829.00    0.56573   0.65933    4.155
 3830.00    0.49495   0.62516    3.755
 3831.00    0.45740   0.58416    3.561
 3832.00    0.51726   0.54012    3.688
 3833.00    0.59976   0.50013    3.817
 3834.00    0.62635   0.47360    3.710
 3835.00    0.60214   0.46662    3.623
 3836.00    0.57061   0.47966    3.739
 3837.00    0.57417   0.50922    3.941
 3838.00    0.60746   0.54864    4.048
 3839.00    0.61047   0.59180    4.010
 3840.00    0.56797   0.63531    3.897
 3841.00    0.54507   0.67639    3.814
 3842.00    0.59743   0.71289    3.789
 3843.00    0.72281   0.74341    3.773
 3844.00    0.85117   0.76752    3.762
 3845.00    0.87565   0.78655    3.816
 3846.00    0.79476   0.80161    3.916
 3847.00    0.72896   0.81298    0.000
 3848.00    0.74792   0.82195    0.000
 3849.00    0.81997   0.83048    0.000
 3850.00    0.88369   0.83945    0.000
 3851.00    0.89196   0.84848    0.000
 3852.00    0.86460   0.85616    0.000
 3853.00    0.86753   0.85986    0.000
 3854.00    0.89483   0.85907    0.000
 3855.00    0.87953   0.85676    0.000
 3856.00    0.83204   0.85444    0.000
 3857.00    0.82999   0.85278    0.000
 3858.00    0.88207   0.85374    0.000
 3859.00    0.93040   0.85767    0.000
 3860.00    0.94939   0.86372    0.000
 3861.00    0.94508   0.87112    0.000
 3862.00    0.89609   0.87769    0.000
 3863.00    0.78388   0.88089    0.000
 3864.00    0.68418   0.88074    0.000
 3865.00    0.69994   0.87922    0.000
 3866.00    0.79224   0.87806    0.000
 3867.00    0.84067   0.87707    0.000
 3868.00    0.81623   0.87389    0.000
 3869.00    0.76754   0.86599    0.000
 3870.00    0.73991   0.85293    0.000
 3871.00    0.75178   0.83848    0.000
 3872.00    0.78175   0.82789    0.000
 3873.00    0.80209   0.82299    0.000
 3874.00    0.82877   0.82153    0.000
 3875.00    0.87886   0.81809    0.000
 3876.00    0.90612   0.80851    0.000
 3877.00    0.87155   0.79463    0.000
 3878.00    0.83773   0.78013    0.000
 3879.00    0.86160   0.76565    0.000
 3880.00    0.86252   0.75033    0.000
 3881.00    0.76097   0.73180    4.489
 3882.00    0.63820   0.70669    4.663
 3883.00    0.59299   0.67369    4.728
 3884.00    0.58522   0.63386    4.607
 3885.00    0.54541   0.58932    4.406
 3886.00    0.48987   0.54419    4.297
 3887.00    0.46444   0.50712    4.345
 3888.00    0.48428   0.48833    4.427
 3889.00    0.53438   0.49257    4.427
 3890.00    0.57814   0.51812    4.411
 3891.00    0.59007   0.55805    4.457
 3892.00    0.57797   0.60206    4.521
 3893.00    0.55870   0.64224    4.568
 3894.00    0.54172   0.67600    4.667
 3895.00    0.54537   0.70388    4.841
 3896.00    0.59946   0.72662    4.960
 3897.00    0.68736   0.74555    4.990
 3898.00    0.72948   0.76267    5.139
 3899.00    0.70207   0.77936    5.516
 3900.00    0.68334   0.79514    5.904
 3901.00    0.71944   0.80868    6.126
 3902.00    0.76710   0.81885    6.383
 3903.00    0.78330   0.82411    6.784
 3904.00    0.76697   0.82653    7.051
 3905.00    0.73196   0.83158    7.001
 3906.00    0.69517   0.84158    6.838
 3907.00    0.68401   0.85612    6.642
 3908.00    0.72764   0.87310    6.280
 3909.00    0.80933   0.88800    5.804
 3910.00    0.87151   0.89698    5.416
 3911.00    0.90483   0.89909    5.162
 3912.00    0.95129   0.89617    4.969
 3913.00    0.99911   0.89084    4.786
 3914.00    0.98106   0.88439    4.617
 3915.00    0.88655   0.87784    4.532
 3916.00    0.77689   0.87125    4.598
 3917.00    0.72018   0.86381    4.679
 3918.00    0.75641   0.85699    4.519
 3919.00    0.85968   0.85318    4.256
 3920.00    0.95908   0.85341    4.200
 3921.00    1.01746   0.85686    4.316
 3922.00    1.03689   0.86096    4.334
 3923.00    1.02242   0.86141    4.205
 3924.00    0.97426   0.85495    4.104
 3925.00    0.89081   0.84174    4.103
 3926.00    0.77906   0.82251    4.177
 3927.00    0.67308   0.79831    4.264
 3928.00    0.60733   0.77022    4.314
 3929.00    0.56116   0.73782    4.365
 3930.00    0.49546   0.70155    4.471
 3931.00    0.43404   0.66522    4.543
 3932.00    0.43764   0.63659    4.456
 3933.00    0.53683   0.62390    4.314
 3934.00    0.70792   0.63147    4.271
 3935.00    0.85770   0.65814    4.272
 3936.00    0.90038   0.69687    4.206
 3937.00    0.86511   0.73826    4.130
 3938.00    0.83170   0.77469    4.143
 3939.00    0.82692   0.80182    4.223
 3940.00    0.83103   0.81909    4.303
 3941.00    0.80603   0.82791    4.391
 3942.00    0.74660   0.83119    4.476
 3943.00    0.72550   0.83393    4.397
 3944.00    0.78589   0.83880    4.139
 3945.00    0.83574   0.84439    4.016
 3946.00    0.80379   0.84889    4.190
 3947.00    0.78652   0.85101    4.374
 3948.00    0.86566   0.85022    4.265
 3949.00    0.94653   0.84790    4.142
 3950.00    0.93644   0.84579    4.254
 3951.00    0.89371   0.84434    4.411
 3952.00    0.89061   0.84258    4.359
 3953.00    0.90509   0.83863    4.182
 3954.00    0.90770   0.83189    4.056
 3955.00    0.92167   0.82323    4.045
 3956.00    0.94832   0.81329    4.137
 3957.00    0.92770   0.80237    4.263
 3958.00    0.83840   0.78947    4.374
 3959.00    0.74813   0.77166    4.501
 3960.00    0.71858   0.74697    0.000
 3961.00    0.74659   0.71548    0.000
 3962.00    0.76821   0.67849    0.000
 3963.00    0.68875   0.63788    0.000
 3964.00    0.51454   0.59354    0.000
 3965.00    0.38019   0.54459    0.000
 3966.00    0.35448   0.49363    0.000
 3967.00    0.37865   0.44703    0.000
 3968.00    0.41481   0.41324    0.000
 3969.00    0.48736   0.40037    0.000
 3970.00    0.57362   0.41163    0.000
 3971.00    0.59622   0.44410    0.000
 3972.00    0.56931   0.49091    0.000
 3973.00    0.60049   0.54345    0.000
 3974.00    0.69935   0.59474    0.000
 3975.00    0.76421   0.64175    0.000
 3976.00    0.76448   0.68365    0.000
 3977.00    0.76208   0.71989    0.000
 3978.00    0.78963   0.75007    0.000
 3979.00    0.83096   0.77341    0.000
 3980.00    0.87463   0.78978    0.000
 3981.00    0.92076   0.80115    4.439
 3982.00    0.95822   0.81045    4.187
 3983.00    0.97041   0.82040    4.011
 3984.00    0.96372   0.83228    3.985
 3985.00    0.96189   0.84533    4.088
 3986.00    0.97743   0.85777    4.215
 3987.00    1.00388   0.86796    4.230
 3988.00    1.01458   0.87612    4.179
 3989.00    0.98539   0.88344    4.211
 3990.00    0.93790   0.89023    4.347
 3991.00    0.92319   0.89621    4.499
 3992.00    0.97588   0.90017    4.594
 3993.00    1.07852   0.90047    4.609
 3994.00    1.12207   0.89681    4.578
 3995.00    1.01644   0.89096    4.558
 3996.00    0.86399   0.88702    4.596
 3997.00    0.82264   0.88858    4.702
 3998.00    0.87541   0.89556    4.814
 3999.00    0.92058   0.90521    4.846
 4000.00    0.93538   0.91395    4.770
 4001.00    0.94580   0.91784    4.636
 4002.00    0.96180   0.91455    4.536
 4003.00    0.98029   0.90585    4.538
 4004.00    0.99881   0.89665    4.636
 4005.00    1.02772   0.89099    4.751
 4006.00    1.09695   0.89062    4.745
 4007.00    1.20097   0.89601    4.589
 4008.00    1.25192   0.90504    4.487
 4009.00    1.17823   0.91391    4.589
 4010.00    1.01526   0.92079    4.809
 4011.00    0.84127   0.92636    4.993
 4012.00    0.71410   0.93090    5.107
 4013.00    0.67147   0.93440    5.156
 4014.00    0.73142   0.93736    5.070
 4015.00    0.86257   0.93998    4.862
 4016.00    0.97644   0.94304    4.685
 4017.00    1.03703   0.94693    4.619
 4018.00    1.11653   0.95019    4.605
 4019.00    1.24248   0.95106    4.545
 4020.00    1.31928   0.94777    4.394
 4021.00    1.28412   0.93862    4.234
 4022.00    1.18897   0.92448    4.240
 4023.00    1.10127   0.90969    4.425
 4024.00    1.04724   0.89928    4.547
 4025.00    1.02832   0.89568    4.486
 4026.00    1.03184   0.89777    4.455
 4027.00    1.03351   0.90139    4.552
 4028.00    1.00894   0.90139    4.621
 4029.00    0.97919   0.89578    4.578
 4030.00    1.00608   0.88720    4.540
 4031.00    1.08673   0.88063    4.589
 4032.00    1.13686   0.88078    4.708
 4033.00    1.10188   0.88916    4.869
 4034.00    0.99595   0.90387    5.055
 4035.00    0.87962   0.92153    5.200
 4036.00    0.82764   0.93794    5.201
 4037.00    0.85347   0.94950    5.077
 4038.00    0.90688   0.95429    4.952
 4039.00    0.94647   0.95272    4.847
 4040.00    0.96377   0.94675    4.701
 4041.00    0.98399   0.93733    4.542
 4042.00    1.03739   0.92461    4.466
 4043.00    1.08548   0.91036    4.516
 4044.00    1.05382   0.89851    4.668
 4045.00    0.96004   0.89336    4.799
 4046.00    0.89237   0.89669    4.750
 4047.00    0.88605   0.90715    4.590
 4048.00    0.91719   0.92004    4.508
 4049.00    0.95262   0.92880    4.524
 4050.00    0.97077   0.93049    4.547
 4051.00    0.97982   0.92649    4.537
 4052.00    1.00000   0.91896    4.517
 4053.00    1.02548   0.91048    4.537
 4054.00    1.03893   0.90364    4.616
 4055.00    1.04751   0.89962    4.664
 4056.00    1.06103   0.89894    4.599
 4057.00    1.04982   0.90117    4.555
 4058.00    0.98657   0.90413    4.695
 4059.00    0.91432   0.90522    4.919
 4060.00    0.88791   0.90228    4.994
 4061.00    0.88318   0.89499    4.936
 4062.00    0.84924   0.88631    4.903
 4063.00    0.78964   0.87999    4.954
 4064.00    0.74231   0.87779    5.055
 4065.00    0.74191   0.88000    5.116
 4066.00    0.79802   0.88473    5.076
 4067.00    0.87873   0.88806    4.981
 4068.00    0.94593   0.88778    4.903
 4069.00    0.99134   0.88460    4.845
 4070.00    1.01142   0.87995    4.783
 4071.00    0.98448   0.87481    4.710
 4072.00    0.91455   0.86935    4.646
 4073.00    0.86389   0.86274    4.646
 4074.00    0.87432   0.85338    4.730
 4075.00    0.90785   0.84117    4.832
 4076.00    0.91887   0.83032    4.901
 4077.00    0.91111   0.82674    4.978
 4078.00    0.91423   0.83287    5.071
 4079.00    0.95796   0.84594    5.058
 4080.00    1.03057   0.85931    4.900
 4081.00    1.06510   0.86672    4.743
 4082.00    1.02362   0.86610    4.716
 4083.00    0.94185   0.85980    4.839
 4084.00    0.87527   0.85234    5.033
 4085.00    0.85980   0.84740    5.100
 4086.00    0.87955   0.84569    4.993
 4087.00    0.87088   0.84549    4.906
 4088.00    0.82372   0.84412    4.929
 4089.00    0.80772   0.83922    4.951
 4090.00    0.85475   0.82990    4.889
 4091.00    0.91883   0.81659    4.784
 4092.00    0.94636   0.79921    0.000
 4093.00    0.91260   0.77691    0.000
 4094.00    0.83865   0.74965    0.000
 4095.00    0.77921   0.71770    0.000
 4096.00    0.75468   0.68122    0.000
 4097.00    0.74318   0.64104    0.000
 4098.00    0.74094   0.59870    0.000
 4099.00    0.77029   0.55802    0.000
 4100.00    0.83712   0.52630    0.000
 4101.00    0.91312   0.51126    0.000
 4102.00    0.92710   0.51727    0.000
 4103.00    0.81400   0.54364    0.000
 4104.00    0.65090   0.58332    0.000
 4105.00    0.59890   0.62602    0.000
 4106.00    0.66494   0.66414    0.000
 4107.00    0.73451   0.69467    0.000
 4108.00    0.79190   0.71805    0.000
 4109.00    0.89185   0.73696    0.000
 4110.00    0.98457   0.75431    0.000
 4111.00    0.96476   0.77193    0.000
 4112.00    0.84810   0.79007    0.000
 4113.00    0.74825   0.80751    4.982
 4114.00    0.76260   0.82206    4.921
 4115.00    0.90746   0.83135    4.941
 4116.00    1.05084   0.83438    4.890
 4117.00    1.04677   0.83259    4.687
 4118.00    0.96448   0.82873    4.874
 4119.00    0.95719   0.82562    6.289
 4120.00    1.01255   0.82596    9.378
 4121.00    1.03142   0.83085   11.031
 4122.00    0.99117   0.83894   10.205
 4123.00    0.93738   0.84742   10.346
 4124.00    0.93869   0.85347   10.654
 4125.00    1.02203   0.85515    9.503
 4126.00    1.10737   0.85218    8.993
 4127.00    1.09455   0.84593   10.352
 4128.00    0.97025   0.83853   10.351
 4129.00    0.80069   0.83209    7.172
 4130.00    0.70188   0.82841    5.373
 4131.00    0.73192   0.82855    5.152
 4132.00    0.80099   0.83333    5.530
 4133.00    0.80625   0.84320    5.637
 4134.00    0.75685   0.85695    5.481
 4135.00    0.71342   0.87184    5.407
 4136.00    0.72428   0.88531    5.383
 4137.00    0.80100   0.89516    5.284
 4138.00    0.90776   0.89935    5.112
 4139.00    1.00020   0.89632    4.938
 4140.00    1.05463   0.88506    4.837
 4141.00    1.06524   0.86773    4.851
 4142.00    1.03961   0.85070    4.985
 4143.00    0.99051   0.84053    5.181
 4144.00    0.93104   0.84045    5.297
 4145.00    0.87709   0.84942    5.283
 4146.00    0.84671   0.86167    5.276
 4147.00    0.84831   0.87054    5.351
 4148.00    0.87452   0.87383    5.414
 4149.00    0.90487   0.87302    5.382
 4150.00    0.91232   0.86995    5.279
 4151.00    0.88626   0.86607    5.183
 4152.00    0.84083   0.86209    5.162
 4153.00    0.80254   0.85823    5.208
 4154.00    0.79770   0.85541    5.243
 4155.00    0.82578   0.85534    5.285
 4156.00    0.85916   0.85893    5.461
 4157.00    0.88333   0.86519    5.732
 4158.00    0.90507   0.87226    5.824
 4159.00    0.92591   0.87885    5.657
 4160.00    0.94442   0.88427    5.440
 4161.00    0.99366   0.88832    5.259
 4162.00    1.11084   0.89132    5.062
 4163.00    1.21265   0.89339    4.891
 4164.00    1.15416   0.89367    4.840
 4165.00    0.99460   0.89177    4.893
 4166.00    0.93862   0.88857    4.951
 4167.00    0.99197   0.88430    4.993
 4168.00    0.99684   0.87787    5.078
 4169.00    0.93472   0.86822    5.207
 4170.00    0.90718   0.85556    5.320
 4171.00    0.92676   0.84202    5.370
 4172.00    0.93248   0.83107    5.354
 4173.00    0.92069   0.82549    5.302
 4174.00    0.93062   0.82532    5.240
 4175.00    0.96372   0.82810    5.142
 4176.00    0.99174   0.83144    4.999
 4177.00    0.99938   0.83481    4.929
 4178.00    0.97834   0.83884    5.046
 4179.00    0.90623   0.84394    5.252
 4180.00    0.78105   0.84978    5.338
 4181.00    0.67641   0.85511    5.306
 4182.00    0.68391   0.85870    5.280
 4183.00    0.81717   0.86039    5.245
 4184.00    0.99430   0.86043    5.160
 4185.00    1.04478   0.85940    5.128
 4186.00    0.88763   0.85851    5.235
 4187.00    0.73086   0.85872    5.353
 4188.00    0.78416   0.86085    5.335
 4189.00    0.91908   0.86603    5.311
 4190.00    0.93533   0.87371    5.420
 4191.00    0.87553   0.88099    5.516
 4192.00    0.86318   0.88489    5.432
 4193.00    0.91119   0.88403    5.306
 4194.00    0.96751   0.87794    5.290
 4195.00    0.97946   0.86676    5.312
 4196.00    0.93871   0.85326    5.276
 4197.00    0.90531   0.84196    5.223
 4198.00    0.91689   0.83509    5.229
 4199.00    0.92416   0.83220    5.313
 4200.00    0.87993   0.83272    5.458
 4201.00    0.80536   0.83562    5.628
 4202.00    0.75317   0.83941    5.773
 4203.00    0.77175   0.84431    5.850
 4204.00    0.86257   0.85122    5.834
 4205.00    0.96324   0.85933    5.728
 4206.00    1.00883   0.86694    5.587
 4207.00    0.97332   0.87313    5.503
 4208.00    0.88642   0.87768    5.498
 4209.00    0.82659   0.88078    5.506
 4210.00    0.84142   0.88260    5.473
 4211.00    0.91256   0.88265    5.417
 4212.00    0.99207   0.87985    5.399
 4213.00    1.02905   0.87439    5.488
 4214.00    1.00331   0.86869    5.650
 4215.00    0.93352   0.86583    5.736
 4216.00    0.84821   0.86771    5.730
 4217.00    0.77320   0.87423    5.796
 4218.00    0.73271   0.88252    5.960
 4219.00    0.74195   0.88767    6.046
 4220.00    0.77998   0.88626    5.998
 4221.00    0.79752   0.87750    5.946
 4222.00    0.77509   0.86190    5.919
 4223.00    0.73384   0.84128    5.831
 4224.00    0.70692   0.82038    5.741
 4225.00    0.72269   0.80604    5.800
 4226.00    0.78408   0.80329    5.977
 4227.00    0.86573   0.81294    6.078
 4228.00    0.92280   0.83119    6.103
 4229.00    0.91216   0.85040    6.242
 4230.00    0.83725   0.86265    6.524
 4231.00    0.74725   0.86504    6.782
 4232.00    0.70816   0.85998    6.867
 4233.00    0.76475   0.85192    6.765
 4234.00    0.87729   0.84534    6.604
 4235.00    0.96501   0.84262    6.532
 4236.00    1.01616   0.84311    6.573
 4237.00    1.05554   0.84577    6.675
 4238.00    1.04745   0.85050    6.827
 4239.00    0.94934   0.85681    7.011
 4240.00    0.82969   0.86406    7.085
 4241.00    0.79843   0.87177    6.898
 4242.00    0.86684   0.87810    6.533
 4243.00    0.96898   0.88058    6.175
 4244.00    1.02856   0.87844    5.905
 4245.00    0.99966   0.87263    5.735
 4246.00    0.90786   0.86432    5.643
 4247.00    0.83259   0.85496    5.569
 4248.00    0.87028   0.84718    5.421
 4249.00    1.03081   0.84275    5.205
 4250.00    1.13759   0.84094    5.119
 4251.00    1.04720   0.84060    5.306
 4252.00    0.88552   0.84213    5.653
 4253.00    0.82068   0.84577    5.946
 4254.00    0.81826   0.85009    6.162
 4255.00    0.79657   0.85336    6.320
 4256.00    0.78684   0.85450    6.232
 4257.00    0.82061   0.85254    5.897
 4258.00    0.83084   0.84797    5.711
 4259.00    0.77999   0.84400    5.831
 4260.00    0.75331   0.84454    5.892
 4261.00    0.79548   0.85135    5.659
 4262.00    0.80670   0.86297    5.500
 4263.00    0.75615   0.87515    5.636
 4264.00    0.79750   0.88292    5.812
 4265.00    0.96672   0.88364    5.798
 4266.00    1.03485   0.87745    5.783
 4267.00    0.89659   0.86558    5.935
 4268.00    0.75464   0.84988    6.151
 4269.00    0.73858   0.83336    6.299
 4270.00    0.73325   0.81908    6.372
 4271.00    0.68715   0.80884    6.361
 4272.00    0.72838   0.80435    6.203
 4273.00    0.88332   0.80711    5.964
 4274.00    0.98829   0.81635    5.822
 4275.00    0.95087   0.82898    5.802
 4276.00    0.84172   0.84181    5.759
 4277.00    0.75092   0.85234    5.653
 4278.00    0.72264   0.85846    5.599
 4279.00    0.75471   0.85923    5.679
 4280.00    0.80482   0.85583    5.851
 4281.00    0.81101   0.85062   -2.000
 4282.00    0.72237   0.84546   -2.000
 4283.00    0.57398   0.84105   -2.000
 4284.00    0.47604   0.83677   -2.000
 4285.00    0.49890   0.83103   -2.000
 4286.00    0.63752   0.82233   -2.000
 4287.00    0.82030   0.81139   -2.000
 4288.00    0.94781   0.80151   -2.000
 4289.00    0.98765   0.79612   -2.000
 4290.00    0.97411   0.79673   -2.000
 4291.00    0.94076   0.80237   -2.000
 4292.00    0.90667   0.81007   -2.000
 4293.00    0.88570   0.81552   -2.000
 4294.00    0.88078   0.81545   -2.000
 4295.00    0.86766   0.80935   -2.000
 4296.00    0.82373   0.79845   -2.000
 4297.00    0.79041   0.78464   13.800
 4298.00    0.82010   0.76998    8.737
 4299.00    0.85706   0.75666    5.839
 4300.00    0.81164   0.74725    5.279
 4301.00    0.72421   0.74369    5.740
 4302.00    0.69417   0.74536    6.092
 4303.00    0.72155   0.74921    5.986
 4304.00    0.75485   0.75223    5.869
 4305.00    0.79902   0.75298    5.813
 4306.00    0.86989   0.75198    5.690
 4307.00    0.91277   0.75145    5.607
 4308.00    0.87938   0.75396    5.708
 4309.00    0.83550   0.76025    5.910
 4310.00    0.85983   0.76893    6.041
 4311.00    0.91101   0.77765    6.095
 4312.00    0.90977   0.78518    6.167
 4313.00    0.84824   0.79234    6.295
 4314.00    0.77544   0.80076    6.417
 4315.00    0.76308   0.81110    6.360
 4316.00    0.83578   0.82187    6.111
 4317.00    0.91670   0.82987    5.963
 4318.00    0.93588   0.83233    6.055
 4319.00    0.92443   0.82877    6.102
 4320.00    0.92707   0.82016    5.910
 4321.00    0.92789   0.80727    5.798
 4322.00    0.90944   0.79080    5.952
 4323.00    0.89743   0.77296    6.071
 4324.00    0.90953   0.75747    5.910
 4325.00    0.92037   0.74784    5.732
 4326.00    0.89900   0.74570    5.765
 4327.00    0.83853   0.74951    5.958
 4328.00    0.77044   0.75502    6.153
 4329.00    0.75831   0.75730    6.206
 4330.00    0.81340   0.75355    0.000
 4331.00    0.86197   0.74421    0.000
 4332.00    0.84296   0.73060    0.000
 4333.00    0.75985   0.71203    0.000
 4334.00    0.66114   0.68615    0.000
 4335.00    0.61730   0.65156    0.000
 4336.00    0.66669   0.60946    0.000
 4337.00    0.79220   0.56438    0.000
 4338.00    0.93319   0.52441    0.000
 4339.00    1.01210   0.49839    0.000
 4340.00    1.01630   0.49169    0.000
 4341.00    1.00256   0.50454    0.000
 4342.00    0.98794   0.53308    0.000
 4343.00    0.93554   0.57055    0.000
 4344.00    0.85124   0.60962    0.000
 4345.00    0.79124   0.64538    0.000
 4346.00    0.77375   0.67559    0.000
 4347.00    0.76892   0.69849    0.000
 4348.00    0.75709   0.71285    0.000
 4349.00    0.74205   0.71985    0.000
 4350.00    0.73661   0.72301    0.000
 4351.00    0.74931   0.72660    5.845
 4352.00    0.76227   0.73436    5.934
 4353.00    0.75110   0.74803    7.518
 4354.00    0.74443   0.76560   11.719
 4355.00    0.79283   0.78248   14.266
 4356.00    0.86965   0.79511   11.846
 4357.00    0.89997   0.80341   10.847
 4358.00    0.86616   0.80943   11.545
 4359.00    0.80794   0.81545   12.059
 4360.00    0.77794   0.82317   12.527
 4361.00    0.79595   0.83285   14.233
 4362.00    0.78832   0.84263   13.757
 4363.00    0.68328   0.84955    9.288
 4364.00    0.57893   0.85159    6.608
 4365.00    0.61758   0.84869    6.018
 4366.00    0.75555   0.84240    6.312
 4367.00    0.85823   0.83510    6.454
 4368.00    0.88505   0.82939    6.335
 4369.00    0.86422   0.82652    6.370
 4370.00    0.82318   0.82532    6.472
 4371.00    0.77594   0.82327    6.395
 4372.00    0.72065   0.81931    6.312
 4373.00    0.66500   0.81505    6.435
 4374.00    0.65129   0.81342    6.570
 4375.00    0.70017   0.81653    6.472
 4376.00    0.75385   0.82418    6.329
 4377.00    0.75182   0.83335    6.364
 4378.00    0.70963   0.83889    6.483
 4379.00    0.68607   0.83599    6.529
 4380.00    0.73825   0.82313    6.540
 4381.00    0.85184   0.80314    6.593
 4382.00    0.90348   0.78160    6.643
 4383.00    0.83020   0.76417    6.642
 4384.00    0.74480   0.75485    6.642
 4385.00    0.74050   0.75516    6.696
 4386.00    0.75755   0.76337    6.788
 4387.00    0.73485   0.77520    6.860
 4388.00    0.70856   0.78683    6.856
 4389.00    0.71532   0.79672    6.797
 4390.00    0.73403   0.80470    6.793
 4391.00    0.74294   0.81049    6.867
 4392.00    0.75000   0.81416    6.890
 4393.00    0.75514   0.81687    6.815
 4394.00    0.73944   0.81980    6.762
 4395.00    0.72407   0.82314    6.730
 4396.00    0.77704   0.82627    6.542
 4397.00    0.89551   0.82807    6.243
 4398.00    0.97819   0.82756    6.105
 4399.00    0.96257   0.82455    6.206
 4400.00    0.87569   0.82001    6.374
 4401.00    0.78012   0.81546    6.461
 4402.00    0.73720   0.81178    6.464
 4403.00    0.75998   0.80892    6.445
 4404.00    0.80460   0.80655    6.467
 4405.00    0.80517   0.80535    6.551
 4406.00    0.71486   0.80687    6.667
 4407.00    0.59449   0.81191    6.762
 4408.00    0.57742   0.81942    6.792
 4409.00    0.67409   0.82747    6.781
 4410.00    0.77293   0.83390    6.794
 4411.00    0.81745   0.83621    6.791
 4412.00    0.83039   0.83250    6.678
 4413.00    0.83867   0.82336    6.532
 4414.00    0.85159   0.81238    6.519
 4415.00    0.85928   0.80440    6.612
 4416.00    0.84190   0.80304    6.648
 4417.00    0.79126   0.80894    6.612
 4418.00    0.72259   0.81901    6.606
 4419.00    0.68669   0.82858    6.631
 4420.00    0.72660   0.83461    6.625
 4421.00    0.79124   0.83658    6.618
 4422.00    0.79608   0.83582    6.679
 4423.00    0.76159   0.83443    6.756
 4424.00    0.76629   0.83395    6.737
 4425.00    0.82494   0.83433    6.615
 4426.00    0.89611   0.83428    6.474
 4427.00    0.92893   0.83298    6.413
 4428.00    0.89961   0.83072    6.475
 4429.00    0.85060   0.82787    6.573
 4430.00    0.83923   0.82434    6.591
 4431.00    0.86199   0.81987    6.565
 4432.00    0.88289   0.81498    6.581
 4433.00    0.88279   0.81133    6.601
 4434.00    0.86652   0.81077    6.553
 4435.00    0.86157   0.81468    6.439
 4436.00    0.88475   0.82285    6.328
 4437.00    0.90899   0.83241    6.300
 4438.00    0.90087   0.83876    6.377
 4439.00    0.86157   0.83820    6.465
 4440.00    0.81518   0.83071    6.475
 4441.00    0.79116   0.82020    6.467
 4442.00    0.80066   0.81193    6.513
 4443.00    0.82158   0.80980    6.580
 4444.00    0.84276   0.81455    6.608
 4445.00    0.89259   0.82353    6.588
 4446.00    0.96696   0.83248    6.533
 4447.00    0.98749   0.83816    6.453
 4448.00    0.91761   0.83952    6.390
 4449.00    0.83178   0.83744    6.421
 4450.00    0.80194   0.83307    6.567
 4451.00    0.82477   0.82659    6.736
 4452.00    0.86321   0.81824    6.832
 4453.00    0.87882   0.80902    6.846
 4454.00    0.85291   0.80015    6.834
 4455.00    0.79781   0.79293    6.872
 4456.00    0.75503   0.78834    6.970
 4457.00    0.77852   0.78612    7.038
 4458.00    0.85988   0.78531    7.024
 4459.00    0.91485   0.78523    6.969
 4460.00    0.89133   0.78610    6.929
 4461.00    0.81516   0.78875    0.000
 4462.00    0.76546   0.79325    0.000
 4463.00    0.82734   0.79810    0.000
 4464.00    0.95596   0.80134    0.000
 4465.00    0.99110   0.80135    0.000
 4466.00    0.90518   0.79745    0.000
 4467.00    0.82832   0.79104    0.000
 4468.00    0.81889   0.78505    0.000
 4469.00    0.82563   0.78246    0.000
 4470.00    0.82199   0.78529    0.000
 4471.00    0.82968   0.79401    0.000
 4472.00    0.85820   0.80725    0.000
 4473.00    0.89435   0.82209    0.000
 4474.00    0.92373   0.83525    0.000
 4475.00    0.93721   0.84364    0.000
 4476.00    0.93151   0.84493    0.000
 4477.00    0.90392   0.83842    0.000
 4478.00    0.84090   0.82575    0.000
 4479.00    0.74143   0.81072    0.000
 4480.00    0.67049   0.79846    0.000
 4481.00    0.69358   0.79393    0.000
 4482.00    0.72820   0.79912    7.157
 4483.00    0.65359   0.81151    7.169
 4484.00    0.56353   0.82532    7.133
 4485.00    0.63018   0.83448    7.033
 4486.00    0.79317   0.83593    6.932
 4487.00    0.88128   0.83105    6.893
 4488.00    0.89082   0.82378    6.876
 4489.00    0.90503   0.81788    6.829
 4490.00    0.91013   0.81520    6.836
 4491.00    0.86136   0.81549    6.979
 4492.00    0.80850   0.81707    7.134
 4493.00    0.82200   0.81848    7.128
 4494.00    0.87870   0.81979    7.045
 4495.00    0.91493   0.82203    7.037
 4496.00    0.90781   0.82584    7.063
 4497.00    0.87104   0.83080    7.010
 4498.00    0.83678   0.83575    6.854
 4499.00    0.82360   0.84010    6.656
 4500.00    0.80914   0.84450    6.501
 4501.00    0.77679   0.85010    6.435
 4502.00    0.75777   0.85706    6.417
 4503.00    0.77101   0.86396    6.393
 4504.00    0.77342   0.86869    6.358
 4505.00    0.73735   0.86967    6.373
 4506.00    0.70982   0.86718    6.569
 4507.00    0.72998   0.86336    6.986
 4508.00    0.76894   0.86024    7.394
 4509.00    0.79752   0.85819    7.513
 4510.00    0.83026   0.85613    7.377
 4511.00    0.86296   0.85271    7.194
 4512.00    0.84416   0.84741    7.133
 4513.00    0.77876   0.84101    7.203
 4514.00    0.76681   0.83518    7.231
 4515.00    0.83453   0.83146    7.137
 4516.00    0.87064   0.83010    7.057
 4517.00    0.83512   0.83035    7.079
 4518.00    0.83525   0.83092    7.141
 4519.00    0.91505   0.83041    7.177
 4520.00    0.98325   0.82806    7.179
 4521.00    0.99276   0.82373    7.155
 4522.00    0.99613   0.81767    7.106
 4523.00    1.00543   0.81031    7.071
 4524.00    0.96060   0.80204    7.119
 4525.00    0.85675   0.79353    7.235
 4526.00    0.76611   0.78564    7.315
 4527.00    0.72191   0.77922    7.326
 4528.00    0.70024   0.77537    7.341
 4529.00    0.71267   0.77442    7.376
 4530.00    0.80104   0.77547    7.367
 4531.00    0.91633   0.77735    7.297
 4532.00    0.93796   0.77965    7.214
 4533.00    0.84848   0.78314    7.193
 4534.00    0.73844   0.78924    7.279
 4535.00    0.67173   0.79836    7.375
 4536.00    0.65777   0.80905    7.313
 4537.00    0.68105   0.81846    7.162
 4538.00    0.71740   0.82401    7.137
 4539.00    0.75320   0.82511    7.266
 4540.00    0.78528   0.82328    7.404
 4541.00    0.81049   0.82088    7.438
 4542.00    0.82423   0.81925    7.355
 4543.00    0.82255   0.81799    7.276
 4544.00    0.81018   0.81582    7.317
 4545.00    0.81342   0.81166    7.394
 4546.00    0.85116   0.80546    7.344
 4547.00    0.88191   0.79834    7.255
 4548.00    0.85126   0.79181    7.288
 4549.00    0.78324   0.78699    7.347
 4550.00    0.74447   0.78410    0.000
 4551.00    0.76539   0.78266    0.000
 4552.00    0.82756   0.78213    0.000
 4553.00    0.86674   0.78246    0.000
 4554.00    0.83743   0.78435    0.000
 4555.00    0.79205   0.78920    0.000
 4556.00    0.80054   0.79740    0.000
 4557.00    0.84237   0.80747    0.000
 4558.00    0.86010   0.81700    0.000
 4559.00    0.83598   0.82354    0.000
 4560.00    0.79395   0.82567    0.000
 4561.00    0.78688   0.82356    0.000
 4562.00    0.83256   0.81886    0.000
 4563.00    0.86101   0.81405    0.000
 4564.00    0.81696   0.81171    0.000
 4565.00    0.75057   0.81318    0.000
 4566.00    0.73014   0.81773    0.000
 4567.00    0.76265   0.82287    0.000
 4568.00    0.81924   0.82591    0.000
 4569.00    0.86413   0.82570    0.000
 4570.00    0.88116   0.82315    0.000
 4571.00    0.88702   0.82053    0.000
 4572.00    0.89368   0.81962    0.000
 4573.00    0.88639   0.82056    0.000
 4574.00    0.85649   0.82216    0.000
 4575.00    0.81884   0.82265    0.000
 4576.00    0.78137   0.82049    0.000
 4577.00    0.73485   0.81539    0.000
 4578.00    0.70222   0.80814    0.000
 4579.00    0.74473   0.80002    0.000
 4580.00    0.84839   0.79244    0.000
 4581.00    0.89966   0.78674    0.000
 4582.00    0.85574   0.78393    0.000
 4583.00    0.79611   0.78441    0.000
 4584.00    0.77672   0.78773    0.000
 4585.00    0.78014   0.79286    0.000
 4586.00    0.78922   0.79845    0.000
 4587.00    0.80907   0.80300    0.000
 4588.00    0.82816   0.80530    0.000
 4589.00    0.81771   0.80500    0.000
 4590.00    0.78342   0.80273    0.000
 4591.00    0.76486   0.79973    0.000
 4592.00    0.77180   0.79726    0.000
 4593.00    0.78090   0.79609    0.000
 4594.00    0.79114   0.79636    0.000
 4595.00    0.81760   0.79768    0.000
 4596.00    0.82607   0.79935    0.000
 4597.00    0.76563   0.80075    0.000
 4598.00    0.70020   0.80156    0.000
 4599.00    0.74752   0.80177    0.000
 4600.00    0.84952   0.80165    0.000
 4601.00    0.84394   0.80168    0.000
 4602.00    0.75089   0.80238    0.000
 4603.00    0.71784   0.80417    0.000
 4604.00    0.76677   0.80741    0.000
 4605.00    0.81856   0.81214    0.000
 4606.00    0.84603   0.81803    0.000
 4607.00    0.86688   0.82408    0.000
 4608.00    0.87620   0.82884    0.000
 4609.00    0.86167   0.83108    0.000
 4610.00    0.84880   0.83057    0.000
 4611.00    0.87363   0.82810    0.000
 4612.00    0.92872   0.82502    0.000
 4613.00    0.97400   0.82229    0.000
 4614.00    0.96726   0.82000    0.000
 4615.00    0.90309   0.81775    0.000
 4616.00    0.85355   0.81526    0.000
 4617.00    0.87594   0.81289    0.000
 4618.00    0.89878   0.81154    0.000
 4619.00    0.84565   0.81217    0.000
 4620.00    0.78677   0.81483    0.000
 4621.00    0.80741   0.81852    0.000
 4622.00    0.85480   0.82184    0.000
 4623.00    0.84972   0.82349    0.000
 4624.00    0.81098   0.82289    0.000
 4625.00    0.79444   0.82050    0.000
 4626.00    0.82361   0.81732    0.000
 4627.00    0.88786   0.81427    0.000
 4628.00    0.94943   0.81210    0.000
 4629.00    0.97182   0.81102    0.000
 4630.00    0.94366   0.81052    0.000
 4631.00    0.88530   0.80964    0.000
 4632.00    0.84477   0.80775    0.000
 4633.00    0.84115   0.80485    0.000
 4634.00    0.83551   0.80138    0.000
 4635.00    0.80808   0.79807    0.000
 4636.00    0.79753   0.79556    0.000
 4637.00    0.81672   0.79411    0.000
 4638.00    0.81437   0.79375    0.000
 4639.00    0.76484   0.79437    0.000
 4640.00    0.71048   0.79548    0.000
 4641.00    0.70329   0.79601    0.000
 4642.00    0.76451   0.79458    0.000
 4643.00    0.84833   0.79029    0.000
 4644.00    0.85808   0.78339    0.000
 4645.00    0.79606   0.77552    0.000
 4646.00    0.78096   0.76916    0.000
 4647.00    0.82957   0.76655    0.000
 4648.00    0.82234   0.76852    0.000
 4649.00    0.73930   0.77416    0.000
 4650.00    0.69446   0.78122    0.000
 4651.00    0.71538   0.78710    0.000
 4652.00    0.71634   0.79019    0.000
 4653.00    0.68665   0.79062    0.000
 4654.00    0.70534   0.79012    0.000
 4655.00    0.78258   0.79099    0.000
 4656.00    0.84943   0.79468    0.000
 4657.00    0.87671   0.80081    0.000
 4658.00    0.88604   0.80724    0.000
 4659.00    0.88390   0.81112    0.000
 4660.00    0.86190   0.81044    0.000
 4661.00    0.84259   0.80482    0.000
 4662.00    0.85842   0.79527    0.000
 4663.00    0.87809   0.78337    0.000
 4664.00    0.84233   0.77071    0.000
 4665.00    0.77599   0.75902    0.000
 4666.00    0.75314   0.75038    0.000
 4667.00    0.77976   0.74676    0.000
 4668.00    0.80722   0.74897    0.000
 4669.00    0.80249   0.75608    0.000
 4670.00    0.76726   0.76577    0.000
 4671.00    0.74533   0.77538    0.000
 4672.00    0.77479   0.78314    0.000
 4673.00    0.81319   0.78859    0.000
 4674.00    0.79982   0.79197    0.000
 4675.00    0.76265   0.79335    0.000
 4676.00    0.76215   0.79263    0.000
 4677.00    0.79367   0.78997    0.000
 4678.00    0.82220   0.78622    0.000
 4679.00    0.84325   0.78273    0.000
 4680.00    0.86623   0.78080    0.000
 4681.00    0.88596   0.78099    0.000
 4682.00    0.89094   0.78289    0.000
 4683.00    0.87680   0.78541    0.000
 4684.00    0.85038   0.78748    0.000
 4685.00    0.83060   0.78856    0.000
 4686.00    0.82768   0.78861    0.000
 4687.00    0.82558   0.78789    0.000
 4688.00    0.80838   0.78680    0.000
 4689.00    0.78365   0.78579    0.000
 4690.00    0.76463   0.78532    0.000
 4691.00    0.75410   0.78578    0.000
 4692.00    0.74900   0.78720    0.000
 4693.00    0.74597   0.78899    0.000
 4694.00    0.74838   0.78998    0.000
 4695.00    0.76750   0.78895    0.000
 4696.00    0.79651   0.78524    0.000
 4697.00    0.80035   0.77927    0.000
 4698.00    0.76440   0.77233    0.000
 4699.00    0.71963   0.76585    0.000
 4700.00    0.70529   0.76083    0.000
 4701.00    0.74334   0.75770    0.000
 4702.00    0.82471   0.75650    0.000
 4703.00    0.90775   0.75675    0.000
 4704.00    0.94551   0.75767    0.000
 4705.00    0.90936   0.75851    0.000
 4706.00    0.83160   0.75902    0.000
 4707.00    0.79603   0.75954    0.000
 4708.00    0.81370   0.76058    0.000
 4709.00    0.80540   0.76226    0.000
 4710.00    0.75118   0.76411    0.000
 4711.00    0.71861   0.76545    0.000
 4712.00    0.73757   0.76624    0.000
 4713.00    0.77157   0.76743    0.000
 4714.00    0.78609   0.77033    0.000
 4715.00    0.77380   0.77557    0.000
 4716.00    0.75478   0.78264    0.000
 4717.00    0.76093   0.79015    0.000
 4718.00    0.79153   0.79655    0.000
 4719.00    0.81495   0.80091    0.000
 4720.00    0.81024   0.80315    0.000
 4721.00    0.77948   0.80373    0.000
 4722.00    0.74775   0.80307    0.000
 4723.00    0.74423   0.80096    0.000
 4724.00    0.75896   0.79675    0.000
 4725.00    0.75961   0.79000    0.000
 4726.00    0.75026   0.78116    0.000
 4727.00    0.75784   0.77178    0.000
 4728.00    0.77812   0.76389    0.000
 4729.00    0.78798   0.75918    0.000
 4730.00    0.78931   0.75828    0.000
 4731.00    0.79858   0.76060    0.000
 4732.00    0.81375   0.76467    0.000
 4733.00    0.82017   0.76884    0.000
 4734.00    0.81015   0.77208    0.000
 4735.00    0.78696   0.77427    0.000
 4736.00    0.76528   0.77588    0.000
 4737.00    0.76194   0.77746    0.000
 4738.00    0.78249   0.77919    0.000
 4739.00    0.81722   0.78087    0.000
 4740.00    0.83999   0.78234    0.000
 4741.00    0.82890   0.78362    0.000
 4742.00    0.79083   0.78476    0.000
 4743.00    0.74649   0.78589    0.000
 4744.00    0.70998   0.78706    0.000
 4745.00    0.68962   0.78816    0.000
 4746.00    0.69120   0.78898    0.000
 4747.00    0.71836   0.78928    0.000
 4748.00    0.77053   0.78882    0.000
 4749.00    0.82091   0.78732    0.000
 4750.00    0.80631   0.78460    0.000
 4751.00    0.71992   0.78077    0.000
 4752.00    0.67234   0.77641    0.000
 4753.00    0.72468   0.77238    0.000
 4754.00    0.77464   0.76955    0.000
 4755.00    0.74582   0.76846    0.000
 4756.00    0.71340   0.76901    0.000
 4757.00    0.74318   0.77029    0.000
 4758.00    0.78924   0.77086    0.000
 4759.00    0.79830   0.76933    0.000
 4760.00    0.77641   0.76510    0.000
 4761.00    0.75602   0.75870    9.555
 4762.00    0.76768   0.75165    9.552
 4763.00    0.80653   0.74588    9.384
 4764.00    0.82515   0.74292    9.276
 4765.00    0.79032   0.74349    9.370
 4766.00    0.71217   0.74722    9.601
 4767.00    0.63913   0.75283    9.789
 4768.00    0.63682   0.75866    9.731
 4769.00    0.71067   0.76345    9.510
 4770.00    0.79248   0.76689    9.452
 4771.00    0.82805   0.76952    9.609
 4772.00    0.81160   0.77215    9.696
 4773.00    0.77316   0.77517    9.583
 4774.00    0.75657   0.77827    9.439
 4775.00    0.76261   0.78071    9.436
 4776.00    0.75131   0.78181    9.639
 4777.00    0.71557   0.78128    9.952
 4778.00    0.69117   0.77925   10.137
 4779.00    0.71131   0.77614   10.108
 4780.00    0.78003   0.77247   10.012
 4781.00    0.84090   0.76862   10.064
 4782.00    0.81820   0.76485   10.410
 4783.00    0.74414   0.76143   10.841
 4784.00    0.72137   0.75853   10.877
 4785.00    0.75225   0.75633   10.522
 4786.00    0.76058   0.75504   10.194
 4787.00    0.73533   0.75495   10.051
 4788.00    0.72447   0.75628   10.012
 4789.00    0.75219   0.75921    9.951
 4790.00    0.80291   0.76375    9.800
 4791.00    0.82709   0.76955    9.665
 4792.00    0.78704   0.77567    9.695
 4793.00    0.73345   0.78078    9.840
 4794.00    0.74371   0.78351    9.919
 4795.00    0.79801   0.78308    9.815
 4796.00    0.82506   0.77980    9.587
 4797.00    0.80526   0.77503    9.497
 4798.00    0.76188   0.77058    9.735
 4799.00    0.72357   0.76781   10.079
 4800.00    0.70349   0.76697   10.143
 4801.00    0.68125   0.76716    9.969
 4802.00    0.64327   0.76700    9.819
 4803.00    0.63197   0.76559    9.756
 4804.00    0.68471   0.76302    9.725
 4805.00    0.76012   0.76012    9.692
 4806.00    0.79711   0.75788    9.677
 4807.00    0.78719   0.75681    9.773
 4808.00    0.76104   0.75689    9.972
 4809.00    0.76252   0.75775   10.009
 4810.00    0.79739   0.75902    9.769
 4811.00    0.79766   0.76056    9.634
 4812.00    0.72188   0.76245    9.874
 4813.00    0.63541   0.76482   10.236
 4814.00    0.61330   0.76764   10.324
 4815.00    0.65889   0.77061   10.082
 4816.00    0.73412   0.77315    9.727
 4817.00    0.79164   0.77452    9.530
 4818.00    0.80567   0.77390    9.568
 4819.00    0.78852   0.77067    9.660
 4820.00    0.76323   0.76481    9.671
 4821.00    0.74357   0.75719    9.695
 4822.00    0.72850   0.74957    9.777
 4823.00    0.70443   0.74386    9.777
 4824.00    0.67352   0.74118    9.681
 4825.00    0.66316   0.74120    9.698
 4826.00    0.68971   0.74248    9.878
 4827.00    0.74087   0.74344    9.975
 4828.00    0.78667   0.74327    9.896
 4829.00    0.79349   0.74203    9.852
 4830.00    0.75993   0.74036    9.909
 4831.00    0.72308   0.73897    9.879
 4832.00    0.71600   0.73820    9.731
 4833.00    0.74857   0.73787    9.661
 4834.00    0.80632   0.73738    9.698
 4835.00    0.85733   0.73604    9.677
 4836.00    0.87742   0.73350    9.653
 4837.00    0.86113   0.72984    9.887
 4838.00    0.82639   0.72560   10.313
 4839.00    0.80316   0.72147   10.491
 4840.00    0.79457   0.71806   10.359
 4841.00    0.77860   0.71557   10.322
 4842.00    0.74826   0.71375   10.521
 4843.00    0.71674   0.71192   10.763
 4844.00    0.69838   0.70924   10.834
 4845.00    0.69900   0.70503   10.665
 4846.00    0.70567   0.69916   10.440
 4847.00    0.69827   0.69218   10.392
 4848.00    0.68107   0.68486    0.000
 4849.00    0.67239   0.67741    0.000
 4850.00    0.66698   0.66913    0.000
 4851.00    0.64451   0.65875    0.000
 4852.00    0.60254   0.64528    0.000
 4853.00    0.55956   0.62859    0.000
 4854.00    0.54752   0.60928    0.000
 4855.00    0.59477   0.58797    0.000
 4856.00    0.70020   0.56479    0.000
 4857.00    0.84559   0.53980    0.000
 4858.00    1.02163   0.51419    0.000
 4859.00    1.21658   0.49127    0.000
 4860.00    1.39411   0.47585    0.000
 4861.00    1.50718   0.47213    0.000
 4862.00    1.52207   0.48136    0.000
 4863.00    1.42421   0.50129    0.000
 4864.00    1.22261   0.52714    0.000
 4865.00    0.96439   0.55379    0.000
 4866.00    0.74633   0.57729    0.000
 4867.00    0.64777   0.59543    0.000
 4868.00    0.65730   0.60783    0.000
 4869.00    0.70724   0.61568    0.000
 4870.00    0.72285   0.62122    0.000
 4871.00    0.67997   0.62683    0.000
 4872.00    0.64547   0.63416    0.000
 4873.00    0.67315   0.64353    0.000
 4874.00    0.71678   0.65424    0.000
 4875.00    0.72374   0.66531   10.227
 4876.00    0.71314   0.67594   10.781
 4877.00    0.72146   0.68548   11.418
 4878.00    0.75578   0.69322   10.128
 4879.00    0.79780   0.69839    8.050
 4880.00    0.81389   0.70059    7.714
 4881.00    0.78877   0.70003    9.940
 4882.00    0.74370   0.69754   14.160
 4883.00    0.70873   0.69428   15.330
 4884.00    0.70226   0.69128   13.954
 4885.00    0.71892   0.68909   13.524
 4886.00    0.73050   0.68773   13.814
 4887.00    0.72610   0.68689   13.969
 4888.00    0.72378   0.68658   13.714
 4889.00    0.71859   0.68757   13.685
 4890.00    0.67472   0.69130   15.063
 4891.00    0.61184   0.69893   17.146
 4892.00    0.61465   0.71025   15.347
 4893.00    0.69818   0.72340   11.612
 4894.00    0.77986   0.73554   10.033
 4895.00    0.80554   0.74414   10.219
 4896.00    0.78985   0.74796   10.704
 4897.00    0.77039   0.74734   10.627
 4898.00    0.77888   0.74375   10.404
 4899.00    0.80544   0.73916   10.390
 4900.00    0.80653   0.73530   10.526
 4901.00    0.76815   0.73321   10.759
 4902.00    0.71656   0.73318   11.094
 4903.00    0.68743   0.73478   11.335
 4904.00    0.70224   0.73693   11.176
 4905.00    0.73141   0.73818   10.793
 4906.00    0.72078   0.73723   10.621
 4907.00    0.68274   0.73367   10.657
 4908.00    0.67687   0.72846   10.610
 4909.00    0.70953   0.72359   10.475
 4910.00    0.74139   0.72106   10.460
 4911.00    0.75684   0.72177   10.520
 4912.00    0.76404   0.72496   10.463
 4913.00    0.76347   0.72840   10.352
 4914.00    0.75148   0.72927   10.384
 4915.00    0.73882   0.72527   10.536
 4916.00    0.73589   0.71565   10.650
 4917.00    0.72240   0.70172   10.685
 4918.00    0.68016   0.68655   10.703
 4919.00    0.65218   0.67380   10.737
 4920.00    0.68653   0.66639   10.795
 4921.00    0.74095   0.66552   10.899
 4922.00    0.74886   0.67078   11.030
 4923.00    0.72920   0.68076   11.055
 4924.00    0.72961   0.69374   10.902
 4925.00    0.73520   0.70798   10.794
 4926.00    0.71761   0.72164   10.912
 4927.00    0.70527   0.73293   11.025
 4928.00    0.73059   0.74035   10.872
 4929.00    0.76452   0.74306   10.658
 4930.00    0.76673   0.74113   10.661
 4931.00    0.74361   0.73559   10.843
 4932.00    0.71598   0.72817   11.027
 4933.00    0.68404   0.72067   11.099
 4934.00    0.65289   0.71423   11.038
 4935.00    0.65372   0.70924   10.927
 4936.00    0.69583   0.70578   10.872
 4937.00    0.73219   0.70433   10.942
 4938.00    0.72969   0.70571   11.119
 4939.00    0.71933   0.71039   11.265
 4940.00    0.73214   0.71773    0.000
 4941.00    0.75326   0.72604    0.000
 4942.00    0.75449   0.73338    0.000
 4943.00    0.72209   0.73854    0.000
 4944.00    0.67582   0.74148    0.000
 4945.00    0.66800   0.74299    0.000
 4946.00    0.71049   0.74402    0.000
 4947.00    0.74605   0.74512    0.000
 4948.00    0.73399   0.74616    0.000
 4949.00    0.69092   0.74661    0.000
 4950.00    0.64736   0.74580    0.000
 4951.00    0.62421   0.74319    0.000
 4952.00    0.63400   0.73843    0.000
 4953.00    0.67978   0.73149    0.000
 4954.00    0.74629   0.72294    0.000
 4955.00    0.80376   0.71432    0.000
 4956.00    0.83902   0.70795    0.000
 4957.00    0.86025   0.70605    0.000
 4958.00    0.86583   0.70932    0.000
 4959.00    0.84142   0.71639    0.000
 4960.00    0.79206   0.72440    0.000
 4961.00    0.74389   0.73045    0.000
 4962.00    0.71198   0.73285    0.000
 4963.00    0.69399   0.73157    0.000
 4964.00    0.68424   0.72778    0.000
 4965.00    0.67888   0.72318    0.000
 4966.00    0.67738   0.71936    0.000
 4967.00    0.68019   0.71738    0.000
 4968.00    0.68158   0.71764    0.000
 4969.00    0.67345   0.71997    0.000
 4970.00    0.65839   0.72377    0.000
 4971.00    0.64666   0.72818    0.000
 4972.00    0.64219   0.73218    0.000
 4973.00    0.64466   0.73474    0.000
 4974.00    0.66035   0.73506    0.000
 4975.00    0.69340   0.73267    0.000
 4976.00    0.72560   0.72752    0.000
 4977.00    0.73096   0.71984    0.000
 4978.00    0.70854   0.71008    0.000
 4979.00    0.67678   0.69891    0.000
 4980.00    0.65378   0.68750    0.000
 4981.00    0.65088   0.67759    0.000
 4982.00    0.66800   0.67124    0.000
 4983.00    0.69570   0.66996    0.000
 4984.00    0.71942   0.67395    0.000
 4985.00    0.72525   0.68175    0.000
 4986.00    0.70732   0.69084    0.000
 4987.00    0.67336   0.69870    0.000
 4988.00    0.64868   0.70381    0.000
 4989.00    0.65257   0.70606    0.000
 4990.00    0.67196   0.70644    0.000
 4991.00    0.68438   0.70625    0.000
 4992.00    0.68529   0.70647    0.000
 4993.00    0.67973   0.70732    0.000
 4994.00    0.67111   0.70828    0.000
 4995.00    0.66143   0.70836    0.000
 4996.00    0.65263   0.70653    0.000
 4997.00    0.64718   0.70231    0.000
 4998.00    0.64837   0.69604    0.000
 4999.00    0.65876   0.68883    0.000
 5000.00    0.67917   0.68196    0.000
 5001.00    0.71058   0.67630    0.000
 5002.00    0.75576   0.67204    0.000
 5003.00    0.82066   0.66908    0.000
 5004.00    0.91234   0.66753    0.000
 5005.00    1.01878   0.66781    0.000
 5006.00    1.10145   0.67012    0.000
 5007.00    1.13056   0.67370    0.000
 5008.00    1.10426   0.67683    0.000
 5009.00    1.03159   0.67759    0.000
 5010.00    0.92456   0.67496    0.000
 5011.00    0.81005   0.66940    0.000
 5012.00    0.72760   0.66251    0.000
 5013.00    0.68699   0.65615    0.000
 5014.00    0.65917   0.65158    0.000
 5015.00    0.63001   0.64921    0.000
 5016.00    0.61599   0.64888    0.000
 5017.00    0.62488   0.65035    0.000
 5018.00    0.64263   0.65344    0.000
 5019.00    0.64928   0.65795    0.000
 5020.00    0.63186   0.66346    0.000
 5021.00    0.60617   0.66939    0.000
 5022.00    0.60669   0.67507    0.000
 5023.00    0.62793   0.67985    0.000
 5024.00    0.62923   0.68329    0.000
 5025.00    0.61099   0.68540    0.000
 5026.00    0.61276   0.68673    0.000
 5027.00    0.63893   0.68825    0.000
 5028.00    0.65658   0.69072    0.000
 5029.00    0.64841   0.69424   12.116
 5030.00    0.62393   0.69804   12.157
 5031.00    0.60992   0.70082   12.030
 5032.00    0.63043   0.70131   11.869
 5033.00    0.66821   0.69882   11.758
 5034.00    0.68186   0.69350   11.714
 5035.00    0.66091   0.68613   11.749
 5036.00    0.62671   0.67763   11.873
 5037.00    0.60941   0.66886   12.052
 5038.00    0.62861   0.66087   12.214
 5039.00    0.66780   0.65522   12.280
 5040.00    0.69428   0.65373   12.221
 5041.00    0.70071   0.65753   12.146
 5042.00    0.69717   0.66601   12.195
 5043.00    0.68755   0.67668   12.380
 5044.00    0.67178   0.68614   12.601
 5045.00    0.65482   0.69161   12.720
 5046.00    0.64460   0.69211   12.660
 5047.00    0.64745   0.68862   12.529
 5048.00    0.66633   0.68346   12.475
 5049.00    0.69886   0.67912   12.508
 5050.00    0.73057   0.67729   12.582
 5051.00    0.72996   0.67846   12.708
 5052.00    0.68424   0.68203   12.881
 5053.00    0.63517   0.68692   12.996
 5054.00    0.62740   0.69210   12.989
 5055.00    0.65387   0.69699   12.989
 5056.00    0.68477   0.70144   13.101
 5057.00    0.70090   0.70542   13.205
 5058.00    0.69737   0.70867   13.171
 5059.00    0.68342   0.71054   13.073
 5060.00    0.67369   0.71025   13.064
 5061.00    0.67950   0.70727   13.251
 5062.00    0.69652   0.70175   13.548
 5063.00    0.69971   0.69470   13.597
 5064.00    0.67330   0.68768   13.278
 5065.00    0.63090   0.68209   12.995
 5066.00    0.60100   0.67866   12.977
 5067.00    0.61109   0.67721   12.991
 5068.00    0.65467   0.67699   12.896
 5069.00    0.68260   0.67713   12.905
 5070.00    0.67029   0.67704   13.096
 5071.00    0.64721   0.67655   13.206
 5072.00    0.64140   0.67578   13.102
 5073.00    0.65168   0.67479   13.002
 5074.00    0.66488   0.67335   13.058
 5075.00    0.66735   0.67089   13.199
 5076.00    0.65397   0.66693   13.298
 5077.00    0.63066   0.66157   13.285
 5078.00    0.60749   0.65578   13.263
 5079.00    0.59489   0.65112   13.446
 5080.00    0.60134   0.64904   13.788
 5081.00    0.63046   0.65013   13.930
 5082.00    0.67428   0.65397   13.818
 5083.00    0.71393   0.65943   13.793
 5084.00    0.73037   0.66529   13.958
 5085.00    0.71396   0.67066   14.114
 5086.00    0.68151   0.67517   14.228
 5087.00    0.66541   0.67892   14.447
 5088.00    0.66683   0.68218   14.621
 5089.00    0.66039   0.68519   14.395
 5090.00    0.64498   0.68786   13.951
 5091.00    0.64297   0.68972   13.761
 5092.00    0.66233   0.69000   13.734
 5093.00    0.68882   0.68788   13.438
 5094.00    0.69204   0.68301   12.959
 5095.00    0.64912   0.67584   12.706
 5096.00    0.59098   0.66773   12.799
 5097.00    0.57423   0.66063   13.108
 5098.00    0.60467   0.65631   13.407
 5099.00    0.64704   0.65562   13.501
 5100.00    0.67329   0.65808   13.488
 5101.00    0.67489   0.66212   13.572
 5102.00    0.66690   0.66586   13.632
 5103.00    0.67075   0.66788   13.450
 5104.00    0.68567   0.66771   13.208
 5105.00    0.69512   0.66577   13.172
 5106.00    0.68414   0.66306   13.206
 5107.00    0.65041   0.66075   13.086
 5108.00    0.61479   0.65982   13.004
 5109.00    0.60216   0.66075   13.188
 5110.00    0.61494   0.66352   13.361
 5111.00    0.64023   0.66760   13.191
 5112.00    0.66304   0.67227   12.953
 5113.00    0.67313   0.67684   12.973
 5114.00    0.67072   0.68082   13.033
 5115.00    0.66138   0.68379   12.875
 5116.00    0.65022   0.68529   12.749
 5117.00    0.64465   0.68483   12.901
 5118.00    0.65563   0.68198   13.111
 5119.00    0.67834   0.67673   13.147
 5120.00    0.67935   0.66958   13.223
 5121.00    0.64267   0.66151   13.502
 5122.00    0.60360   0.65373   13.670
 5123.00    0.59462   0.64731   13.545
 5124.00    0.60445   0.64285   13.538
 5125.00    0.61161   0.64042   13.830
 5126.00    0.61089   0.63970   13.873
 5127.00    0.60873   0.64031   13.399
 5128.00    0.61666   0.64198   13.015
 5129.00    0.63757   0.64453   13.115
 5130.00    0.65961   0.64774   13.492
 5131.00    0.67170   0.65120   13.829
 5132.00    0.67287   0.65436   13.988
 5133.00    0.67085   0.65655   13.964
 5134.00    0.67743   0.65718   13.832
 5135.00    0.69033   0.65600   13.687
 5136.00    0.69018   0.65328   13.606
 5137.00    0.67044   0.64979   13.649
 5138.00    0.64607   0.64649   13.843
 5139.00    0.62822   0.64406   14.155
 5140.00    0.61531   0.64265   14.496
 5141.00    0.60417   0.64201   14.854
 5142.00    0.59489   0.64176   15.288
 5143.00    0.59104   0.64158   15.552
 5144.00    0.59662   0.64130   15.188
 5145.00    0.60584   0.64092   14.492
 5146.00    0.60634   0.64058   14.222
 5147.00    0.60128   0.64035   14.394
 5148.00    0.60654   0.64014   14.415
 5149.00    0.62090   0.63976   14.162
 5150.00    0.62800   0.63911   14.032
 5151.00    0.62717   0.63849   14.062
 5152.00    0.63181   0.63860   13.972
 5153.00    0.64235   0.64024   13.789
 5154.00    0.64619   0.64380   13.758
 5155.00    0.63480   0.64894   13.786
 5156.00    0.60989   0.65461   13.604
 5157.00    0.58676   0.65944   13.411
 5158.00    0.58339   0.66220   13.587
 5159.00    0.59677   0.66215   13.947
 5160.00    0.60982   0.65899   13.969
 5161.00    0.61408   0.65262   13.720
 5162.00    0.61044   0.64298   13.608
 5163.00    0.60209   0.63025   13.615
 5164.00    0.59078   0.61518   13.537
 5165.00    0.57295   0.59944   13.546
 5166.00    0.54435   0.58537   13.876
 5167.00    0.50827   0.57505   14.212
 5168.00    0.47395   0.56943   14.097
 5169.00    0.45229   0.56823   13.831
 5170.00    0.45090   0.57067   13.851
 5171.00    0.46848   0.57632   13.868
 5172.00    0.49717   0.58520   13.493
 5173.00    0.52672   0.59705   13.079
 5174.00    0.54874   0.61062   13.050
 5175.00    0.56112   0.62366   13.270
 5176.00    0.56942   0.63368   13.435
 5177.00    0.58649   0.63876   13.507
 5178.00    0.61854   0.63804   13.593
 5179.00    0.65270   0.63179   13.734
 5180.00    0.67293   0.62155   13.929
 5181.00    0.67533   0.61006   14.176
 5182.00    0.66020   0.60075   14.450
 5183.00    0.62565   0.59653   14.681
 5184.00    0.58234   0.59858   14.819
 5185.00    0.56158   0.60570   14.879
 5186.00    0.58207   0.61500   14.846
 5187.00    0.62703   0.62328   14.620
 5188.00    0.66525   0.62834   14.245
 5189.00    0.66955   0.62959   13.978
 5190.00    0.63242   0.62791    0.000
 5191.00    0.57391   0.62502    0.000
 5192.00    0.53055   0.62266    0.000
 5193.00    0.53967   0.62202    0.000
 5194.00    0.59200   0.62345    0.000
 5195.00    0.62314   0.62669    0.000
 5196.00    0.60729   0.63109    0.000
 5197.00    0.58980   0.63580    0.000
 5198.00    0.60137   0.63983    0.000
 5199.00    0.62545   0.64207    0.000
 5200.00    0.64613   0.64158    0.000
 5201.00    0.66467   0.63788    0.000
 5202.00    0.67419   0.63124    0.000
 5203.00    0.65736   0.62277    0.000
 5204.00    0.61944   0.61419    0.000
 5205.00    0.59051   0.60737    0.000
 5206.00    0.58663   0.60382    0.000
 5207.00    0.60005   0.60432    0.000
 5208.00    0.61491   0.60877    0.000
 5209.00    0.61772   0.61622    0.000
 5210.00    0.61199   0.62503    0.000
 5211.00    0.61256   0.63330   14.628
 5212.00    0.61726   0.63945   14.766
 5213.00    0.61025   0.64290   15.007
 5214.00    0.59257   0.64428   15.120
 5215.00    0.58019   0.64511   14.917
 5216.00    0.57883   0.64689   14.606
 5217.00    0.58246   0.65022   14.544
 5218.00    0.58492   0.65443   14.660
 5219.00    0.58570   0.65786   14.612
 5220.00    0.59587   0.65863   14.378
 5221.00    0.62512   0.65538   14.175
 5222.00    0.65484   0.64784   14.077
 5223.00    0.65673   0.63717   14.025
 5224.00    0.63566   0.62581   13.973
 5225.00    0.61577   0.61675   13.926
 5226.00    0.60389   0.61240   13.962
 5227.00    0.59561   0.61347   14.121
 5228.00    0.59434   0.61858   14.205
 5229.00    0.60316   0.62501   14.024
 5230.00    0.60944   0.63016   13.787
 5231.00    0.60214   0.63287   13.790
 5232.00    0.59673   0.63380   13.995
 5233.00    0.61121   0.63465   14.164
 5234.00    0.63314   0.63696   14.106
 5235.00    0.64350   0.64130   13.850
 5236.00    0.64854   0.64707   13.734
 5237.00    0.66187   0.65309   13.976
 5238.00    0.68128   0.65826   14.283
 5239.00    0.69617   0.66201   14.317
 5240.00    0.69829   0.66430   14.301
 5241.00    0.68779   0.66528   14.498
 5242.00    0.67674   0.66508   14.677
 5243.00    0.67600   0.66358   14.558
 5244.00    0.68341   0.66066   14.284
 5245.00    0.68496   0.65642   14.123
 5246.00    0.66028   0.65139   14.203
 5247.00    0.61146   0.64644   14.477
 5248.00    0.57805   0.64245   14.699
 5249.00    0.58354   0.63996   14.656
 5250.00    0.60293   0.63908   14.388
 5251.00    0.61044   0.63956   14.178
 5252.00    0.61027   0.64113   14.404
 5253.00    0.61848   0.64362   14.993
 5254.00    0.64726   0.64696   15.132
 5255.00    0.68638   0.65083   14.571
 5256.00    0.70153   0.65430   14.200
 5257.00    0.68077   0.65589   14.415
 5258.00    0.65047   0.65401   14.729
 5259.00    0.62861   0.64770   14.758
 5260.00    0.60694   0.63711   14.693
 5261.00    0.57953   0.62365   14.698
 5262.00    0.55432   0.60946   14.672
 5263.00    0.54319   0.59671   14.578
 5264.00    0.55455   0.58691   14.523
 5265.00    0.58246   0.58050   14.555
 5266.00    0.60731   0.57707   14.609
 5267.00    0.61405   0.57598   14.637
 5268.00    0.60048   0.57693   14.639
 5269.00    0.58136   0.58000   14.599
 5270.00    0.58034   0.58522   14.494
 5271.00    0.60078   0.59209   14.390
 5272.00    0.62438   0.59976   14.405
 5273.00    0.63445   0.60751   14.543
 5274.00    0.62501   0.61513   14.697
 5275.00    0.60562   0.62263   14.829
 5276.00    0.59290   0.62969   14.970
 5277.00    0.58698   0.63542   15.080
 5278.00    0.57888   0.63880   15.078
 5279.00    0.58124   0.63944   15.002
 5280.00    0.61237   0.63804   14.971
 5281.00    0.64729   0.63628   15.022
 5282.00    0.64406   0.63609   15.125
 5283.00    0.61680   0.63880   15.267
 5284.00    0.60981   0.64450   15.429
 5285.00    0.62245   0.65213   15.486
 5286.00    0.62966   0.66001   15.302
 5287.00    0.64095   0.66661   14.919
 5288.00    0.67510   0.67104   14.514
 5289.00    0.70472   0.67305   14.281
 5290.00    0.69172   0.67278   14.304
 5291.00    0.65239   0.67041   14.436
 5292.00    0.62782   0.66607   14.470
 5293.00    0.62943   0.65994   14.448
 5294.00    0.64398   0.65248   14.489
 5295.00    0.65106   0.64461   14.518
 5296.00    0.63890   0.63766   14.437
 5297.00    0.61958   0.63293   14.350
 5298.00    0.61137   0.63125   14.364
 5299.00    0.61717   0.63262   14.366
 5300.00    0.62752   0.63643   14.270
 5301.00    0.62771   0.64172   14.280
 5302.00    0.61280   0.64753   14.570
 5303.00    0.59931   0.65303   14.985
 5304.00    0.60205   0.65763   15.259
 5305.00    0.61392   0.66109   15.313
 5306.00    0.62332   0.66352   15.245
 5307.00    0.62969   0.66522   15.240
 5308.00    0.63622   0.66635   15.361
 5309.00    0.64338   0.66679   15.446
 5310.00    0.64955   0.66620   15.402
 5311.00    0.65211   0.66428   15.403
 5312.00    0.64853   0.66102   15.520
 5313.00    0.63793   0.65684   15.528
 5314.00    0.62635   0.65253   15.402
 5315.00    0.62693   0.64899   15.516
 5316.00    0.64125   0.64685   15.935
 5317.00    0.65307   0.64617   16.102
 5318.00    0.65534   0.64634   15.816
 5319.00    0.65970   0.64624   15.655
 5320.00    0.66773   0.64476   15.902
 5321.00    0.66281   0.64116   16.217
 5322.00    0.64245   0.63528   16.311
 5323.00    0.62593   0.62750   16.273
 5324.00    0.61901   0.61859   16.221
 5325.00    0.60470   0.60975   16.166
 5326.00    0.57067   0.60258   16.147
 5327.00    0.52213   0.59876   16.246
 5328.00    0.48616   0.59947   16.419
 5329.00    0.49791   0.60469   16.492
 5330.00    0.54871   0.61306   16.398
 5331.00    0.58926   0.62246   16.237
 5332.00    0.59827   0.63082   16.131
 5333.00    0.59246   0.63678   16.130
 5334.00    0.58758   0.63981   16.082
 5335.00    0.58799   0.64000   15.780
 5336.00    0.59193   0.63793   15.471
 5337.00    0.59636   0.63455   15.583
 5338.00    0.60468   0.63110   15.906
 5339.00    0.62241   0.62881   15.813
 5340.00    0.64239   0.62842   15.441
 5341.00    0.65010   0.62988   15.405
 5342.00    0.64347   0.63235   15.634
 5343.00    0.63166   0.63470   15.628
 5344.00    0.62337   0.63611   15.455
 5345.00    0.62398   0.63647   15.522
 5346.00    0.63495   0.63633   15.721
 5347.00    0.65152   0.63657   15.647
 5348.00    0.65960   0.63800   15.296
 5349.00    0.64853   0.64098   14.957
 5350.00    0.63212   0.64543   14.795
 5351.00    0.63083   0.65088   14.839
 5352.00    0.64000   0.65667   15.029
 5353.00    0.64418   0.66221   15.244
 5354.00    0.64382   0.66694   15.353
 5355.00    0.64601   0.67043   15.299
 5356.00    0.64760   0.67227   15.192
 5357.00    0.64209   0.67214   15.188
 5358.00    0.63086   0.66991   15.348
 5359.00    0.62127   0.66571   15.642
 5360.00    0.62197   0.66001   15.962
 5361.00    0.63133   0.65356   16.159
 5362.00    0.62814   0.64714   16.111
 5363.00    0.60124   0.64130   15.882
 5364.00    0.57654   0.63617   15.788
 5365.00    0.58030   0.63145   15.988
 5366.00    0.60473   0.62674   -2.000
 5367.00    0.63030   0.62191   -2.000
 5368.00    0.64731   0.61751   -2.000
 5369.00    0.65275   0.61473   -2.000
 5370.00    0.64664   0.61484   -2.000
 5371.00    0.63416   0.61850   -2.000
 5372.00    0.62584   0.62518   -2.000
 5373.00    0.62652   0.63336   -2.000
 5374.00    0.62981   0.64113   -2.000
 5375.00    0.63324   0.64696   -2.000
 5376.00    0.64497   0.65016   -2.000
 5377.00    0.66240   0.65085   -2.000
 5378.00    0.66474   0.64963   -2.000
 5379.00    0.64554   0.64736   -2.000
 5380.00    0.62502   0.64493   -2.000
 5381.00    0.61642   0.64309   16.497
 5382.00    0.61283   0.64228   16.835
 5383.00    0.61162   0.64246   16.962
 5384.00    0.62195   0.64312   16.734
 5385.00    0.64391   0.64349   16.315
 5386.00    0.66344   0.64283   16.094
 5387.00    0.67127   0.64082   16.261
 5388.00    0.66860   0.63759   16.720
 5389.00    0.65743   0.63364   17.143
 5390.00    0.63893   0.62950   17.088
 5391.00    0.62142   0.62550   16.610
 5392.00    0.61667   0.62172   16.203
 5393.00    0.61847   0.61811   16.052
 5394.00    0.60626   0.61481   16.019
 5395.00    0.57807   0.61220   16.072
 5396.00    0.55141   0.61078   16.280
 5397.00    0.53650   0.61077   16.451
 5398.00    0.53218   0.61176   16.254
 5399.00    0.53609   0.61272   15.900
 5400.00    0.54562   0.61244   15.865
 5401.00    0.55344   0.61015   16.020
 5402.00    0.55284   0.60598   15.880
 5403.00    0.55184   0.60093   15.642
 5404.00    0.56470   0.59645   15.854
 5405.00    0.58774   0.59374   16.341
 5406.00    0.60538   0.59333   16.458
 5407.00    0.61209   0.59504   16.226
 5408.00    0.61265   0.59838   16.152
 5409.00    0.61444   0.60285   16.349
 5410.00    0.62151   0.60806   16.594
 5411.00    0.62741   0.61365   16.637
 5412.00    0.62276   0.61923   16.417
 5413.00    0.60863   0.62443   16.261
 5414.00    0.59319   0.62895   16.485
 5415.00    0.58357   0.63253   16.871
 5416.00    0.58436   0.63496   16.985
 5417.00    0.59715   0.63606   16.826
 5418.00    0.61942   0.63582   16.645
 5419.00    0.64347   0.63445   16.529
 5420.00    0.65795   0.63236   16.518
 5421.00    0.65098   0.63007   16.759
 5422.00    0.62348   0.62810   17.247
 5423.00    0.60072   0.62675   17.492
 5424.00    0.60289   0.62592   17.209
 5425.00    0.61607   0.62510   17.043
 5426.00    0.61837   0.62362   17.444
 5427.00    0.60677   0.62114   17.745
 5428.00    0.58932   0.61780   17.350
 5429.00    0.57560   0.61422   16.930
 5430.00    0.57095   0.61103   17.072
 5431.00    0.57300   0.60875   17.439
 5432.00    0.57654   0.60777   17.550
 5433.00    0.57776   0.60847   17.434
 5434.00    0.57630   0.61125   17.290
 5435.00    0.57598   0.61620   17.175
 5436.00    0.58099   0.62288   17.114
 5437.00    0.59328   0.63030   17.156
 5438.00    0.61207   0.63711   17.269
 5439.00    0.63358   0.64201   17.304
 5440.00    0.65045   0.64401   17.179
 5441.00    0.65353   0.64266   16.982
 5442.00    0.64267   0.63820   16.815
 5443.00    0.62974   0.63164   16.719
 5444.00    0.62483   0.62464   16.664
 5445.00    0.62926   0.61912   16.571
 5446.00    0.63630   0.61652   16.454
 5447.00    0.63447   0.61715   16.432
 5448.00    0.61985   0.62002   16.519
 5449.00    0.59931   0.62333   16.590
 5450.00    0.58244   0.62525   16.578
 5451.00    0.57682   0.62479   16.543
 5452.00    0.58278   0.62217   16.574
 5453.00    0.59390   0.61871   16.708
 5454.00    0.60468   0.61610   16.781
 5455.00    0.61198   0.61555   16.539
 5456.00    0.61117   0.61717   16.177
 5457.00    0.59916   0.61999   16.160
 5458.00    0.58647   0.62250   16.464
 5459.00    0.59069   0.62354   16.648
 5460.00    0.60982   0.62285   16.642
 5461.00    0.62606   0.62111   16.745
 5462.00    0.63349   0.61944   16.951
 5463.00    0.63785   0.61873   16.986
 5464.00    0.63947   0.61929   16.852
 5465.00    0.63341   0.62081   16.800
 5466.00    0.61869   0.62255   16.938
 5467.00    0.60060   0.62379   17.224
 5468.00    0.59081   0.62397   17.547
 5469.00    0.59850   0.62276   17.775
 5470.00    0.61450   0.62010   17.809
 5471.00    0.62185   0.61610   17.636
 5472.00    0.61893   0.61109   17.357
 5473.00    0.61426   0.60563   17.147
 5474.00    0.61183   0.60057   17.181
 5475.00    0.61052   0.59681   17.526
 5476.00    0.60709   0.59502   17.962
 5477.00    0.59998   0.59534   -2.000
 5478.00    0.59364   0.59740   -2.000
 5479.00    0.59394   0.60055   -2.000
 5480.00    0.60148   0.60425   -2.000
 5481.00    0.61209   0.60810   -2.000
 5482.00    0.61887   0.61180   -2.000
 5483.00    0.61853   0.61494   -2.000
 5484.00    0.61755   0.61710   -2.000
 5485.00    0.62377   0.61812   -2.000
 5486.00    0.63698   0.61821   -2.000
 5487.00    0.64912   0.61788   -2.000
 5488.00    0.64695   0.61764   -2.000
 5489.00    0.62573   0.61774   -2.000
 5490.00    0.60001   0.61808   -2.000
 5491.00    0.59010   0.61841   -2.000
 5492.00    0.60811   0.61850   -2.000
 5493.00    0.64349   0.61829   -2.000
 5494.00    0.65876   0.61786   -2.000
 5495.00    0.63674   0.61735   -2.000
 5496.00    0.60810   0.61685   -2.000
 5497.00    0.59957   0.61628   -2.000
 5498.00    0.60200   0.61542   -2.000
 5499.00    0.60219   0.61407   -2.000
 5500.00    0.60211   0.61221   17.194
 5501.00    0.60627   0.61004   17.278
 5502.00    0.61375   0.60789   17.265
 5503.00    0.62007   0.60603   17.112
 5504.00    0.61983   0.60465   16.986
 5505.00    0.61365   0.60380   17.016
 5506.00    0.60908   0.60339   17.197
 5507.00    0.60793   0.60316   17.466
 5508.00    0.60315   0.60285   17.741
 5509.00    0.59158   0.60230   17.981
 5510.00    0.57829   0.60162   18.192
 5511.00    0.57081   0.60121   18.333
 5512.00    0.57496   0.60163   18.315
 5513.00    0.58855   0.60327   18.163
 5514.00    0.60209   0.60619   18.033
 5515.00    0.60894   0.61008   18.029
 5516.00    0.60829   0.61434   18.151
 5517.00    0.60251   0.61829   18.277
 5518.00    0.59570   0.62134   18.234
 5519.00    0.59203   0.62313   18.052
 5520.00    0.59417   0.62348   17.945
 5521.00    0.60068   0.62239   18.068
 5522.00    0.60701   0.61988   18.436
 5523.00    0.61004   0.61617   18.795
 5524.00    0.60907   0.61171   18.787
 5525.00    0.60513   0.60722   18.531
 5526.00    0.59967   0.60360   18.441
 5527.00    0.59235   0.60158   18.553
 5528.00    0.58236   0.60140   18.605
 5529.00    0.57232   0.60265   18.452
 5530.00    0.56708   0.60449   18.146
 5531.00    0.56973   0.60613   17.858
 5532.00    0.57973   0.60716   17.732
 5533.00    0.59103   0.60772   17.698
 5534.00    0.59862   0.60834   17.638
 5535.00    0.60903   0.60949   17.664
 5536.00    0.62917   0.61134   17.822
 5537.00    0.64744   0.61361   17.590
 5538.00    0.65014   0.61576   16.597
 5539.00    0.64767   0.61723   15.521
 5540.00    0.65788   0.61768   14.967
 5541.00    0.67969   0.61717   14.696
 5542.00    0.70069   0.61614   14.345
 5543.00    0.71097   0.61526   14.068
 5544.00    0.70633   0.61512   14.133
 5545.00    0.68978   0.61602   14.497
 5546.00    0.66774   0.61785   14.983
 5547.00    0.64583   0.62011   15.484
 5548.00    0.62912   0.62215   15.900
 5549.00    0.62242   0.62337   16.065
 5550.00    0.62647   0.62348   15.939
 5551.00    0.63500   0.62254   15.753
 5552.00    0.63978   0.62091   15.696
 5553.00    0.63562   0.61907   15.713
 5554.00    0.62450   0.61744   15.816
 5555.00    0.61669   0.61620   16.305
 5556.00    0.61764   0.61530   17.273
 5557.00    0.61966   0.61448   18.138
 5558.00    0.61423   0.61348   18.382
 5559.00    0.60065   0.61209   18.404
 5560.00    0.58304   0.61028   18.638
 5561.00    0.56752   0.60813   18.941
 5562.00    0.55911   0.60586   19.043
 5563.00    0.55979   0.60369   18.898
 5564.00    0.56783   0.60180   18.734
 5565.00    0.57788   0.60030   18.929
 5566.00    0.58318   0.59929   19.445
 5567.00    0.57813   0.59869   19.653
 5568.00    0.56446   0.59843   19.315
 5569.00    0.55222   0.59851   18.953
 5570.00    0.55092   0.59887   18.881
 5571.00    0.56442   0.59951   18.949
 5572.00    0.58710   0.60051   18.939
 5573.00    0.60612   0.60188   18.754
 5574.00    0.61535   0.60352   18.486
 5575.00    0.61833   0.60530   18.336
 5576.00    0.61891   0.60697   18.290
 5577.00    0.61870   0.60830   18.142
 5578.00    0.61983   0.60908   17.868
 5579.00    0.62340   0.60910   17.643
 5580.00    0.62218   0.60813   17.571
 5581.00    0.60641   0.60587   17.620
 5582.00    0.58599   0.60213   17.636
 5583.00    0.58222   0.59693   17.469
 5584.00    0.59011   0.59068   17.265
 5585.00    0.58535   0.58423   17.319
 5586.00    0.56554   0.57864   17.575
 5587.00    0.54866   0.57487   17.725
 5588.00    0.54627   0.57342   17.719
 5589.00    0.55787   0.57415   17.737
 5590.00    0.57264   0.57654   17.820
 5591.00    0.57844   0.57990   17.869
 5592.00    0.57804   0.58352   17.804
 5593.00    0.58240   0.58683   17.630
 5594.00    0.59304   0.58941   17.476
 5595.00    0.60311   0.59093   17.468
 5596.00    0.60516   0.59114   17.537
 5597.00    0.59676   0.59009   17.537
 5598.00    0.58672   0.58824   17.479
 5599.00    0.58632   0.58647   17.485
 5600.00    0.59537   0.58576   17.669
 5601.00    0.60500   0.58688   18.061
 5602.00    0.60471   0.59012   18.518
 5603.00    0.59006   0.59516   18.826
 5604.00    0.57040   0.60114   18.906
 5605.00    0.55880   0.60703   18.833
 5606.00    0.55937   0.61196   18.770
 5607.00    0.56982   0.61539   18.822
 5608.00    0.58584   0.61708   18.922
 5609.00    0.60071   0.61689   18.970
 5610.00    0.60508   0.61467   18.989
 5611.00    0.59338   0.61053   19.053
 5612.00    0.56958   0.60501   19.190
 5613.00    0.54377   0.59906   19.316
 5614.00    0.52786   0.59376   19.214
 5615.00    0.52905   0.59011   18.856
 5616.00    0.54493   0.58859   18.574
 5617.00    0.56587   0.58901   18.591
 5618.00    0.57869   0.59054   18.765
 5619.00    0.57787   0.59210   18.882
 5620.00    0.57159   0.59280   18.874
 5621.00    0.56933   0.59239   18.769
 5622.00    0.57397   0.59120   18.635
 5623.00    0.58637   0.58995   18.497
 5624.00    0.60724   0.58949   18.319
 5625.00    0.63084   0.59044   18.107
 5626.00    0.64409   0.59291   17.944
 5627.00    0.64143   0.59643   17.886
 5628.00    0.63015   0.60020   17.923
 5629.00    0.61648   0.60337   17.986
 5630.00    0.60035   0.60530   17.991
 5631.00    0.58352   0.60568   17.966
 5632.00    0.57165   0.60457   18.065
 5633.00    0.56634   0.60232   18.354
 5634.00    0.56368   0.59947   18.736
 5635.00    0.56243   0.59656   19.017
 5636.00    0.56517   0.59397   19.029
 5637.00    0.57069   0.59191   18.970
 5638.00    0.57343   0.59054   19.268
 5639.00    0.57113   0.58987   19.774
 5640.00    0.56658   0.58985   19.783
 5641.00    0.56461   0.59044   19.328
 5642.00    0.56977   0.59157   19.145
 5643.00    0.58244   0.59305   19.390
 5644.00    0.59906   0.59466   19.642
 5645.00    0.61581   0.59610   19.690
 5646.00    0.62887   0.59724   19.659
 5647.00    0.63277   0.59808   19.684
 5648.00    0.62364   0.59862   19.790
 5649.00    0.60747   0.59880   19.837
 5650.00    0.59606   0.59845   19.656
 5651.00    0.59432   0.59739   19.364
 5652.00    0.59989   0.59550   19.214
 5653.00    0.60827   0.59252   19.243
 5654.00    0.61474   0.58845   19.295
 5655.00    0.61624   0.58391   19.172
 5656.00    0.61249   0.57968   18.824
 5657.00    0.60732   0.57630   18.558
 5658.00    0.60581   0.57415   18.688
 5659.00    0.60960   0.57350   19.037
 5660.00    0.61725   0.57436   19.187
 5661.00    0.62587   0.57636   19.035
 5662.00    0.63177   0.57898   18.724
 5663.00    0.63112   0.58169   18.364
 5664.00    0.62321   0.58412   18.061
 5665.00    0.61409   0.58614   17.993
 5666.00    0.61039   0.58778   18.242
 5667.00    0.61171   0.58928   18.581
 5668.00    0.61506   0.59102   18.723
 5669.00    0.62046   0.59320   18.688
 5670.00    0.62802   0.59573   18.667
 5671.00    0.63437   0.59829   18.803
 5672.00    0.63356   0.60059   19.023
 5673.00    0.61932   0.60233   18.947
 5674.00    0.59417   0.60322   18.454
 5675.00    0.57523   0.60318   18.077
 5676.00    0.57425   0.60228   18.188
 5677.00    0.58216   0.60056   18.541
 5678.00    0.58542   0.59804   18.818
 5679.00    0.57962   0.59497   19.065
 5680.00    0.56823   0.59177   19.365
 5681.00    0.56001   0.58879   19.562
 5682.00    0.56179   0.58621   19.568
 5683.00    0.57365   0.58417   19.561
 5684.00    0.58957   0.58276   19.690
 5685.00    0.59945   0.58212   19.905
 5686.00    0.59742   0.58238   20.141
 5687.00    0.58614   0.58358   20.403
 5688.00    0.57386   0.58571   20.549
 5689.00    0.57037   0.58849   20.289
 5690.00    0.57638   0.59144   19.774
 5691.00    0.58129   0.59405   19.602
 5692.00    0.57821   0.59591   19.916
 5693.00    0.56972   0.59672   20.210
 5694.00    0.56191   0.59637   19.991
 5695.00    0.56067   0.59497   19.234
 5696.00    0.56807   0.59276   18.415
 5697.00    0.58130   0.58995   18.123
 5698.00    0.59408   0.58691   18.393
 5699.00    0.59886   0.58408   18.739
 5700.00    0.59203   0.58172   18.821
 5701.00    0.57562   0.57980   18.693
 5702.00    0.55640   0.57804   18.585
 5703.00    0.54385   0.57609   18.700
 5704.00    0.54526   0.57366   18.902
 5705.00    0.56185   0.57068   18.830
 5706.00    0.58297   0.56755   18.536
 5707.00    0.59263   0.56484   18.398
 5708.00    0.58988   0.56318   18.500
 5709.00    0.58716   0.56317   18.660
 5710.00    0.59369   0.56503   18.806
 5711.00    0.61014   0.56850   19.007
 5712.00    0.62654   0.57305   19.339
 5713.00    0.63033   0.57803   19.772
 5714.00    0.62313   0.58282   19.988
 5715.00    0.61659   0.58709   19.676
 5716.00    0.61753   0.59069   19.211
 5717.00    0.62506   0.59369   19.157
 5718.00    0.63092   0.59622   19.475
 5719.00    0.62762   0.59839   19.766
 5720.00    0.62119   0.60014   19.863
 5721.00    0.62272   0.60135   19.822
 5722.00    0.63248   0.60182   19.721
 5723.00    0.64237   0.60142   19.661
 5724.00    0.64308   0.60031   19.817
 5725.00    0.63113   0.59885   20.236
 5726.00    0.61588   0.59729   20.545
 5727.00    0.60841   0.59578   20.379
 5728.00    0.60727   0.59449   20.038
 5729.00    0.60613   0.59369   19.935
 5730.00    0.60430   0.59351   19.987
 5731.00    0.60516   0.59389   19.890
 5732.00    0.61276   0.59465   19.482
 5733.00    0.62600   0.59553   18.924
 5734.00    0.63449   0.59627   18.682
 5735.00    0.63240   0.59666   18.936
 5736.00    0.62976   0.59665   19.170
 5737.00    0.63547   0.59627   18.946
 5738.00    0.64318   0.59568   18.624
 5739.00    0.64272   0.59503   18.583
 5740.00    0.63041   0.59452    0.000
 5741.00    0.61104   0.59431    0.000
 5742.00    0.59679   0.59433    0.000
 5743.00    0.59313   0.59428    0.000
 5744.00    0.59140   0.59389    0.000
 5745.00    0.58454   0.59312    0.000
 5746.00    0.57622   0.59215    0.000
 5747.00    0.57206   0.59100    0.000
 5748.00    0.57437   0.58954    0.000
 5749.00    0.58350   0.58769    0.000
 5750.00    0.59870   0.58561    0.000
 5751.00    0.61706   0.58375    0.000
 5752.00    0.63348   0.58265    0.000
 5753.00    0.64288   0.58263    0.000
 5754.00    0.64243   0.58361    0.000
 5755.00    0.63612   0.58517    0.000
 5756.00    0.63380   0.58659    0.000
 5757.00    0.63878   0.58720    0.000
 5758.00    0.64514   0.58666    0.000
 5759.00    0.64746   0.58525    0.000
 5760.00    0.64412   0.58377    0.000
 5761.00    0.63559   0.58313    0.000
 5762.00    0.62365   0.58375    0.000
 5763.00    0.61120   0.58560    0.000
 5764.00    0.60138   0.58827    0.000
 5765.00    0.59508   0.59107    0.000
 5766.00    0.59100   0.59334    0.000
 5767.00    0.58801   0.59464    0.000
 5768.00    0.58611   0.59484    0.000
 5769.00    0.58727   0.59412    0.000
 5770.00    0.59375   0.59286    0.000
 5771.00    0.60384   0.59138    0.000
 5772.00    0.61270   0.59001    0.000
 5773.00    0.61677   0.58889    0.000
 5774.00    0.61464   0.58788    0.000
 5775.00    0.60690   0.58660    0.000
 5776.00    0.59623   0.58458    0.000
 5777.00    0.58757   0.58145    0.000
 5778.00    0.58595   0.57730    0.000
 5779.00    0.59252   0.57272    0.000
 5780.00    0.60385   0.56832    0.000
 5781.00    0.61226   0.56462    0.000
 5782.00    0.61139   0.56213    0.000
 5783.00    0.60441   0.56134    0.000
 5784.00    0.59986   0.56227    0.000
 5785.00    0.60334   0.56450    0.000
 5786.00    0.61296   0.56744    0.000
 5787.00    0.61577   0.57044    0.000
 5788.00    0.60156   0.57312    0.000
 5789.00    0.57972   0.57546    0.000
 5790.00    0.56431   0.57751   -2.000
 5791.00    0.55515   0.57933   -2.000
 5792.00    0.54923   0.58096   -2.000
 5793.00    0.55424   0.58223   -2.000
 5794.00    0.57463   0.58302   -2.000
 5795.00    0.59759   0.58358   -2.000
 5796.00    0.60792   0.58431   -2.000
 5797.00    0.60296   0.58536   -2.000
 5798.00    0.58857   0.58665   -2.000
 5799.00    0.57369   0.58796   -2.000
 5800.00    0.56384   0.58885   -2.000
 5801.00    0.55724   0.58892   -2.000
 5802.00    0.55304   0.58820   -2.000
 5803.00    0.55649   0.58699   -2.000
 5804.00    0.56846   0.58570   -2.000
 5805.00    0.57980   0.58474   -2.000
 5806.00    0.58405   0.58435   -2.000
 5807.00    0.58491   0.58461   -2.000
 5808.00    0.58783   0.58533   -2.000
 5809.00    0.59451   0.58611    0.000
 5810.00    0.60299   0.58660    0.000
 5811.00    0.60837   0.58655    0.000
 5812.00    0.60616   0.58593    0.000
 5813.00    0.59480   0.58501    0.000
 5814.00    0.57948   0.58437    0.000
 5815.00    0.57164   0.58444    0.000
 5816.00    0.57873   0.58526    0.000
 5817.00    0.59957   0.58667    0.000
 5818.00    0.62554   0.58834    0.000
 5819.00    0.64405   0.58986    0.000
 5820.00    0.64944   0.59095    0.000
 5821.00    0.64534   0.59158    0.000
 5822.00    0.63730   0.59184    0.000
 5823.00    0.62919   0.59186    0.000
 5824.00    0.62035   0.59178    0.000
 5825.00    0.60708   0.59174    0.000
 5826.00    0.59007   0.59178    0.000
 5827.00    0.57499   0.59178    0.000
 5828.00    0.56737   0.59164    0.000
 5829.00    0.56936   0.59129    0.000
 5830.00    0.57553   0.59067    0.000
 5831.00    0.57729   0.58975    0.000
 5832.00    0.57630   0.58870    0.000
 5833.00    0.58130   0.58781    0.000
 5834.00    0.59300   0.58715    0.000
 5835.00    0.60451   0.58672    0.000
 5836.00    0.60975   0.58670    0.000
 5837.00    0.60725   0.58717    0.000
 5838.00    0.60345   0.58796    0.000
 5839.00    0.60648   0.58883    0.000
 5840.00    0.61379   0.58949    0.000
 5841.00    0.61731   0.58968    0.000
 5842.00    0.61616   0.58923    0.000
 5843.00    0.61436   0.58814    0.000
 5844.00    0.61386   0.58652    0.000
 5845.00    0.61363   0.58466    0.000
 5846.00    0.61015   0.58280    0.000
 5847.00    0.59977   0.58096    0.000
 5848.00    0.58183   0.57901    0.000
 5849.00    0.55977   0.57668    0.000
 5850.00    0.54149   0.57393    0.000
 5851.00    0.53282   0.57104    0.000
 5852.00    0.53027   0.56825    0.000
 5853.00    0.52886   0.56545    0.000
 5854.00    0.53113   0.56265    0.000
 5855.00    0.54084   0.56039    0.000
 5856.00    0.55563   0.55918    0.000
 5857.00    0.57023   0.55915    0.000
 5858.00    0.58032   0.56015    0.000
 5859.00    0.58441   0.56181    0.000
 5860.00    0.58498   0.56389    0.000
 5861.00    0.58693   0.56620    0.000
 5862.00    0.59539   0.56835    0.000
 5863.00    0.60916   0.57004    0.000
 5864.00    0.61758   0.57136    0.000
 5865.00    0.61438   0.57259    0.000
 5866.00    0.60631   0.57386    0.000
 5867.00    0.60229   0.57509    0.000
 5868.00    0.60552   0.57609    0.000
 5869.00    0.61348   0.57664    0.000
 5870.00    0.61972   0.57657    0.000
 5871.00    0.62286   0.57580    0.000
 5872.00    0.63017   0.57439    0.000
 5873.00    0.64824   0.57259    0.000
 5874.00    0.67696   0.57073    0.000
 5875.00    0.70560   0.56908    0.000
 5876.00    0.71533   0.56757    0.000
 5877.00    0.69909   0.56618    0.000
 5878.00    0.66756   0.56502    0.000
 5879.00    0.63448   0.56401    0.000
 5880.00    0.60958   0.56276    0.000
 5881.00    0.59715   0.56091    0.000
 5882.00    0.59611   0.55812    0.000
 5883.00    0.60259   0.55388    0.000
 5884.00    0.61135   0.54747    0.000
 5885.00    0.61743   0.53818    0.000
 5886.00    0.61720   0.52596    0.000
 5887.00    0.60976   0.51245    0.000
 5888.00    0.59714   0.50052    0.000
 5889.00    0.58365   0.49198    0.000
 5890.00    0.57433   0.48705    0.000
 5891.00    0.57126   0.48506    0.000
 5892.00    0.57244   0.48471    0.000
 5893.00    0.57158   0.48556    0.000
 5894.00    0.56208   0.48844    0.000
 5895.00    0.54612   0.49369    0.000
 5896.00    0.53275   0.50092    0.000
 5897.00    0.52877   0.50975    0.000
 5898.00    0.53664   0.51961    0.000
 5899.00    0.55423   0.52958    0.000
 5900.00    0.57536   0.53873    0.000
 5901.00    0.59072   0.54635   21.930
 5902.00    0.59198   0.55210   21.471
 5903.00    0.57837   0.55613   20.929
 5904.00    0.55579   0.55892   20.969
 5905.00    0.53327   0.56094   21.194
 5906.00    0.51895   0.56242   20.906
 5907.00    0.51500   0.56348   20.549
 5908.00    0.51960   0.56415   20.820
 5909.00    0.53074   0.56425   21.342
 5910.00    0.54568   0.56352   21.317
 5911.00    0.55971   0.56200   20.812
 5912.00    0.56886   0.56018   20.384
 5913.00    0.57340   0.55860   20.345
 5914.00    0.57546   0.55767   20.683
 5915.00    0.57616   0.55758   21.011
 5916.00    0.57648   0.55825   20.997
 5917.00    0.57859   0.55949   20.886
 5918.00    0.58512   0.56095   20.955
 5919.00    0.59783   0.56228   20.970
 5920.00    0.61389   0.56336   20.788
 5921.00    0.62349   0.56418   20.848
 5922.00    0.61957   0.56474   21.422
 5923.00    0.60562   0.56500   22.013
 5924.00    0.58960   0.56487   22.138
 5925.00    0.57826   0.56424   22.123
 5926.00    0.57500   0.56315   22.272
 5927.00    0.57867   0.56180   22.279
 5928.00    0.58469   0.56069   22.050
 5929.00    0.58640   0.56011   22.129
 5930.00    0.57871   0.55989   22.646
 5931.00    0.56072   0.55982   22.820
 5932.00    0.53732   0.55995   22.427
 5933.00    0.51879   0.56046   22.425
 5934.00    0.51391   0.56125   23.042
 5935.00    0.52546   0.56207   23.098
 5936.00    0.54739   0.56276   22.184
 5937.00    0.56639   0.56309   21.431
 5938.00    0.57608   0.56289   21.316
 5939.00    0.58083   0.56240   21.302
 5940.00    0.58273   0.56195   21.121
 5941.00    0.57875   0.56171   21.094
 5942.00    0.57327   0.56172   21.252
 5943.00    0.57859   0.56185   21.176
 5944.00    0.59670   0.56185   20.825
 5945.00    0.61631   0.56141   20.628
 5946.00    0.62682   0.56054   20.742
 5947.00    0.62419   0.55959   20.950
 5948.00    0.61275   0.55873   21.026
 5949.00    0.60203   0.55783   20.899
 5950.00    0.59610   0.55690   20.738
 5951.00    0.59282   0.55629   20.812
 5952.00    0.59142   0.55607   21.117
 5953.00    0.59320   0.55599   21.421
 5954.00    0.59762   0.55592   21.685
 5955.00    0.60241   0.55607   22.044
 5956.00    0.60613   0.55667   22.426
 5957.00    0.60809   0.55777   22.604
 5958.00    0.60686   0.55928   22.621
 5959.00    0.60211   0.56096   22.691
 5960.00    0.59886   0.56256   22.743
 5961.00    0.60225   0.56385   22.583
 5962.00    0.60592   0.56468   22.375
 5963.00    0.59907   0.56507   22.411
 5964.00    0.58270   0.56527   22.598
 5965.00    0.56733   0.56555   22.629
 5966.00    0.56375   0.56598   22.458
 5967.00    0.57551   0.56659   22.254
 5968.00    0.59049   0.56728   22.191
 5969.00    0.59230   0.56780   22.281
 5970.00    0.57852   0.56789   22.209
 5971.00    0.55818   0.56733   21.767
 5972.00    0.54435   0.56596   21.387
 5973.00    0.54617   0.56383   21.484
 5974.00    0.56041   0.56131   21.749
 5975.00    0.57594   0.55889   21.695
 5976.00    0.58088   0.55696   21.420
 5977.00    0.57184   0.55572   21.262
 5978.00    0.56164   0.55503   21.347
 5979.00    0.56382   0.55443   21.637
 5980.00    0.57687   0.55351   21.992
 5981.00    0.59096   0.55211   22.263
 5982.00    0.59652   0.55062   22.387
 5983.00    0.59108   0.54957   22.382
 5984.00    0.58321   0.54911   22.327
 5985.00    0.58077   0.54925   22.302
 5986.00    0.58200   0.54997   22.345
 5987.00    0.58318   0.55112   22.404
 5988.00    0.58442   0.55232   22.330
 5989.00    0.58594   0.55341   22.125
 5990.00    0.58571   0.55451   22.047
 5991.00    0.58276   0.55555   22.250
 5992.00    0.57872   0.55622   22.606
 5993.00    0.57289   0.55633   22.947
 5994.00    0.56059   0.55583   23.211
 5995.00    0.54116   0.55488   23.301
 5996.00    0.52146   0.55379   23.062
 5997.00    0.50939   0.55285   22.638
 5998.00    0.50991   0.55209   22.465
 5999.00    0.52291   0.55134   22.588
 6000.00    0.54294   0.55051   22.550
 6001.00    0.56218   0.54976   22.251
 6002.00    0.57323   0.54911   22.135
 6003.00    0.57421   0.54831   22.352
 6004.00    0.56987   0.54718   22.561
 6005.00    0.56712   0.54587   22.418
 6006.00    0.57103   0.54485   21.860
 6007.00    0.57739   0.54461   21.205
 6008.00    0.57544   0.54498   20.902
 6009.00    0.56553   0.54538   21.008
 6010.00    0.55904   0.54546   21.225
 6011.00    0.55965   0.54532   21.340
 6012.00    0.56129   0.54510   21.359
 6013.00    0.55963   0.54468   21.437
 6014.00    0.55504   0.54396   21.728
 6015.00    0.55145   0.54313   22.037
 6016.00    0.55229   0.54230   22.001
 6017.00    0.55171   0.54138   21.870
 6018.00    0.53942   0.54057   22.228
 6019.00    0.51668   0.54014   22.995
 6020.00    0.49482   0.54018   23.543
 6021.00    0.48440   0.54063   23.701
 6022.00    0.49052   0.54162   23.769
 6023.00    0.50880   0.54319   23.810
 6024.00    0.52975   0.54502   23.726
 6025.00    0.54817   0.54697   23.676
 6026.00    0.56297   0.54909   23.852
 6027.00    0.57379   0.55118   23.974
 6028.00    0.57986   0.55303   23.629
 6029.00    0.57914   0.55462   22.987
 6030.00    0.57206   0.55605   22.476
 6031.00    0.56658   0.55724   22.247
 6032.00    0.57052   0.55811   22.257
 6033.00    0.58033   0.55870   22.395
 6034.00    0.58719   0.55902   22.530
 6035.00    0.58673   0.55905   22.558
 6036.00    0.58057   0.55877   22.444
 6037.00    0.57592   0.55818   22.278
 6038.00    0.57712   0.55742   22.189
 6039.00    0.57722   0.55670   22.269
 6040.00    0.56857   0.55627   22.483
 6041.00    0.55412   0.55629   22.608
 6042.00    0.54131   0.55665   22.506
 6043.00    0.53499   0.55719   22.382
 6044.00    0.53711   0.55783   22.448
 6045.00    0.54707   0.55845   22.631
 6046.00    0.56199   0.55885   22.694
 6047.00    0.57723   0.55893   22.414
 6048.00    0.58783   0.55866   21.985
 6049.00    0.59030   0.55790   22.099
 6050.00    0.58716   0.55658   22.951
 6051.00    0.58825   0.55492   23.632
 6052.00    0.59778   0.55319   23.463
 6053.00    0.60732   0.55156   23.124
 6054.00    0.60759   0.55025   23.139
 6055.00    0.59623   0.54953   23.133
 6056.00    0.57825   0.54940   22.870
 6057.00    0.56405   0.54968   22.717
 6058.00    0.55884   0.55000   22.826
 6059.00    0.55839   0.55005   22.853
 6060.00    0.55646   0.54958   22.657
 6061.00    0.54946   0.54859   22.531
 6062.00    0.53963   0.54723   22.614
 6063.00    0.53462   0.54601   22.720
 6064.00    0.53956   0.54575   22.692
 6065.00    0.55339   0.54673   22.550
 6066.00    0.56831   0.54855   22.365
 6067.00    0.57335   0.55080   22.219
 6068.00    0.56762   0.55321   22.226
 6069.00    0.56115   0.55546   22.475
 6070.00    0.56080   0.55727   22.757
 6071.00    0.56614   0.55835   22.682
 6072.00    0.57265   0.55854   22.437
 6073.00    0.57448   0.55781   22.624
 6074.00    0.56940   0.55626   23.151
 6075.00    0.55933   0.55402   23.333
 6076.00    0.54773   0.55133   23.218
 6077.00    0.53885   0.54870   23.476
 6078.00    0.53776   0.54638   23.994
 6079.00    0.54728   0.54426   24.022
 6080.00    0.56132   0.54242   23.586
 6081.00    0.56907   0.54117   23.312
 6082.00    0.56728   0.54045   23.261
 6083.00    0.56053   0.54007   23.136
 6084.00    0.55597   0.54000   23.060
 6085.00    0.55806   0.54016   23.346
 6086.00    0.56122   0.54032   23.796
 6087.00    0.55672   0.54023   23.921
 6088.00    0.54668   0.53993   23.681
 6089.00    0.53996   0.53973   23.369
 6090.00    0.54137   0.53975   23.129
 6091.00    0.54942   0.54006   22.951
 6092.00    0.55590   0.54077   22.770
 6093.00    0.55370   0.54172   22.560
 6094.00    0.54723   0.54246   22.411
 6095.00    0.54533   0.54278   22.405
 6096.00    0.55021   0.54261   22.443
 6097.00    0.55837   0.54179   22.407
 6098.00    0.56391   0.54007   22.358
 6099.00    0.56355   0.53727   22.410
 6100.00    0.56144   0.53376   22.554
 6101.00    0.56324   0.53095   22.704
 6102.00    0.56945   0.52999   22.768
 6103.00    0.57697   0.53053   22.746
 6104.00    0.58164   0.53191   22.786
 6105.00    0.58087   0.53380   22.968
 6106.00    0.57564   0.53606   23.123
 6107.00    0.56802   0.53849   23.156
 6108.00    0.55905   0.54053   23.304
 6109.00    0.55071   0.54174   23.741
 6110.00    0.54692   0.54235   24.259
 6111.00    0.54889   0.54280   24.537
 6112.00    0.55237   0.54306   24.427
 6113.00    0.55326   0.54283   24.110
 6114.00    0.55134   0.54201   24.014
 6115.00    0.54782   0.54078   24.218
 6116.00    0.54375   0.53914   24.227
 6117.00    0.54008   0.53682   23.854
 6118.00    0.53771   0.53385   23.591
 6119.00    0.53695   0.53052   23.648
 6120.00    0.53748   0.52757   23.630
 6121.00    0.53938   0.52602   23.337
 6122.00    0.54334   0.52595   23.052
 6123.00    0.54896   0.52661   22.933
 6124.00    0.55440   0.52766   22.844
 6125.00    0.55853   0.52899   22.739
 6126.00    0.56174   0.53041   22.757
 6127.00    0.56515   0.53187   22.953
 6128.00    0.56986   0.53320   23.231
 6129.00    0.57503   0.53398   23.516
 6130.00    0.57776   0.53388   23.785
 6131.00    0.57511   0.53271   23.916
 6132.00    0.56517   0.53017   23.722
 6133.00    0.54834   0.52615   23.246
 6134.00    0.52796   0.52112   22.767
 6135.00    0.51107   0.51645   22.560
 6136.00    0.50559   0.51382   22.768
 6137.00    0.51223   0.51359   23.168
 6138.00    0.52439   0.51468   23.322
 6139.00    0.53379   0.51637   23.315
 6140.00    0.53389   0.51895   23.615
 6141.00    0.52434   0.52256   24.214
 6142.00    0.51084   0.52627   24.644
 6143.00    0.50238   0.52906   24.630
 6144.00    0.50636   0.53060   24.298
 6145.00    0.52017   0.53105   24.060
 6146.00    0.53427   0.53083   24.211
 6147.00    0.54149   0.53034   24.323
 6148.00    0.54025   0.52984   23.813
 6149.00    0.53679   0.52952   23.176
 6150.00    0.53896   0.52945   23.164
 6151.00    0.54577   0.52940   23.501
 6152.00    0.55116   0.52898   23.473
 6153.00    0.55262   0.52814   23.153
 6154.00    0.55091   0.52695   22.979
 6155.00    0.54764   0.52511   22.907
 6156.00    0.54272   0.52241   22.727
 6157.00    0.53178   0.51883   22.598
 6158.00    0.51151   0.51415   22.790
 6159.00    0.48644   0.50861   23.334
 6160.00    0.46503   0.50353   24.042
 6161.00    0.45401   0.50025   24.548
 6162.00    0.45529   0.49908   24.634
 6163.00    0.46389   0.49953   24.582
 6164.00    0.47397   0.50096   24.668
 6165.00    0.48479   0.50294   24.653
 6166.00    0.49772   0.50474   24.385
 6167.00    0.51281   0.50580   24.311
 6168.00    0.52813   0.50676   24.648
 6169.00    0.53953   0.50841   24.780
 6170.00    0.54244   0.51045   24.345
 6171.00    0.53371   0.51244   24.054
 6172.00    0.51551   0.51451   24.362
 6173.00    0.49715   0.51669   24.714
 6174.00    0.48717   0.51880   24.647
 6175.00    0.48770   0.52077   24.561
 6176.00    0.49479   0.52259   24.740
 6177.00    0.50030   0.52406   24.811
 6178.00    0.50079   0.52520   24.482
 6179.00    0.50112   0.52631   23.988
 6180.00    0.50414   0.52726   23.661
 6181.00    0.50619   0.52773   23.682
 6182.00    0.50515   0.52762   23.941
 6183.00    0.50349   0.52677   24.044
 6184.00    0.50193   0.52502   23.822
 6185.00    0.49760   0.52266   23.512
 6186.00    0.48952   0.52005   23.329
 6187.00    0.48050   0.51737   23.307
 6188.00    0.47387   0.51463   23.452
 6189.00    0.47175   0.51211   23.778
 6190.00    0.47388   0.51093   24.274
 6191.00    0.47789   0.51168   24.867
 6192.00    0.48172   0.51351   25.396
 6193.00    0.48493   0.51569   25.609
 6194.00    0.48972   0.51798   -2.000
 6195.00    0.49902   0.52005   -2.000
 6196.00    0.50981   0.52143   -2.000
 6197.00    0.51534   0.52186   -2.000
 6198.00    0.51726   0.52184   -2.000
 6199.00    0.52368   0.52217   -2.000
 6200.00    0.53490   0.52303   -2.000
 6201.00    0.54376   0.52409   -2.000
 6202.00    0.54579   0.52515   -2.000
 6203.00    0.54097   0.52618   -2.000
 6204.00    0.53167   0.52716   -2.000
 6205.00    0.52111   0.52772   -2.000
 6206.00    0.51135   0.52755   22.159
 6207.00    0.50455   0.52650   22.666
 6208.00    0.50600   0.52457   23.356
 6209.00    0.51944   0.52192   23.698
 6210.00    0.53778   0.51865   23.780
 6211.00    0.54946   0.51476   24.029
 6212.00    0.55187   0.51080   24.309
 6213.00    0.54935   0.50748   24.292
 6214.00    0.54632   0.50517   24.329
 6215.00    0.54442   0.50395   24.883
 6216.00    0.54036   0.50341   25.503
 6217.00    0.53111   0.50308   25.482
 6218.00    0.52115   0.50318   25.218
 6219.00    0.51718   0.50398   25.374
 6220.00    0.52034   0.50528   25.646
 6221.00    0.52828   0.50660   25.494
 6222.00    0.53869   0.50752   25.190
 6223.00    0.54858   0.50814   25.189
 6224.00    0.55333   0.50846   25.368
 6225.00    0.54929   0.50815   25.357
 6226.00    0.53661   0.50704   24.959
 6227.00    0.51966   0.50495   24.330
 6228.00    0.50644   0.50221   23.952
 6229.00    0.50262   0.49998   24.071
 6230.00    0.50650   0.49912   24.360
 6231.00    0.51247   0.49947   24.472
 6232.00    0.51462   0.50090   24.519
 6233.00    0.51009   0.50282   24.632
 6234.00    0.50112   0.50434   24.633
 6235.00    0.49183   0.50497   24.465
 6236.00    0.48558   0.50461   24.441
 6237.00    0.48358   0.50330   24.710
 6238.00    0.48431   0.50140   24.982
 6239.00    0.48556   0.49951   25.049
 6240.00    0.48587   0.49758   25.083
 6241.00    0.48579   0.49554   25.218
 6242.00    0.48779   0.49417   25.333
 6243.00    0.49272   0.49367   25.338
 6244.00    0.49832   0.49363   25.308
 6245.00    0.50119   0.49430   25.344
 6246.00    0.49880   0.49559   25.475
 6247.00    0.49311   0.49689   25.580
 6248.00    0.49042   0.49772   25.443
 6249.00    0.49333   0.49759   25.148
 6250.00    0.49868   0.49623   25.069
 6251.00    0.50307   0.49430   25.271
 6252.00    0.50556   0.49234   25.421
 6253.00    0.50888   0.49041   25.330
 6254.00    0.51728   0.48860   25.098
 6255.00    0.52790   0.48722   24.851
 6256.00    0.53207   0.48669   24.630
 6257.00    0.52872   0.48747   24.400
 6258.00    0.52495   0.48955   24.060
 6259.00    0.52521   0.49221   23.498
 6260.00    0.52892   0.49519   22.718
 6261.00    0.53317   0.49832   22.085
 6262.00    0.53468   0.50086   22.046
 6263.00    0.53254   0.50252   22.593
 6264.00    0.52844   0.50381   23.360
 6265.00    0.52519   0.50488   24.109
 6266.00    0.52482   0.50553   24.772
 6267.00    0.52526   0.50579   25.185
 6268.00    0.52204   0.50601   25.177
 6269.00    0.51306   0.50653   24.924
 6270.00    0.49958   0.50737   24.836
 6271.00    0.48602   0.50823   25.261
 6272.00    0.47759   0.50878   26.230
 6273.00    0.47637   0.50908   26.933
 6274.00    0.48140   0.50919   26.430
 6275.00    0.48995   0.50896   25.417
 6276.00    0.49868   0.50834   25.019
 6277.00    0.50498   0.50741   25.185
 6278.00    0.50794   0.50629   25.386
 6279.00    0.50925   0.50557   25.607
 6280.00    0.51097   0.50555    0.000
 6281.00    0.51254   0.50615    0.000
 6282.00    0.51185   0.50725    0.000
 6283.00    0.50702   0.50848    0.000
 6284.00    0.49871   0.50982    0.000
 6285.00    0.49196   0.51130    0.000
 6286.00    0.49207   0.51255    0.000
 6287.00    0.50013   0.51324    0.000
 6288.00    0.51360   0.51312    0.000
 6289.00    0.52759   0.51228    0.000
 6290.00    0.53774   0.51109    0.000
 6291.00    0.54261   0.50973    0.000
 6292.00    0.54246   0.50831    0.000
 6293.00    0.53808   0.50673    0.000
 6294.00    0.53123   0.50474    0.000
 6295.00    0.52501   0.50267    0.000
 6296.00    0.52384   0.50097    0.000
 6297.00    0.53270   0.49974    0.000
 6298.00    0.55204   0.49868    0.000
 6299.00    0.57504   0.49761    0.000
 6300.00    0.59173   0.49702    0.000
 6301.00    0.59314   0.49747    0.000
 6302.00    0.57898   0.49880    0.000
 6303.00    0.55987   0.50036    0.000
 6304.00    0.54500   0.50203    0.000
 6305.00    0.53601   0.50398    0.000
 6306.00    0.53178   0.50582    0.000
 6307.00    0.53089   0.50693    0.000
 6308.00    0.53127   0.50699    0.000
 6309.00    0.53055   0.50615    0.000
 6310.00    0.52834   0.50481    0.000
 6311.00    0.52674   0.50310    0.000
 6312.00    0.52816   0.50079    0.000
 6313.00    0.53370   0.49811    0.000
 6314.00    0.54056   0.49588    0.000
 6315.00    0.54315   0.49415    0.000
 6316.00    0.54025   0.49279    0.000
 6317.00    0.53619   0.49238    0.000
 6318.00    0.53597   0.49324    0.000
 6319.00    0.54199   0.49495    0.000
 6320.00    0.54920   0.49705    0.000
 6321.00    0.54849   0.49939   26.361
 6322.00    0.54000   0.50193   26.150
 6323.00    0.53147   0.50432   26.367
 6324.00    0.52466   0.50615   26.963
 6325.00    0.51608   0.50727   27.084
 6326.00    0.50727   0.50800   26.748
 6327.00    0.50400   0.50841   26.622
 6328.00    0.50864   0.50817   26.529
 6329.00    0.51880   0.50737   25.918
 6330.00    0.52809   0.50637   25.326
 6331.00    0.52996   0.50513   25.583
 6332.00    0.52448   0.50330   26.206
 6333.00    0.51631   0.50077   26.085
 6334.00    0.50873   0.49827   25.543
 6335.00    0.50318   0.49675   25.535
 6336.00    0.50034   0.49612   25.860
 6337.00    0.50010   0.49587   25.790
 6338.00    0.50140   0.49601   25.449
 6339.00    0.50311   0.49645   25.338
 6340.00    0.50535   0.49669   25.416
 6341.00    0.50810   0.49639   25.404
 6342.00    0.50939   0.49572   25.336
 6343.00    0.50771   0.49520   25.410
 6344.00    0.50517   0.49494   25.738
 6345.00    0.50573   0.49502   26.254
 6346.00    0.51256   0.49579   26.637
 6347.00    0.52460   0.49723   26.661
 6348.00    0.53411   0.49884   26.603
 6349.00    0.53529   0.50023   26.730
 6350.00    0.53241   0.50115   26.810
 6351.00    0.53123   0.50126   26.649
 6352.00    0.53079   0.50039   26.585
 6353.00    0.52740   0.49873   26.860
 6354.00    0.51890   0.49675   27.127
 6355.00    0.50539   0.49446   27.046
 6356.00    0.48950   0.49164   26.791
 6357.00    0.47620   0.48868   26.548
 6358.00    0.47189   0.48620   26.183
 6359.00    0.47925   0.48428   25.657
 6360.00    0.49416   0.48292   25.213
 6361.00    0.50943   0.48245   24.876
 6362.00    0.51807   0.48310   24.347
 6363.00    0.51780   0.48468   23.911
 6364.00    0.51263   0.48680   24.515
 6365.00    0.50735   0.48919   25.679
 6366.00    0.50412   0.49167   24.647
 6367.00    0.50162   0.49385   21.805
 6368.00    0.49601   0.49545   20.442
 6369.00    0.48712   0.49681   21.106
 6370.00    0.48009   0.49840   22.091
 6371.00    0.47895   0.50011   22.447
 6372.00    0.48398   0.50145   23.413
 6373.00    0.49265   0.50228   25.749
 6374.00    0.50071   0.50284   28.205
 6375.00    0.50449   0.50311   28.191
 6376.00    0.50211   0.50281   24.882
 6377.00    0.49456   0.50197   21.368
 6378.00    0.48522   0.50098   20.083
 6379.00    0.47675   0.50015   20.678
 6380.00    0.47058   0.49968   21.454
 6381.00    0.46845   0.49946   21.451
 6382.00    0.47192   0.49939   21.115
 6383.00    0.47988   0.49963   20.805
 6384.00    0.48892   0.50028   20.481
 6385.00    0.49635   0.50095   20.160
 6386.00    0.50092   0.50120   19.948
 6387.00    0.50249   0.50098   19.891
 6388.00    0.50187   0.50039   19.947
 6389.00    0.50043   0.49940   20.002
 6390.00    0.49985   0.49779   19.951
 6391.00    0.50180   0.49571   19.883
 6392.00    0.50705   0.49404   19.876
 6393.00    0.51398   0.49334   19.564
 6394.00    0.51940   0.49327   18.839
 6395.00    0.52065   0.49329   18.929
 6396.00    0.51728   0.49314   21.261
 6397.00    0.51315   0.49263   25.228
 6398.00    0.51197   0.49208   27.123
 6399.00    0.51020   0.49236   26.454
 6400.00    0.50251   0.49344   26.305
 6401.00    0.49116   0.49454   27.028
 6402.00    0.48266   0.49539   27.434
 6403.00    0.48130   0.49601   27.345
 6404.00    0.48708   0.49625   27.230
 6405.00    0.49464   0.49586   27.100
 6406.00    0.49866   0.49490   26.809
 6407.00    0.50006   0.49402   26.518
 6408.00    0.50138   0.49330   26.376
 6409.00    0.50121   0.49233   26.186
 6410.00    0.49682   0.49155   25.877
 6411.00    0.48766   0.49146   25.914
 6412.00    0.47643   0.49174   26.516
 6413.00    0.46933   0.49188   26.958
 6414.00    0.47019   0.49174   26.623
 6415.00    0.47584   0.49152   26.096
 6416.00    0.48038   0.49135   25.967
 6417.00    0.47933   0.49099   26.023
 6418.00    0.47205   0.49047   26.037
 6419.00    0.46282   0.49039   26.301
 6420.00    0.45670   0.49143   27.023
 6421.00    0.45631   0.49344   27.878
 6422.00    0.46123   0.49556   28.336
 6423.00    0.46822   0.49727   28.077
 6424.00    0.47517   0.49863   27.321
 6425.00    0.48292   0.49960   26.713
 6426.00    0.49232   0.49976   26.466
 6427.00    0.50230   0.49872   26.192
 6428.00    0.50965   0.49661   25.783
 6429.00    0.51010   0.49431   25.658
 6430.00    0.50367   0.49277   25.999
 6431.00    0.49590   0.49209   26.495
 6432.00    0.49067   0.49185   26.801
 6433.00    0.48755   0.49186   26.792
 6434.00    0.48472   0.49206   26.545
 6435.00    0.48054   0.49222   26.261
 6436.00    0.47413   0.49192   26.118
 6437.00    0.46576   0.49145   26.195
 6438.00    0.45694   0.49182   26.393
 6439.00    0.45011   0.49322   26.495
 6440.00    0.44741   0.49494   26.503
 6441.00    0.45007   0.49648   26.639
 6442.00    0.45813   0.49775   26.935
 6443.00    0.46960   0.49859   27.209
 6444.00    0.47851   0.49867   27.393
 6445.00    0.47805   0.49762   27.549
 6446.00    0.47033   0.49531   27.597
 6447.00    0.46397   0.49189   27.391
 6448.00    0.46181   0.48831   27.108
 6449.00    0.46088   0.48592   27.096
 6450.00    0.45998   0.48492   27.374
 6451.00    0.46000   0.48467   27.697
 6452.00    0.46098   0.48472   27.917
 6453.00    0.46224   0.48489   28.029
 6454.00    0.46414   0.48538   28.053
 6455.00    0.46742   0.48638   28.025
 6456.00    0.47127   0.48762   28.021
 6457.00    0.47412   0.48858   28.085
 6458.00    0.47550   0.48893   28.124
 6459.00    0.47527   0.48859   28.002
 6460.00    0.47193   0.48765   27.737
 6461.00    0.46435   0.48684   27.453
 6462.00    0.45451   0.48694   27.260
 6463.00    0.44597   0.48771   27.206
 6464.00    0.44109   0.48863   27.230
 6465.00    0.44080   0.48962   27.265
 6466.00    0.44481   0.49082   27.353
 6467.00    0.45264   0.49191   27.522
 6468.00    0.46459   0.49245   27.632
 6469.00    0.47985   0.49239   27.566
 6470.00    0.49451   0.49220   27.467
 6471.00    0.50501   0.49233   27.459
 6472.00    0.51167   0.49257   27.377
 6473.00    0.51468   0.49265   27.165
 6474.00    0.51060   0.49273   27.197
 6475.00    0.49840   0.49291   27.677
 6476.00    0.48455   0.49282   28.117
 6477.00    0.47700   0.49220   28.007
 6478.00    0.47931   0.49112   27.504
 6479.00    0.48810   0.48966   26.931
 6480.00    0.49284   0.48800   26.382
 6481.00    0.48761   0.48673   26.096
 6482.00    0.47816   0.48627   26.546
 6483.00    0.47131   0.48639   27.181
 6484.00    0.46819   0.48657   25.875
 6485.00    0.46939   0.48661   22.841
 6486.00    0.47761   0.48630   20.676
 6487.00    0.49281   0.48500   19.973
 6488.00    0.50978   0.48218   19.705
 6489.00    0.52163   0.47793   19.280
 6490.00    0.52222   0.47270   19.107
 6491.00    0.50836   0.46668   19.603
 6492.00    0.48110   0.46017   20.837
 6493.00    0.44696   0.45437   22.506
 6494.00    0.41692   0.45063   23.829
 6495.00    0.39993   0.44939   24.590
 6496.00    0.39957   0.45041   25.679
 6497.00    0.41266   0.45314   27.355
 6498.00    0.43052   0.45737   28.468
 6499.00    0.44608   0.46272   28.335
 6500.00    0.45647   0.46829   27.700
 6501.00    0.46287   0.47331   27.226
 6502.00    0.46897   0.47744   27.057
 6503.00    0.47684   0.48072   27.201
 6504.00    0.48611   0.48324   27.573
 6505.00    0.49583   0.48491   27.728
 6506.00    0.50467   0.48578   27.160
 6507.00    0.50989   0.48616   26.345
 6508.00    0.50841   0.48635   26.224
 6509.00    0.50016   0.48630   26.796
 6510.00    0.48815   0.48582   27.318
 6511.00    0.47651   0.48496   27.453
 6512.00    0.46880   0.48384   27.439
 6513.00    0.46550   0.48242   27.540
 6514.00    0.46489   0.48086   27.877
 6515.00    0.46600   0.47957   28.349
 6516.00    0.46873   0.47878   28.671
 6517.00    0.47273   0.47852   28.554
 6518.00    0.47679   0.47895   28.015
 6519.00    0.47824   0.47993   27.709
 6520.00    0.47488   0.48097   28.200
 6521.00    0.46837   0.48174   28.875
 6522.00    0.46290   0.48228   28.696
 6523.00    0.46230   0.48256   27.988
 6524.00    0.46679   0.48224   27.639
 6525.00    0.46969   0.48133   27.686
 6526.00    0.46504   0.48034   27.696
 6527.00    0.45788   0.47959   27.392
 6528.00    0.45713   0.47895    0.000
 6529.00    0.46515   0.47818    0.000
 6530.00    0.47798   0.47732    0.000
 6531.00    0.48758   0.47663    0.000
 6532.00    0.48817   0.47633    0.000
 6533.00    0.48238   0.47639    0.000
 6534.00    0.47667   0.47650    0.000
 6535.00    0.47582   0.47637    0.000
 6536.00    0.48050   0.47614    0.000
 6537.00    0.48607   0.47598    0.000
 6538.00    0.48776   0.47560    0.000
 6539.00    0.48501   0.47446    0.000
 6540.00    0.47943   0.47249    0.000
 6541.00    0.47347   0.47010    0.000
 6542.00    0.47471   0.46757    0.000
 6543.00    0.49711   0.46475    0.000
 6544.00    0.54670   0.46164    0.000
 6545.00    0.61277   0.45881    0.000
 6546.00    0.67748   0.45668    0.000
 6547.00    0.72335   0.45489    0.000
 6548.00    0.73923   0.45281    0.000
 6549.00    0.72327   0.45019    0.000
 6550.00    0.68147   0.44716    0.000
 6551.00    0.62564   0.44362    0.000
 6552.00    0.56839   0.43913    0.000
 6553.00    0.52024   0.43355    0.000
 6554.00    0.48883   0.42709    0.000
 6555.00    0.48218   0.41966    0.000
 6556.00    0.52382   0.41079    0.000
 6557.00    0.65839   0.40058    0.000
 6558.00    0.94571   0.38996    0.000
 6559.00    1.43670   0.37939    0.000
 6560.00    2.09380   0.36917    0.000
 6561.00    2.77646   0.36142    0.000
 6562.00    3.29967   0.35937    0.000
 6563.00    3.48817   0.36336    0.000
 6564.00    3.27867   0.37090    0.000
 6565.00    2.74193   0.38026    0.000
 6566.00    2.04361   0.39106    0.000
 6567.00    1.38895   0.40223    0.000
 6568.00    0.90571   0.41206    0.000
 6569.00    0.62144   0.41978    0.000
 6570.00    0.49455   0.42567    0.000
 6571.00    0.44886   0.43016    0.000
 6572.00    0.43471   0.43381    0.000
 6573.00    0.43460   0.43731    0.000
 6574.00    0.44073   0.44099    0.000
 6575.00    0.44972   0.44473    0.000
 6576.00    0.46257   0.44825    0.000
 6577.00    0.48701   0.45140    0.000
 6578.00    0.54164   0.45404    0.000
 6579.00    0.64713   0.45616    0.000
 6580.00    0.80871   0.45786    0.000
 6581.00    1.00841   0.45934    0.000
 6582.00    1.19850   0.46063    0.000
 6583.00    1.32025   0.46166    0.000
 6584.00    1.33534   0.46249    0.000
 6585.00    1.23740   0.46323    0.000
 6586.00    1.06039   0.46379    0.000
 6587.00    0.85934   0.46381    0.000
 6588.00    0.68206   0.46331    0.000
 6589.00    0.55712   0.46233    0.000
 6590.00    0.48440   0.46079    0.000
 6591.00    0.44765   0.45891    0.000
 6592.00    0.43083   0.45762    0.000
 6593.00    0.42323   0.45759    0.000
 6594.00    0.42256   0.45839    0.000
 6595.00    0.42945   0.45945    0.000
 6596.00    0.44168   0.46086    0.000
 6597.00    0.45574   0.46284    0.000
 6598.00    0.46890   0.46507    0.000
 6599.00    0.47924   0.46693    0.000
 6600.00    0.48565   0.46809    0.000
 6601.00    0.48742   0.46854    0.000
 6602.00    0.48415   0.46836    0.000
 6603.00    0.47686   0.46767    0.000
 6604.00    0.46864   0.46672    0.000
 6605.00    0.46313   0.46575    0.000
 6606.00    0.46309   0.46482    0.000
 6607.00    0.46883   0.46407    0.000
 6608.00    0.47751   0.46400    0.000
 6609.00    0.48578   0.46493   29.339
 6610.00    0.49121   0.46630   29.403
 6611.00    0.49112   0.46749   28.660
 6612.00    0.48281   0.46863   28.445
 6613.00    0.46849   0.47014   29.153
 6614.00    0.45606   0.47171   29.511
 6615.00    0.44996   0.47272   28.834
 6616.00    0.44809   0.47322   28.012
 6617.00    0.44872   0.47358   27.609
 6618.00    0.45273   0.47379   27.392
 6619.00    0.45927   0.47354   27.255
 6620.00    0.46454   0.47287   27.405
 6621.00    0.46409   0.47189   27.733
 6622.00    0.45556   0.47065   27.772
 6623.00    0.44463   0.46935   27.563
 6624.00    0.44286   0.46834   27.664
 6625.00    0.45324   0.46762   28.109
 6626.00    0.46818   0.46682   28.370
 6627.00    0.47886   0.46583   28.423
 6628.00    0.47969   0.46481   28.759
 6629.00    0.47244   0.46387   29.250
 6630.00    0.46450   0.46286   29.244
 6631.00    0.46106   0.46175   28.919
 6632.00    0.46309   0.46089   29.052
 6633.00    0.46753   0.46073   29.553
 6634.00    0.47009   0.46134   29.649
 6635.00    0.47131   0.46233   29.274
 6636.00    0.47526   0.46326   28.930
 6637.00    0.48364   0.46395   28.606
 6638.00    0.49420   0.46446   28.049
 6639.00    0.50067   0.46491   27.616
 6640.00    0.49726   0.46503   27.789
 6641.00    0.48701   0.46454   28.210
 6642.00    0.47759   0.46387   28.183
 6643.00    0.47163   0.46379   27.969
 6644.00    0.46819   0.46428   28.159
 6645.00    0.46775   0.46468   28.371
 6646.00    0.47093   0.46495   27.950
 6647.00    0.47559   0.46555   27.358
 6648.00    0.47905   0.46636   27.370
 6649.00    0.48168   0.46688   27.979
 6650.00    0.48417   0.46704   28.725
 6651.00    0.48370   0.46707   29.230
 6652.00    0.47743   0.46708   29.413
 6653.00    0.46724   0.46695   29.609
 6654.00    0.45838   0.46660   30.037
 6655.00    0.45692   0.46605   30.207
 6656.00    0.46441   0.46536   29.677
 6657.00    0.47334   0.46439   28.915
 6658.00    0.47549   0.46312   28.472
 6659.00    0.47005   0.46169   28.319
 6660.00    0.46078   0.46016   28.290
 6661.00    0.45260   0.45854   28.417
 6662.00    0.44945   0.45719   28.579
 6663.00    0.45270   0.45659   28.281
 6664.00    0.46064   0.45663   27.496
 6665.00    0.46880   0.45695   27.043
 6666.00    0.47466   0.45761   27.313
 6667.00    0.48038   0.45884   27.691
 6668.00    0.48673   0.46034   27.717
 6669.00    0.48998   0.46156   27.839
 6670.00    0.48822   0.46222   28.306
 6671.00    0.48477   0.46215   28.589
 6672.00    0.48313   0.46137   28.573
 6673.00    0.48407   0.46011   29.060
 6674.00    0.48601   0.45843   30.186
 6675.00    0.48617   0.45614   30.702
 6676.00    0.48453   0.45373   30.066
 6677.00    0.48469   0.45239   29.396
 6678.00    0.48807   0.45262   29.315
 6679.00    0.49194   0.45369   29.390
 6680.00    0.49286   0.45494   29.150
 6681.00    0.48872   0.45666   28.544
 6682.00    0.48058   0.45890   27.921
 6683.00    0.47255   0.46098   27.759
 6684.00    0.46841   0.46240   28.027
 6685.00    0.46952   0.46327   28.199
 6686.00    0.47215   0.46380   28.069
 6687.00    0.46950   0.46410   27.934
 6688.00    0.46094   0.46421   28.097
 6689.00    0.45246   0.46404   28.659
 6690.00    0.44866   0.46351   29.311
 6691.00    0.45083   0.46277   29.509
 6692.00    0.45790   0.46195   29.380
 6693.00    0.46738   0.46095   29.515
 6694.00    0.47664   0.45978   29.720
 6695.00    0.48337   0.45874   29.330
 6696.00    0.48585   0.45816    0.000
 6697.00    0.48312   0.45794    0.000
 6698.00    0.47523   0.45791    0.000
 6699.00    0.46368   0.45807    0.000
 6700.00    0.45218   0.45830    0.000
 6701.00    0.44464   0.45838    0.000
 6702.00    0.44109   0.45821    0.000
 6703.00    0.43934   0.45803    0.000
 6704.00    0.43906   0.45790    0.000
 6705.00    0.44166   0.45772    0.000
 6706.00    0.44866   0.45741    0.000
 6707.00    0.45964   0.45704    0.000
 6708.00    0.46977   0.45658    0.000
 6709.00    0.47614   0.45591    0.000
 6710.00    0.48684   0.45492    0.000
 6711.00    0.51818   0.45356    0.000
 6712.00    0.58841   0.45198    0.000
 6713.00    0.70557   0.45048    0.000
 6714.00    0.85407   0.44916    0.000
 6715.00    0.99936   0.44796    0.000
 6716.00    1.09694   0.44722    0.000
 6717.00    1.11261   0.44753    0.000
 6718.00    1.04289   0.44864    0.000
 6719.00    0.91183   0.44977    0.000
 6720.00    0.76348   0.45080    0.000
 6721.00    0.63846   0.45211    0.000
 6722.00    0.55347   0.45357    0.000
 6723.00    0.50767   0.45452    0.000
 6724.00    0.49108   0.45487    0.000
 6725.00    0.49696   0.45516    0.000
 6726.00    0.53003   0.45563    0.000
 6727.00    0.59625   0.45601    0.000
 6728.00    0.69380   0.45620    0.000
 6729.00    0.80597   0.45636    0.000
 6730.00    0.89940   0.45651    0.000
 6731.00    0.94208   0.45643    0.000
 6732.00    0.91683   0.45611    0.000
 6733.00    0.83085   0.45570    0.000
 6734.00    0.71692   0.45526    0.000
 6735.00    0.61003   0.45465    0.000
 6736.00    0.53304   0.45377    0.000
 6737.00    0.49128   0.45279    0.000
 6738.00    0.47323   0.45201    0.000
 6739.00    0.46498   0.45146    0.000
 6740.00    0.45761   0.45079    0.000
 6741.00    0.44781   0.44995    0.000
 6742.00    0.43742   0.44930    0.000
 6743.00    0.43051   0.44896    0.000
 6744.00    0.43106   0.44857    0.000
 6745.00    0.43852   0.44797    0.000
 6746.00    0.44801   0.44740    0.000
 6747.00    0.45657   0.44696    0.000
 6748.00    0.46449   0.44664    0.000
 6749.00    0.47198   0.44652    0.000
 6750.00    0.47817   0.44668    0.000
 6751.00    0.48150   0.44697    0.000
 6752.00    0.48013   0.44757    0.000
 6753.00    0.47284   0.44861   24.252
 6754.00    0.45983   0.44985   23.761
 6755.00    0.44420   0.45104   23.685
 6756.00    0.43172   0.45223   24.224
 6757.00    0.42913   0.45345   24.943
 6758.00    0.44076   0.45441   24.995
 6759.00    0.46201   0.45493   24.480
 6760.00    0.48307   0.45498   24.110
 6761.00    0.49944   0.45460   23.835
 6762.00    0.51069   0.45390   23.301
 6763.00    0.51380   0.45297   22.999
 6764.00    0.50636   0.45175   23.616
 6765.00    0.49450   0.45030   24.738
 6766.00    0.48721   0.44905   25.225
 6767.00    0.48478   0.44840   24.877
 6768.00    0.48275   0.44822   24.408
 6769.00    0.48091   0.44822   24.419
 6770.00    0.48130   0.44858   25.068
 6771.00    0.48322   0.44959   25.752
 6772.00    0.48265   0.45100   25.812
 6773.00    0.47297   0.45234   25.850
 6774.00    0.45305   0.45349   26.615
 6775.00    0.43618   0.45441   27.392
 6776.00    0.43556   0.45494   27.119
 6777.00    0.44704   0.45498   26.368
 6778.00    0.45940   0.45447   26.098
 6779.00    0.46756   0.45338   26.296
 6780.00    0.47106   0.45183   26.593
 6781.00    0.47104   0.45009   26.879
 6782.00    0.46928   0.44841   27.181
 6783.00    0.46751   0.44702   27.486
 6784.00    0.46706   0.44614   27.632
 6785.00    0.46858   0.44581   27.308
 6786.00    0.47150   0.44598   26.581
 6787.00    0.47377   0.44639   26.112
 6788.00    0.47324   0.44681   26.162
 6789.00    0.46902   0.44717   26.142
 6790.00    0.46323   0.44747   25.661
 6791.00    0.46115   0.44746   25.179
 6792.00    0.46342   0.44712   25.168
 6793.00    0.46316   0.44681   25.666
 6794.00    0.45936   0.44674   26.290
 6795.00    0.46197   0.44680   26.338
 6796.00    0.47341   0.44696   25.890
 6797.00    0.48166   0.44722   26.041
 6798.00    0.48062   0.44755   27.051
 6799.00    0.47792   0.44794   27.684
 6800.00    0.47897   0.44824   27.297
 6801.00    0.48050   0.44828   26.875
 6802.00    0.47867   0.44810   27.059
 6803.00    0.47246   0.44789   27.562
 6804.00    0.46173   0.44762   28.034
 6805.00    0.44730   0.44716   28.398
 6806.00    0.43457   0.44670   28.727
 6807.00    0.43183   0.44637   29.042
 6808.00    0.43946   0.44599   28.817
 6809.00    0.44942   0.44554   27.387
 6810.00    0.45663   0.44529   25.555
 6811.00    0.46141   0.44525   24.674
 6812.00    0.46465   0.44515   24.752
 6813.00    0.46629   0.44498   24.937
 6814.00    0.46564   0.44503   25.187
 6815.00    0.46248   0.44541   26.183
 6816.00    0.45994   0.44583   27.568
 6817.00    0.46256   0.44608   27.919
 6818.00    0.46982   0.44631   27.279
 6819.00    0.47641   0.44675   27.046
 6820.00    0.47678   0.44732   27.740
 6821.00    0.46873   0.44773   29.015
 6822.00    0.45857   0.44784   30.210
 6823.00    0.45527   0.44775   30.628
 6824.00    0.45694   0.44760   30.234
 6825.00    0.45489   0.44727   29.558
 6826.00    0.44608   0.44663   29.041
 6827.00    0.43412   0.44592   28.787
 6828.00    0.42689   0.44556   28.415
 6829.00    0.43044   0.44552   27.640
 6830.00    0.44036   0.44542   27.061
 6831.00    0.44795   0.44517   27.287
 6832.00    0.45102   0.44497   27.820
 6833.00    0.45175   0.44472   27.743
 6834.00    0.45146   0.44399   27.074
 6835.00    0.44935   0.44267   26.319
 6836.00    0.44220   0.44100   25.629
 6837.00    0.42997   0.43925   25.138
 6838.00    0.42155   0.43753   25.356
 6839.00    0.42267   0.43600   26.537
 6840.00    0.42366   0.43495   27.830
 6841.00    0.42187   0.43464   28.323
 6842.00    0.44206   0.43514   28.851
 6843.00    0.49111   0.43628   30.211
 6844.00    0.51977   0.43767   30.974
 6845.00    0.49373   0.43909   29.956
 6846.00    0.45274   0.44046   28.958
 6847.00    0.44104   0.44161   29.191
 6848.00    0.44977   0.44226   29.344
 6849.00    0.45639   0.44226   28.420
 6850.00    0.45733   0.44183   27.712
 6851.00    0.45723   0.44123   28.027
 6852.00    0.45923   0.44027   28.364
 6853.00    0.46315   0.43888   27.900
 6854.00    0.46511   0.43756   27.295
 6855.00    0.46046   0.43666   27.170
 6856.00    0.44633   0.43590   27.364
 6857.00    0.42531   0.43532   27.582
 6858.00    0.40605   0.43522   27.756
 6859.00    0.39520   0.43537   27.990
 6860.00    0.39332   0.43552   28.475
 6861.00    0.39672   0.43592   29.172
 6862.00    0.40000   0.43657   29.699
 6863.00    0.40277   0.43698   29.784
 6864.00    0.41036   0.43704   29.512
 6865.00    0.42375   0.43694   29.097
 6866.00    0.43686   0.43666   28.725
 6867.00    0.44364   0.43628   28.515
 6868.00    0.44145   0.43605   28.500
 6869.00    0.43254   0.43587   28.616
 6870.00    0.42314   0.43557   28.736
 6871.00    0.41863   0.43546   28.842
 6872.00    0.42158   0.43583   29.001
 6873.00    0.43136   0.43629   29.067
 6874.00    0.44384   0.43655   28.796
 6875.00    0.45111   0.43684   28.436
 6876.00    0.44542   0.43721   28.520
 6877.00    0.42965   0.43730   28.958
 6878.00    0.41497   0.43705   29.166
 6879.00    0.40739   0.43672   29.090
 6880.00    0.40628   0.43626   29.182
 6881.00    0.40930   0.43579   29.621
 6882.00    0.41392   0.43575   30.218
 6883.00    0.41815   0.43623   30.593
 6884.00    0.42064   0.43682   30.485
 6885.00    0.42061   0.43755   30.299
 6886.00    0.41872   0.43873   30.613
 6887.00    0.41866   0.44000   31.151
 6888.00    0.42356   0.44094   31.180
 6889.00    0.42945   0.44160   30.697
 6890.00    0.43024   0.44204   30.171
 6891.00    0.42729   0.44213   29.707
 6892.00    0.42501   0.44200   29.267
 6893.00    0.42223   0.44175   29.081
 6894.00    0.41579   0.44128   29.324
 6895.00    0.40741   0.44084   29.611
 6896.00    0.40155   0.44073   29.375
 6897.00    0.40118   0.44071   28.556
 6898.00    0.40613   0.44055   27.665
 6899.00    0.41185   0.44050   27.558
 6900.00    0.41302   0.44076   28.634
 6901.00    0.40784   0.44105   29.966
 6902.00    0.39805   0.44117   30.384
 6903.00    0.38837   0.44126   30.453
 6904.00    0.38397   0.44145   31.059
 6905.00    0.38786   0.44160   31.681
 6906.00    0.39880   0.44158   31.575
 6907.00    0.41034   0.44135   31.157
 6908.00    0.41754   0.44089   30.943
 6909.00    0.42212   0.44016   30.670
 6910.00    0.42663   0.43928   30.089
 6911.00    0.42977   0.43832   29.517
 6912.00    0.42936   0.43728   29.275
 6913.00    0.42494   0.43645   29.359
 6914.00    0.41926   0.43611   29.579
 6915.00    0.41804   0.43612   29.666
 6916.00    0.42283   0.43632   29.430
 6917.00    0.42796   0.43687   28.900
 6918.00    0.42958   0.43757   28.421
 6919.00    0.42996   0.43798   28.535
 6920.00    0.43089   0.43807   29.278
 6921.00    0.43029   0.43796   29.936
 6922.00    0.42501   0.43753   30.119
 6923.00    0.41336   0.43680   30.301
 6924.00    0.39965   0.43614   30.720
 6925.00    0.39342   0.43585   30.954
 6926.00    0.39693   0.43584   30.695
 6927.00    0.40238   0.43587   30.128
 6928.00    0.40381   0.43596   29.709
 6929.00    0.40180   0.43628   29.826
 6930.00    0.40238   0.43662   30.039
 6931.00    0.41325   0.43668   29.293
 6932.00    0.43301   0.43664   27.859
 6933.00    0.45079   0.43688   27.023
 6934.00    0.45745   0.43724   27.110
 6935.00    0.45061   0.43744   27.568
 6936.00    0.43772   0.43761   27.892
 6937.00    0.43110   0.43786   27.908
 6938.00    0.43170   0.43794   27.771
 6939.00    0.43030   0.43764   27.833
 6940.00    0.42258   0.43703   28.332
 6941.00    0.41171   0.43627   29.319
 6942.00    0.40480   0.43538   30.515
 6943.00    0.40787   0.43441   31.368
 6944.00    0.41722   0.43364   31.534
 6945.00    0.42417   0.43328   31.127
 6946.00    0.42883   0.43308   30.668
 6947.00    0.43696   0.43295   30.578
 6948.00    0.44838   0.43293   30.490
 6949.00    0.45734   0.43286   29.832
 6950.00    0.45741   0.43264   29.011
 6951.00    0.44616   0.43257   28.705
 6952.00    0.43105   0.43264   28.708
 6953.00    0.42203   0.43272   28.502
 6954.00    0.41908   0.43303   28.256
 6955.00    0.41756   0.43367   28.361
 6956.00    0.41851   0.43435   28.624
 6957.00    0.42451   0.43490   28.661
 6958.00    0.43262   0.43542   28.591
 6959.00    0.43813   0.43592   28.714
 6960.00    0.44031   0.43625   29.002
 6961.00    0.44084   0.43635   29.286
 6962.00    0.44120   0.43645   29.554
 6963.00    0.44096   0.43660   29.859
 6964.00    0.43680   0.43657   30.172
 6965.00    0.42695   0.43640   30.439
 6966.00    0.41530   0.43637   30.647
 6967.00    0.40677   0.43640   30.742
 6968.00    0.40284   0.43614   30.559
 6969.00    0.40379   0.43545   30.072
 6970.00    0.41072   0.43447   29.541
 6971.00    0.42276   0.43338   29.147
 6972.00    0.43517   0.43181   28.788
 6973.00    0.44313   0.42947   28.542
 6974.00    0.44497   0.42697   28.801
 6975.00    0.44316   0.42499   28.961
 6976.00    0.44369   0.42325   27.073
 6977.00    0.44841   0.42177   23.802
 6978.00    0.45146   0.42148   21.914
 6979.00    0.44853   0.42257   21.979
 6980.00    0.44183   0.42416   22.712
 6981.00    0.43553   0.42594   23.029
 6982.00    0.43246   0.42811   23.132
 6983.00    0.43179   0.43017   23.268
 6984.00    0.42909   0.43156   23.174
 6985.00    0.42165   0.43247   23.284
 6986.00    0.41104   0.43314   24.947
 6987.00    0.40215   0.43345   28.531
 6988.00    0.40120   0.43343   31.558
 6989.00    0.40924   0.43342   31.625
 6990.00    0.42074   0.43354   30.447
 6991.00    0.42838   0.43358   29.703
 6992.00    0.42690   0.43339   29.425
 6993.00    0.41906   0.43304   29.316
 6994.00    0.41398   0.43255   29.173
 6995.00    0.41437   0.43188   28.978
 6996.00    0.41565   0.43107   28.855
 6997.00    0.41665   0.43014   28.837
 6998.00    0.42030   0.42904   28.884
 6999.00    0.42598   0.42802   29.102
 7000.00    0.42976   0.42741   29.661
 7001.00    0.43114   0.42700   -2.000
 7002.00    0.43234   0.42650   -2.000
 7003.00    0.43217   0.42617   -2.000
 7004.00    0.42782   0.42629   -2.000
 7005.00    0.42222   0.42659   -2.000
 7006.00    0.42168   0.42680   -2.000
 7007.00    0.42729   0.42705   -2.000
 7008.00    0.43492   0.42740   -2.000
 7009.00    0.43898   0.42748   -2.000
 7010.00    0.43605   0.42703   -2.000
 7011.00    0.42991   0.42622   -2.000
 7012.00    0.42652   0.42545   -2.000
 7013.00    0.42436   0.42466   -2.000
 7014.00    0.41905   0.42362   -2.000
 7015.00    0.41313   0.42272   -2.000
 7016.00    0.41199   0.42268   -2.000
 7017.00    0.41581   0.42324   -2.000
 7018.00    0.42169   0.42355   -2.000
 7019.00    0.42810   0.42373   -2.000
 7020.00    0.43274   0.42418   -2.000
 7021.00    0.42980   0.42448   -2.000
 7022.00    0.41787   0.42426   -2.000
 7023.00    0.40881   0.42405   -2.000
 7024.00    0.41356   0.42431   -2.000
 7025.00    0.42647   0.42483   -2.000
 7026.00    0.43759   0.42539   -2.000
 7027.00    0.44633   0.42609   -2.000
 7028.00    0.45328   0.42698   -2.000
 7029.00    0.45225   0.42768   -2.000
 7030.00    0.43996   0.42810   -2.000
 7031.00    0.42430   0.42838   -2.000
 7032.00    0.41308   0.42847   -2.000
 7033.00    0.40516   0.42818   -2.000
 7034.00    0.39836   0.42806   -2.000
 7035.00    0.39492   0.42844   -2.000
 7036.00    0.39306   0.42876   -2.000
 7037.00    0.38389   0.42904   -2.000
 7038.00    0.37430   0.43009   -2.000
 7039.00    0.39364   0.43169   -2.000
 7040.00    0.43824   0.43296   -2.000
 7041.00    0.45165   0.43406   -2.000
 7042.00    0.41396   0.43526   -2.000
 7043.00    0.37791   0.43608   -2.000
 7044.00    0.37856   0.43636   -2.000
 7045.00    0.39430   0.43652   -2.000
 7046.00    0.40292   0.43649   -2.000
 7047.00    0.40656   0.43590   -2.000
 7048.00    0.41139   0.43488   -2.000
 7049.00    0.41801   0.43368   -2.000
 7050.00    0.42418   0.43220   -2.000
 7051.00    0.42747   0.43038   -2.000
 7052.00    0.43065   0.42864   -2.000
 7053.00    0.43961   0.42732   -2.000
 7054.00    0.44814   0.42623   -2.000
 7055.00    0.44046   0.42534   -2.000
 7056.00    0.41869   0.42483   -2.000
 7057.00    0.40314   0.42452   -2.000
 7058.00    0.40313   0.42406   -2.000
 7059.00    0.41173   0.42367   -2.000
 7060.00    0.41860   0.42354   -2.000
 7061.00    0.41665   0.42328   -2.000
 7062.00    0.40898   0.42280   -2.000
 7063.00    0.40531   0.42238   -2.000
 7064.00    0.40834   0.42201   -2.000
 7065.00    0.41324   0.42153   -2.000
 7066.00    0.41495   0.42106   -2.000
 7067.00    0.41143   0.42081   -2.000
 7068.00    0.40684   0.42107   -2.000
 7069.00    0.40857   0.42183   -2.000
 7070.00    0.41996   0.42270   -2.000
 7071.00    0.43803   0.42358   -2.000
 7072.00    0.45256   0.42464   -2.000
 7073.00    0.45322   0.42563   -2.000
 7074.00    0.44198   0.42616   -2.000
 7075.00    0.42843   0.42638   -2.000
 7076.00    0.41852   0.42647   -2.000
 7077.00    0.41435   0.42618   -2.000
 7078.00    0.41645   0.42531   -2.000
 7079.00    0.42200   0.42396   -2.000
 7080.00    0.42236   0.42230   -2.000
 7081.00    0.41108   0.42033   -2.000
 7082.00    0.39421   0.41793   -2.000
 7083.00    0.38218   0.41537   -2.000
 7084.00    0.37844   0.41324   -2.000
 7085.00    0.38085   0.41160   -2.000
 7086.00    0.38494   0.41017   -2.000
 7087.00    0.38789   0.40912   -2.000
 7088.00    0.39188   0.40856   -2.000
 7089.00    0.40082   0.40829   -2.000
 7090.00    0.41629   0.40825   -2.000
 7091.00    0.43379   0.40842   -2.000
 7092.00    0.44104   0.40868   -2.000
 7093.00    0.43116   0.40915   -2.000
 7094.00    0.41258   0.40987   -2.000
 7095.00    0.39697   0.41061   -2.000
 7096.00    0.38911   0.41136   -2.000
 7097.00    0.38738   0.41212   -2.000
 7098.00    0.38586   0.41288   -2.000
 7099.00    0.38356   0.41351   -2.000
 7100.00    0.38835   0.41395   -2.000
 7101.00    0.40171   0.41410   -2.000
 7102.00    0.41181   0.41403   -2.000
 7103.00    0.41148   0.41394   -2.000
 7104.00    0.40643   0.41372   -2.000
 7105.00    0.40014   0.41306   -2.000
 7106.00    0.38925   0.41212   -2.000
 7107.00    0.38422   0.41137   -2.000
 7108.00    0.40918   0.41074   -2.000
 7109.00    0.45123   0.40990   -2.000
 7110.00    0.45628   0.40913   -2.000
 7111.00    0.41598   0.40889   -2.000
 7112.00    0.38418   0.40897   -2.000
 7113.00    0.38574   0.40903   -2.000
 7114.00    0.39388   0.40914   -2.000
 7115.00    0.38931   0.40941   -2.000
 7116.00    0.37750   0.40958   -2.000
 7117.00    0.36781   0.40942   -2.000
 7118.00    0.36457   0.40922   -2.000
 7119.00    0.36350   0.40911   -2.000
 7120.00    0.35745   0.40878   -2.000
 7121.00    0.35630   0.40821   -2.000
 7122.00    0.37954   0.40788   -2.000
 7123.00    0.41968   0.40772   -2.000
 7124.00    0.44682   0.40717   -2.000
 7125.00    0.44718   0.40631   -2.000
 7126.00    0.42763   0.40568   -2.000
 7127.00    0.40152   0.40530   -2.000
 7128.00    0.38145   0.40482   -2.000
 7129.00    0.37149   0.40438   -2.000
 7130.00    0.36867   0.40452   -2.000
 7131.00    0.36995   0.40523   -2.000
 7132.00    0.37486   0.40620   -2.000
 7133.00    0.38760   0.40728   -2.000
 7134.00    0.41064   0.40831   -2.000
 7135.00    0.43308   0.40928   -2.000
 7136.00    0.44037   0.41024   -2.000
 7137.00    0.43323   0.41074   -2.000
 7138.00    0.42400   0.41068   -2.000
 7139.00    0.42542   0.41063   -2.000
 7140.00    0.44067   0.41057   -2.000
 7141.00    0.45295   0.41009   -2.000
 7142.00    0.44497   0.40927   -2.000
 7143.00    0.42579   0.40830   -2.000
 7144.00    0.41332   0.40739   -2.000
 7145.00    0.40885   0.40659   -2.000
 7146.00    0.40537   0.40569   -2.000
 7147.00    0.40057   0.40499   -2.000
 7148.00    0.39581   0.40524   -2.000
 7149.00    0.39337   0.40601   -2.000
 7150.00    0.39381   0.40669   -2.000
 7151.00    0.39418   0.40781   -2.000
 7152.00    0.39239   0.40943   -2.000
 7153.00    0.39090   0.41060   -2.000
 7154.00    0.39152   0.41117   -2.000
 7155.00    0.39147   0.41174   -2.000
 7156.00    0.39125   0.41221   -2.000
 7157.00    0.39924   0.41203   -2.000
 7158.00    0.41653   0.41136   -2.000
 7159.00    0.42814   0.41048   -2.000
 7160.00    0.42520   0.40947   -2.000
 7161.00    0.41775   0.40856   -2.000
 7162.00    0.41336   0.40775   -2.000
 7163.00    0.40556   0.40704   -2.000
 7164.00    0.39270   0.40694   -2.000
 7165.00    0.38626   0.40767   -2.000
 7166.00    0.39084   0.40892   -2.000
 7167.00    0.39576   0.41036   -2.000
 7168.00    0.39192   0.41193   -2.000
 7169.00    0.38009   0.41347   -2.000
 7170.00    0.36582   0.41474   -2.000
 7171.00    0.35634   0.41549   -2.000
 7172.00    0.35839   0.41574   -2.000
 7173.00    0.37459   0.41567   -2.000
 7174.00    0.39264   0.41512   -2.000
 7175.00    0.39180   0.41402   -2.000
 7176.00    0.38401   0.41287   -2.000
 7177.00    0.40757   0.41190   -2.000
 7178.00    0.44842   0.41081   -2.000
 7179.00    0.44414   0.40956   -2.000
 7180.00    0.39094   0.40857   -2.000
 7181.00    0.34771   0.40798   -2.000
 7182.00    0.33739   0.40739   -2.000
 7183.00    0.33626   0.40656   -2.000
 7184.00    0.33288   0.40574   -2.000
 7185.00    0.33635   0.40495   -2.000
 7186.00    0.35207   0.40405   -2.000
 7187.00    0.37557   0.40330   -2.000
 7188.00    0.39447   0.40287   -2.000
 7189.00    0.39678   0.40280   -2.000
 7190.00    0.38800   0.40330   -2.000
 7191.00    0.38401   0.40392   -2.000
 7192.00    0.38793   0.40445   -2.000
 7193.00    0.39135   0.40533   -2.000
 7194.00    0.38701   0.40640   -2.000
 7195.00    0.37345   0.40704   -2.000
 7196.00    0.35869   0.40737   -2.000
 7197.00    0.35217   0.40786   -2.000
 7198.00    0.35066   0.40824   -2.000
 7199.00    0.34685   0.40828   -2.000
 7200.00    0.34601   0.40808   -2.000
 7201.00    0.35582   0.40764   -2.000
 7202.00    0.36841   0.40701   -2.000
 7203.00    0.37148   0.40634   -2.000
 7204.00    0.36634   0.40556   -2.000
 7205.00    0.35910   0.40458   -2.000
 7206.00    0.34716   0.40377   -2.000
 7207.00    0.32936   0.40357   -2.000
 7208.00    0.31877   0.40371   -2.000
 7209.00    0.32686   0.40401   -2.000
 7210.00    0.34553   0.40473   -2.000
 7211.00    0.35998   0.40550   -2.000
 7212.00    0.36380   0.40607   -2.000
 7213.00    0.35891   0.40666   -2.000
 7214.00    0.35328   0.40717   -2.000
 7215.00    0.35280   0.40744   -2.000
 7216.00    0.35488   0.40770   -2.000
 7217.00    0.35406   0.40798   -2.000
 7218.00    0.34717   0.40798   -2.000
