###################################################################
## OUTPUT of StarlightChains_v04.for    [Cid@UFSC - 01/Apr/2007] ##
###################################################################

## Some input info
2011cl.txt                               [arq_obs]
Base.CB07.vall.4m                        [arq_base]
Masks.EmLines.NEW.gm                     [arq_masks]
StCv04.C11.config                        [arq_config]
   66                                    [N_base]
    0                                    [N_YAV_components = # of components with extra extinction!]
    0                                    [i_FitPowerLaw (1/0 = Yes/No)]
-9.99                                    [alpha_PowerLaw]
CCM                                      [red_law_option]
 1.458241                                [q_norm = A(l_norm)/A(V)]

## (Re)Sampling Parameters
 3741.00                                 [l_ini (A)]
 7218.00                                 [l_fin (A)]
    1.00                                 [dl    (A)]     (OBS: dl_cushion =    50.00 A)

## Normalization info
 4020.00                                 [l_norm (A) - for base]
 4010.00                                 [llow_norm (A) - window for f_obs]
 4060.00                                 [lupp_norm (A) - window for f_obs]
4.955663E-15                             [fobs_norm (in input units)]

## S/N
 3691.00                                 [llow_SN (A) - window for S/N]
 7268.00                                 [lupp_SN (A) - window for S/N]
   3.561                                 [S/N in S/N window]
   5.305                                 [S/N in norm. window]
  10.000                                 [S/N_err in S/N window]
  14.896                                 [S/N_err in norm. window]
  1.0000                                 [fscale_chi2]

## etc...
    -2007374                             [idum_orig]
  2368                                   [NOl_eff]
  2357                                   [Nl_eff]
    11    NSIGMA                         [Ntot_cliped & clip_method]
  1091160                                [Nglobal_steps]
   7                                     [N_chains]
  22                                     [NEX0s_base = N_base in EX0s-fits]
 0   0   1       69   2.0   2.456E+01    [Clip-Bug, RC-Crash & Burn-In warning-flags, n_censored_weights, wei_nsig_threshold & wei_limit]
    11     11.261     10.757      0.504  [idt_all, wdt_TotTime, wdt_UsrTime & wdt_SysTime (sec)]

## Synthesis Results - Best model ##

 6.83157E-01                             [chi2/Nl_eff]
     6.41973                             [adev (%)]

   104.49339                             [sum-of-x (%)]
 4.29484E-15                             [Flux_tot (units of input spectrum!)]
 8.37527E-12                             [Mini_tot (???)]
 4.90854E-12                             [Mcor_tot (???)]

 -45.99                                  [v0_min  (km/s)]
 203.18                                  [vd_min  (km/s)]
-0.1393                                  [AV_min  (mag)]
 0.0000                                  [YAV_min (mag)]

# j     x_j(%)      Mini_j(%)     Mcor_j(%)     age_j(yr)     Z_j      (L/M)_j    YAV?  Mstars   component_j        a/Fe...       SSP_chi2r SSP_adev(%)   SSP_AV   SSP_x(%)
  1      0.0000     0.0000E+00    0.0000E+00    1.000000E+06  0.00400  1.094E-02    0   1.0000   age020_m42            0.0000     1.1101E+00     8.0510   1.9120    88.6839
  2      0.0000     0.0000E+00    0.0000E+00    3.160000E+06  0.00400  4.007E-02    0   0.9999   age045_m42            0.0000     8.2253E-01     7.1422   1.1410    96.7968
  3      0.0000     0.0000E+00    0.0000E+00    5.010000E+06  0.00400  2.539E-02    0   0.9488   age055_m42            0.0000     8.9820E-01     7.4064   1.4776    93.6961
  4      0.0000     0.0000E+00    0.0000E+00    6.610000E+06  0.00400  2.620E-02    0   0.9220   age061_m42            0.0000     7.9106E-01     7.0125   1.0614    97.2722
  5      0.5467     2.0294E-02    3.0687E-02    1.000000E+07  0.00400  1.322E-02    0   0.8862   age070_m42            0.0000     7.6610E-01     6.7191   0.7884    98.8586
  6      0.0000     0.0000E+00    0.0000E+00    1.445000E+07  0.00400  7.883E-03    0   0.8571   age078_m42            0.0000     8.2877E-01     6.9633   1.1267    95.8558
  7      3.3812     3.1600E-01    4.4072E-01    2.512000E+07  0.00400  5.251E-03    0   0.8174   age090_m42            0.0000     7.5993E-01     6.6846   0.6572    99.4633
  8     12.6265     1.6981E+00    2.2748E+00    4.000000E+07  0.00400  3.649E-03    0   0.7851   age104_m42            0.0000     7.2587E-01     6.5592   0.4211   100.7096
  9      3.7848     5.9955E-01    7.8044E-01    5.500000E+07  0.00400  3.098E-03    0   0.7629   age110_m42            0.0000     7.2121E-01     6.5931   0.5631   101.2944
 10      0.0000     0.0000E+00    0.0000E+00    1.015200E+08  0.00400  2.228E-03    0   0.7207   age116_m42            0.0000     7.4724E-01     6.6796   0.5750   101.9167
 11      0.0000     0.0000E+00    0.0000E+00    2.861200E+08  0.00400  1.093E-03    0   0.6648   age125_m42            0.0000     7.5589E-01     6.6151  -0.0015   105.3458
 12     18.4699     1.3740E+01    1.4922E+01    5.088000E+08  0.00400  6.597E-04    0   0.6365   age130_m42            0.0000     8.1695E-01     6.7670  -0.0224   106.8133
 13     20.0269     4.6098E+01    4.5605E+01    1.434000E+09  0.00400  2.132E-04    0   0.5798   age139_m42            0.0000     8.4043E-01     6.9172  -0.9938   108.9940
 14      3.8844     3.2337E+01    2.9668E+01    4.250000E+09  0.00400  5.895E-05    0   0.5377   age158_m42            0.0000     1.6838E+00     9.5640  -1.0000    88.6695
 15      0.0000     0.0000E+00    0.0000E+00    7.500000E+09  0.00400  3.510E-05    0   0.5212   age171_m42            0.0000     2.5151E+00    11.7037  -1.0000    81.4409
 16      0.0000     0.0000E+00    0.0000E+00    1.300000E+10  0.00400  2.005E-05    0   0.5034   age193_m42            0.0000     3.4207E+00    13.7383  -1.0000    75.3902
 17      0.0000     0.0000E+00    0.0000E+00    1.800000E+10  0.00400  1.525E-05    0   0.4967   age213_m42            0.0000     3.5216E+00    14.0214  -1.0000    74.2881
 18      0.0000     0.0000E+00    0.0000E+00    1.000000E+06  0.00800  1.238E-02    0   1.0000   age020_m52            0.0000     1.1146E+00     8.0645   1.9084    88.8523
 19      0.0000     0.0000E+00    0.0000E+00    3.160000E+06  0.00800  3.074E-02    0   0.9966   age045_m52            0.0000     1.0816E+00     7.9734   1.8276    89.8211
 20      0.0000     0.0000E+00    0.0000E+00    5.010000E+06  0.00800  2.668E-02    0   0.9443   age055_m52            0.0000     9.3538E-01     7.4988   1.5662    92.5831
 21     30.3571     6.9746E-01    1.0921E+00    6.610000E+06  0.00800  2.136E-02    0   0.9177   age061_m52            0.0000     7.9239E-01     6.7526   0.2986    99.5375
 22      0.0000     0.0000E+00    0.0000E+00    1.000000E+07  0.00800  1.215E-02    0   0.8827   age070_m52            0.0000     8.2086E-01     6.8630   0.9775    98.1616
 23      0.0000     0.0000E+00    0.0000E+00    1.445000E+07  0.00800  8.717E-03    0   0.8552   age078_m52            0.0000     8.0726E-01     6.8660   1.0894    97.3153
 24      2.8320     2.4854E-01    3.4613E-01    2.512000E+07  0.00800  5.592E-03    0   0.8162   age090_m52            0.0000     7.5698E-01     6.6589   0.7198   100.7097
 25      0.0000     0.0000E+00    0.0000E+00    4.000000E+07  0.00800  3.896E-03    0   0.7841   age104_m52            0.0000     7.2852E-01     6.5760   0.6216   102.0020
 26      0.0000     0.0000E+00    0.0000E+00    1.015200E+08  0.00800  2.148E-03    0   0.7226   age116_m52            0.0000     7.2437E-01     6.5931   0.5479   102.4606
 27      8.5712     4.2381E+00    4.8327E+00    2.861200E+08  0.00800  9.925E-04    0   0.6683   age125_m52            0.0000     8.2474E-01     6.7610   0.0419   107.8115
 28      0.0000     0.0000E+00    0.0000E+00    9.047900E+08  0.00800  3.141E-04    0   0.6138   age135_m52            0.0000     9.9811E-01     7.3644  -0.7627   112.6891
 29      0.0000     0.0000E+00    0.0000E+00    1.434000E+09  0.00800  1.719E-04    0   0.5853   age139_m52            0.0000     1.4169E+00     8.7415  -1.0000    96.9419
 30      0.0000     0.0000E+00    0.0000E+00    2.500000E+09  0.00800  7.872E-05    0   0.5600   age150_m52            0.0000     2.5102E+00    11.6261  -1.0000    84.4794
 31      0.0000     0.0000E+00    0.0000E+00    4.250000E+09  0.00800  4.336E-05    0   0.5426   age158_m52            0.0000     2.5939E+00    11.7691  -1.0000    83.1273
 32      0.0000     0.0000E+00    0.0000E+00    6.250000E+09  0.00800  3.159E-05    0   0.5319   age166_m52            0.0000     3.7535E+00    14.2269  -1.0000    76.1354
 33      0.0000     0.0000E+00    0.0000E+00    1.300000E+10  0.00800  1.361E-05    0   0.5073   age193_m52            0.0000     6.9246E+00    19.8695  -1.0000    60.8152
 34      0.0000     0.0000E+00    0.0000E+00    1.800000E+10  0.00800  9.886E-06    0   0.4990   age213_m52            0.0000     7.8166E+00    21.0078  -1.0000    57.4777
 35      0.0000     0.0000E+00    0.0000E+00    1.000000E+06  0.02000  1.544E-02    0   1.0000   age020_m62            0.0000     1.1266E+00     8.0979   1.9061    88.9927
 36      0.0000     0.0000E+00    0.0000E+00    3.160000E+06  0.02000  3.762E-02    0   0.9858   age045_m62            0.0000     1.1073E+00     8.0476   1.8417    89.9182
 37      0.0000     0.0000E+00    0.0000E+00    5.010000E+06  0.02000  3.296E-02    0   0.9342   age055_m62            0.0000     8.5886E-01     7.2960   1.4259    95.3715
 38      0.0000     9.0351E-07    1.3660E-06    8.710000E+06  0.02000  1.154E-02    0   0.8861   age067_m62            0.0000     1.2974E+00     8.4760   0.4607    99.1693
 39      0.0000     0.0000E+00    0.0000E+00    1.445000E+07  0.02000  7.663E-03    0   0.8472   age078_m62            0.0000     8.9332E-01     7.0466   0.6317   100.0134
 40      0.0000     0.0000E+00    0.0000E+00    2.512000E+07  0.02000  4.532E-03    0   0.8099   age090_m62            0.0000     8.9311E-01     7.1056   0.6190    99.9666
 41      0.0000     0.0000E+00    0.0000E+00    5.500000E+07  0.02000  2.733E-03    0   0.7595   age110_m62            0.0000     7.3410E-01     6.5974   0.6078   101.1207
 42      0.0000     0.0000E+00    0.0000E+00    1.609000E+08  0.02000  1.369E-03    0   0.6985   age120_m62            0.0000     7.8003E-01     6.6645   0.4169   105.3855
 43      0.0127     6.9257E-03    7.9340E-03    2.861200E+08  0.02000  9.013E-04    0   0.6714   age125_m62            0.0000     9.0135E-01     6.9010   0.1501   109.2569
 44      0.0000     0.0000E+00    0.0000E+00    5.088000E+08  0.02000  5.028E-04    0   0.6449   age130_m62            0.0000     1.0648E+00     7.5002  -0.2374   112.7268
 45      0.0000     0.0000E+00    0.0000E+00    9.047900E+08  0.02000  2.428E-04    0   0.6179   age135_m62            0.0000     1.0685E+00     7.6385  -0.8120   111.5270
 46      0.0000     0.0000E+00    0.0000E+00    1.434000E+09  0.02000  1.263E-04    0   0.5908   age139_m62            0.0000     1.3908E+00     8.5049  -1.0000    99.8331
 47      0.0000     0.0000E+00    0.0000E+00    2.500000E+09  0.02000  5.985E-05    0   0.5673   age150_m62            0.0000     2.7548E+00    11.9884  -1.0000    84.8474
 48      0.0000     0.0000E+00    0.0000E+00    4.250000E+09  0.02000  3.271E-05    0   0.5468   age158_m62            0.0000     4.5602E+00    15.5693  -1.0000    73.5858
 49      0.0000     0.0000E+00    0.0000E+00    1.000000E+10  0.02000  1.360E-05    0   0.5167   age181_m62            0.0000     7.0758E+00    19.5925  -1.0000    62.2980
 50      0.0000     0.0000E+00    0.0000E+00    1.800000E+10  0.02000  7.124E-06    0   0.5013   age213_m62            0.0000     8.7268E+00    21.8163  -1.0000    55.8600
 51      0.0000     0.0000E+00    0.0000E+00    1.000000E+06  0.05000  2.592E-02    0   0.9998   age020_m72            0.0000     1.1759E+00     8.2133   1.9033    88.7720
 52      0.0000     0.0000E+00    0.0000E+00    3.160000E+06  0.05000  4.845E-02    0   0.9577   age045_m72            0.0000     9.9891E-01     7.7634   1.7082    91.8227
 53      0.0000     0.0000E+00    0.0000E+00    5.010000E+06  0.05000  3.072E-02    0   0.9147   age055_m72            0.0000     9.4444E-01     7.2826   1.2291    95.8239
 54      0.0000     0.0000E+00    0.0000E+00    6.610000E+06  0.05000  1.455E-02    0   0.8877   age061_m72            0.0000     1.8321E+00    10.4096   0.5216    99.4737
 55      0.0000     0.0000E+00    0.0000E+00    1.000000E+07  0.05000  9.074E-03    0   0.8524   age070_m72            0.0000     1.0209E+00     7.6377   1.4169    95.5183
 56      0.0000     2.3797E-06    3.2085E-06    2.512000E+07  0.05000  4.250E-03    0   0.7902   age090_m72            0.0000     8.5944E-01     7.1026   1.0894    98.4213
 57      0.0000     0.0000E+00    0.0000E+00    4.000000E+07  0.05000  3.087E-03    0   0.7618   age104_m72            0.0000     8.4360E-01     7.0571   0.8528   100.4722
 58      0.0000     0.0000E+00    0.0000E+00    1.015200E+08  0.05000  1.700E-03    0   0.7096   age116_m72            0.0000     7.7601E-01     6.6813   0.5654   104.6404
 59      0.0000     0.0000E+00    0.0000E+00    2.861200E+08  0.05000  7.384E-04    0   0.6633   age125_m72            0.0000     1.0005E+00     7.2399   0.0118   111.0847
 60      0.0000     0.0000E+00    0.0000E+00    5.088000E+08  0.05000  3.819E-04    0   0.6372   age130_m72            0.0000     1.0740E+00     7.6643  -0.4810   112.9521
 61      0.0000     0.0000E+00    0.0000E+00    9.047900E+08  0.05000  1.676E-04    0   0.6110   age135_m72            0.0000     1.4304E+00     8.7019  -1.0000   103.9267
 62      0.0000     0.0000E+00    0.0000E+00    1.434000E+09  0.05000  8.837E-05    0   0.5874   age139_m72            0.0000     2.8518E+00    12.1682  -1.0000    86.0706
 63      0.0000     0.0000E+00    0.0000E+00    2.500000E+09  0.05000  4.233E-05    0   0.5598   age150_m72            0.0000     4.6692E+00    15.6598  -1.0000    74.2156
 64      0.0000     0.0000E+00    0.0000E+00    6.250000E+09  0.05000  1.435E-05    0   0.5249   age166_m72            0.0000     7.7802E+00    20.6886  -1.0000    59.2411
 65      0.0000     0.0000E+00    0.0000E+00    1.300000E+10  0.05000  6.513E-06    0   0.5036   age193_m72            0.0000     1.0007E+01    23.5537  -1.0000    52.1440
 66      0.0000     0.0000E+00    0.0000E+00    1.800000E+10  0.05000  4.527E-06    0   0.4945   age213_m72            0.0000     1.1296E+01    25.1043  -1.0000    48.0278


## Synthesis Results - Average & Chains ##

# j      x_j: min, <> & last-chain-values for 1 ...  7 chains
  1      0.0000      0.2408      0.0000      0.0000      1.1843      0.0000      0.0000      0.0000      0.0000
  2      0.0000      0.2117      0.4671      0.7323      0.0000      0.0000      0.0000      0.0000      0.6553
  3      0.0000      0.4313      0.0000      0.0000      0.0000      0.3486      0.0000      0.0000      0.0000
  4      0.0000      0.3137      0.8715      0.0000      0.0000      0.0000      0.0000      0.8867      0.0000
  5      0.5467      0.9092      0.4789      0.0000      1.0510      1.9673      2.1987      2.5577      0.0000
  6      0.0000      0.5981      0.0503      0.0000      0.0000      0.0000      2.6183      0.0000      0.0000
  7      3.3812      1.5032      5.7923      1.9589      1.6618      0.6197      0.0000      1.8857      0.0000
  8     12.6265      4.1483      2.0250      7.9058      8.8004      3.5495      1.9065      9.5750      0.6785
  9      3.7848      2.6674      0.0000      0.0000      5.3591      3.4405      4.7410      5.4101      8.3750
 10      0.0000      1.0713      5.5864      0.0000      0.0000      0.5051      0.0000      0.0000      0.0000
 11      0.0000      3.4927      6.7662      0.0000      1.1713      0.0000      0.0000      0.0000      0.0000
 12     18.4699     14.2868     11.3236     12.5800     20.8395     14.4260     23.4021     18.5642     13.2027
 13     20.0269      0.4508      1.4869      0.1904      1.7472      0.4220      0.0240      0.7440      1.4673
 14      3.8844      1.3523      2.7668      1.6046      3.0313      1.4339      3.6528      1.3576      0.0773
 15      0.0000      0.0452      0.0000      0.0000      0.0000      0.0000      0.2294      0.0000      0.0000
 16      0.0000      0.1315      0.1676      0.0000      0.0000      0.5792      0.0000      0.6069      0.0000
 17      0.0000      0.2451      1.0899      0.0000      0.3669      0.0000      0.0000      0.0000      0.0000
 18      0.0000      0.3347      0.5085      0.0000      0.0000      0.0000      0.0000      0.5587      0.0000
 19      0.0000      0.2564      0.0000      0.1454      0.0000      0.2051      0.8624      0.0000      0.0252
 20      0.0000      0.2717      0.0000      0.0000      0.0000      0.0000      0.0000      0.1310      0.0000
 21     30.3571     26.3214     29.1740     27.0270     25.0773     35.7998     28.5197     27.4126     34.9128
 22      0.0000      0.4325      0.0000      0.0000      0.0000      1.5792      0.0000      0.0000      1.1752
 23      0.0000      0.6700      2.3864      0.7377      0.0000      0.0000      0.0000      1.0367      0.0000
 24      2.8320      1.0847      0.0000      3.2412      5.8808      0.0000      0.8884      3.9785      0.0000
 25      0.0000      1.4341      2.9481      2.6264      0.2219      0.0000      7.7663      0.0000      5.9470
 26      0.0000      0.9819      0.0000      0.4707      0.0000      0.0000      0.0000      0.0000      2.0306
 27      8.5712     12.4817     14.0925     14.3607      7.8741     17.7889     15.9823     15.9252     17.7937
 28      0.0000      1.5890      0.0000      0.0000      0.0000      2.8234      1.2386      1.1528      0.0000
 29      0.0000      0.2768      0.6443      1.4222      0.3695      0.0000      0.0000      0.0000      1.0669
 30      0.0000      0.1003      0.6950      0.0000      0.0000      0.0000      0.0000      0.0000      0.5991
 31      0.0000      0.0808      0.1295      0.0000      0.4334      0.0000      0.0826      0.4186      0.0000
 32      0.0000      0.0537      0.0000      0.0000      0.0000      0.0000      0.8065      0.0000      0.0000
 33      0.0000      0.0386      0.0000      0.3733      0.0000      0.0000      0.0000      0.0000      0.0000
 34      0.0000      0.0210      0.0000      0.0000      0.0000      0.0000      0.0000      0.2769      0.0000
 35      0.0000      0.1423      0.0000      0.0000      0.0000      0.0000      0.0000      0.0549      0.0000
 36      0.0000      0.3499      0.0000      0.0000      0.0000      0.0000      2.8614      0.0000      0.0000
 37      0.0000      0.4363      0.0000      0.0000      0.1644      0.0000      0.0000      0.0000      0.0000
 38      0.0000      2.2479      0.6348      3.5237      1.9700      3.8857      0.0000      0.0000      5.0712
 39      0.0000      2.1182      0.0000      1.9940      0.7067      0.0000      0.0000      0.6539      0.0000
 40      0.0000      1.0491      3.2578      0.3307      1.3704      0.0000      0.0000      0.0000      0.0000
 41      0.0000      1.0456      1.5157      1.3218      0.0000      1.7362      0.0775      0.0000      1.0824
 42      0.0000      1.1249      2.6050      0.0000      0.9019      3.1842      0.0000      0.0000      0.0000
 43      0.0127      2.4363      0.0000      7.3431      3.7893      3.7451      2.7655      1.7155      1.1977
 44      0.0000      5.7908      5.4855      4.2397      6.8699      5.7379      0.0000      5.3766      6.0701
 45      0.0000      1.3678      0.0861      5.4601      0.7535      0.5565      0.0000      0.0000      0.0000
 46      0.0000      0.4044      0.0000      0.0000      0.8169      0.0000      0.0000      0.4026      0.0000
 47      0.0000      0.2006      0.0000      0.0000      0.0000      0.0000      0.1348      0.0000      0.0000
 48      0.0000      0.0586      0.0000      0.0000      0.0443      0.0000      0.0000      0.7921      0.0000
 49      0.0000      0.0481      0.0000      0.0000      0.0000      0.0000      0.0000      0.0000      0.0000
 50      0.0000      0.0176      0.0000      0.0000      0.0000      0.0000      0.0000      0.0000      0.0000
 51      0.0000      0.2439      0.0000      0.0000      0.0000      0.0000      0.0000      0.7097      0.0000
 52      0.0000      0.1870      0.2315      0.0000      0.0000      0.0000      0.0000      0.4750      0.0000
 53      0.0000      0.2885      0.0550      0.0000      0.7587      0.0000      0.6390      0.0000      0.0000
 54      0.0000      0.4529      0.0000      0.0000      0.0000      0.0000      0.0000      0.0000      0.0000
 55      0.0000      0.2515      0.0000      0.0000      0.0000      0.0000      0.0000      1.3912      0.0000
 56      0.0000      0.3344      0.0000      0.2028      0.8091      0.0000      0.0000      0.0000      0.0000
 57      0.0000      0.5053      0.0000      4.1247      0.0000      0.0000      0.0000      0.0000      0.0000
 58      0.0000      0.5146      0.0000      0.0000      0.0000      0.0000      0.0000      0.0000      0.0000
 59      0.0000      1.7094      0.0000      0.0000      0.0000      0.0000      0.0000      0.0000      0.0000
 60      0.0000      1.9479      0.0000      0.0000      0.0000      0.0000      1.5353      0.0000      0.6876
 61      0.0000      0.3645      0.7926      0.5704      0.0000      0.0000      1.1172      0.0000      0.0135
 62      0.0000      0.0925      0.0472      0.0000      0.0000      0.0000      0.0000      0.0000      1.2947
 63      0.0000      0.1023      0.0000      0.0000      0.0000      0.0768      0.0000      0.0000      0.6986
 64      0.0000      0.0312      0.0000      0.0000      0.0000      0.0000      0.0000      0.0971      0.0000
 65      0.0000      0.0191      0.0000      0.0000      0.0000      0.0000      0.0000      0.0000      0.0000
 66      0.0000      0.0119      0.0000      0.0000      0.0000      0.1821      0.0000      0.0000      0.0000

# j      m_j: min, <> & last-chain-values for 1 ...  7 chains
  1  0.0000E+00  2.2483E-02  0.0000E+00  0.0000E+00  1.0612E-01  0.0000E+00  0.0000E+00  0.0000E+00  0.0000E+00
  2  0.0000E+00  5.3975E-03  9.6752E-03  2.0535E-02  0.0000E+00  0.0000E+00  0.0000E+00  0.0000E+00  2.2898E-02
  3  0.0000E+00  1.6467E-02  0.0000E+00  0.0000E+00  0.0000E+00  1.3192E-02  0.0000E+00  0.0000E+00  0.0000E+00
  4  0.0000E+00  1.1277E-02  2.5457E-02  0.0000E+00  0.0000E+00  0.0000E+00  0.0000E+00  2.7703E-02  0.0000E+00
  5  3.0687E-02  6.2263E-02  2.6650E-02  0.0000E+00  6.9065E-02  1.3357E-01  1.4421E-01  1.5222E-01  0.0000E+00
  6  0.0000E+00  6.6434E-02  4.5431E-03  0.0000E+00  0.0000E+00  0.0000E+00  2.7854E-01  0.0000E+00  0.0000E+00
  7  4.4072E-01  2.3905E-01  7.4847E-01  3.4263E-01  2.5359E-01  9.7699E-02  0.0000E+00  2.6061E-01  0.0000E+00
  8  2.2748E+00  9.1181E-01  3.6165E-01  1.9113E+00  1.8562E+00  7.7349E-01  4.0133E-01  1.8290E+00  2.0442E-01
  9  7.8044E-01  6.7107E-01  0.0000E+00  0.0000E+00  1.2937E+00  8.5810E-01  1.1423E+00  1.1828E+00  2.8881E+00
 10  0.0000E+00  3.5402E-01  1.5000E+00  0.0000E+00  0.0000E+00  1.6548E-01  0.0000E+00  0.0000E+00  0.0000E+00
 11  0.0000E+00  2.1703E+00  3.4162E+00  0.0000E+00  6.9842E-01  0.0000E+00  0.0000E+00  0.0000E+00  0.0000E+00
 12  1.4922E+01  1.4082E+01  9.0691E+00  1.3638E+01  1.9711E+01  1.4097E+01  2.2091E+01  1.5902E+01  1.7838E+01
 13  4.5605E+01  1.2525E+00  3.3565E+00  5.8192E-01  4.6581E+00  1.1622E+00  6.3910E-02  1.7964E+00  5.5880E+00
 14  2.9668E+01  1.2602E+01  2.0949E+01  1.6445E+01  2.7105E+01  1.3247E+01  3.2599E+01  1.0993E+01  9.8734E-01
 15  0.0000E+00  6.8635E-01  0.0000E+00  0.0000E+00  0.0000E+00  0.0000E+00  3.3322E+00  0.0000E+00  0.0000E+00
 16  0.0000E+00  3.3727E+00  3.4936E+00  0.0000E+00  0.0000E+00  1.4730E+01  0.0000E+00  1.3527E+01  0.0000E+00
 17  0.0000E+00  8.1556E+00  2.9467E+01  0.0000E+00  1.1713E+01  0.0000E+00  0.0000E+00  0.0000E+00  0.0000E+00
 18  0.0000E+00  2.7620E-02  3.4099E-02  0.0000E+00  0.0000E+00  0.0000E+00  0.0000E+00  4.0062E-02  0.0000E+00
 19  0.0000E+00  8.4927E-03  0.0000E+00  5.2980E-03  0.0000E+00  6.7336E-03  2.7356E-02  0.0000E+00  1.1449E-03
 20  0.0000E+00  9.8236E-03  0.0000E+00  0.0000E+00  0.0000E+00  0.0000E+00  0.0000E+00  4.1153E-03  0.0000E+00
 21  1.0921E+00  1.1553E+00  1.0405E+00  1.3047E+00  1.0562E+00  1.5578E+00  1.1988E+00  1.0456E+00  2.1005E+00
 22  0.0000E+00  3.2097E-02  0.0000E+00  0.0000E+00  0.0000E+00  1.1620E-01  0.0000E+00  0.0000E+00  1.1956E-01
 23  0.0000E+00  6.7157E-02  1.9434E-01  8.1318E-02  0.0000E+00  0.0000E+00  0.0000E+00  9.0299E-02  0.0000E+00
 24  3.4613E-01  1.6175E-01  0.0000E+00  5.3157E-01  8.4144E-01  0.0000E+00  1.2687E-01  5.1555E-01  0.0000E+00
 25  0.0000E+00  2.9486E-01  4.9251E-01  5.9393E-01  4.3772E-02  0.0000E+00  1.5293E+00  0.0000E+00  1.6761E+00
 26  0.0000E+00  3.3745E-01  0.0000E+00  1.7794E-01  0.0000E+00  0.0000E+00  0.0000E+00  0.0000E+00  9.5659E-01
 27  4.8327E+00  8.5862E+00  7.8769E+00  1.0865E+01  5.1976E+00  1.2132E+01  1.0529E+01  9.5201E+00  1.6778E+01
 28  0.0000E+00  3.1722E+00  0.0000E+00  0.0000E+00  0.0000E+00  5.5881E+00  2.3681E+00  2.0000E+00  0.0000E+00
 29  0.0000E+00  9.6289E-01  1.8210E+00  5.4411E+00  1.2333E+00  0.0000E+00  0.0000E+00  0.0000E+00  5.0872E+00
 30  0.0000E+00  7.2920E-01  4.1042E+00  0.0000E+00  0.0000E+00  0.0000E+00  0.0000E+00  0.0000E+00  5.9679E+00
 31  0.0000E+00  1.0332E+00  1.3453E+00  0.0000E+00  5.3169E+00  0.0000E+00  1.0118E+00  4.6509E+00  0.0000E+00
 32  0.0000E+00  9.2438E-01  0.0000E+00  0.0000E+00  0.0000E+00  0.0000E+00  1.3287E+01  0.0000E+00  0.0000E+00
 33  0.0000E+00  1.4703E+00  0.0000E+00  1.5635E+01  0.0000E+00  0.0000E+00  0.0000E+00  0.0000E+00  0.0000E+00
 34  0.0000E+00  1.0806E+00  0.0000E+00  0.0000E+00  0.0000E+00  0.0000E+00  0.0000E+00  1.2409E+01  0.0000E+00
 35  0.0000E+00  9.4135E-03  0.0000E+00  0.0000E+00  0.0000E+00  0.0000E+00  0.0000E+00  3.1583E-03  0.0000E+00
 36  0.0000E+00  9.3681E-03  0.0000E+00  0.0000E+00  0.0000E+00  0.0000E+00  7.3361E-02  0.0000E+00  0.0000E+00
 37  0.0000E+00  1.2632E-02  0.0000E+00  0.0000E+00  4.5674E-03  0.0000E+00  0.0000E+00  0.0000E+00  0.0000E+00
 38  1.3660E-06  1.7634E-01  4.0461E-02  3.0402E-01  1.4829E-01  3.0219E-01  0.0000E+00  0.0000E+00  5.4529E-01
 39  0.0000E+00  2.3924E-01  0.0000E+00  2.4771E-01  7.6597E-02  0.0000E+00  0.0000E+00  6.4186E-02  0.0000E+00
 40  0.0000E+00  1.9154E-01  4.8327E-01  6.6411E-02  2.4008E-01  0.0000E+00  0.0000E+00  0.0000E+00  0.0000E+00
 41  0.0000E+00  2.9686E-01  3.4965E-01  4.1274E-01  0.0000E+00  4.8868E-01  2.1077E-02  0.0000E+00  4.2124E-01
 42  0.0000E+00  5.8635E-01  1.1033E+00  0.0000E+00  4.5110E-01  1.6455E+00  0.0000E+00  0.0000E+00  0.0000E+00
 43  7.9340E-03  1.8541E+00  0.0000E+00  6.1464E+00  2.7671E+00  2.8256E+00  2.0156E+00  1.1345E+00  1.2494E+00
 44  0.0000E+00  7.5878E+00  5.8404E+00  6.1103E+00  8.6379E+00  7.4538E+00  0.0000E+00  6.1224E+00  1.0903E+01
 45  0.0000E+00  3.5562E+00  1.8191E-01  1.5614E+01  1.8798E+00  1.4343E+00  0.0000E+00  0.0000E+00  0.0000E+00
 46  0.0000E+00  1.9327E+00  0.0000E+00  0.0000E+00  3.7462E+00  0.0000E+00  0.0000E+00  1.6719E+00  0.0000E+00
 47  0.0000E+00  1.9425E+00  0.0000E+00  0.0000E+00  0.0000E+00  0.0000E+00  1.2498E+00  0.0000E+00  0.0000E+00
 48  0.0000E+00  1.0006E+00  0.0000E+00  0.0000E+00  7.2553E-01  0.0000E+00  0.0000E+00  1.1756E+01  0.0000E+00
 49  0.0000E+00  1.8656E+00  0.0000E+00  0.0000E+00  0.0000E+00  0.0000E+00  0.0000E+00  0.0000E+00  0.0000E+00
 50  0.0000E+00  1.2639E+00  0.0000E+00  0.0000E+00  0.0000E+00  0.0000E+00  0.0000E+00  0.0000E+00  0.0000E+00
 51  0.0000E+00  9.6117E-03  0.0000E+00  0.0000E+00  0.0000E+00  0.0000E+00  0.0000E+00  2.4304E-02  0.0000E+00
 52  0.0000E+00  3.7764E-03  3.7981E-03  0.0000E+00  0.0000E+00  0.0000E+00  0.0000E+00  8.3359E-03  0.0000E+00
 53  0.0000E+00  8.7746E-03  1.3596E-03  0.0000E+00  2.2147E-02  0.0000E+00  1.8614E-02  0.0000E+00  0.0000E+00
 54  0.0000E+00  2.8230E-02  0.0000E+00  0.0000E+00  0.0000E+00  0.0000E+00  0.0000E+00  0.0000E+00  0.0000E+00
 55  0.0000E+00  2.4133E-02  0.0000E+00  0.0000E+00  0.0000E+00  0.0000E+00  0.0000E+00  1.1602E-01  0.0000E+00
 56  3.2085E-06  6.3525E-02  0.0000E+00  4.2366E-02  1.4748E-01  0.0000E+00  0.0000E+00  0.0000E+00  0.0000E+00
 57  0.0000E+00  1.2738E-01  0.0000E+00  1.1437E+00  0.0000E+00  0.0000E+00  0.0000E+00  0.0000E+00  0.0000E+00
 58  0.0000E+00  2.1944E-01  0.0000E+00  0.0000E+00  0.0000E+00  0.0000E+00  0.0000E+00  0.0000E+00  0.0000E+00
 59  0.0000E+00  1.5687E+00  0.0000E+00  0.0000E+00  0.0000E+00  0.0000E+00  0.0000E+00  0.0000E+00  0.0000E+00
 60  0.0000E+00  3.3202E+00  0.0000E+00  0.0000E+00  0.0000E+00  0.0000E+00  2.5063E+00  0.0000E+00  1.6067E+00
 61  0.0000E+00  1.3575E+00  2.3985E+00  2.3365E+00  0.0000E+00  0.0000E+00  3.9848E+00  0.0000E+00  6.8817E-02
 62  0.0000E+00  6.2836E-01  2.6063E-01  0.0000E+00  0.0000E+00  0.0000E+00  0.0000E+00  0.0000E+00  1.2052E+01
 63  0.0000E+00  1.3819E+00  0.0000E+00  0.0000E+00  0.0000E+00  1.0288E+00  0.0000E+00  0.0000E+00  1.2938E+01
 64  0.0000E+00  1.1649E+00  0.0000E+00  0.0000E+00  0.0000E+00  0.0000E+00  0.0000E+00  3.1520E+00  0.0000E+00
 65  0.0000E+00  1.5048E+00  0.0000E+00  0.0000E+00  0.0000E+00  0.0000E+00  0.0000E+00  0.0000E+00  0.0000E+00
 66  0.0000E+00  1.3284E+00  0.0000E+00  0.0000E+00  0.0000E+00  2.0144E+01  0.0000E+00  0.0000E+00  0.0000E+00

# AV, chi2 & Mass for <> & i_chain = 1 ...  7 solutions
AV      -0.1393      0.1030      0.0656      0.0886      0.0837      0.0919      0.0962      0.1059      0.0992
chi2 6.8316E-01  6.9292E-01  6.9116E-01  6.9238E-01  6.9082E-01  6.9150E-01  6.9151E-01  6.9131E-01  6.9166E-01
Mass 4.9085E-12  5.5705E-12  6.5196E-12  4.9675E-12  5.6567E-12  5.5360E-12  5.7637E-12  6.4353E-12  4.0430E-12
 -45.99                                  [v0_min (km/s) before EX0s...]
 203.18                                  [vd_min (km/s) before EX0s...]


## Synthetic spectrum (Best Model) ##l_obs f_obs f_syn wei
 3478    [Nl_obs]
 3741.00    0.84995   0.76177    0.000
 3742.00    0.82475   0.75839    0.000
 3743.00    0.81413   0.74294    0.000
 3744.00    0.83769   0.71783    0.000
 3745.00    0.85872   0.68636   11.645
 3746.00    0.81877   0.65275   12.213
 3747.00    0.68502   0.62229   14.598
 3748.00    0.50148   0.60076   19.941
 3749.00    0.41739   0.59306   -1.000
 3750.00    0.51789   0.60147   19.309
 3751.00    0.69042   0.62469   14.484
 3752.00    0.79105   0.65806   12.641
 3753.00    0.78540   0.69517   12.732
 3754.00    0.74121   0.72997   13.491
 3755.00    0.78941   0.75846   12.668
 3756.00    0.95562   0.77936   10.464
 3757.00    1.09322   0.79367    9.147
 3758.00    1.11405   0.80334    8.976
 3759.00    1.08895   0.80990    9.183
 3760.00    1.07006   0.81353    9.345
 3761.00    1.02290   0.81308    9.776
 3762.00    0.94625   0.80678   10.568
 3763.00    0.90128   0.79313   11.095
 3764.00    0.90108   0.77165   11.098
 3765.00    0.88889   0.74325   11.250
 3766.00    0.82508   0.71047   12.120
 3767.00    0.71585   0.67738   13.969
 3768.00    0.59981   0.64916   16.672
 3769.00    0.53059   0.63106   18.847
 3770.00    0.54175   0.62704   18.459
 3771.00    0.63109   0.63842   15.846
 3772.00    0.74854   0.66346   13.359
 3773.00    0.82308   0.69810   12.150
 3774.00    0.82894   0.73742   12.064
 3775.00    0.78764   0.77719   12.696
 3776.00    0.73975   0.81456   13.518
 3777.00    0.72041   0.84799   13.881
 3778.00    0.72711   0.87678   13.753
 3779.00    0.73742   0.90051   13.561
 3780.00    0.74615   0.91883   13.402
 3781.00    0.75532   0.93132   13.239
 3782.00    0.75239   0.93762   13.291
 3783.00    0.73210   0.93758   13.659
 3784.00    0.72550   0.93149   13.784
 3785.00    0.75804   0.92018   13.192
 3786.00    0.80167   0.90489   12.474
 3787.00    0.83329   0.88677   12.001
 3788.00    0.89209   0.86637   11.210
 3789.00    0.98877   0.84337   10.114
 3790.00    1.03125   0.81670    9.697
 3791.00    0.96401   0.78521   10.373
 3792.00    0.87300   0.74851   11.455
 3793.00    0.85140   0.70785   11.745
 3794.00    0.89795   0.66648   11.137
 3795.00    0.95469   0.62946   -1.000
 3796.00    0.94824   0.60259   -1.000
 3797.00    0.85753   0.59094   -1.000
 3798.00    0.74207   0.59714   13.476
 3799.00    0.68096   0.62040   14.685
 3800.00    0.72621   0.65666   13.770
 3801.00    0.84508   0.69999   11.833
 3802.00    0.92856   0.74442   10.769
 3803.00    0.93822   0.78557   10.659
 3804.00    0.93674   0.82134   10.675
 3805.00    0.96322   0.85167   10.382
 3806.00    1.00152   0.87752    9.985
 3807.00    1.03870   0.89977    9.627
 3808.00    1.07084   0.91849    9.339
 3809.00    1.06014   0.93299    9.433
 3810.00    0.96266   0.94241   10.388
 3811.00    0.83378   0.94649   11.994
 3812.00    0.79156   0.94589   12.633
 3813.00    0.86307   0.94186   11.587
 3814.00    0.98249   0.93563   10.178
 3815.00    1.06855   0.92790    9.358
 3816.00    1.06976   0.91900    9.348
 3817.00    1.01492   0.90940    9.853
 3818.00    0.96883   0.90004   10.322
 3819.00    0.94276   0.89202   10.607
 3820.00    0.91297   0.88577   10.953
 3821.00    0.87179   0.88044   11.471
 3822.00    0.82574   0.87412   12.110
 3823.00    0.78255   0.86470   12.779
 3824.00    0.75052   0.85087   13.324
 3825.00    0.73867   0.83235   13.538
 3826.00    0.74070   0.80945   13.501
 3827.00    0.72150   0.78244   13.860
 3828.00    0.65987   0.75120   15.155
 3829.00    0.58757   0.71561   17.019
 3830.00    0.55205   0.67630   18.114
 3831.00    0.57792   0.63534   17.303
 3832.00    0.64672   0.59657   15.463
 3833.00    0.69277   0.56494   14.435
 3834.00    0.67202   0.54526   14.881
 3835.00    0.60445   0.54078   16.544
 3836.00    0.53251   0.55224   18.779
 3837.00    0.49095   0.57790   20.369
 3838.00    0.49503   0.61428   20.201
 3839.00    0.53880   0.65723   18.560
 3840.00    0.61572   0.70279   16.241
 3841.00    0.72196   0.74770   13.851
 3842.00    0.82524   0.78944   12.118
 3843.00    0.87033   0.82634   11.490
 3844.00    0.85538   0.85754   11.691
 3845.00    0.84003   0.88297   11.904
 3846.00    0.86544   0.90318   11.555
 3847.00    0.92491   0.91914    0.000
 3848.00    0.96575   0.93188    0.000
 3849.00    0.92922   0.94231    0.000
 3850.00    0.85561   0.95091    0.000
 3851.00    0.84725   0.95771    0.000
 3852.00    0.90412   0.96244    0.000
 3853.00    0.94289   0.96491    0.000
 3854.00    0.93200   0.96520    0.000
 3855.00    0.89758   0.96390    0.000
 3856.00    0.87271   0.96191    0.000
 3857.00    0.88024   0.96036    0.000
 3858.00    0.92115   0.96026    0.000
 3859.00    0.97746   0.96224    0.000
 3860.00    1.02125   0.96620    0.000
 3861.00    1.03280   0.97127    0.000
 3862.00    1.02316   0.97609    0.000
 3863.00    1.02033   0.97933    0.000
 3864.00    1.04628   0.98019    0.000
 3865.00    1.10067   0.97848    0.000
 3866.00    1.14866   0.97447    0.000
 3867.00    1.15610   0.96852    0.000
 3868.00    1.12553   0.96104    0.000
 3869.00    1.08077   0.95258    0.000
 3870.00    1.04667   0.94388    0.000
 3871.00    1.02308   0.93574    0.000
 3872.00    0.97326   0.92847    0.000
 3873.00    0.88876   0.92162    0.000
 3874.00    0.82557   0.91402    0.000
 3875.00    0.82029   0.90437    0.000
 3876.00    0.84181   0.89184    0.000
 3877.00    0.84440   0.87633    0.000
 3878.00    0.80291   0.85815    0.000
 3879.00    0.72215   0.83751    0.000
 3880.00    0.63441   0.81413    0.000
 3881.00    0.56898   0.78723   -1.000
 3882.00    0.53968   0.75600   -1.000
 3883.00    0.55377   0.72023   18.058
 3884.00    0.60966   0.68109   16.403
 3885.00    0.67465   0.64156   14.822
 3886.00    0.69544   0.60633   14.379
 3887.00    0.65912   0.58086   15.172
 3888.00    0.60008   0.56973   16.664
 3889.00    0.55877   0.57512   17.896
 3890.00    0.55851   0.59593   17.905
 3891.00    0.57955   0.62834   17.255
 3892.00    0.58165   0.66715   17.193
 3893.00    0.57110   0.70747   17.510
 3894.00    0.58875   0.74576   16.985
 3895.00    0.65152   0.78014   15.349
 3896.00    0.74241   0.81007   13.470
 3897.00    0.81681   0.83571   12.243
 3898.00    0.83953   0.85761   11.911
 3899.00    0.84099   0.87632   11.891
 3900.00    0.86781   0.89233   11.523
 3901.00    0.89889   0.90599   11.125
 3902.00    0.89724   0.91771   11.145
 3903.00    0.89220   0.92807   11.208
 3904.00    0.93663   0.93788   10.677
 3905.00    1.04275   0.94792    9.590
 3906.00    1.18019   0.95859    8.473
 3907.00    1.28584   0.96965    7.777
 3908.00    1.30634   0.98032    7.655
 3909.00    1.23777   0.98952    8.079
 3910.00    1.12346   0.99646    8.901
 3911.00    1.04003   1.00079    9.615
 3912.00    1.02614   1.00270    9.745
 3913.00    1.03922   1.00261    9.623
 3914.00    1.03534   1.00091    9.659
 3915.00    1.01913   0.99782    9.812
 3916.00    0.99459   0.99352   10.054
 3917.00    0.94244   0.98829   10.611
 3918.00    0.87317   0.98269   11.452
 3919.00    0.84145   0.97734   11.884
 3920.00    0.86793   0.97263   11.522
 3921.00    0.91262   0.96843   10.958
 3922.00    0.93065   0.96400   10.745
 3923.00    0.90059   0.95826   11.104
 3924.00    0.83397   0.95026   11.991
 3925.00    0.76866   0.93940   13.010
 3926.00    0.73496   0.92548   13.606
 3927.00    0.73955   0.90861   13.522
 3928.00    0.75527   0.88917   13.240
 3929.00    0.74530   0.86800   13.417
 3930.00    0.73564   0.84684   13.594
 3931.00    0.78646   0.82844   12.715
 3932.00    0.87444   0.81616   11.436
 3933.00    0.92139   0.81281   10.853
 3934.00    0.91939   0.81957   10.877
 3935.00    0.91574   0.83527   10.920
 3936.00    0.92885   0.85684   10.766
 3937.00    0.95119   0.88032   10.513
 3938.00    0.98344   0.90216   10.168
 3939.00    1.03039   0.92012    9.705
 3940.00    1.08518   0.93348    9.215
 3941.00    1.12917   0.94279    8.856
 3942.00    1.13744   0.94928    8.792
 3943.00    1.11231   0.95422    8.990
 3944.00    1.11800   0.95845    8.945
 3945.00    1.19904   0.96221    8.340
 3946.00    1.29241   0.96533    7.737
 3947.00    1.32001   0.96740    7.576
 3948.00    1.28590   0.96810    7.777
 3949.00    1.22394   0.96720    8.170
 3950.00    1.14494   0.96463    8.734
 3951.00    1.06039   0.96037    9.430
 3952.00    1.00170   0.95442    9.983
 3953.00    0.99431   0.94669   10.057
 3954.00    1.03568   0.93699    9.655
 3955.00    1.08099   0.92501    9.251
 3956.00    1.05245   0.91036    9.502
 3957.00    0.94085   0.89246   10.629
 3958.00    0.83770   0.87065   11.937
 3959.00    0.79701   0.84441   12.547
 3960.00    0.78278   0.81348    0.000
 3961.00    0.76538   0.77787    0.000
 3962.00    0.75595   0.73777    0.000
 3963.00    0.75727   0.69366    0.000
 3964.00    0.75166   0.64664    0.000
 3965.00    0.73316   0.59886    0.000
 3966.00    0.71497   0.55388    0.000
 3967.00    0.71348   0.51638    0.000
 3968.00    0.73521   0.49135    0.000
 3969.00    0.75608   0.48267    0.000
 3970.00    0.73642   0.49188    0.000
 3971.00    0.67410   0.51772    0.000
 3972.00    0.60553   0.55652    0.000
 3973.00    0.57511   0.60334    0.000
 3974.00    0.61113   0.65322    0.000
 3975.00    0.69330   0.70209    0.000
 3976.00    0.77611   0.74718    0.000
 3977.00    0.84317   0.78696    0.000
 3978.00    0.90233   0.82086    0.000
 3979.00    0.96068   0.84899    0.000
 3980.00    1.01588   0.87199    0.000
 3981.00    1.05090   0.89088    9.516
 3982.00    1.05682   0.90681    9.462
 3983.00    1.06082   0.92085    9.427
 3984.00    1.09111   0.93371    9.165
 3985.00    1.13308   0.94576    8.825
 3986.00    1.14844   0.95704    8.707
 3987.00    1.10386   0.96741    9.059
 3988.00    1.00471   0.97667    9.953
 3989.00    0.91685   0.98466   10.907
 3990.00    0.89918   0.99118   11.121
 3991.00    0.94860   0.99605   10.542
 3992.00    1.03118   0.99914    9.698
 3993.00    1.11041   1.00062    9.006
 3994.00    1.15635   1.00102    8.648
 3995.00    1.15231   1.00111    8.678
 3996.00    1.10478   1.00172    9.052
 3997.00    1.04436   1.00341    9.575
 3998.00    0.99978   1.00615   10.002
 3999.00    0.98485   1.00918   10.154
 4000.00    1.00491   1.01142    9.951
 4001.00    1.05652   1.01198    9.465
 4002.00    1.11119   1.01050    8.999
 4003.00    1.12437   1.00737    8.894
 4004.00    1.09534   1.00359    9.130
 4005.00    1.06985   1.00045    9.347
 4006.00    1.07020   0.99902    9.344
 4007.00    1.08352   0.99974    9.229
 4008.00    1.10094   1.00251    9.083
 4009.00    1.12648   1.00683    8.877
 4010.00    1.16683   1.01199    8.570
 4011.00    1.22116   1.01724    8.189
 4012.00    1.26472   1.02200    7.907
 4013.00    1.26576   1.02596    7.900
 4014.00    1.22948   1.02903    8.134
 4015.00    1.18146   1.03119    8.464
 4016.00    1.11878   1.03244    8.938
 4017.00    1.03160   1.03278    9.694
 4018.00    0.95447   1.03194   10.477
 4019.00    0.93043   1.02943   10.748
 4020.00    0.94480   1.02488   10.584
 4021.00    0.95985   1.01837   10.418
 4022.00    0.97466   1.01068   10.260
 4023.00    1.00000   1.00310   10.000
 4024.00    1.01918   0.99697    9.812
 4025.00    1.00768   0.99325    9.924
 4026.00    0.96054   0.99213   10.411
 4027.00    0.89791   0.99300   11.137
 4028.00    0.86216   0.99479   11.599
 4029.00    0.86391   0.99667   11.575
 4030.00    0.84622   0.99845   11.817
 4031.00    0.78303   1.00061   12.771
 4032.00    0.74446   1.00395   -1.000
 4033.00    0.78145   1.00899   12.797
 4034.00    0.85357   1.01555   11.716
 4035.00    0.91811   1.02279   10.892
 4036.00    0.98104   1.02950   10.193
 4037.00    1.04399   1.03453    9.579
 4038.00    1.07971   1.03693    9.262
 4039.00    1.06990   1.03609    9.347
 4040.00    1.02304   1.03191    9.775
 4041.00    0.96348   1.02500   10.379
 4042.00    0.92251   1.01667   10.840
 4043.00    0.92483   1.00857   10.813
 4044.00    0.97584   1.00237   10.248
 4045.00    1.03742   0.99943    9.639
 4046.00    1.04839   1.00022    9.538
 4047.00    1.01481   1.00402    9.854
 4048.00    0.99884   1.00929   10.012
 4049.00    1.00535   1.01422    9.947
 4050.00    0.98999   1.01739   10.101
 4051.00    0.96203   1.01819   10.395
 4052.00    0.97137   1.01675   10.295
 4053.00    1.01965   1.01379    9.807
 4054.00    1.06865   1.01029    9.358
 4055.00    1.09842   1.00715    9.104
 4056.00    1.11060   1.00479    9.004
 4057.00    1.11194   1.00298    8.993
 4058.00    1.10118   1.00103    9.081
 4059.00    1.05498   0.99830    9.479
 4060.00    0.96326   0.99461   10.381
 4061.00    0.87969   0.99025   11.368
 4062.00    0.86707   0.98583   11.533
 4063.00    0.91962   0.98231   10.874
 4064.00    0.98961   0.98049   10.105
 4065.00    1.03147   0.98037    9.695
 4066.00    1.02817   0.98115    9.726
 4067.00    1.00942   0.98183    9.907
 4068.00    1.00974   0.98178    9.904
 4069.00    1.02973   0.98075    9.711
 4070.00    1.05376   0.97864    9.490
 4071.00    1.06838   0.97552    9.360
 4072.00    1.07027   0.97149    9.343
 4073.00    1.06929   0.96680    9.352
 4074.00    1.07643   0.96194    9.290
 4075.00    1.09427   0.95763    9.138
 4076.00    1.11016   0.95467    9.008
 4077.00    1.09806   0.95356    9.107
 4078.00    1.04849   0.95417    9.538
 4079.00    0.98144   0.95572   10.189
 4080.00    0.93065   0.95706   10.745
 4081.00    0.92610   0.95723   10.798
 4082.00    0.95488   0.95583   10.472
 4083.00    0.96494   0.95300   10.363
 4084.00    0.94004   0.94909   10.638
 4085.00    0.91069   0.94445   10.981
 4086.00    0.89410   0.93908   11.184
 4087.00    0.88409   0.93254   11.311
 4088.00    0.88296   0.92410   11.326
 4089.00    0.90002   0.91316   11.111
 4090.00    0.92156   0.89915   10.851
 4091.00    0.91827   0.88154   10.890
 4092.00    0.88165   0.86000    0.000
 4093.00    0.82094   0.83447    0.000
 4094.00    0.73856   0.80492    0.000
 4095.00    0.64175   0.77144    0.000
 4096.00    0.57261   0.73450    0.000
 4097.00    0.57070   0.69562    0.000
 4098.00    0.60325   0.65809    0.000
 4099.00    0.61512   0.62633    0.000
 4100.00    0.61902   0.60449    0.000
 4101.00    0.65672   0.59570    0.000
 4102.00    0.72904   0.60123    0.000
 4103.00    0.80751   0.61984    0.000
 4104.00    0.86080   0.64829    0.000
 4105.00    0.86708   0.68229    0.000
 4106.00    0.82548   0.71764    0.000
 4107.00    0.76990   0.75130    0.000
 4108.00    0.77274   0.78169    0.000
 4109.00    0.86427   0.80837    0.000
 4110.00    0.97444   0.83159    0.000
 4111.00    1.03873   0.85184    0.000
 4112.00    1.07491   0.86943    0.000
 4113.00    1.10987   0.88437    9.010
 4114.00    1.12856   0.89640    8.861
 4115.00    1.10043   0.90547    9.087
 4116.00    1.00548   0.91195    9.946
 4117.00    0.87505   0.91660   11.428
 4118.00    0.79525   0.92039   12.575
 4119.00    0.81362   0.92420   12.291
 4120.00    0.90149   0.92874   11.093
 4121.00    0.99833   0.93421   10.017
 4122.00    1.04815   0.94005    9.541
 4123.00    1.05787   0.94535    9.453
 4124.00    1.08954   0.94932    9.178
 4125.00    1.15311   0.95154    8.672
 4126.00    1.19612   0.95175    8.360
 4127.00    1.19225   0.95011    8.387
 4128.00    1.15570   0.94725    8.653
 4129.00    1.10073   0.94421    9.085
 4130.00    1.03651   0.94203    9.648
 4131.00    0.98326   0.94165   10.170
 4132.00    0.96269   0.94356   10.388
 4133.00    0.96854   0.94751   10.325
 4134.00    0.97851   0.95299   10.220
 4135.00    0.99020   0.95901   10.099
 4136.00    1.01225   0.96420    9.879
 4137.00    1.03618   0.96720    9.651
 4138.00    1.04368   0.96664    9.581
 4139.00    1.02635   0.96200    9.743
 4140.00    0.98788   0.95463   10.123
 4141.00    0.94243   0.94689   10.611
 4142.00    0.90791   0.94078   11.014
 4143.00    0.89718   0.93777   11.146
 4144.00    0.90889   0.93846   11.002
 4145.00    0.92052   0.94225   10.863
 4146.00    0.91464   0.94784   10.933
 4147.00    0.90417   0.95373   11.060
 4148.00    0.91036   0.95850   10.985
 4149.00    0.94057   0.96135   10.632
 4150.00    0.98965   0.96221   10.105
 4151.00    1.04329   0.96162    9.585
 4152.00    1.08317   0.96043    9.232
 4153.00    1.09290   0.95946    9.150
 4154.00    1.07319   0.95940    9.318
 4155.00    1.04693   0.96055    9.552
 4156.00    1.03155   0.96287    9.694
 4157.00    1.02539   0.96594    9.752
 4158.00    1.02294   0.96932    9.776
 4159.00    1.02216   0.97247    9.783
 4160.00    1.01904   0.97485    9.813
 4161.00    1.00875   0.97611    9.913
 4162.00    1.00120   0.97610    9.988
 4163.00    1.01891   0.97485    9.814
 4164.00    1.06547   0.97255    9.386
 4165.00    1.11816   0.96962    8.943
 4166.00    1.14357   0.96632    8.745
 4167.00    1.11462   0.96244    8.972
 4168.00    1.04315   0.95769    9.586
 4169.00    0.97548   0.95230   10.251
 4170.00    0.95494   0.94696   10.472
 4171.00    0.99623   0.94236   10.038
 4172.00    1.05179   0.93903    9.508
 4173.00    1.05100   0.93713    9.515
 4174.00    0.99591   0.93661   10.041
 4175.00    0.94137   0.93747   10.623
 4176.00    0.92031   0.93952   10.866
 4177.00    0.93523   0.94213   10.693
 4178.00    0.96836   0.94468   10.327
 4179.00    0.99428   0.94689   10.057
 4180.00    0.99609   0.94871   10.039
 4181.00    0.96977   0.95010   10.312
 4182.00    0.92653   0.95083   10.793
 4183.00    0.88777   0.95064   11.264
 4184.00    0.87738   0.94977   11.398
 4185.00    0.90521   0.94877   11.047
 4186.00    0.95191   0.94811   10.505
 4187.00    0.98722   0.94804   10.129
 4188.00    0.99011   0.94872   10.100
 4189.00    0.95976   0.95024   10.419
 4190.00    0.92103   0.95217   10.857
 4191.00    0.90415   0.95355   11.060
 4192.00    0.92736   0.95362   10.783
 4193.00    0.98788   0.95198   10.123
 4194.00    1.05864   0.94842    9.446
 4195.00    1.10145   0.94332    9.079
 4196.00    1.08304   0.93775    9.233
 4197.00    1.01593   0.93260    9.843
 4198.00    0.96438   0.92845   10.369
 4199.00    0.96483   0.92598   10.364
 4200.00    0.99588   0.92560   10.041
 4201.00    1.02180   0.92716    9.787
 4202.00    1.01677   0.93028    9.835
 4203.00    0.97998   0.93456   10.204
 4204.00    0.93471   0.93949   10.699
 4205.00    0.90519   0.94435   11.047
 4206.00    0.90521   0.94856   11.047
 4207.00    0.92925   0.95185   10.761
 4208.00    0.95771   0.95411   10.442
 4209.00    0.97844   0.95514   10.220
 4210.00    0.99098   0.95472   10.091
 4211.00    1.00161   0.95271    9.984
 4212.00    1.01515   0.94946    9.851
 4213.00    1.02050   0.94616    9.799
 4214.00    1.00047   0.94394    9.995
 4215.00    0.95665   0.94324   10.453
 4216.00    0.90771   0.94401   11.017
 4217.00    0.87723   0.94572   11.399
 4218.00    0.88247   0.94729   11.332
 4219.00    0.92042   0.94733   10.865
 4220.00    0.97113   0.94464   10.297
 4221.00    1.00669   0.93844    9.934
 4222.00    1.00903   0.92874    9.910
 4223.00    0.98929   0.91702   10.108
 4224.00    0.96966   0.90627   10.313
 4225.00    0.96056   0.89928   10.411
 4226.00    0.96041   0.89706   10.412
 4227.00    0.95931   0.89929   10.424
 4228.00    0.95230   0.90473   10.501
 4229.00    0.94894   0.91129   10.538
 4230.00    0.95467   0.91721   10.475
 4231.00    0.95823   0.92160   10.436
 4232.00    0.95537   0.92380   10.467
 4233.00    0.96189   0.92373   10.396
 4234.00    0.98263   0.92262   10.177
 4235.00    0.99763   0.92170   10.024
 4236.00    1.00173   0.92163    9.983
 4237.00    1.01776   0.92283    9.826
 4238.00    1.04344   0.92519    9.584
 4239.00    1.03815   0.92799    9.633
 4240.00    0.98960   0.93089   10.105
 4241.00    0.93259   0.93370   10.723
 4242.00    0.89609   0.93547   11.160
 4243.00    0.88629   0.93524   11.283
 4244.00    0.90642   0.93303   -2.000
 4245.00    0.95311   0.92932   -2.000
 4246.00    0.98149   0.92453   -2.000
 4247.00    0.93021   0.91943   -2.000
 4248.00    0.82370   0.91524   -2.000
 4249.00    0.75090   0.91251   -2.000
 4250.00    0.73497   0.91090   -2.000
 4251.00    0.74041   0.91022   -2.000
 4252.00    0.76704   0.91066   -2.000
 4253.00    0.83648   0.91209   -2.000
 4254.00    0.92084   0.91371   -2.000
 4255.00    0.97153   0.91448   -2.000
 4256.00    0.99710   0.91401   -2.000
 4257.00    1.02968   0.91263   -2.000
 4258.00    1.04956   0.91137   -2.000
 4259.00    1.02325   0.91141   -2.000
 4260.00    0.97449   0.91294   10.262
 4261.00    0.94970   0.91545   10.530
 4262.00    0.95983   0.91838   10.419
 4263.00    0.98798   0.92089   10.122
 4264.00    1.00874   0.92186    9.913
 4265.00    1.00665   0.92074    9.934
 4266.00    0.99074   0.91720   10.093
 4267.00    0.96832   0.91085   10.327
 4268.00    0.92273   0.90231   10.837
 4269.00    0.84894   0.89368   11.779
 4270.00    0.78033   0.88667   12.815
 4271.00    0.74832   0.88179   13.363
 4272.00    0.75333   0.87979   13.274
 4273.00    0.78698   0.88119   12.707
 4274.00    0.84586   0.88529   11.822
 4275.00    0.91539   0.89070   10.924
 4276.00    0.96582   0.89597   10.354
 4277.00    0.98558   0.89995   10.146
 4278.00    0.99164   0.90222   10.084
 4279.00    0.99115   0.90285   10.089
 4280.00    0.97156   0.90219   10.293
 4281.00    0.93945   0.90030   10.645
 4282.00    0.92383   0.89712   10.825
 4283.00    0.92435   0.89325   10.818
 4284.00    0.90879   0.88920   11.004
 4285.00    0.87307   0.88468   11.454
 4286.00    0.84562   0.87932   11.826
 4287.00    0.83744   0.87389   11.941
 4288.00    0.83723   0.86981   11.944
 4289.00    0.84059   0.86766   11.896
 4290.00    0.85087   0.86696   11.753
 4291.00    0.86179   0.86670   11.604
 4292.00    0.86139   0.86627   11.609
 4293.00    0.84923   0.86501   11.775
 4294.00    0.83033   0.86206   12.043
 4295.00    0.79703   0.85673   12.547
 4296.00    0.74253   0.84875   13.467
 4297.00    0.68895   0.83929   14.515
 4298.00    0.66917   0.83026   14.944
 4299.00    0.69190   0.82247   14.453
 4300.00    0.74225   0.81643   13.473
 4301.00    0.79123   0.81259   12.639
 4302.00    0.81366   0.81051   12.290
 4303.00    0.80780   0.80929   12.379
 4304.00    0.78716   0.80807   12.704
 4305.00    0.76797   0.80649   13.021
 4306.00    0.75992   0.80509   13.159
 4307.00    0.75958   0.80467   13.165
 4308.00    0.76322   0.80573   13.102
 4309.00    0.77678   0.80868   12.874
 4310.00    0.80086   0.81384   12.487
 4311.00    0.82077   0.82136   12.184
 4312.00    0.82701   0.83154   12.092
 4313.00    0.82774   0.84392   12.081
 4314.00    0.83243   0.85661   12.013
 4315.00    0.84375   0.86766   11.852
 4316.00    0.87410   0.87590   11.440
 4317.00    0.94296   0.88037   10.605
 4318.00    1.01561   0.88048    9.846
 4319.00    1.00528   0.87613    9.947
 4320.00    0.92116   0.86716   10.856
 4321.00    0.88646   0.85435   11.281
 4322.00    0.93978   0.83976   10.641
 4323.00    0.99448   0.82609   10.055
 4324.00    0.98601   0.81565   10.142
 4325.00    0.91775   0.80887   10.896
 4326.00    0.83110   0.80463   12.032
 4327.00    0.77618   0.80158   12.884
 4328.00    0.75989   0.79870   13.160
 4329.00    0.75278   0.79463   13.284
 4330.00    0.74337   0.78765    0.000
 4331.00    0.73901   0.77633    0.000
 4332.00    0.73616   0.75981    0.000
 4333.00    0.72409   0.73756    0.000
 4334.00    0.70622   0.70959    0.000
 4335.00    0.69941   0.67746    0.000
 4336.00    0.72415   0.64344    0.000
 4337.00    0.78798   0.61062    0.000
 4338.00    0.86338   0.58421    0.000
 4339.00    0.90950   0.56881    0.000
 4340.00    0.90844   0.56561    0.000
 4341.00    0.86699   0.57412    0.000
 4342.00    0.81073   0.59306    0.000
 4343.00    0.76509   0.61927    0.000
 4344.00    0.73552   0.64898    0.000
 4345.00    0.72369   0.67910    0.000
 4346.00    0.74348   0.70668    0.000
 4347.00    0.79337   0.72932    0.000
 4348.00    0.83386   0.74638    0.000
 4349.00    0.82908   0.75932    0.000
 4350.00    0.78136   0.77057    0.000
 4351.00    0.71852   0.78144   13.918
 4352.00    0.67849   0.79215   14.739
 4353.00    0.68424   0.80307   14.615
 4354.00    0.72988   0.81423   13.701
 4355.00    0.79562   0.82512   12.569
 4356.00    0.85773   0.83533   11.659
 4357.00    0.89127   0.84478   11.220
 4358.00    0.87831   0.85329   11.385
 4359.00    0.84027   0.86071   11.901
 4360.00    0.83456   0.86703   11.982
 4361.00    0.87768   0.87250   11.394
 4362.00    0.92786   0.87720   10.778
 4363.00    0.94458   0.88056   10.587
 4364.00    0.91440   0.88205   10.936
 4365.00    0.85766   0.88193   11.660
 4366.00    0.81445   0.88085   12.278
 4367.00    0.79792   0.87918   12.533
 4368.00    0.79326   0.87715   12.606
 4369.00    0.79239   0.87486   12.620
 4370.00    0.79587   0.87230   12.565
 4371.00    0.79501   0.86961   12.579
 4372.00    0.78024   0.86730   12.817
 4373.00    0.76699   0.86625   13.038
 4374.00    0.78063   0.86678   12.810
 4375.00    0.81863   0.86827   12.216
 4376.00    0.85988   0.86965   11.629
 4377.00    0.89261   0.87007   11.203
 4378.00    0.91521   0.86884   10.926
 4379.00    0.92980   0.86482   10.755
 4380.00    0.93283   0.85719   10.720
 4381.00    0.90582   0.84732   11.040
 4382.00    0.84304   0.83819   11.862
 4383.00    0.78302   0.83172   12.771
 4384.00    0.76614   0.82800   13.052
 4385.00    0.78706   0.82686   12.705
 4386.00    0.81966   0.82873   12.200
 4387.00    0.84680   0.83351   11.809
 4388.00    0.86654   0.84017   11.540
 4389.00    0.89225   0.84738   11.208
 4390.00    0.92867   0.85386   10.768
 4391.00    0.95673   0.85895   10.452
 4392.00    0.96069   0.86297   10.409
 4393.00    0.94597   0.86673   10.571
 4394.00    0.92735   0.87054   10.783
 4395.00    0.91830   0.87374   10.890
 4396.00    0.91780   0.87539   10.896
 4397.00    0.90838   0.87529   11.009
 4398.00    0.88172   0.87427   11.341
 4399.00    0.84711   0.87323   11.805
 4400.00    0.81084   0.87148   12.333
 4401.00    0.77129   0.86789   12.965
 4402.00    0.73615   0.86349   13.584
 4403.00    0.72436   0.86060   13.805
 4404.00    0.74831   0.85989   13.363
 4405.00    0.80583   0.86057   12.410
 4406.00    0.87596   0.86243   11.416
 4407.00    0.92620   0.86587   10.797
 4408.00    0.93599   0.87070   10.684
 4409.00    0.90718   0.87587   11.023
 4410.00    0.87211   0.87974   11.466
 4411.00    0.86944   0.88095   11.502
 4412.00    0.88796   0.87970   11.262
 4413.00    0.88663   0.87745   11.279
 4414.00    0.85850   0.87539   11.648
 4415.00    0.82558   0.87420   12.113
 4416.00    0.80646   0.87446   12.400
 4417.00    0.80809   0.87606   12.375
 4418.00    0.82255   0.87832   12.157
 4419.00    0.83382   0.88059   11.993
 4420.00    0.82867   0.88247   12.067
 4421.00    0.80412   0.88383   12.436
 4422.00    0.77391   0.88435   12.921
 4423.00    0.75560   0.88378   13.235
 4424.00    0.75537   0.88247   13.239
 4425.00    0.77344   0.88133   12.929
 4426.00    0.81033   0.88071   12.341
 4427.00    0.85800   0.87990   11.655
 4428.00    0.89346   0.87856   11.192
 4429.00    0.89805   0.87715   11.135
 4430.00    0.87279   0.87554   11.457
 4431.00    0.83146   0.87324   12.027
 4432.00    0.79264   0.87046   12.616
 4433.00    0.76603   0.86822   13.054
 4434.00    0.74774   0.86771   13.374
 4435.00    0.74373   0.86891   13.446
 4436.00    0.77588   0.87094   12.889
 4437.00    0.84080   0.87295   11.893
 4438.00    0.89866   0.87430   11.128
 4439.00    0.92318   0.87468   10.832
 4440.00    0.91999   0.87418   10.870
 4441.00    0.90315   0.87338   11.072
 4442.00    0.88350   0.87316   11.319
 4443.00    0.86395   0.87370   11.575
 4444.00    0.84243   0.87459   11.870
 4445.00    0.82641   0.87589   12.101
 4446.00    0.83037   0.87759   12.043
 4447.00    0.85449   0.87892   11.703
 4448.00    0.88471   0.87912   11.303
 4449.00    0.90971   0.87801   10.992
 4450.00    0.92549   0.87547   10.805
 4451.00    0.93508   0.87144   10.694
 4452.00    0.94354   0.86634   10.598
 4453.00    0.94781   0.86126   10.551
 4454.00    0.93961   0.85722   10.643
 4455.00    0.91462   0.85408   10.934
 4456.00    0.87725   0.85144   11.399
 4457.00    0.84488   0.84960   11.836
 4458.00    0.83457   0.84886   11.982
 4459.00    0.84301   0.84915   11.862
 4460.00    0.85472   0.85034   11.700
 4461.00    0.85743   0.85213    0.000
 4462.00    0.85222   0.85378    0.000
 4463.00    0.86078   0.85477    0.000
 4464.00    0.89741   0.85489    0.000
 4465.00    0.94127   0.85399    0.000
 4466.00    0.96938   0.85207    0.000
 4467.00    0.98776   0.84930    0.000
 4468.00    1.00387   0.84658    0.000
 4469.00    1.00341   0.84551    0.000
 4470.00    0.97326   0.84724    0.000
 4471.00    0.92041   0.85158    0.000
 4472.00    0.87134   0.85726    0.000
 4473.00    0.86338   0.86321    0.000
 4474.00    0.90078   0.86880    0.000
 4475.00    0.93891   0.87313    0.000
 4476.00    0.94553   0.87484    0.000
 4477.00    0.92928   0.87305    0.000
 4478.00    0.90983   0.86854    0.000
 4479.00    0.90073   0.86389    0.000
 4480.00    0.90296   0.86139    0.000
 4481.00    0.90580   0.86141    0.000
 4482.00    0.90010   0.86316   11.110
 4483.00    0.88314   0.86602   11.323
 4484.00    0.85716   0.86959   11.666
 4485.00    0.82853   0.87300   12.070
 4486.00    0.80718   0.87494   12.389
 4487.00    0.80059   0.87505   12.491
 4488.00    0.79880   0.87414   12.519
 4489.00    0.78658   0.87308   12.713
 4490.00    0.78216   0.87203   12.785
 4491.00    0.81732   0.87074   12.235
 4492.00    0.87483   0.86956   11.431
 4493.00    0.90713   0.86913   11.024
 4494.00    0.89912   0.86960   11.122
 4495.00    0.86734   0.87076   11.530
 4496.00    0.83633   0.87235   11.957
 4497.00    0.82582   0.87413   12.109
 4498.00    0.83788   0.87596   11.935
 4499.00    0.86124   0.87809   11.611
 4500.00    0.88072   0.88111   11.354
 4501.00    0.88796   0.88474   11.262
 4502.00    0.89198   0.88794   11.211
 4503.00    0.90540   0.89016   11.045
 4504.00    0.92803   0.89153   10.776
 4505.00    0.95128   0.89238   10.512
 4506.00    0.96505   0.89265   10.362
 4507.00    0.96342   0.89210   10.380
 4508.00    0.94828   0.89082   10.545
 4509.00    0.92131   0.88884   10.854
 4510.00    0.87976   0.88622   11.367
 4511.00    0.83581   0.88340   11.964
 4512.00    0.82356   0.88061   12.142
 4513.00    0.85331   0.87805   11.719
 4514.00    0.88925   0.87574   11.245
 4515.00    0.89494   0.87346   11.174
 4516.00    0.86211   0.87155   11.599
 4517.00    0.81816   0.87032   12.223
 4518.00    0.81424   0.86940   12.281
 4519.00    0.85837   0.86798   11.650
 4520.00    0.90368   0.86538   11.066
 4521.00    0.92574   0.86207   10.802
 4522.00    0.93976   0.85866   10.641
 4523.00    0.94516   0.85463   10.580
 4524.00    0.92086   0.84978   10.859
 4525.00    0.87678   0.84461   11.405
 4526.00    0.85038   0.83993   11.759
 4527.00    0.84897   0.83638   11.779
 4528.00    0.85045   0.83387   11.759
 4529.00    0.84880   0.83235   11.781
 4530.00    0.85442   0.83176   11.704
 4531.00    0.86748   0.83149   11.528
 4532.00    0.87835   0.83181   11.385
 4533.00    0.88169   0.83369   11.342
 4534.00    0.88201   0.83754   11.338
 4535.00    0.89750   0.84262   11.142
 4536.00    0.93827   0.84732   10.658
 4537.00    0.97208   0.85118   10.287
 4538.00    0.96150   0.85451   10.400
 4539.00    0.92351   0.85737   10.828
 4540.00    0.89452   0.85928   11.179
 4541.00    0.87548   0.85923   11.422
 4542.00    0.85538   0.85729   11.691
 4543.00    0.84511   0.85468   11.833
 4544.00    0.85573   0.85228   11.686
 4545.00    0.87359   0.84968   11.447
 4546.00    0.88030   0.84610   11.360
 4547.00    0.87282   0.84200   11.457
 4548.00    0.85436   0.83920   11.705
 4549.00    0.82623   0.83801   12.103
 4550.00    0.79516   0.83704    0.000
 4551.00    0.77679   0.83616    0.000
 4552.00    0.77896   0.83612    0.000
 4553.00    0.79243   0.83764    0.000
 4554.00    0.80518   0.84075    0.000
 4555.00    0.81157   0.84448    0.000
 4556.00    0.81269   0.84813    0.000
 4557.00    0.81516   0.85157    0.000
 4558.00    0.82564   0.85472    0.000
 4559.00    0.84773   0.85723    0.000
 4560.00    0.88032   0.85827    0.000
 4561.00    0.91647   0.85737    0.000
 4562.00    0.94205   0.85559    0.000
 4563.00    0.94204   0.85430    0.000
 4564.00    0.92318   0.85370    0.000
 4565.00    0.91028   0.85357    0.000
 4566.00    0.91206   0.85369    0.000
 4567.00    0.91805   0.85401    0.000
 4568.00    0.91916   0.85419    0.000
 4569.00    0.91354   0.85380    0.000
 4570.00    0.90671   0.85366    0.000
 4571.00    0.90473   0.85419    0.000
 4572.00    0.90047   0.85450    0.000
 4573.00    0.88210   0.85419    0.000
 4574.00    0.85457   0.85371    0.000
 4575.00    0.83254   0.85331    0.000
 4576.00    0.82146   0.85229    0.000
 4577.00    0.82141   0.84979    0.000
 4578.00    0.83710   0.84644    0.000
 4579.00    0.86574   0.84336    0.000
 4580.00    0.88049   0.84092    0.000
 4581.00    0.86003   0.83885    0.000
 4582.00    0.82485   0.83738    0.000
 4583.00    0.80337   0.83712    0.000
 4584.00    0.79250   0.83804    0.000
 4585.00    0.78396   0.83971    0.000
 4586.00    0.79146   0.84142    0.000
 4587.00    0.82410   0.84283    0.000
 4588.00    0.86327   0.84370    0.000
 4589.00    0.88530   0.84375    0.000
 4590.00    0.88128   0.84326    0.000
 4591.00    0.85951   0.84263    0.000
 4592.00    0.84288   0.84191    0.000
 4593.00    0.84674   0.84098    0.000
 4594.00    0.86596   0.84026    0.000
 4595.00    0.88177   0.84018    0.000
 4596.00    0.87024   0.84052    0.000
 4597.00    0.82343   0.84078    0.000
 4598.00    0.75796   0.84056    0.000
 4599.00    0.70594   0.84041    0.000
 4600.00    0.70113   0.84077    0.000
 4601.00    0.74306   0.84149    0.000
 4602.00    0.79551   0.84245    0.000
 4603.00    0.83252   0.84356    0.000
 4604.00    0.84912   0.84519    0.000
 4605.00    0.84160   0.84739    0.000
 4606.00    0.80640   0.84979    0.000
 4607.00    0.75575   0.85193    0.000
 4608.00    0.71529   0.85336    0.000
 4609.00    0.70673   0.85396    0.000
 4610.00    0.73738   0.85401    0.000
 4611.00    0.78784   0.85361    0.000
 4612.00    0.82662   0.85280    0.000
 4613.00    0.84427   0.85169    0.000
 4614.00    0.84980   0.85034    0.000
 4615.00    0.85137   0.84931    0.000
 4616.00    0.85059   0.84845    0.000
 4617.00    0.83989   0.84768    0.000
 4618.00    0.81606   0.84762    0.000
 4619.00    0.79873   0.84819    0.000
 4620.00    0.80829   0.84880    0.000
 4621.00    0.83547   0.84925    0.000
 4622.00    0.85718   0.84960    0.000
 4623.00    0.85925   0.84975    0.000
 4624.00    0.83791   0.84956    0.000
 4625.00    0.79882   0.84892    0.000
 4626.00    0.75642   0.84765    0.000
 4627.00    0.73124   0.84587    0.000
 4628.00    0.73194   0.84444    0.000
 4629.00    0.74391   0.84363    0.000
 4630.00    0.75622   0.84248    0.000
 4631.00    0.77810   0.84061    0.000
 4632.00    0.81028   0.83877    0.000
 4633.00    0.83008   0.83744    0.000
 4634.00    0.82165   0.83606    0.000
 4635.00    0.79219   0.83409    0.000
 4636.00    0.75935   0.83210    0.000
 4637.00    0.74158   0.83076    0.000
 4638.00    0.74690   0.82998    0.000
 4639.00    0.77017   0.82964    0.000
 4640.00    0.80318   0.82924    0.000
 4641.00    0.83622   0.82848    0.000
 4642.00    0.84774   0.82744    0.000
 4643.00    0.81305   0.82581    0.000
 4644.00    0.74541   0.82324    0.000
 4645.00    0.69231   0.82050    0.000
 4646.00    0.68376   0.81852    0.000
 4647.00    0.71887   0.81743    0.000
 4648.00    0.77361   0.81695    0.000
 4649.00    0.81530   0.81714    0.000
 4650.00    0.83063   0.81835    0.000
 4651.00    0.82654   0.82016    0.000
 4652.00    0.81739   0.82164    0.000
 4653.00    0.81537   0.82299    0.000
 4654.00    0.81825   0.82478    0.000
 4655.00    0.81579   0.82709    0.000
 4656.00    0.80416   0.82974    0.000
 4657.00    0.78661   0.83226    0.000
 4658.00    0.77054   0.83417    0.000
 4659.00    0.76535   0.83477    0.000
 4660.00    0.77938   0.83386    0.000
 4661.00    0.81064   0.83153    0.000
 4662.00    0.83791   0.82807    0.000
 4663.00    0.84217   0.82372    0.000
 4664.00    0.82910   0.81841    0.000
 4665.00    0.81123   0.81310    0.000
 4666.00    0.78985   0.80956    0.000
 4667.00    0.76786   0.80834    0.000
 4668.00    0.76024   0.80873    0.000
 4669.00    0.77563   0.81027    0.000
 4670.00    0.80355   0.81269    0.000
 4671.00    0.82943   0.81560    0.000
 4672.00    0.84581   0.81857    0.000
 4673.00    0.85244   0.82113    0.000
 4674.00    0.85439   0.82285    0.000
 4675.00    0.85372   0.82332    0.000
 4676.00    0.84670   0.82256    0.000
 4677.00    0.83360   0.82121    0.000
 4678.00    0.82169   0.81968    0.000
 4679.00    0.81672   0.81805    0.000
 4680.00    0.81857   0.81662    0.000
 4681.00    0.81959   0.81583    0.000
 4682.00    0.80958   0.81559    0.000
 4683.00    0.79441   0.81559    0.000
 4684.00    0.79183   0.81580    0.000
 4685.00    0.79834   0.81627    0.000
 4686.00    0.79312   0.81697    0.000
 4687.00    0.77764   0.81759    0.000
 4688.00    0.77351   0.81796    0.000
 4689.00    0.78931   0.81841    0.000
 4690.00    0.81669   0.81940    0.000
 4691.00    0.84107   0.82052    0.000
 4692.00    0.84960   0.82126    0.000
 4693.00    0.84181   0.82172    0.000
 4694.00    0.82849   0.82184    0.000
 4695.00    0.82560   0.82083    0.000
 4696.00    0.84275   0.81824    0.000
 4697.00    0.86792   0.81517    0.000
 4698.00    0.88148   0.81244    0.000
 4699.00    0.87886   0.80950    0.000
 4700.00    0.86402   0.80600    0.000
 4701.00    0.83751   0.80298    0.000
 4702.00    0.79987   0.80160    0.000
 4703.00    0.75728   0.80125    0.000
 4704.00    0.72238   0.80066    0.000
 4705.00    0.71296   0.79993    0.000
 4706.00    0.73522   0.79972    0.000
 4707.00    0.77153   0.79997    0.000
 4708.00    0.80392   0.80051    0.000
 4709.00    0.83197   0.80149    0.000
 4710.00    0.85564   0.80229    0.000
 4711.00    0.86455   0.80286    0.000
 4712.00    0.85659   0.80390    0.000
 4713.00    0.84646   0.80600    0.000
 4714.00    0.84120   0.80873    0.000
 4715.00    0.83095   0.81129    0.000
 4716.00    0.81693   0.81354    0.000
 4717.00    0.81947   0.81608    0.000
 4718.00    0.84558   0.81878    0.000
 4719.00    0.87929   0.82063    0.000
 4720.00    0.90581   0.82118    0.000
 4721.00    0.91937   0.82102    0.000
 4722.00    0.91386   0.82046    0.000
 4723.00    0.88413   0.81909    0.000
 4724.00    0.84136   0.81646    0.000
 4725.00    0.80922   0.81274    0.000
 4726.00    0.79797   0.80903    0.000
 4727.00    0.80269   0.80611    0.000
 4728.00    0.81873   0.80372    0.000
 4729.00    0.84269   0.80174    0.000
 4730.00    0.86475   0.80078    0.000
 4731.00    0.87442   0.80101    0.000
 4732.00    0.87539   0.80210    0.000
 4733.00    0.87820   0.80333    0.000
 4734.00    0.88118   0.80387    0.000
 4735.00    0.87675   0.80432    0.000
 4736.00    0.86722   0.80550    0.000
 4737.00    0.85972   0.80664    0.000
 4738.00    0.85479   0.80702    0.000
 4739.00    0.84875   0.80724    0.000
 4740.00    0.83881   0.80832    0.000
 4741.00    0.82388   0.80997    0.000
 4742.00    0.80466   0.81101    0.000
 4743.00    0.78542   0.81162    0.000
 4744.00    0.77508   0.81271    0.000
 4745.00    0.78019   0.81392    0.000
 4746.00    0.79829   0.81436    0.000
 4747.00    0.82081   0.81415    0.000
 4748.00    0.83703   0.81381    0.000
 4749.00    0.84216   0.81306    0.000
 4750.00    0.84204   0.81145    0.000
 4751.00    0.84302   0.80929    0.000
 4752.00    0.84519   0.80711    0.000
 4753.00    0.84427   0.80507    0.000
 4754.00    0.83436   0.80292    0.000
 4755.00    0.81508   0.80084    0.000
 4756.00    0.79413   0.79914    0.000
 4757.00    0.78101   0.79766    0.000
 4758.00    0.78270   0.79599    0.000
 4759.00    0.79944   0.79368    0.000
 4760.00    0.82297   0.79079    0.000
 4761.00    0.83704   0.78809   11.947
 4762.00    0.82497   0.78584   12.122
 4763.00    0.79401   0.78392   12.594
 4764.00    0.77094   0.78268   12.971
 4765.00    0.76356   0.78254   13.097
 4766.00    0.75871   0.78346   13.180
 4767.00    0.75024   0.78524   13.329
 4768.00    0.74231   0.78729   13.471
 4769.00    0.73818   0.78894   13.547
 4770.00    0.73847   0.79036   13.542
 4771.00    0.74353   0.79209   13.449
 4772.00    0.75377   0.79388   13.267
 4773.00    0.76918   0.79496   13.001
 4774.00    0.78826   0.79543   12.686
 4775.00    0.80668   0.79599   12.396
 4776.00    0.82129   0.79626   12.176
 4777.00    0.83632   0.79559   11.957
 4778.00    0.85566   0.79442   11.687
 4779.00    0.87131   0.79326   11.477
 4780.00    0.87115   0.79169   11.479
 4781.00    0.85087   0.78957   11.753
 4782.00    0.81825   0.78782   12.221
 4783.00    0.79470   0.78649   12.583
 4784.00    0.79692   0.78490   12.548
 4785.00    0.81954   0.78365   12.202
 4786.00    0.84708   0.78334   11.805
 4787.00    0.86646   0.78355   11.541
 4788.00    0.87035   0.78427   11.490
 4789.00    0.85868   0.78578   11.646
 4790.00    0.83577   0.78780   11.965
 4791.00    0.80770   0.79002   12.381
 4792.00    0.77919   0.79223   12.834
 4793.00    0.75250   0.79397   13.289
 4794.00    0.73198   0.79479   13.662
 4795.00    0.72542   0.79478   13.785
 4796.00    0.73685   0.79405   13.571
 4797.00    0.76247   0.79271   13.115
 4798.00    0.78970   0.79115   12.663
 4799.00    0.80155   0.78991   12.476
 4800.00    0.79543   0.78908   12.572
 4801.00    0.78507   0.78820   12.738
 4802.00    0.77956   0.78710   12.828
 4803.00    0.77747   0.78604   12.862
 4804.00    0.77307   0.78533   12.936
 4805.00    0.76108   0.78452   13.139
 4806.00    0.74377   0.78335   13.445
 4807.00    0.72983   0.78243   13.702
 4808.00    0.72618   0.78220   13.771
 4809.00    0.73465   0.78228   13.612
 4810.00    0.74944   0.78240   13.343
 4811.00    0.76191   0.78288   13.125
 4812.00    0.77131   0.78371   12.965
 4813.00    0.78264   0.78458   12.777
 4814.00    0.79896   0.78524   12.516
 4815.00    0.82013   0.78583   12.193
 4816.00    0.84318   0.78604   11.860
 4817.00    0.86250   0.78537   11.594
 4818.00    0.87021   0.78393   11.491
 4819.00    0.86062   0.78235   11.619
 4820.00    0.83589   0.78030   11.963
 4821.00    0.80424   0.77723   12.434
 4822.00    0.77650   0.77419   12.878
 4823.00    0.76028   0.77238   13.153
 4824.00    0.75485   0.77116   13.248
 4825.00    0.75784   0.76957   13.195
 4826.00    0.77103   0.76797   12.970
 4827.00    0.79217   0.76710   12.624
 4828.00    0.80921   0.76664   12.358
 4829.00    0.81327   0.76567   12.296
 4830.00    0.80674   0.76415   12.396
 4831.00    0.78931   0.76301   12.669
 4832.00    0.75246   0.76229   13.290
 4833.00    0.70461   0.76098   14.192
 4834.00    0.67904   0.75901   14.727
 4835.00    0.69303   0.75703   14.429
 4836.00    0.73045   0.75480   13.690
 4837.00    0.76679   0.75163   13.041
 4838.00    0.78399   0.74803   12.755
 4839.00    0.77865   0.74498   12.843
 4840.00    0.76153   0.74217   13.131
 4841.00    0.74257   0.73893   13.467
 4842.00    0.72686   0.73569   13.758
 4843.00    0.72069   0.73297   13.876
 4844.00    0.73031   0.72999   13.693
 4845.00    0.75187   0.72577   13.300
 4846.00    0.77325   0.72036   12.932
 4847.00    0.78679   0.71448   12.710
 4848.00    0.78998   0.70790    0.000
 4849.00    0.77863   0.69947    0.000
 4850.00    0.75081   0.68917    0.000
 4851.00    0.71837   0.67786    0.000
 4852.00    0.69806   0.66486    0.000
 4853.00    0.69066   0.64885    0.000
 4854.00    0.68897   0.63051    0.000
 4855.00    0.69826   0.61102    0.000
 4856.00    0.73705   0.59074    0.000
 4857.00    0.83114   0.57028    0.000
 4858.00    0.98611   0.55097    0.000
 4859.00    1.15403   0.53529    0.000
 4860.00    1.27103   0.52696    0.000
 4861.00    1.30813   0.52708    0.000
 4862.00    1.26479   0.53323    0.000
 4863.00    1.15527   0.54462    0.000
 4864.00    1.00801   0.56152    0.000
 4865.00    0.86418   0.58111    0.000
 4866.00    0.75512   0.59986    0.000
 4867.00    0.68454   0.61698    0.000
 4868.00    0.64472   0.63195    0.000
 4869.00    0.63019   0.64401    0.000
 4870.00    0.63673   0.65446    0.000
 4871.00    0.65938   0.66474    0.000
 4872.00    0.68801   0.67413    0.000
 4873.00    0.70708   0.68238    0.000
 4874.00    0.70907   0.69070    0.000
 4875.00    0.70009   0.69911   14.284
 4876.00    0.68940   0.70646   14.505
 4877.00    0.68326   0.71289   14.636
 4878.00    0.68220   0.71842   14.659
 4879.00    0.68286   0.72225   14.644
 4880.00    0.68981   0.72473   14.497
 4881.00    0.71355   0.72686   14.014
 4882.00    0.74743   0.72821   13.379
 4883.00    0.76800   0.72816   13.021
 4884.00    0.76263   0.72762   13.112
 4885.00    0.73666   0.72739   13.575
 4886.00    0.70736   0.72744   14.137
 4887.00    0.69361   0.72772   14.417
 4888.00    0.69510   0.72834   14.386
 4889.00    0.69911   0.72977   14.304
 4890.00    0.70696   0.73315   14.145
 4891.00    0.72908   0.73824   13.716
 4892.00    0.76318   0.74359   13.103
 4893.00    0.79714   0.74879   12.545
 4894.00    0.82212   0.75406   12.164
 4895.00    0.83509   0.75868   11.975
 4896.00    0.83861   0.76165   11.925
 4897.00    0.83570   0.76268   11.966
 4898.00    0.82277   0.76238   12.154
 4899.00    0.79521   0.76183   12.575
 4900.00    0.75555   0.76103   13.235
 4901.00    0.71076   0.75955   14.070
 4902.00    0.66834   0.75822   14.962
 4903.00    0.64110   0.75785   15.598
 4904.00    0.64989   0.75753   15.387
 4905.00    0.69900   0.75655   14.306
 4906.00    0.75714   0.75540   13.208
 4907.00    0.79300   0.75427   12.610
 4908.00    0.80383   0.75284   12.440
 4909.00    0.79753   0.75155   12.539
 4910.00    0.77870   0.75092   12.842
 4911.00    0.75536   0.75033   13.239
 4912.00    0.74105   0.74925   13.494
 4913.00    0.73768   0.74788   13.556
 4914.00    0.72992   0.74578   13.700
 4915.00    0.71019   0.74198   14.081
 4916.00    0.68846   0.73655   14.525
 4917.00    0.67456   0.73052   14.824
 4918.00    0.66993   0.72464   14.927
 4919.00    0.66973   0.71975   14.931
 4920.00    0.66653   0.71714   15.003
 4921.00    0.65965   0.71707   15.160
 4922.00    0.65676   0.71907   15.226
 4923.00    0.66695   0.72324   14.994
 4924.00    0.69450   0.72959   14.399
 4925.00    0.72799   0.73634   13.736
 4926.00    0.74572   0.74215   13.410
 4927.00    0.73828   0.74694   13.545
 4928.00    0.71337   0.75048   14.018
 4929.00    0.69214   0.75226   14.448
 4930.00    0.69719   0.75223   14.343
 4931.00    0.72990   0.75031   13.701
 4932.00    0.77113   0.74728   12.968
 4933.00    0.79269   0.74462   12.615
 4934.00    0.77691   0.74242   12.872
 4935.00    0.74415   0.73998   13.438
 4936.00    0.72755   0.73802   13.745
 4937.00    0.72918   0.73774   13.714
 4938.00    0.73431   0.73924   13.618
 4939.00    0.73883   0.74155   13.535
 4940.00    0.74492   0.74386    0.000
 4941.00    0.75169   0.74674    0.000
 4942.00    0.75683   0.75049    0.000
 4943.00    0.75983   0.75368    0.000
 4944.00    0.76253   0.75564    0.000
 4945.00    0.76868   0.75749    0.000
 4946.00    0.77584   0.75926    0.000
 4947.00    0.77099   0.75986    0.000
 4948.00    0.75032   0.75962    0.000
 4949.00    0.73136   0.75925    0.000
 4950.00    0.72765   0.75792    0.000
 4951.00    0.73352   0.75480    0.000
 4952.00    0.74317   0.75087    0.000
 4953.00    0.76259   0.74721    0.000
 4954.00    0.80518   0.74321    0.000
 4955.00    0.88385   0.73833    0.000
 4956.00    0.98697   0.73476    0.000
 4957.00    1.07506   0.73435    0.000
 4958.00    1.11885   0.73519    0.000
 4959.00    1.11389   0.73535    0.000
 4960.00    1.06977   0.73635    0.000
 4961.00    1.00283   0.73884    0.000
 4962.00    0.92747   0.74036    0.000
 4963.00    0.85439   0.73981    0.000
 4964.00    0.79487   0.73889    0.000
 4965.00    0.75792   0.73851    0.000
 4966.00    0.73918   0.73790    0.000
 4967.00    0.72582   0.73718    0.000
 4968.00    0.71625   0.73734    0.000
 4969.00    0.71704   0.73837    0.000
 4970.00    0.72554   0.73957    0.000
 4971.00    0.73379   0.74073    0.000
 4972.00    0.74339   0.74168    0.000
 4973.00    0.75783   0.74196    0.000
 4974.00    0.76436   0.74127    0.000
 4975.00    0.74760   0.73952    0.000
 4976.00    0.71517   0.73642    0.000
 4977.00    0.68871   0.73226    0.000
 4978.00    0.68501   0.72787    0.000
 4979.00    0.70522   0.72330    0.000
 4980.00    0.72663   0.71842    0.000
 4981.00    0.72759   0.71466    0.000
 4982.00    0.71542   0.71298    0.000
 4983.00    0.70962   0.71256    0.000
 4984.00    0.72125   0.71306    0.000
 4985.00    0.74567   0.71510    0.000
 4986.00    0.76086   0.71805    0.000
 4987.00    0.75445   0.72063    0.000
 4988.00    0.74240   0.72261    0.000
 4989.00    0.74281   0.72428    0.000
 4990.00    0.75637   0.72565    0.000
 4991.00    0.77101   0.72634    0.000
 4992.00    0.76895   0.72642    0.000
 4993.00    0.74467   0.72648    0.000
 4994.00    0.71165   0.72638    0.000
 4995.00    0.68356   0.72548    0.000
 4996.00    0.66545   0.72390    0.000
 4997.00    0.66032   0.72188    0.000
 4998.00    0.67144   0.71934    0.000
 4999.00    0.69879   0.71657    0.000
 5000.00    0.74206   0.71369    0.000
 5001.00    0.81687   0.71102    0.000
 5002.00    0.95158   0.70910    0.000
 5003.00    1.15735   0.70753    0.000
 5004.00    1.41553   0.70602    0.000
 5005.00    1.67108   0.70546    0.000
 5006.00    1.84602   0.70566    0.000
 5007.00    1.87874   0.70523    0.000
 5008.00    1.74699   0.70399    0.000
 5009.00    1.49478   0.70265    0.000
 5010.00    1.21026   0.70078    0.000
 5011.00    0.96662   0.69800    0.000
 5012.00    0.80415   0.69479    0.000
 5013.00    0.72123   0.69195    0.000
 5014.00    0.68888   0.69015    0.000
 5015.00    0.67787   0.68942    0.000
 5016.00    0.66968   0.68929    0.000
 5017.00    0.66502   0.69016    0.000
 5018.00    0.66927   0.69266    0.000
 5019.00    0.67275   0.69550    0.000
 5020.00    0.66422   0.69771    0.000
 5021.00    0.64910   0.70021    0.000
 5022.00    0.64085   0.70319    0.000
 5023.00    0.64932   0.70559    0.000
 5024.00    0.67577   0.70737    0.000
 5025.00    0.71007   0.70899    0.000
 5026.00    0.73691   0.71062    0.000
 5027.00    0.74269   0.71250    0.000
 5028.00    0.72566   0.71427    0.000
 5029.00    0.70105   0.71512   14.264
 5030.00    0.68452   0.71554   14.609
 5031.00    0.68091   0.71583   14.686
 5032.00    0.68682   0.71497   14.560
 5033.00    0.69395   0.71225   14.410
 5034.00    0.69665   0.70843   14.354
 5035.00    0.69529   0.70444   14.383
 5036.00    0.69264   0.70014   14.438
 5037.00    0.69279   0.69569   14.434
 5038.00    0.70386   0.69208   14.207
 5039.00    0.73369   0.69001   13.630
 5040.00    0.76899   0.69000   13.004
 5041.00    0.77841   0.69206   12.847
 5042.00    0.75032   0.69475   13.328
 5043.00    0.70021   0.69761   14.281
 5044.00    0.65245   0.70133   15.327
 5045.00    0.62778   0.70456   15.929
 5046.00    0.62612   0.70563   15.971
 5047.00    0.63267   0.70576   15.806
 5048.00    0.64361   0.70613   15.537
 5049.00    0.66408   0.70606   15.058
 5050.00    0.69004   0.70567   14.492
 5051.00    0.71097   0.70634   14.065
 5052.00    0.72297   0.70818   13.832
 5053.00    0.72928   0.70998   13.712
 5054.00    0.73650   0.71168   13.578
 5055.00    0.74720   0.71383   13.383
 5056.00    0.75055   0.71585   13.324
 5057.00    0.73550   0.71691   13.596
 5058.00    0.71018   0.71712   14.081
 5059.00    0.69064   0.71669   14.479
 5060.00    0.68362   0.71569   14.628
 5061.00    0.68612   0.71392   14.575
 5062.00    0.68839   0.71122   14.527
 5063.00    0.68559   0.70809   14.586
 5064.00    0.68741   0.70581   14.547
 5065.00    0.70084   0.70414   14.269
 5066.00    0.71589   0.70198   13.969
 5067.00    0.72078   0.70031   13.874
 5068.00    0.71509   0.70037   13.984
 5069.00    0.70901   0.70051   14.104
 5070.00    0.71841   0.69950   13.920
 5071.00    0.74123   0.69888   13.491
 5072.00    0.74897   0.69909   13.352
 5073.00    0.72458   0.69816   13.801
 5074.00    0.68059   0.69585   14.693
 5075.00    0.63766   0.69415   15.682
 5076.00    0.61151   0.69278   16.353
 5077.00    0.60698   0.69017   16.475
 5078.00    0.61771   0.68748   16.189
 5079.00    0.63553   0.68661   15.735
 5080.00    0.65475   0.68680   15.273
 5081.00    0.67359   0.68680   14.846
 5082.00    0.69234   0.68788   14.444
 5083.00    0.70628   0.69069   14.159
 5084.00    0.70851   0.69367   14.114
 5085.00    0.70432   0.69600   14.198
 5086.00    0.70600   0.69834   14.164
 5087.00    0.70958   0.70086   14.093
 5088.00    0.69905   0.70278   14.305
 5089.00    0.66975   0.70378   14.931
 5090.00    0.63168   0.70430   15.831
 5091.00    0.60443   0.70449   16.544
 5092.00    0.60529   0.70379   16.521
 5093.00    0.63031   0.70192   15.865
 5094.00    0.66068   0.69941   15.136
 5095.00    0.67900   0.69689   14.728
 5096.00    0.67882   0.69422   14.731
 5097.00    0.67327   0.69139   14.853
 5098.00    0.67808   0.68933   14.747
 5099.00    0.68885   0.68845   14.517
 5100.00    0.69278   0.68800   14.435
 5101.00    0.68581   0.68751   14.581
 5102.00    0.67420   0.68725   14.832
 5103.00    0.67260   0.68733   14.868
 5104.00    0.68756   0.68703   14.544
 5105.00    0.70475   0.68595   14.189
 5106.00    0.71091   0.68526   14.066
 5107.00    0.71088   0.68557   14.067
 5108.00    0.70963   0.68585   14.092
 5109.00    0.70002   0.68645   14.285
 5110.00    0.67829   0.68841   14.743
 5111.00    0.65362   0.69075   15.299
 5112.00    0.63927   0.69277   15.643
 5113.00    0.64546   0.69503   15.493
 5114.00    0.67237   0.69707   14.873
 5115.00    0.70793   0.69812   14.126
 5116.00    0.73471   0.69840   13.611
 5117.00    0.73750   0.69773   13.559
 5118.00    0.72006   0.69587   13.888
 5119.00    0.70461   0.69318   14.192
 5120.00    0.70296   0.69003   14.226
 5121.00    0.70818   0.68641   14.121
 5122.00    0.70482   0.68257   14.188
 5123.00    0.68067   0.67941   14.692
 5124.00    0.65001   0.67709   15.384
 5125.00    0.64475   0.67522   15.510
 5126.00    0.67224   0.67422   14.876
 5127.00    0.71300   0.67428   14.025
 5128.00    0.74293   0.67471   13.460
 5129.00    0.74471   0.67558   13.428
 5130.00    0.71971   0.67700   13.894
 5131.00    0.68557   0.67799   14.586
 5132.00    0.66629   0.67859   15.009
 5133.00    0.67788   0.67931   14.752
 5134.00    0.70845   0.67908   14.115
 5135.00    0.73343   0.67800   13.635
 5136.00    0.74347   0.67687   13.451
 5137.00    0.74274   0.67508   13.464
 5138.00    0.74017   0.67295   13.510
 5139.00    0.74021   0.67180   13.510
 5140.00    0.73422   0.67048   13.620
 5141.00    0.71472   0.66866   13.992
 5142.00    0.69071   0.66838   14.478
 5143.00    0.67372   0.66866   14.843
 5144.00    0.66363   0.66795   15.069
 5145.00    0.65977   0.66759   15.157
 5146.00    0.67021   0.66781   14.921
 5147.00    0.69910   0.66772   14.304
 5148.00    0.73713   0.66754   13.566
 5149.00    0.76918   0.66728   13.001
 5150.00    0.78209   0.66729   12.786
 5151.00    0.77537   0.66820   12.897
 5152.00    0.76418   0.66936   13.086
 5153.00    0.75873   0.67075   13.180
 5154.00    0.75448   0.67289   13.254
 5155.00    0.74289   0.67549   13.461
 5156.00    0.71873   0.67767   13.913
 5157.00    0.68667   0.67890   14.563
 5158.00    0.66037   0.67923   15.143
 5159.00    0.64778   0.67822   15.437
 5160.00    0.64664   0.67483   15.464
 5161.00    0.65021   0.66909   15.380
 5162.00    0.65105   0.66186   15.360
 5163.00    0.64636   0.65314   15.471
 5164.00    0.63740   0.64335   15.689
 5165.00    0.62335   0.63384   16.042
 5166.00    0.60332   0.62492   16.575
 5167.00    0.58552   0.61704   17.079
 5168.00    0.58139   0.61200   17.200
 5169.00    0.58741   0.60995   17.024
 5170.00    0.59100   0.60971   16.921
 5171.00    0.59005   0.61185   16.948
 5172.00    0.59104   0.61749   16.919
 5173.00    0.59834   0.62441   16.713
 5174.00    0.61194   0.63014   16.341
 5175.00    0.62709   0.63587   15.947
 5176.00    0.63849   0.64173   15.662
 5177.00    0.64619   0.64452   15.475
 5178.00    0.65291   0.64312   15.316
 5179.00    0.65956   0.64047   15.162
 5180.00    0.66437   0.63770   15.052
 5181.00    0.66322   0.63351   15.078
 5182.00    0.65513   0.62969   15.264
 5183.00    0.64720   0.62911   15.451
 5184.00    0.64671   0.63102   15.463
 5185.00    0.65389   0.63375   15.293
 5186.00    0.66624   0.63759   15.010
 5187.00    0.68231   0.64257   14.656
 5188.00    0.69960   0.64750   14.294
 5189.00    0.71317   0.65083   14.022
 5190.00    0.71854   0.65206    0.000
 5191.00    0.71386   0.65345    0.000
 5192.00    0.70074   0.65556    0.000
 5193.00    0.68452   0.65641    0.000
 5194.00    0.67296   0.65718    0.000
 5195.00    0.67371   0.65964    0.000
 5196.00    0.68550   0.66195    0.000
 5197.00    0.69720   0.66311    0.000
 5198.00    0.70082   0.66429    0.000
 5199.00    0.69524   0.66464    0.000
 5200.00    0.67890   0.66307    0.000
 5201.00    0.65056   0.66076    0.000
 5202.00    0.62069   0.65796    0.000
 5203.00    0.60695   0.65390    0.000
 5204.00    0.61003   0.65003    0.000
 5205.00    0.61548   0.64774    0.000
 5206.00    0.61759   0.64616    0.000
 5207.00    0.62124   0.64556    0.000
 5208.00    0.63095   0.64729    0.000
 5209.00    0.64693   0.65042    0.000
 5210.00    0.66304   0.65352    0.000
 5211.00    0.67279   0.65720   14.863
 5212.00    0.68099   0.66119   14.685
 5213.00    0.69545   0.66443   14.379
 5214.00    0.71021   0.66685   14.080
 5215.00    0.71378   0.66895   14.010
 5216.00    0.70556   0.67085   14.173
 5217.00    0.69081   0.67193   14.476
 5218.00    0.67087   0.67218   14.906
 5219.00    0.64456   0.67202   15.514
 5220.00    0.61207   0.67102   16.338
 5221.00    0.58301   0.66835   17.152
 5222.00    0.58162   0.66469   17.193
 5223.00    0.61724   0.66129   16.201
 5224.00    0.65954   0.65769   15.162
 5225.00    0.67892   0.65419   14.729
 5226.00    0.68045   0.65264   14.696
 5227.00    0.68068   0.65273   14.691
 5228.00    0.68738   0.65305   14.548
 5229.00    0.69915   0.65448   14.303
 5230.00    0.70762   0.65728   14.132
 5231.00    0.70650   0.65959   14.154
 5232.00    0.69690   0.66155   14.349
 5233.00    0.68502   0.66423   14.598
 5234.00    0.67931   0.66672   14.721
 5235.00    0.68321   0.66899   14.637
 5236.00    0.69282   0.67169   14.434
 5237.00    0.70218   0.67420   14.241
 5238.00    0.70628   0.67614   14.159
 5239.00    0.70330   0.67764   14.219
 5240.00    0.69465   0.67863   14.396
 5241.00    0.68246   0.67844   14.653
 5242.00    0.66964   0.67721   14.933
 5243.00    0.66291   0.67604   15.085
 5244.00    0.66911   0.67424   14.945
 5245.00    0.68289   0.67109   14.644
 5246.00    0.69120   0.66838   14.468
 5247.00    0.69232   0.66668   14.444
 5248.00    0.69179   0.66451   14.455
 5249.00    0.68322   0.66253   14.637
 5250.00    0.65623   0.66229   15.239
 5251.00    0.61984   0.66287   16.133
 5252.00    0.59585   0.66340   16.783
 5253.00    0.59873   0.66453   16.702
 5254.00    0.62781   0.66607   15.928
 5255.00    0.66170   0.66726   15.113
 5256.00    0.67681   0.66745   14.775
 5257.00    0.67363   0.66627   14.845
 5258.00    0.66545   0.66389   15.027
 5259.00    0.65966   0.66014   15.159
 5260.00    0.65637   0.65473   15.235
 5261.00    0.65030   0.64815   15.378
 5262.00    0.63988   0.64180   15.628
 5263.00    0.63477   0.63598   15.754
 5264.00    0.64026   0.62999   15.619
 5265.00    0.64477   0.62539   15.509
 5266.00    0.63810   0.62362   15.672
 5267.00    0.62564   0.62250   15.984
 5268.00    0.61761   0.62173   16.192
 5269.00    0.61967   0.62416   16.138
 5270.00    0.62889   0.62822   15.901
 5271.00    0.63416   0.63134   15.769
 5272.00    0.63182   0.63582   15.827
 5273.00    0.63194   0.64193   15.824
 5274.00    0.64267   0.64679   15.560
 5275.00    0.66252   0.65087   15.094
 5276.00    0.68333   0.65516   14.634
 5277.00    0.69459   0.65817   14.397
 5278.00    0.69460   0.65988   14.397
 5279.00    0.69072   0.66122   14.478
 5280.00    0.68372   0.66219   14.626
 5281.00    0.66701   0.66293   14.992
 5282.00    0.64273   0.66367   15.559
 5283.00    0.62259   0.66505   16.062
 5284.00    0.61461   0.66741   16.270
 5285.00    0.61945   0.66978   16.143
 5286.00    0.63169   0.67198   15.830
 5287.00    0.64389   0.67432   15.531
 5288.00    0.65481   0.67596   15.272
 5289.00    0.66567   0.67644   15.023
 5290.00    0.66900   0.67591   14.948
 5291.00    0.65601   0.67440   15.244
 5292.00    0.63401   0.67194   15.773
 5293.00    0.61891   0.66872   16.157
 5294.00    0.61774   0.66522   16.188
 5295.00    0.62751   0.66186   15.936
 5296.00    0.63823   0.65883   15.668
 5297.00    0.63958   0.65681   15.635
 5298.00    0.62891   0.65625   15.900
 5299.00    0.61104   0.65655   16.365
 5300.00    0.59619   0.65772   16.773
 5301.00    0.59427   0.66019   16.827
 5302.00    0.60926   0.66300   16.413
 5303.00    0.64012   0.66547   15.622
 5304.00    0.68227   0.66791   14.657
 5305.00    0.72666   0.67004   13.762
 5306.00    0.75997   0.67148   13.158
 5307.00    0.77261   0.67244   12.943
 5308.00    0.76407   0.67286   13.088
 5309.00    0.73790   0.67270   13.552
 5310.00    0.69860   0.67219   14.314
 5311.00    0.65534   0.67118   15.259
 5312.00    0.62232   0.66975   16.069
 5313.00    0.60859   0.66830   16.431
 5314.00    0.61304   0.66667   16.312
 5315.00    0.62858   0.66476   15.909
 5316.00    0.64528   0.66323   15.497
 5317.00    0.65474   0.66191   15.273
 5318.00    0.65236   0.66003   15.329
 5319.00    0.63872   0.65780   15.656
 5320.00    0.61908   0.65548   -2.000
 5321.00    0.60025   0.65265   -2.000
 5322.00    0.58782   0.64891   -2.000
 5323.00    0.58171   0.64464   -2.000
 5324.00    0.57676   0.64095   -2.000
 5325.00    0.56830   0.63790   -2.000
 5326.00    0.55916   0.63503   -2.000
 5327.00    0.57182   0.63363   -2.000
 5328.00    0.62589   0.63456   -2.000
 5329.00    0.68531   0.63655   -2.000
 5330.00    0.69153   0.63908   -2.000
 5331.00    0.64786   0.64256   -2.000
 5332.00    0.60192   0.64624   -2.000
 5333.00    0.58656   0.64923   -2.000
 5334.00    0.60830   0.65113   -2.000
 5335.00    0.64650   0.65188   15.468
 5336.00    0.67009   0.65205   14.923
 5337.00    0.66123   0.65179   15.123
 5338.00    0.62461   0.65070   16.010
 5339.00    0.59228   0.64955   16.884
 5340.00    0.58964   0.64929   16.960
 5341.00    0.60034   0.64921   16.657
 5342.00    0.60146   0.64910   16.626
 5343.00    0.59936   0.64972   16.685
 5344.00    0.60333   0.65050   16.575
 5345.00    0.60205   0.65124   16.610
 5346.00    0.58763   0.65245   17.018
 5347.00    0.57348   0.65363   17.437
 5348.00    0.57248   0.65494   17.468
 5349.00    0.58188   0.65702   17.186
 5350.00    0.59306   0.65928   16.862
 5351.00    0.59927   0.66131   16.687
 5352.00    0.60036   0.66362   16.657
 5353.00    0.60357   0.66602   16.568
 5354.00    0.61478   0.66763   16.266
 5355.00    0.63406   0.66858   15.771
 5356.00    0.65625   0.66909   15.238
 5357.00    0.67294   0.66864   14.860
 5358.00    0.67893   0.66732   14.729
 5359.00    0.67438   0.66538   14.829
 5360.00    0.66280   0.66269   15.087
 5361.00    0.64961   0.65967   15.394
 5362.00    0.63962   0.65656   15.634
 5363.00    0.63610   0.65308   15.721
 5364.00    0.64038   0.64971   15.616
 5365.00    0.65055   0.64674   15.372
 5366.00    0.65882   0.64381   15.179
 5367.00    0.65451   0.64140   15.279
 5368.00    0.63245   0.64001   15.811
 5369.00    0.59719   0.63928   16.745
 5370.00    0.56701   0.63959   17.636
 5371.00    0.56261   0.64137   17.774
 5372.00    0.58566   0.64373   17.075
 5373.00    0.62219   0.64640   16.072
 5374.00    0.65495   0.64953   15.268
 5375.00    0.67246   0.65206   14.871
 5376.00    0.67858   0.65366   14.737
 5377.00    0.68328   0.65486   14.635
 5378.00    0.68900   0.65512   14.514
 5379.00    0.69199   0.65460   14.451
 5380.00    0.68627   0.65419   14.572
 5381.00    0.67076   0.65351   14.908
 5382.00    0.65492   0.65261   15.269
 5383.00    0.64588   0.65218   15.483
 5384.00    0.63745   0.65176   15.688
 5385.00    0.62350   0.65086   16.038
 5386.00    0.60912   0.64997   16.417
 5387.00    0.60383   0.64888   16.561
 5388.00    0.61522   0.64707   16.254
 5389.00    0.64440   0.64495   15.518
 5390.00    0.68344   0.64287   14.632
 5391.00    0.71650   0.64051   13.957
 5392.00    0.72404   0.63794   13.811
 5393.00    0.70069   0.63589   14.272
 5394.00    0.66169   0.63447   15.113
 5395.00    0.62789   0.63296   15.926
 5396.00    0.61596   0.63183   16.235
 5397.00    0.62896   0.63179   15.899
 5398.00    0.65560   0.63144   15.253
 5399.00    0.68217   0.63041   14.659
 5400.00    0.69786   0.62985   14.330
 5401.00    0.69653   0.62888   14.357
 5402.00    0.67912   0.62691   14.725
 5403.00    0.65836   0.62528   15.189
 5404.00    0.65249   0.62401   15.326
 5405.00    0.66519   0.62283   15.033
 5406.00    0.68509   0.62260   14.597
 5407.00    0.69777   0.62328   14.331
 5408.00    0.69267   0.62448   14.437
 5409.00    0.67125   0.62649   14.898
 5410.00    0.64568   0.62907   15.488
 5411.00    0.63272   0.63177   15.805
 5412.00    0.64234   0.63453   15.568
 5413.00    0.66143   0.63714   15.119
 5414.00    0.66885   0.63945   14.951
 5415.00    0.66185   0.64136   15.109
 5416.00    0.65054   0.64255   15.372
 5417.00    0.64442   0.64329   15.518
 5418.00    0.64552   0.64369   15.491
 5419.00    0.64343   0.64332   15.542
 5420.00    0.62991   0.64271   15.875
 5421.00    0.61420   0.64212   16.281
 5422.00    0.60950   0.64097   16.407
 5423.00    0.61824   0.63980   16.175
 5424.00    0.63199   0.63867   15.823
 5425.00    0.63483   0.63696   15.752
 5426.00    0.62128   0.63534   16.096
 5427.00    0.60670   0.63363   16.483
 5428.00    0.60183   0.63134   16.616
 5429.00    0.59807   0.62972   -2.000
 5430.00    0.59231   0.62858   -2.000
 5431.00    0.59728   0.62735   -2.000
 5432.00    0.60872   0.62729   -2.000
 5433.00    0.59594   0.62834   -2.000
 5434.00    0.54855   0.62978   -2.000
 5435.00    0.48411   0.63202   -2.000
 5436.00    0.37631   0.63485   -2.000
 5437.00    0.16122   0.63762   -2.000
 5438.00   -0.11193   0.63997   -2.000
 5439.00   -0.27766   0.64158   -2.000
 5440.00   -0.25582   0.64224   -2.000
 5441.00   -0.09499   0.64177   -2.000
 5442.00    0.12372   0.64022   -2.000
 5443.00    0.33005   0.63819   -2.000
 5444.00    0.49492   0.63601   -2.000
 5445.00    0.62040   0.63368   -2.000
 5446.00    0.69454   0.63204   -2.000
 5447.00    0.70128   0.63121   -2.000
 5448.00    0.66747   0.63042   -2.000
 5449.00    0.64308   0.63008   -2.000
 5450.00    0.64169   0.62997   -2.000
 5451.00    0.64693   0.62934   -2.000
 5452.00    0.64575   0.62883   -2.000
 5453.00    0.63671   0.62833   15.706
 5454.00    0.63248   0.62754   15.811
 5455.00    0.64516   0.62737   15.500
 5456.00    0.66573   0.62758   15.021
 5457.00    0.67699   0.62762   14.771
 5458.00    0.67341   0.62792   14.850
 5459.00    0.65764   0.62831   15.206
 5460.00    0.63370   0.62854   15.780
 5461.00    0.60740   0.62859   16.464
 5462.00    0.58693   0.62853   17.038
 5463.00    0.57686   0.62883   17.335
 5464.00    0.57356   0.62919   17.435
 5465.00    0.57374   0.62913   17.430
 5466.00    0.58033   0.62929   17.232
 5467.00    0.59165   0.62947   16.902
 5468.00    0.59574   0.62874   16.786
 5469.00    0.58824   0.62749   17.000
 5470.00    0.58131   0.62632   17.203
 5471.00    0.58473   0.62445   17.102
 5472.00    0.59620   0.62186   16.773
 5473.00    0.61124   0.61998   16.360
 5474.00    0.62766   0.61839   15.932
 5475.00    0.64029   0.61654   15.618
 5476.00    0.64099   0.61579   15.601
 5477.00    0.62947   0.61604   15.886
 5478.00    0.61390   0.61639   16.289
 5479.00    0.59620   0.61729   16.773
 5480.00    0.57242   0.61881   17.470
 5481.00    0.55177   0.62050   18.123
 5482.00    0.55314   0.62200   18.079
 5483.00    0.57632   0.62336   17.351
 5484.00    0.60199   0.62488   16.612
 5485.00    0.61432   0.62602   16.278
 5486.00    0.60927   0.62659   16.413
 5487.00    0.59875   0.62735   16.701
 5488.00    0.59895   0.62803   16.696
 5489.00    0.60488   0.62798   16.532
 5490.00    0.60223   0.62807   16.605
 5491.00    0.59853   0.62834   16.708
 5492.00    0.61114   0.62788   16.363
 5493.00    0.63798   0.62727   15.674
 5494.00    0.66316   0.62704   15.079
 5495.00    0.67313   0.62635   14.856
 5496.00    0.66241   0.62525   15.096
 5497.00    0.63758   0.62458   15.684
 5498.00    0.61188   0.62391   16.343
 5499.00    0.59750   0.62268   16.736
 5500.00    0.59977   0.62178   16.673
 5501.00    0.61250   0.62111   16.327
 5502.00    0.62583   0.61997   15.979
 5503.00    0.63414   0.61916   15.769
 5504.00    0.63556   0.61859   15.734
 5505.00    0.63087   0.61761   15.851
 5506.00    0.62356   0.61706   16.037
 5507.00    0.61910   0.61663   16.153
 5508.00    0.61811   0.61581   16.178
 5509.00    0.61392   0.61539   16.289
 5510.00    0.60571   0.61524   16.509
 5511.00    0.60326   0.61511   16.576
 5512.00    0.60729   0.61549   16.467
 5513.00    0.60359   0.61642   16.567
 5514.00    0.58857   0.61778   16.990
 5515.00    0.57653   0.61937   17.345
 5516.00    0.57543   0.62117   17.378
 5517.00    0.57916   0.62295   17.266
 5518.00    0.58042   0.62421   17.229
 5519.00    0.57743   0.62500   17.318
 5520.00    0.57810   0.62516   17.298
 5521.00    0.59482   0.62447   16.812
 5522.00    0.62433   0.62336   16.017
 5523.00    0.65073   0.62168   15.367
 5524.00    0.67081   0.61961   14.907
 5525.00    0.69189   0.61797   14.453
 5526.00    0.70920   0.61646   14.100
 5527.00    0.70895   0.61515   14.105
 5528.00    0.68726   0.61482   14.551
 5529.00    0.65271   0.61497   15.321
 5530.00    0.62224   0.61519   16.071
 5531.00    0.61152   0.61589   16.353
 5532.00    0.62001   0.61690   16.129
 5533.00    0.63589   0.61768   15.726
 5534.00    0.64814   0.61842   15.429
 5535.00    0.65067   0.61945   15.369
 5536.00    0.64517   0.62030   15.500
 5537.00    0.63808   0.62096   15.672
 5538.00    0.63604   0.62173   15.722
 5539.00    0.64338   0.62229   15.543
 5540.00    0.65967   0.62262   15.159
 5541.00    0.67884   0.62287   14.731
 5542.00    0.68930   0.62294   14.507
 5543.00    0.68151   0.62310   14.673
 5544.00    0.65509   0.62331   15.265
 5545.00    0.62053   0.62345   16.115
 5546.00    0.59753   0.62382   16.735
 5547.00    0.59524   0.62414   16.800
 5548.00    0.60135   0.62422   16.629
 5549.00    0.60440   0.62420   16.545
 5550.00    0.60673   0.62390   16.482
 5551.00    0.61224   0.62339   16.333
 5552.00    0.61932   0.62272   16.147
 5553.00    0.62376   0.62185   16.032
 5554.00    0.62143   0.62111   16.092
 5555.00    0.61305   0.62037   16.312
 5556.00    0.60441   0.61947   16.545
 5557.00    0.59860   0.61879   16.706
 5558.00    0.59403   0.61796   16.834
 5559.00    0.58915   0.61685   16.974
 5560.00    0.58532   0.61590   17.085
 5561.00    0.59005   0.61472   16.948
 5562.00    0.61150   0.61331   16.353
 5563.00    0.64052   0.61228   15.612
 5564.00    0.65638   0.61121   15.235
 5565.00    0.65505   0.60994   15.266
 5566.00    0.64930   0.60928   15.401
 5567.00    0.65165   0.60887   15.346
 5568.00    0.66675   0.60805   14.998
 5569.00    0.68483   0.60788   14.602
 5570.00    0.69029   0.60825   14.487
 5571.00    0.67982   0.60806   14.710
 5572.00    0.66012   0.60842   15.149
 5573.00    0.63870   0.60943   15.657
 5574.00    0.62002   0.60980   16.129
 5575.00    0.60255   0.61041   16.596
 5576.00    0.58563   0.61134   17.076
 5577.00    0.57799   0.61148   17.301
 5578.00    0.58529   0.61138   17.086
 5579.00    0.59581   0.61108   16.784
 5580.00    0.59831   0.60989   16.714
 5581.00    0.60104   0.60823   16.638
 5582.00    0.61544   0.60615   16.249
 5583.00    0.63966   0.60357   15.633
 5584.00    0.66551   0.60091   15.026
 5585.00    0.68544   0.59830   14.589
 5586.00    0.69176   0.59609   14.456
 5587.00    0.67660   0.59450   14.780
 5588.00    0.63924   0.59352   15.643
 5589.00    0.59050   0.59342   16.935
 5590.00    0.54880   0.59378   18.222
 5591.00    0.53399   0.59452   18.727
 5592.00    0.54782   0.59572   18.254
 5593.00    0.56935   0.59649   17.564
 5594.00    0.58322   0.59706   17.146
 5595.00    0.59087   0.59771   16.924
 5596.00    0.59778   0.59767   16.729
 5597.00    0.60734   0.59747   16.465
 5598.00    0.61974   0.59759   16.136
 5599.00    0.63135   0.59770   15.839
 5600.00    0.63411   0.59831   15.770
 5601.00    0.62080   0.59957   16.108
 5602.00    0.60092   0.60128   16.641
 5603.00    0.59529   0.60354   16.799
 5604.00    0.60834   0.60598   16.438
 5605.00    0.62805   0.60826   15.922
 5606.00    0.64426   0.61027   15.522
 5607.00    0.65444   0.61161   15.280
 5608.00    0.66550   0.61200   15.026
 5609.00    0.68455   0.61171   14.608
 5610.00    0.70084   0.61063   14.269
 5611.00    0.69617   0.60857   14.364
 5612.00    0.66837   0.60653   14.962
 5613.00    0.62997   0.60450   15.874
 5614.00    0.59934   0.60219   16.685
 5615.00    0.59051   0.60079   16.935
 5616.00    0.60182   0.60006   16.616
 5617.00    0.62406   0.59939   16.024
 5618.00    0.65199   0.59949   15.338
 5619.00    0.67903   0.59991   14.727
 5620.00    0.69092   0.60003   14.474
 5621.00    0.67691   0.60043   14.773
 5622.00    0.64124   0.60094   15.595
 5623.00    0.60030   0.60113   16.658
 5624.00    0.57662   0.60165   17.342
 5625.00    0.57819   0.60255   17.295
 5626.00    0.58639   0.60325   17.053
 5627.00    0.58624   0.60416   17.058
 5628.00    0.58580   0.60523   17.071
 5629.00    0.59685   0.60578   16.755
 5630.00    0.62106   0.60612   16.102
 5631.00    0.64629   0.60618   15.473
 5632.00    0.65007   0.60569   15.383
 5633.00    0.62518   0.60490   15.995
 5634.00    0.58847   0.60388   16.993
 5635.00    0.56113   0.60284   17.821
 5636.00    0.55687   0.60173   17.957
 5637.00    0.57283   0.60064   17.457
 5638.00    0.59125   0.60005   16.913
 5639.00    0.59844   0.59955   16.710
 5640.00    0.59183   0.59913   16.897
 5641.00    0.57979   0.59935   17.248
 5642.00    0.57626   0.59955   17.353
 5643.00    0.58618   0.59981   17.060
 5644.00    0.60423   0.60046   16.550
 5645.00    0.62273   0.60091   16.058
 5646.00    0.63713   0.60132   15.695
 5647.00    0.65313   0.60170   15.311
 5648.00    0.67863   0.60177   14.736
 5649.00    0.70456   0.60169   14.193
 5650.00    0.71181   0.60118   14.049
 5651.00    0.69088   0.60013   14.474
 5652.00    0.64828   0.59905   15.425
 5653.00    0.60977   0.59752   16.400
 5654.00    0.59740   0.59535   16.739
 5655.00    0.59763   0.59359   16.733
 5656.00    0.58755   0.59204   17.020
 5657.00    0.57292   0.59028   17.454
 5658.00    0.56812   0.58930   17.602
 5659.00    0.56836   0.58907   17.594
 5660.00    0.56290   0.58901   17.765
 5661.00    0.55155   0.58952   18.131
 5662.00    0.54238   0.59046   18.437
 5663.00    0.54638   0.59141   18.302
 5664.00    0.56260   0.59256   17.774
 5665.00    0.56969   0.59368   17.553
 5666.00    0.55333   0.59471   18.072
 5667.00    0.52530   0.59578   19.037
 5668.00    0.50856   0.59680   19.663
 5669.00    0.52317   0.59783   19.114
 5670.00    0.56649   0.59880   17.653
 5671.00    0.60833   0.59961   16.438
 5672.00    0.62521   0.60035   15.995
 5673.00    0.61670   0.60091   16.215
 5674.00    0.59373   0.60102   16.843
 5675.00    0.57034   0.60083   17.533
 5676.00    0.55478   0.60046   18.025
 5677.00    0.54713   0.59966   18.277
 5678.00    0.54502   0.59847   18.348
 5679.00    0.54674   0.59726   18.290
 5680.00    0.55443   0.59595   18.037
 5681.00    0.57180   0.59453   17.488
 5682.00    0.59461   0.59332   16.818
 5683.00    0.61296   0.59232   16.314
 5684.00    0.62514   0.59159   15.996
 5685.00    0.63627   0.59130   15.717
 5686.00    0.64635   0.59136   15.472
 5687.00    0.65006   0.59174   15.383
 5688.00    0.64262   0.59249   15.561
 5689.00    0.62423   0.59342   16.020
 5690.00    0.60549   0.59427   16.516
 5691.00    0.59769   0.59502   16.731
 5692.00    0.59536   0.59565   16.796
 5693.00    0.58744   0.59577   17.023
 5694.00    0.57783   0.59534   17.306
 5695.00    0.57503   0.59481   17.390
 5696.00    0.57461   0.59384   17.403
 5697.00    0.56805   0.59237   17.604
 5698.00    0.55612   0.59107   17.982
 5699.00    0.54471   0.58964   18.358
 5700.00    0.53871   0.58808   18.563
 5701.00    0.54102   0.58662   18.483
 5702.00    0.55203   0.58506   18.115
 5703.00    0.56711   0.58363   17.633
 5704.00    0.57616   0.58211   17.356
 5705.00    0.57621   0.58050   17.355
 5706.00    0.57863   0.57949   17.282
 5707.00    0.58919   0.57858   16.973
 5708.00    0.59642   0.57799   16.767
 5709.00    0.58948   0.57858   16.964
 5710.00    0.56937   0.57944   17.563
 5711.00    0.54633   0.58076   18.304
 5712.00    0.53533   0.58306   18.680
 5713.00    0.54298   0.58521   18.417
 5714.00    0.56348   0.58744   17.747
 5715.00    0.58970   0.58995   16.958
 5716.00    0.61679   0.59186   16.213
 5717.00    0.63666   0.59355   15.707
 5718.00    0.63868   0.59513   15.657
 5719.00    0.62023   0.59606   16.123
 5720.00    0.58996   0.59668   16.950
 5721.00    0.56571   0.59713   17.677
 5722.00    0.56562   0.59702   17.680
 5723.00    0.58601   0.59661   17.064
 5724.00    0.60605   0.59620   16.500
 5725.00    0.61443   0.59559   16.275
 5726.00    0.61122   0.59491   16.361
 5727.00    0.59674   0.59432   16.758
 5728.00    0.57253   0.59396   17.466
 5729.00    0.54797   0.59381   18.249
 5730.00    0.53541   0.59370   18.677
 5731.00    0.53907   0.59385   18.550
 5732.00    0.55328   0.59406   18.074
 5733.00    0.56359   0.59423   17.743
 5734.00    0.55997   0.59445   17.858
 5735.00    0.55404   0.59448   18.049
 5736.00    0.56510   0.59446   17.696
 5737.00    0.59905   0.59436   16.693
 5738.00    0.64539   0.59414   15.494
 5739.00    0.67872   0.59391   -2.000
 5740.00    0.68055   0.59367   -2.000
 5741.00    0.65993   0.59342   -2.000
 5742.00    0.63865   0.59322   -2.000
 5743.00    0.63399   0.59290   -2.000
 5744.00    0.64341   0.59240   -2.000
 5745.00    0.63864   0.59209   -2.000
 5746.00    0.60749   0.59157   -2.000
 5747.00    0.57847   0.59076   -2.000
 5748.00    0.57667   0.59008   -2.000
 5749.00    0.59661   0.58923   -2.000
 5750.00    0.62080   0.58836   -2.000
 5751.00    0.63408   0.58782   -2.000
 5752.00    0.63523   0.58731   -2.000
 5753.00    0.63775   0.58692   -2.000
 5754.00    0.64692   0.58695   -2.000
 5755.00    0.65298   0.58693   -2.000
 5756.00    0.64841   0.58688   -2.000
 5757.00    0.63350   0.58703   -2.000
 5758.00    0.60928   0.58683   -2.000
 5759.00    0.57623   0.58660    0.000
 5760.00    0.53943   0.58672    0.000
 5761.00    0.50915   0.58657    0.000
 5762.00    0.49746   0.58660    0.000
 5763.00    0.51196   0.58706    0.000
 5764.00    0.54267   0.58738    0.000
 5765.00    0.56718   0.58784    0.000
 5766.00    0.57067   0.58835    0.000
 5767.00    0.55251   0.58857    0.000
 5768.00    0.52924   0.58863    0.000
 5769.00    0.52176   0.58856    0.000
 5770.00    0.53113   0.58816    0.000
 5771.00    0.54528   0.58750    0.000
 5772.00    0.55789   0.58686    0.000
 5773.00    0.57161   0.58591    0.000
 5774.00    0.59731   0.58466    0.000
 5775.00    0.64027   0.58344    0.000
 5776.00    0.68346   0.58187    0.000
 5777.00    0.70502   0.58000    0.000
 5778.00    0.70116   0.57831    0.000
 5779.00    0.68008   0.57665    0.000
 5780.00    0.65223   0.57499    0.000
 5781.00    0.62588   0.57376    0.000
 5782.00    0.60425   0.57318    0.000
 5783.00    0.58811   0.57298    0.000
 5784.00    0.57867   0.57313    0.000
 5785.00    0.57958   0.57392    0.000
 5786.00    0.59683   0.57487    0.000
 5787.00    0.62762   0.57588    0.000
 5788.00    0.65523   0.57718    0.000
 5789.00    0.66541   0.57825    0.000
 5790.00    0.65650   0.57922    0.000
 5791.00    0.63870   0.58028    0.000
 5792.00    0.62866   0.58109    0.000
 5793.00    0.62754   0.58176    0.000
 5794.00    0.61808   0.58244    0.000
 5795.00    0.59839   0.58312    0.000
 5796.00    0.58843   0.58369    0.000
 5797.00    0.59647   0.58415    0.000
 5798.00    0.61123   0.58471    0.000
 5799.00    0.62126   0.58513    0.000
 5800.00    0.62237   0.58530    0.000
 5801.00    0.61842   0.58549    0.000
 5802.00    0.61848   0.58547    0.000
 5803.00    0.62852   0.58536    0.000
 5804.00    0.64687   0.58524    0.000
 5805.00    0.65928   0.58499    0.000
 5806.00    0.64891   0.58493    0.000
 5807.00    0.62036   0.58486    0.000
 5808.00    0.59200   0.58471    0.000
 5809.00    0.57117   0.58469    0.000
 5810.00    0.55594   0.58458    0.000
 5811.00    0.54696   0.58442    0.000
 5812.00    0.54699   0.58424    0.000
 5813.00    0.55706   0.58414    0.000
 5814.00    0.57449   0.58418    0.000
 5815.00    0.59147   0.58422    0.000
 5816.00    0.60052   0.58446    0.000
 5817.00    0.60128   0.58491    0.000
 5818.00    0.59595   0.58531    0.000
 5819.00    0.58373   0.58576    0.000
 5820.00    0.56579   0.58618    0.000
 5821.00    0.55014   0.58652    0.000
 5822.00    0.54510   0.58678    0.000
 5823.00    0.55328   0.58689    0.000
 5824.00    0.57387   0.58701    0.000
 5825.00    0.60426   0.58704    0.000
 5826.00    0.63460   0.58697    0.000
 5827.00    0.64696   0.58691    0.000
 5828.00    0.63527   0.58679    0.000
 5829.00    0.61479   0.58664    0.000
 5830.00    0.60112   0.58642    0.000
 5831.00    0.59840   0.58618    0.000
 5832.00    0.60392   0.58599    0.000
 5833.00    0.61143   0.58573    0.000
 5834.00    0.61466   0.58546    0.000
 5835.00    0.60992   0.58532    0.000
 5836.00    0.60031   0.58517    0.000
 5837.00    0.59391   0.58502    0.000
 5838.00    0.59094   0.58486    0.000
 5839.00    0.58409   0.58468    0.000
 5840.00    0.57423   0.58440    0.000
 5841.00    0.56998   0.58393    0.000
 5842.00    0.57149   0.58335    0.000
 5843.00    0.57129   0.58252    0.000
 5844.00    0.56857   0.58159    0.000
 5845.00    0.56911   0.58052    0.000
 5846.00    0.57611   0.57918    0.000
 5847.00    0.58832   0.57787    0.000
 5848.00    0.60066   0.57641    0.000
 5849.00    0.60618   0.57471    0.000
 5850.00    0.59944   0.57311    0.000
 5851.00    0.57976   0.57149    0.000
 5852.00    0.55534   0.56972    0.000
 5853.00    0.53942   0.56811    0.000
 5854.00    0.54345   0.56683    0.000
 5855.00    0.56961   0.56583    0.000
 5856.00    0.60325   0.56505    0.000
 5857.00    0.62310   0.56471    0.000
 5858.00    0.61504   0.56478    0.000
 5859.00    0.57990   0.56519    0.000
 5860.00    0.53826   0.56589    0.000
 5861.00    0.51302   0.56654    0.000
 5862.00    0.51267   0.56729    0.000
 5863.00    0.53398   0.56814    0.000
 5864.00    0.56599   0.56892    0.000
 5865.00    0.59520   0.56949    0.000
 5866.00    0.60991   0.56991    0.000
 5867.00    0.60500   0.57032    0.000
 5868.00    0.58508   0.57039    0.000
 5869.00    0.56563   0.57028    0.000
 5870.00    0.56863   0.56987    0.000
 5871.00    0.59624   0.56905    0.000
 5872.00    0.62371   0.56828    0.000
 5873.00    0.63383   0.56725    0.000
 5874.00    0.63143   0.56619    0.000
 5875.00    0.63174   0.56519    0.000
 5876.00    0.64899   0.56419    0.000
 5877.00    0.67464   0.56345    0.000
 5878.00    0.68097   0.56250    0.000
 5879.00    0.66126   0.56130    0.000
 5880.00    0.63393   0.55974    0.000
 5881.00    0.61239   0.55767    0.000
 5882.00    0.59954   0.55487    0.000
 5883.00    0.59854   0.55104    0.000
 5884.00    0.61021   0.54648    0.000
 5885.00    0.62019   0.54104    0.000
 5886.00    0.60763   0.53504    0.000
 5887.00    0.57036   0.52970    0.000
 5888.00    0.52389   0.52429    0.000
 5889.00    0.48828   0.51931    0.000
 5890.00    0.47905   0.51659    0.000
 5891.00    0.49613   0.51455    0.000
 5892.00    0.52571   0.51351    0.000
 5893.00    0.54668   0.51470    0.000
 5894.00    0.54425   0.51614    0.000
 5895.00    0.52650   0.51866    0.000
 5896.00    0.51548   0.52299    0.000
 5897.00    0.53220   0.52735    0.000
 5898.00    0.58020   0.53205    0.000
 5899.00    0.63188   0.53701    0.000
 5900.00    0.65582   0.54153    0.000
 5901.00    0.64469   0.54587   15.511
 5902.00    0.60944   0.54963   16.408
 5903.00    0.57048   0.55250   17.529
 5904.00    0.54589   0.55478   18.319
 5905.00    0.54269   0.55644   18.427
 5906.00    0.55680   0.55745   17.960
 5907.00    0.57503   0.55811   17.390
 5908.00    0.58497   0.55826   17.095
 5909.00    0.58153   0.55804   17.196
 5910.00    0.56862   0.55767   17.586
 5911.00    0.55716   0.55722   17.948
 5912.00    0.55162   0.55669   18.128
 5913.00    0.54623   0.55614   18.307
 5914.00    0.53852   0.55592   18.569
 5915.00    0.53301   0.55581   18.761
 5916.00    0.53069   0.55600   18.844
 5917.00    0.52736   0.55633   18.963
 5918.00    0.52317   0.55661   19.114
 5919.00    0.52339   0.55725   19.106
 5920.00    0.52963   0.55769   18.881
 5921.00    0.53892   0.55799   18.556
 5922.00    0.54899   0.55843   18.215
 5923.00    0.55912   0.55851   17.885
 5924.00    0.56820   0.55851   17.599
 5925.00    0.57523   0.55846   17.384
 5926.00    0.58141   0.55812   17.200
 5927.00    0.58778   0.55798   17.013
 5928.00    0.58997   0.55777   16.950
 5929.00    0.58228   0.55743   17.174
 5930.00    0.56708   0.55740   17.634
 5931.00    0.55248   0.55741   18.100
 5932.00    0.54589   0.55745   18.319
 5933.00    0.55001   0.55748   18.182
 5934.00    0.55918   0.55753   17.883
 5935.00    0.56585   0.55764   17.672
 5936.00    0.56922   0.55767   17.568
 5937.00    0.57090   0.55752   17.516
 5938.00    0.56898   0.55729   17.575
 5939.00    0.56194   0.55706   17.796
 5940.00    0.55325   0.55664   18.075
 5941.00    0.54987   0.55635   18.186
 5942.00    0.55945   0.55603   17.875
 5943.00    0.58132   0.55555   17.202
 5944.00    0.60136   0.55514   16.629
 5945.00    0.60881   0.55464   16.426
 5946.00    0.60764   0.55421   16.457
 5947.00    0.60584   0.55369   16.506
 5948.00    0.60793   0.55306   16.449
 5949.00    0.61613   0.55270   16.230
 5950.00    0.63077   0.55248   15.854
 5951.00    0.64694   0.55219   15.457
 5952.00    0.65485   0.55193   15.271
 5953.00    0.64939   0.55202   15.399
 5954.00    0.63437   0.55236   15.764
 5955.00    0.62063   0.55262   16.113
 5956.00    0.61999   0.55305   16.129
 5957.00    0.62664   0.55364   15.958
 5958.00    0.62002   0.55435   16.129
 5959.00    0.59744   0.55511   16.738
 5960.00    0.57567   0.55566   17.371
 5961.00    0.56252   0.55620   17.777
 5962.00    0.55400   0.55663   18.051
 5963.00    0.55019   0.55699   18.175
 5964.00    0.55562   0.55719   17.998
 5965.00    0.56998   0.55723   17.545
 5966.00    0.58756   0.55737   17.019
 5967.00    0.60097   0.55730   16.640
 5968.00    0.60482   0.55716   16.534
 5969.00    0.60114   0.55692   16.635
 5970.00    0.59672   0.55644   16.758
 5971.00    0.59693   0.55588   16.752
 5972.00    0.60130   0.55513   16.631
 5973.00    0.59929   0.55427   16.687
 5974.00    0.58176   0.55335   17.189
 5975.00    0.55670   0.55246   17.963
 5976.00    0.53933   0.55170   18.542
 5977.00    0.53748   0.55100   18.605
 5978.00    0.54814   0.55043   18.244
 5979.00    0.55687   0.55000   17.958
 5980.00    0.55185   0.54953   18.121
 5981.00    0.53655   0.54925   18.638
 5982.00    0.51943   0.54897   19.252
 5983.00    0.50434   0.54868   19.828
 5984.00    0.49420   0.54876   20.235
 5985.00    0.49393   0.54893   20.246
 5986.00    0.50772   0.54920   19.696
 5987.00    0.53594   0.54958   18.659
 5988.00    0.56973   0.55004   17.552
 5989.00    0.59101   0.55064   16.920
 5990.00    0.59052   0.55108   16.934
 5991.00    0.57585   0.55142   17.366
 5992.00    0.55959   0.55168   17.870
 5993.00    0.55204   0.55175   18.115
 5994.00    0.55591   0.55162   17.988
 5995.00    0.56553   0.55131   17.682
 5996.00    0.57237   0.55085   17.471
 5997.00    0.56956   0.55031   17.557
 5998.00    0.55941   0.54974   17.876
 5999.00    0.55146   0.54907   18.134
 6000.00    0.54872   0.54842   18.224
 6001.00    0.54729   0.54769   18.272
 6002.00    0.54770   0.54688   18.258
 6003.00    0.55509   0.54629   18.015
 6004.00    0.57168   0.54575   17.492
 6005.00    0.59308   0.54524   16.861
 6006.00    0.60500   0.54486   16.529
 6007.00    0.59434   0.54440   16.826
 6008.00    0.57173   0.54432   17.491
 6009.00    0.56110   0.54442   17.822
 6010.00    0.57316   0.54434   17.447
 6011.00    0.59922   0.54430   16.688
 6012.00    0.61058   0.54407   16.378
 6013.00    0.58312   0.54396   17.149
 6014.00    0.53089   0.54393   18.836
 6015.00    0.48960   0.54351   20.425
 6016.00    0.48856   0.54307   20.468
 6017.00    0.53279   0.54280   18.769
 6018.00    0.58974   0.54244   16.957
 6019.00    0.62361   0.54228   16.036
 6020.00    0.63045   0.54217   15.862
 6021.00    0.62385   0.54229   16.030
 6022.00    0.61753   0.54283   16.194
 6023.00    0.61445   0.54327   16.275
 6024.00    0.60187   0.54410   16.615
 6025.00    0.57408   0.54506   17.419
 6026.00    0.54630   0.54595   18.305
 6027.00    0.53433   0.54708   18.715
 6028.00    0.54033   0.54800   18.507
 6029.00    0.55205   0.54892   18.114
 6030.00    0.54792   0.54968   18.251
 6031.00    0.52283   0.55019   19.127
 6032.00    0.49645   0.55066   20.143
 6033.00    0.48859   0.55087   20.467
 6034.00    0.50628   0.55093   19.752
 6035.00    0.54074   0.55082   18.493
 6036.00    0.57133   0.55063   17.503
 6037.00    0.58397   0.55043   17.124
 6038.00    0.57671   0.55015   17.340
 6039.00    0.55468   0.54997   18.028
 6040.00    0.52741   0.54984   18.961
 6041.00    0.50613   0.54980   19.758
 6042.00    0.50029   0.54992   19.988
 6043.00    0.51078   0.55002   19.578
 6044.00    0.53049   0.55021   18.850
 6045.00    0.54997   0.55032   18.183
 6046.00    0.56153   0.55040   17.809
 6047.00    0.56465   0.55042   17.710
 6048.00    0.56408   0.55022   17.728
 6049.00    0.56400   0.54996   17.731
 6050.00    0.56596   0.54953   17.669
 6051.00    0.56751   0.54900   17.621
 6052.00    0.56481   0.54838   17.705
 6053.00    0.55701   0.54778   17.953
 6054.00    0.54615   0.54715   18.310
 6055.00    0.53600   0.54655   18.657
 6056.00    0.52991   0.54600   18.871
 6057.00    0.52845   0.54546   18.923
 6058.00    0.53039   0.54499   18.854
 6059.00    0.53403   0.54430   18.726
 6060.00    0.53808   0.54375   18.585
 6061.00    0.54221   0.54319   18.443
 6062.00    0.54532   0.54277   18.338
 6063.00    0.54461   0.54259   18.362
 6064.00    0.54040   0.54234   18.505
 6065.00    0.53884   0.54264   18.558
 6066.00    0.54452   0.54331   18.365
 6067.00    0.55612   0.54396   17.982
 6068.00    0.57176   0.54480   17.490
 6069.00    0.59150   0.54544   16.906
 6070.00    0.61143   0.54600   16.355
 6071.00    0.62270   0.54649   16.059
 6072.00    0.62255   0.54643   16.063
 6073.00    0.61732   0.54604   16.199
 6074.00    0.61103   0.54545   16.366
 6075.00    0.60130   0.54452   16.631
 6076.00    0.58330   0.54347   17.144
 6077.00    0.55428   0.54228   18.041
 6078.00    0.52287   0.54113   19.125
 6079.00    0.50590   0.54021   19.767
 6080.00    0.50894   0.53935   19.649
 6081.00    0.52301   0.53857   19.120
 6082.00    0.53266   0.53811   18.774
 6083.00    0.52571   0.53780   19.022
 6084.00    0.51029   0.53758   19.597
 6085.00    0.50652   0.53753   19.743
 6086.00    0.51935   0.53746   19.255
 6087.00    0.53882   0.53754   18.559
 6088.00    0.55245   0.53762   18.101
 6089.00    0.55203   0.53766   18.115
 6090.00    0.54088   0.53782   18.488
 6091.00    0.52960   0.53804   18.882
 6092.00    0.52741   0.53817   18.961
 6093.00    0.53851   0.53823   18.570
 6094.00    0.55906   0.53825   17.887
 6095.00    0.58059   0.53797   17.224
 6096.00    0.59496   0.53737   16.808
 6097.00    0.59812   0.53658   16.719
 6098.00    0.59331   0.53570   16.854
 6099.00    0.58670   0.53481   17.044
 6100.00    0.58284   0.53396   17.157
 6101.00    0.58630   0.53291   17.056
 6102.00    0.60204   0.53229   16.610
 6103.00    0.62345   0.53249   16.040
 6104.00    0.62600   0.53286   15.974
 6105.00    0.59268   0.53345   16.873
 6106.00    0.53177   0.53405   18.805
 6107.00    0.47080   0.53470   21.240
 6108.00    0.44602   0.53577   22.421
 6109.00    0.46905   0.53661   21.320
 6110.00    0.51391   0.53702   19.459
 6111.00    0.54820   0.53725   18.242
 6112.00    0.55197   0.53731   18.117
 6113.00    0.52687   0.53710   18.980
 6114.00    0.49437   0.53663   20.228
 6115.00    0.47336   0.53566   21.125
 6116.00    0.47030   0.53444   21.263
 6117.00    0.47822   0.53340   20.911
 6118.00    0.48316   0.53211   20.697
 6119.00    0.48509   0.53092   20.615
 6120.00    0.49499   0.52985   20.203
 6121.00    0.50729   0.52885   19.713
 6122.00    0.50370   0.52864   19.853
 6123.00    0.48338   0.52877   20.688
 6124.00    0.46176   0.52902   21.656
 6125.00    0.44958   0.52943   22.243
 6126.00    0.45026   0.52978   22.209
 6127.00    0.46469   0.53022   21.520
 6128.00    0.49056   0.53048   20.385
 6129.00    0.51951   0.53033   19.249
 6130.00    0.54022   0.52962   18.511
 6131.00    0.54435   0.52841   18.371
 6132.00    0.53021   0.52716   18.860
 6133.00    0.50637   0.52575   19.748
 6134.00    0.48545   0.52436   20.600
 6135.00    0.47554   0.52289   21.029
 6136.00    0.48021   0.52170   20.824
 6137.00    0.49975   0.52158   20.010
 6138.00    0.53178   0.52206   18.805
 6139.00    0.57146   0.52289   17.499
 6140.00    0.60921   0.52372   -2.000
 6141.00    0.63031   0.52479   -2.000
 6142.00    0.63023   0.52631   -2.000
 6143.00    0.62410   0.52772   -2.000
 6144.00    0.61967   0.52877   -2.000
 6145.00    0.60124   0.52933   -2.000
 6146.00    0.56335   0.52969   -2.000
 6147.00    0.52825   0.52987   -2.000
 6148.00    0.50809   0.52974   -2.000
 6149.00    0.48814   0.52938   -2.000
 6150.00    0.46408   0.52883   -2.000
 6151.00    0.45546   0.52809   -2.000
 6152.00    0.47059   0.52725   21.250
 6153.00    0.49429   0.52598   20.231
 6154.00    0.51060   0.52436   19.585
 6155.00    0.51382   0.52240   19.462
 6156.00    0.51147   0.52001   19.552
 6157.00    0.51778   0.51750   19.313
 6158.00    0.52920   0.51483   18.897
 6159.00    0.52743   0.51219   18.960
 6160.00    0.51388   0.50955   19.460
 6161.00    0.50786   0.50740   19.691
 6162.00    0.51359   0.50597   19.471
 6163.00    0.51954   0.50505   19.248
 6164.00    0.51874   0.50481   19.278
 6165.00    0.51144   0.50489   19.553
 6166.00    0.49984   0.50544   20.006
 6167.00    0.48775   0.50628   20.502
 6168.00    0.48202   0.50708   20.746
 6169.00    0.48955   0.50821   20.427
 6170.00    0.51155   0.50961   19.548
 6171.00    0.54351   0.51101   18.399
 6172.00    0.57668   0.51233   17.341
 6173.00    0.60147   0.51359   16.626
 6174.00    0.61189   0.51480   16.343
 6175.00    0.60927   0.51609   16.413
 6176.00    0.60504   0.51717   16.528
 6177.00    0.60775   0.51810   16.454
 6178.00    0.60951   0.51882   16.406
 6179.00    0.59803   0.51924   16.722
 6180.00    0.56991   0.51946   17.547
 6181.00    0.53251   0.51940   18.779
 6182.00    0.50266   0.51906   19.894
 6183.00    0.49167   0.51842   20.339
 6184.00    0.49529   0.51751   20.190
 6185.00    0.50692   0.51613   19.727
 6186.00    0.52601   0.51494   19.011
 6187.00    0.54852   0.51383   18.231
 6188.00    0.56347   0.51281   17.747
 6189.00    0.56995   0.51211   17.545
 6190.00    0.58168   0.51135   17.191
 6191.00    0.60096   0.51133   16.640
 6192.00    0.61034   0.51180   16.384
 6193.00    0.59621   0.51223   16.773
 6194.00    0.56014   0.51284   17.853
 6195.00    0.51958   0.51343   19.246
 6196.00    0.50105   0.51412   19.958
 6197.00    0.51599   0.51478   19.380
 6198.00    0.55422   0.51520   18.043
 6199.00    0.59175   0.51558   16.899
 6200.00    0.60346   0.51613   16.571
 6201.00    0.59063   0.51667   16.931
 6202.00    0.57510   0.51712   17.388
 6203.00    0.56507   0.51745   17.697
 6204.00    0.55526   0.51761   18.010
 6205.00    0.54696   0.51762   18.283
 6206.00    0.54603   0.51740   18.314
 6207.00    0.54963   0.51668   18.194
 6208.00    0.54823   0.51571   18.241
 6209.00    0.53420   0.51447   18.720
 6210.00    0.50686   0.51297   19.729
 6211.00    0.47761   0.51160   20.938
 6212.00    0.46022   0.50991   21.729
 6213.00    0.45642   0.50844   21.910
 6214.00    0.46139   0.50729   21.674
 6215.00    0.47331   0.50638   21.128
 6216.00    0.49001   0.50600   20.408
 6217.00    0.50438   0.50569   19.826
 6218.00    0.51113   0.50544   19.564
 6219.00    0.51374   0.50551   19.465
 6220.00    0.51782   0.50566   19.312
 6221.00    0.52473   0.50588   19.058
 6222.00    0.53409   0.50598   18.723
 6223.00    0.54591   0.50571   18.318
 6224.00    0.55626   0.50531   17.977
 6225.00    0.55578   0.50480   17.993
 6226.00    0.54157   0.50427   18.465
 6227.00    0.52331   0.50367   19.109
 6228.00    0.51151   0.50313   19.550
 6229.00    0.50976   0.50255   19.617
 6230.00    0.51224   0.50229   19.522
 6231.00    0.50645   0.50244   19.745
 6232.00    0.49121   0.50261   20.358
 6233.00    0.48090   0.50307   20.794
 6234.00    0.48744   0.50330   20.515
 6235.00    0.51185   0.50345   19.537
 6236.00    0.54279   0.50344   18.423
 6237.00    0.56180   0.50301   17.800
 6238.00    0.56131   0.50267   17.815
 6239.00    0.54821   0.50195   18.241
 6240.00    0.53543   0.50129   18.677
 6241.00    0.53446   0.50069   18.710
 6242.00    0.54285   0.49998   18.421
 6243.00    0.54936   0.49971   18.203
 6244.00    0.55393   0.49942   18.053
 6245.00    0.56271   0.49915   17.771
 6246.00    0.56823   0.49898   17.599
 6247.00    0.55804   0.49877   17.920
 6248.00    0.53814   0.49849   18.582
 6249.00    0.52295   0.49799   19.122
 6250.00    0.51147   0.49719   19.551
 6251.00    0.49538   0.49615   20.186
 6252.00    0.47691   0.49520   20.969
 6253.00    0.46418   0.49444   21.544
 6254.00    0.46128   0.49397   21.679
 6255.00    0.46666   0.49359   21.429
 6256.00    0.47339   0.49361   21.124
 6257.00    0.47664   0.49397   20.980
 6258.00    0.48093   0.49475   20.793
 6259.00    0.49013   0.49592   20.403
 6260.00    0.49828   0.49709   20.069
 6261.00    0.49914   0.49842   20.035
 6262.00    0.49456   0.49974   20.220
 6263.00    0.48835   0.50079   20.477
 6264.00    0.48145   0.50167   20.770
 6265.00    0.47502   0.50253   21.052
 6266.00    0.47239   0.50326   21.169
 6267.00    0.47638   0.50381   20.992
 6268.00    0.48686   0.50415   20.540
 6269.00    0.49714   0.50434   20.115
 6270.00    0.49543   0.50458   20.185
 6271.00    0.48122   0.50472   20.781
 6272.00    0.46978   0.50469   21.287
 6273.00    0.47541   0.50449   21.035
 6274.00    0.50165   0.50411   19.934
 6275.00    0.53371   0.50377   18.737
 6276.00    0.54545   0.50335   18.334
 6277.00    0.53305   0.50293   18.760
 6278.00    0.51722   0.50260   19.334
 6279.00    0.51224   0.50229   19.522
 6280.00    0.51798   0.50237    0.000
 6281.00    0.52579   0.50266    0.000
 6282.00    0.52693   0.50313    0.000
 6283.00    0.52813   0.50375    0.000
 6284.00    0.54357   0.50424    0.000
 6285.00    0.56895   0.50484    0.000
 6286.00    0.58730   0.50536    0.000
 6287.00    0.59190   0.50565    0.000
 6288.00    0.58648   0.50577    0.000
 6289.00    0.57738   0.50549    0.000
 6290.00    0.56924   0.50499    0.000
 6291.00    0.56077   0.50433    0.000
 6292.00    0.54899   0.50350    0.000
 6293.00    0.53605   0.50267    0.000
 6294.00    0.52644   0.50169    0.000
 6295.00    0.52264   0.50057    0.000
 6296.00    0.52833   0.49962    0.000
 6297.00    0.55134   0.49889    0.000
 6298.00    0.58996   0.49852    0.000
 6299.00    0.62091   0.49828    0.000
 6300.00    0.62222   0.49820    0.000
 6301.00    0.59448   0.49855    0.000
 6302.00    0.55397   0.49919    0.000
 6303.00    0.52327   0.50006    0.000
 6304.00    0.51343   0.50088    0.000
 6305.00    0.51450   0.50162    0.000
 6306.00    0.51615   0.50229    0.000
 6307.00    0.51977   0.50273    0.000
 6308.00    0.52756   0.50279    0.000
 6309.00    0.53587   0.50253    0.000
 6310.00    0.53640   0.50206    0.000
 6311.00    0.52034   0.50138    0.000
 6312.00    0.49334   0.50066    0.000
 6313.00    0.47591   0.49984    0.000
 6314.00    0.47634   0.49907    0.000
 6315.00    0.48485   0.49860    0.000
 6316.00    0.49408   0.49835    0.000
 6317.00    0.50371   0.49818    0.000
 6318.00    0.51022   0.49850    0.000
 6319.00    0.50796   0.49907    0.000
 6320.00    0.50246   0.49978    0.000
 6321.00    0.50672   0.50053   19.735
 6322.00    0.52180   0.50128   19.165
 6323.00    0.53784   0.50218   18.593
 6324.00    0.54867   0.50280   18.226
 6325.00    0.55302   0.50338   18.083
 6326.00    0.54983   0.50364   18.188
 6327.00    0.53813   0.50375   18.583
 6328.00    0.51878   0.50369   19.276
 6329.00    0.49686   0.50319   20.126
 6330.00    0.48451   0.50274   20.639
 6331.00    0.49051   0.50210   20.387
 6332.00    0.50508   0.50144   19.799
 6333.00    0.51162   0.50069   19.546
 6334.00    0.50514   0.49982   19.796
 6335.00    0.49269   0.49923   20.297
 6336.00    0.48982   0.49884   20.416
 6337.00    0.50643   0.49871   19.746
 6338.00    0.53354   0.49854   18.743
 6339.00    0.55656   0.49864   17.967
 6340.00    0.56883   0.49869   17.580
 6341.00    0.56809   0.49875   17.603
 6342.00    0.55299   0.49884   18.083
 6343.00    0.52691   0.49882   18.978
 6344.00    0.50036   0.49911   19.986
 6345.00    0.48482   0.49920   20.626
 6346.00    0.48754   0.49937   20.511
 6347.00    0.50601   0.49949   19.762
 6348.00    0.52668   0.49960   18.987
 6349.00    0.53516   0.49953   18.686
 6350.00    0.52366   0.49924   19.096
 6351.00    0.49850   0.49880   20.060
 6352.00    0.47940   0.49804   20.859
 6353.00    0.48111   0.49707   20.785
 6354.00    0.50486   0.49593   19.807
 6355.00    0.53726   0.49489   18.613
 6356.00    0.55703   0.49379   17.952
 6357.00    0.55854   0.49267   17.904
 6358.00    0.55264   0.49177   18.095
 6359.00    0.54415   0.49126   18.377
 6360.00    0.53088   0.49094   18.837
 6361.00    0.51998   0.49090   19.232
 6362.00    0.52361   0.49118   19.098
 6363.00    0.53755   0.49175   18.603
 6364.00    0.54453   0.49256   18.365
 6365.00    0.53319   0.49337   18.755
 6366.00    0.50428   0.49443   19.830
 6367.00    0.47386   0.49538   21.103
 6368.00    0.46292   0.49629   21.602
 6369.00    0.47859   0.49701   20.895
 6370.00    0.51166   0.49768   19.544
 6371.00    0.53903   0.49827   18.552
 6372.00    0.54264   0.49864   18.428
 6373.00    0.53340   0.49886   18.748
 6374.00    0.52778   0.49886   18.947
 6375.00    0.51666   0.49874   19.355
 6376.00    0.48879   0.49850   20.459
 6377.00    0.45941   0.49815   21.767
 6378.00    0.44965   0.49778   22.240
 6379.00    0.46327   0.49745   21.585
 6380.00    0.48834   0.49716   20.477
 6381.00    0.50315   0.49697   19.875
 6382.00    0.49646   0.49679   20.143
 6383.00    0.48065   0.49657   20.805
 6384.00    0.47103   0.49636   21.230
 6385.00    0.47103   0.49605   21.230
 6386.00    0.47747   0.49572   20.944
 6387.00    0.48599   0.49524   20.577
 6388.00    0.49915   0.49469   20.034
 6389.00    0.52593   0.49411   19.014
 6390.00    0.55643   0.49349   17.972
 6391.00    0.55868   0.49284   17.899
 6392.00    0.52327   0.49206   19.111
 6393.00    0.47493   0.49165   21.056
 6394.00    0.43551   0.49144   22.962
 6395.00    0.41194   0.49135   24.275
 6396.00    0.40985   0.49134   24.399
 6397.00    0.43328   0.49140   23.080
 6398.00    0.46749   0.49147   21.391
 6399.00    0.48638   0.49147   20.560
 6400.00    0.48900   0.49200   20.450
 6401.00    0.49564   0.49260   20.176
 6402.00    0.51074   0.49300   19.579
 6403.00    0.52211   0.49331   19.153
 6404.00    0.52158   0.49343   19.172
 6405.00    0.51006   0.49346   19.606
 6406.00    0.49722   0.49332   20.112
 6407.00    0.49283   0.49313   20.291
 6408.00    0.49157   0.49310   20.343
 6409.00    0.48176   0.49298   20.757
 6410.00    0.46380   0.49264   21.561
 6411.00    0.44997   0.49247   22.224
 6412.00    0.45869   0.49241   21.801
 6413.00    0.49667   0.49230   20.134
 6414.00    0.53873   0.49221   18.562
 6415.00    0.55387   0.49217   18.055
 6416.00    0.53804   0.49212   18.586
 6417.00    0.50659   0.49208   19.740
 6418.00    0.48098   0.49209   20.791
 6419.00    0.47367   0.49217   21.112
 6420.00    0.47713   0.49235   20.959
 6421.00    0.48134   0.49280   20.775
 6422.00    0.48800   0.49332   20.492
 6423.00    0.49974   0.49364   20.010
 6424.00    0.51189   0.49393   19.535
 6425.00    0.51817   0.49404   19.299
 6426.00    0.51511   0.49407   19.413
 6427.00    0.50374   0.49388   19.851
 6428.00    0.48972   0.49361   20.420
 6429.00    0.47951   0.49315   20.855
 6430.00    0.47725   0.49258   20.953
 6431.00    0.48031   0.49228   20.820
 6432.00    0.48047   0.49200   20.813
 6433.00    0.47816   0.49184   20.914
 6434.00    0.48346   0.49173   20.684
 6435.00    0.49701   0.49166   20.120
 6436.00    0.50815   0.49172   19.679
 6437.00    0.51402   0.49172   19.455
 6438.00    0.52120   0.49190   19.186
 6439.00    0.53109   0.49247   18.829
 6440.00    0.53887   0.49301   18.557
 6441.00    0.54305   0.49333   18.414
 6442.00    0.54534   0.49347   18.337
 6443.00    0.54407   0.49344   18.380
 6444.00    0.53597   0.49313   18.658
 6445.00    0.52323   0.49259   19.112
 6446.00    0.51140   0.49189   19.554
 6447.00    0.50240   0.49100   19.904
 6448.00    0.49617   0.48992   20.154
 6449.00    0.49550   0.48895   20.182
 6450.00    0.50252   0.48858   19.900
 6451.00    0.51237   0.48834   19.517
 6452.00    0.51776   0.48822   19.314
 6453.00    0.51636   0.48815   19.366
 6454.00    0.51105   0.48794   19.568
 6455.00    0.50844   0.48780   19.668
 6456.00    0.51168   0.48782   19.543
 6457.00    0.51373   0.48780   19.465
 6458.00    0.50717   0.48769   19.717
 6459.00    0.49424   0.48738   20.233
 6460.00    0.48343   0.48708   20.686
 6461.00    0.48450   0.48657   20.640
 6462.00    0.49910   0.48640   20.036
 6463.00    0.51543   0.48669   19.401
 6464.00    0.52146   0.48689   19.177
 6465.00    0.51452   0.48722   19.435
 6466.00    0.50027   0.48741   19.989
 6467.00    0.48978   0.48752   20.417
 6468.00    0.48875   0.48745   20.460
 6469.00    0.49304   0.48737   20.282
 6470.00    0.49693   0.48723   20.123
 6471.00    0.49804   0.48697   20.079
 6472.00    0.49961   0.48681   20.016
 6473.00    0.50834   0.48644   19.672
 6474.00    0.52207   0.48597   19.155
 6475.00    0.52928   0.48557   18.894
 6476.00    0.52507   0.48526   19.045
 6477.00    0.51472   0.48483   19.428
 6478.00    0.50627   0.48436   19.752
 6479.00    0.50618   0.48391   19.756
 6480.00    0.51385   0.48334   19.461
 6481.00    0.52172   0.48276   19.167
 6482.00    0.51944   0.48233   19.252
 6483.00    0.50089   0.48194   19.965
 6484.00    0.47683   0.48140   20.972
 6485.00    0.46694   0.48060   21.416
 6486.00    0.47825   0.47943   20.910
 6487.00    0.50213   0.47799   19.915
 6488.00    0.51737   0.47612   19.329
 6489.00    0.50554   0.47395   19.781
 6490.00    0.47374   0.47159   21.109
 6491.00    0.44275   0.46911   22.586
 6492.00    0.42522   0.46682   23.517
 6493.00    0.42350   0.46466   23.613
 6494.00    0.43140   0.46335   23.180
 6495.00    0.43901   0.46283   22.779
 6496.00    0.43846   0.46299   22.807
 6497.00    0.43028   0.46413   23.240
 6498.00    0.42744   0.46556   23.395
 6499.00    0.43723   0.46767   22.871
 6500.00    0.44714   0.46993   22.364
 6501.00    0.45037   0.47223   22.204
 6502.00    0.46357   0.47449   21.572
 6503.00    0.49390   0.47640   20.247
 6504.00    0.51883   0.47805   19.274
 6505.00    0.52264   0.47926   19.134
 6506.00    0.51678   0.48006   19.351
 6507.00    0.51063   0.48049   19.584
 6508.00    0.49771   0.48056   20.092
 6509.00    0.47833   0.48042   20.906
 6510.00    0.46699   0.47999   21.414
 6511.00    0.46830   0.47943   21.354
 6512.00    0.47022   0.47874   21.267
 6513.00    0.46474   0.47803   21.517
 6514.00    0.45554   0.47730   21.952
 6515.00    0.45277   0.47668   22.086
 6516.00    0.46657   0.47626   21.433
 6517.00    0.49317   0.47597   20.277
 6518.00    0.51437   0.47587   19.441
 6519.00    0.51031   0.47597   19.596
 6520.00    0.47138   0.47613   21.214
 6521.00    0.41852   0.47629   23.894
 6522.00    0.38970   0.47639   24.558
 6523.00    0.39649   0.47644   24.558
 6524.00    0.42383   0.47644   23.594
 6525.00    0.45201   0.47629   22.124
 6526.00    0.46748   0.47608   21.391
 6527.00    0.47352   0.47589   21.118
 6528.00    0.48132   0.47565    0.000
 6529.00    0.49222   0.47536    0.000
 6530.00    0.50064   0.47502    0.000
 6531.00    0.50316   0.47469    0.000
 6532.00    0.50066   0.47435    0.000
 6533.00    0.49878   0.47405    0.000
 6534.00    0.50027   0.47373    0.000
 6535.00    0.49676   0.47330    0.000
 6536.00    0.48124   0.47271    0.000
 6537.00    0.46135   0.47197    0.000
 6538.00    0.44684   0.47101    0.000
 6539.00    0.43749   0.46986    0.000
 6540.00    0.43504   0.46845    0.000
 6541.00    0.45174   0.46679    0.000
 6542.00    0.48813   0.46497    0.000
 6543.00    0.52010   0.46298    0.000
 6544.00    0.53410   0.46084    0.000
 6545.00    0.54640   0.45850    0.000
 6546.00    0.56517   0.45624    0.000
 6547.00    0.57265   0.45381    0.000
 6548.00    0.56221   0.45111    0.000
 6549.00    0.55194   0.44806    0.000
 6550.00    0.54627   0.44453    0.000
 6551.00    0.52628   0.44049    0.000
 6552.00    0.49267   0.43568    0.000
 6553.00    0.47400   0.43015    0.000
 6554.00    0.48315   0.42387    0.000
 6555.00    0.51262   0.41703    0.000
 6556.00    0.57902   0.40990    0.000
 6557.00    0.72997   0.40263    0.000
 6558.00    1.01483   0.39563    0.000
 6559.00    1.44955   0.38940    0.000
 6560.00    1.94846   0.38445    0.000
 6561.00    2.35221   0.38087    0.000
 6562.00    2.54382   0.37976    0.000
 6563.00    2.47768   0.38181    0.000
 6564.00    2.17758   0.38578    0.000
 6565.00    1.72848   0.39092    0.000
 6566.00    1.25942   0.39713    0.000
 6567.00    0.89309   0.40378    0.000
 6568.00    0.66581   0.41046    0.000
 6569.00    0.54434   0.41695    0.000
 6570.00    0.47689   0.42303    0.000
 6571.00    0.42369   0.42838    0.000
 6572.00    0.38651   0.43305    0.000
 6573.00    0.38044   0.43716    0.000
 6574.00    0.39485   0.44077    0.000
 6575.00    0.41210   0.44407    0.000
 6576.00    0.43307   0.44695    0.000
 6577.00    0.46712   0.44955    0.000
 6578.00    0.51897   0.45175    0.000
 6579.00    0.58758   0.45372    0.000
 6580.00    0.66617   0.45537    0.000
 6581.00    0.74233   0.45684    0.000
 6582.00    0.79910   0.45807    0.000
 6583.00    0.82312   0.45899    0.000
 6584.00    0.81010   0.45973    0.000
 6585.00    0.76191   0.46015    0.000
 6586.00    0.68472   0.46046    0.000
 6587.00    0.59046   0.46059    0.000
 6588.00    0.49760   0.46051    0.000
 6589.00    0.42995   0.46038    0.000
 6590.00    0.41007   0.46012    0.000
 6591.00    0.43269   0.45989    0.000
 6592.00    0.46231   0.45971    0.000
 6593.00    0.47357   0.45992    0.000
 6594.00    0.46497   0.46039    0.000
 6595.00    0.44596   0.46093    0.000
 6596.00    0.42937   0.46154    0.000
 6597.00    0.42384   0.46218    0.000
 6598.00    0.43083   0.46285    0.000
 6599.00    0.44370   0.46347    0.000
 6600.00    0.45075   0.46401    0.000
 6601.00    0.44380   0.46430    0.000
 6602.00    0.42369   0.46451    0.000
 6603.00    0.40703   0.46451    0.000
 6604.00    0.41375   0.46447    0.000
 6605.00    0.43886   0.46444    0.000
 6606.00    0.46263   0.46438    0.000
 6607.00    0.47978   0.46444    0.000
 6608.00    0.49473   0.46455    0.000
 6609.00    0.50508   0.46489   19.799
 6610.00    0.50740   0.46537   19.708
 6611.00    0.50888   0.46581   19.651
 6612.00    0.51666   0.46631   19.355
 6613.00    0.52221   0.46674   19.149
 6614.00    0.51420   0.46725   19.448
 6615.00    0.49561   0.46757   20.177
 6616.00    0.47952   0.46783   20.854
 6617.00    0.48124   0.46790   20.780
 6618.00    0.50330   0.46788   19.869
 6619.00    0.52493   0.46770   19.050
 6620.00    0.52919   0.46739   18.897
 6621.00    0.52396   0.46697   19.085
 6622.00    0.51813   0.46642   19.300
 6623.00    0.50488   0.46582   19.806
 6624.00    0.48062   0.46519   20.806
 6625.00    0.45643   0.46464   21.909
 6626.00    0.44344   0.46405   22.551
 6627.00    0.44382   0.46349   22.532
 6628.00    0.45340   0.46295   22.056
 6629.00    0.46489   0.46247   21.511
 6630.00    0.47480   0.46202   21.062
 6631.00    0.48514   0.46168   20.613
 6632.00    0.49591   0.46141   20.165
 6633.00    0.50444   0.46123   19.824
 6634.00    0.51527   0.46128   19.407
 6635.00    0.53718   0.46131   18.616
 6636.00    0.56011   0.46141   17.854
 6637.00    0.55976   0.46143   17.865
 6638.00    0.53553   0.46146   18.673
 6639.00    0.50968   0.46142   19.620
 6640.00    0.49293   0.46137   20.287
 6641.00    0.48124   0.46134   20.780
 6642.00    0.47177   0.46114   21.197
 6643.00    0.46655   0.46113   21.434
 6644.00    0.47122   0.46118   21.221
 6645.00    0.48879   0.46128   20.459
 6646.00    0.50851   0.46132   19.665
 6647.00    0.51555   0.46143   19.397
 6648.00    0.51071   0.46149   19.581
 6649.00    0.50261   0.46152   19.896
 6650.00    0.49071   0.46151   20.378
 6651.00    0.47100   0.46136   21.231
 6652.00    0.44716   0.46121   22.364
 6653.00    0.42475   0.46091   23.543
 6654.00    0.40301   0.46062   24.558
 6655.00    0.38382   0.46015   24.558
 6656.00    0.38124   0.45967   24.558
 6657.00    0.40232   0.45911   24.558
 6658.00    0.42972   0.45850   23.271
 6659.00    0.44721   0.45793   22.361
 6660.00    0.46138   0.45733   21.674
 6661.00    0.47971   0.45691   20.846
 6662.00    0.49400   0.45646   20.243
 6663.00    0.49868   0.45634   20.053
 6664.00    0.50175   0.45636   19.930
 6665.00    0.50482   0.45644   19.809
 6666.00    0.49427   0.45663   20.232
 6667.00    0.46704   0.45677   21.411
 6668.00    0.44050   0.45694   22.701
 6669.00    0.42512   0.45693   23.523
 6670.00    0.41626   0.45681   24.023
 6671.00    0.42212   0.45643   23.690
 6672.00    0.46398   0.45589   21.553
 6673.00    0.52550   0.45527   19.030
 6674.00    0.55415   0.45447   18.046
 6675.00    0.54098   0.45381   18.485
 6676.00    0.52691   0.45303   18.978
 6677.00    0.52923   0.45263   18.895
 6678.00    0.53085   0.45250   18.838
 6679.00    0.52008   0.45271   19.228
 6680.00    0.49859   0.45303   20.057
 6681.00    0.47151   0.45348   21.209
 6682.00    0.44492   0.45404   22.476
 6683.00    0.42628   0.45460   23.459
 6684.00    0.42006   0.45513   23.806
 6685.00    0.41925   0.45552   23.852
 6686.00    0.41468   0.45583   24.115
 6687.00    0.41429   0.45599   24.138
 6688.00    0.42685   0.45607   23.427
 6689.00    0.43217   0.45597   23.139
 6690.00    0.41245   0.45580   24.246
 6691.00    0.40184   0.45551   24.558
 6692.00    0.44334   0.45523   22.556
 6693.00    0.52515   0.45487   19.042
 6694.00    0.60120   0.45457   16.634
 6695.00    0.62641   0.45424   15.964
 6696.00    0.58251   0.45403    0.000
 6697.00    0.49791   0.45388    0.000
 6698.00    0.41813   0.45376    0.000
 6699.00    0.37520   0.45370    0.000
 6700.00    0.37769   0.45361    0.000
 6701.00    0.40791   0.45353    0.000
 6702.00    0.44741   0.45344    0.000
 6703.00    0.49288   0.45331    0.000
 6704.00    0.53210   0.45321    0.000
 6705.00    0.53476   0.45304    0.000
 6706.00    0.49874   0.45283    0.000
 6707.00    0.46711   0.45247    0.000
 6708.00    0.46681   0.45207    0.000
 6709.00    0.48527   0.45148    0.000
 6710.00    0.52041   0.45083    0.000
 6711.00    0.59395   0.45009    0.000
 6712.00    0.70320   0.44923    0.000
 6713.00    0.81159   0.44843    0.000
 6714.00    0.89312   0.44759    0.000
 6715.00    0.94325   0.44694    0.000
 6716.00    0.95710   0.44636    0.000
 6717.00    0.92751   0.44606    0.000
 6718.00    0.86175   0.44601    0.000
 6719.00    0.77839   0.44612    0.000
 6720.00    0.68528   0.44637    0.000
 6721.00    0.58528   0.44669    0.000
 6722.00    0.50305   0.44717    0.000
 6723.00    0.47002   0.44760    0.000
 6724.00    0.47939   0.44804    0.000
 6725.00    0.50463   0.44840    0.000
 6726.00    0.55181   0.44875    0.000
 6727.00    0.64103   0.44906    0.000
 6728.00    0.75839   0.44923    0.000
 6729.00    0.86418   0.44937    0.000
 6730.00    0.91904   0.44934    0.000
 6731.00    0.90248   0.44931    0.000
 6732.00    0.83097   0.44911    0.000
 6733.00    0.73478   0.44893    0.000
 6734.00    0.62818   0.44861    0.000
 6735.00    0.52679   0.44830    0.000
 6736.00    0.46648   0.44791    0.000
 6737.00    0.46075   0.44750    0.000
 6738.00    0.46454   0.44710    0.000
 6739.00    0.44324   0.44673    0.000
 6740.00    0.42851   0.44637    0.000
 6741.00    0.45323   0.44604    0.000
 6742.00    0.50081   0.44569    0.000
 6743.00    0.53642   0.44544    0.000
 6744.00    0.53457   0.44517    0.000
 6745.00    0.49705   0.44493    0.000
 6746.00    0.45598   0.44470    0.000
 6747.00    0.43304   0.44453    0.000
 6748.00    0.42238   0.44443    0.000
 6749.00    0.42231   0.44440    0.000
 6750.00    0.44579   0.44452    0.000
 6751.00    0.49316   0.44475    0.000
 6752.00    0.54392   0.44504    0.000
 6753.00    0.57416   0.44545   17.417
 6754.00    0.56615   0.44587   17.663
 6755.00    0.51645   0.44629   19.363
 6756.00    0.43940   0.44669   22.758
 6757.00    0.36878   0.44696   24.558
 6758.00    0.34393   0.44719   24.558
 6759.00    0.37070   0.44718   24.558
 6760.00    0.42105   0.44715   23.750
 6761.00    0.46053   0.44687   21.714
 6762.00    0.46680   0.44658   21.422
 6763.00    0.45371   0.44614   22.041
 6764.00    0.45504   0.44570   21.976
 6765.00    0.48178   0.44525   20.756
 6766.00    0.51952   0.44485   19.249
 6767.00    0.54061   0.44457   18.498
 6768.00    0.52574   0.44443   19.021
 6769.00    0.49283   0.44446   20.291
 6770.00    0.46954   0.44453   21.298
 6771.00    0.44940   0.44480   22.252
 6772.00    0.41838   0.44510   23.902
 6773.00    0.39495   0.44545   24.558
 6774.00    0.40963   0.44570   24.412
 6775.00    0.47501   0.44589   21.052
 6776.00    0.57639   0.44594   17.350
 6777.00    0.66820   0.44584   -1.000
 6778.00    0.70163   0.44560   -1.000
 6779.00    0.65241   0.44520   -1.000
 6780.00    0.53946   0.44474   18.537
 6781.00    0.43009   0.44419   23.251
 6782.00    0.37935   0.44368   24.558
 6783.00    0.38814   0.44318   24.558
 6784.00    0.42805   0.44283   23.362
 6785.00    0.46291   0.44252   21.603
 6786.00    0.46761   0.44235   21.385
 6787.00    0.43916   0.44222   22.771
 6788.00    0.39810   0.44217   24.558
 6789.00    0.37981   0.44214   24.558
 6790.00    0.39268   0.44214   24.558
 6791.00    0.40967   0.44217   24.410
 6792.00    0.41561   0.44218   24.061
 6793.00    0.41981   0.44221   23.820
 6794.00    0.42721   0.44227   23.408
 6795.00    0.43444   0.44232   23.018
 6796.00    0.45352   0.44238   22.050
 6797.00    0.50288   0.44243   19.886
 6798.00    0.55838   0.44246   17.909
 6799.00    0.56781   0.44248   17.611
 6800.00    0.52639   0.44246   18.997
 6801.00    0.47384   0.44240   21.104
 6802.00    0.43934   0.44229   22.761
 6803.00    0.43201   0.44215   23.147
 6804.00    0.44934   0.44198   22.255
 6805.00    0.48214   0.44183   20.741
 6806.00    0.52019   0.44162   19.224
 6807.00    0.54747   0.44148   18.266
 6808.00    0.53419   0.44134   18.720
 6809.00    0.46578   0.44117   21.469
 6810.00    0.38500   0.44109   24.558
 6811.00    0.34479   0.44098   24.558
 6812.00    0.33979   0.44092   24.558
 6813.00    0.34268   0.44086   24.558
 6814.00    0.35620   0.44083   24.558
 6815.00    0.38629   0.44084   24.558
 6816.00    0.40975   0.44085   24.405
 6817.00    0.40729   0.44089   24.553
 6818.00    0.39519   0.44087   24.558
 6819.00    0.39455   0.44093   24.558
 6820.00    0.40427   0.44090   24.558
 6821.00    0.41828   0.44095   23.908
 6822.00    0.43817   0.44088   22.822
 6823.00    0.45697   0.44084   21.883
 6824.00    0.45280   0.44073   22.085
 6825.00    0.42301   0.44061   23.640
 6826.00    0.39815   0.44048   24.558
 6827.00    0.39952   0.44034   24.558
 6828.00    0.41918   0.44023   23.856
 6829.00    0.44115   0.44012   22.668
 6830.00    0.45412   0.43997   22.020
 6831.00    0.45767   0.43978   21.850
 6832.00    0.45953   0.43948   21.761
 6833.00    0.45546   0.43914   21.956
 6834.00    0.43029   0.43867   23.240
 6835.00    0.38909   0.43816   24.558
 6836.00    0.35952   0.43753   24.558
 6837.00    0.36459   0.43696   24.558
 6838.00    0.40727   0.43633   24.553
 6839.00    0.45406   0.43590   22.024
 6840.00    0.45672   0.43551   21.895
 6841.00    0.41554   0.43536   24.065
 6842.00    0.37173   0.43533   24.558
 6843.00    0.35558   0.43545   24.558
 6844.00    0.37206   0.43564   24.558
 6845.00    0.39710   0.43584   24.558
 6846.00    0.40205   0.43603   24.558
 6847.00    0.39612   0.43613   24.558
 6848.00    0.40682   0.43616   24.558
 6849.00    0.43776   0.43603   22.843
 6850.00    0.46730   0.43582   21.400
 6851.00    0.45869   0.43548   21.801
 6852.00    0.40181   0.43507   24.558
 6853.00    0.35752   0.43464   24.558
 6854.00    0.37996   0.43420   24.558
 6855.00    0.42955   0.43385   23.280
 6856.00    0.44560   0.43359   22.441
 6857.00    0.42603   0.43339   23.473
 6858.00    0.39715   0.43330   24.558
 6859.00    0.37920   0.43327   24.558
 6860.00    0.38279   0.43333   24.558
 6861.00    0.40812   0.43340   24.502
 6862.00    0.44385   0.43354   22.530
 6863.00    0.46860   0.43358   21.340
 6864.00    0.46641   0.43366   21.441
 6865.00    0.43682   0.43359   22.893
 6866.00    0.39447   0.43360   24.558
 6867.00    0.36451   0.43352   24.558
 6868.00    0.36207   0.43348   24.558
 6869.00    0.38288   0.43347   24.558
 6870.00    0.40983   0.43347   24.401
 6871.00    0.42224   0.43354   23.683
 6872.00    0.41993   0.43362   23.814
 6873.00    0.42337   0.43379   23.620
 6874.00    0.43849   0.43391   22.805
 6875.00    0.45246   0.43405   22.102
 6876.00    0.46271   0.43413   21.612
 6877.00    0.47640   0.43415   20.991
 6878.00    0.48099   0.43415   20.790
 6879.00    0.45489   0.43403   21.983
 6880.00    0.41639   0.43399   24.016
 6881.00    0.40865   0.43386   24.471
 6882.00    0.43616   0.43389   22.928
 6883.00    0.46881   0.43390   21.331
 6884.00    0.48146   0.43405   20.770
 6885.00    0.46703   0.43421   21.412
 6886.00    0.44394   0.43447   22.526
 6887.00    0.43688   0.43473   22.890
 6888.00    0.44386   0.43502   22.530
 6889.00    0.44669   0.43525   22.387
 6890.00    0.43453   0.43543   23.014
 6891.00    0.40647   0.43557   24.558
 6892.00    0.37063   0.43561   24.558
 6893.00    0.34552   0.43564   24.558
 6894.00    0.35918   0.43559   24.558
 6895.00    0.41633   0.43556   24.020
 6896.00    0.46935   0.43551   21.306
 6897.00    0.47507   0.43547   21.049
 6898.00    0.44745   0.43547   22.349
 6899.00    0.42250   0.43549   23.669
 6900.00    0.42258   0.43554   23.664
 6901.00    0.44181   0.43562   22.634
 6902.00    0.44493   0.43571   22.476
 6903.00    0.42273   0.43575   23.656
 6904.00    0.41775   0.43579   23.938
 6905.00    0.44816   0.43573   22.314
 6906.00    0.47392   0.43563   21.100
 6907.00    0.47277   0.43541   21.152
 6908.00    0.46913   0.43509   21.316
 6909.00    0.46729   0.43470   21.400
 6910.00    0.43708   0.43425   22.879
 6911.00    0.39578   0.43376   24.558
 6912.00    0.41049   0.43331   24.361
 6913.00    0.47053   0.43288   21.252
 6914.00    0.48604   0.43256   20.574
 6915.00    0.45223   0.43235   22.113
 6916.00    0.45031   0.43221   22.207
 6917.00    0.47625   0.43217   20.997
 6918.00    0.45061   0.43219   22.192
 6919.00    0.38860   0.43222   24.558
 6920.00    0.37798   0.43232   24.558
 6921.00    0.41346   0.43234   24.186
 6922.00    0.41978   0.43243   23.822
 6923.00    0.38893   0.43244   24.558
 6924.00    0.37225   0.43254   24.558
 6925.00    0.40543   0.43260   24.558
 6926.00    0.48002   0.43268   20.832
 6927.00    0.52411   0.43277   19.080
 6928.00    0.47775   0.43280   20.932
 6929.00    0.40752   0.43286   24.538
 6930.00    0.41133   0.43285   24.311
 6931.00    0.46752   0.43287   21.389
 6932.00    0.49924   0.43285   20.031
 6933.00    0.47918   0.43282   20.869
 6934.00    0.42803   0.43279   23.363
 6935.00    0.39468   0.43269   24.558
 6936.00    0.40884   0.43261   24.460
 6937.00    0.44148   0.43247   22.651
 6938.00    0.45691   0.43233   21.886
 6939.00    0.45882   0.43214   21.795
 6940.00    0.45862   0.43195   21.805
 6941.00    0.45011   0.43174   22.217
 6942.00    0.43156   0.43154   23.172
 6943.00    0.41929   0.43142   23.850
 6944.00    0.42478   0.43131   23.542
 6945.00    0.44067   0.43130   22.693
 6946.00    0.44851   0.43130   22.296
 6947.00    0.43095   0.43135   23.205
 6948.00    0.40729   0.43137   24.553
 6949.00    0.43088   0.43145   23.208
 6950.00    0.49691   0.43149   20.124
 6951.00    0.52887   0.43158   18.908
 6952.00    0.49465   0.43164   20.216
 6953.00    0.43501   0.43175   22.988
 6954.00    0.39155   0.43184   24.558
 6955.00    0.37964   0.43198   24.558
 6956.00    0.38999   0.43212   24.558
 6957.00    0.40240   0.43227   24.558
 6958.00    0.42183   0.43243   23.706
 6959.00    0.46627   0.43259   21.447
 6960.00    0.51085   0.43274   19.575
 6961.00    0.50778   0.43287   19.694
 6962.00    0.46317   0.43297   21.590
 6963.00    0.42517   0.43306   23.520
 6964.00    0.42368   0.43307   23.603
 6965.00    0.45365   0.43308   22.043
 6966.00    0.46998   0.43296   21.278
 6967.00    0.43265   0.43280   23.113
 6968.00    0.37759   0.43249   24.558
 6969.00    0.36301   0.43209   24.558
 6970.00    0.37833   0.43156   24.558
 6971.00    0.38539   0.43093   24.558
 6972.00    0.38673   0.43023   24.558
 6973.00    0.40270   0.42947   24.558
 6974.00    0.43445   0.42878   23.018
 6975.00    0.45903   0.42812   21.785
 6976.00    0.43637   0.42771   22.916
 6977.00    0.38578   0.42749   24.558
 6978.00    0.43353   0.42753   23.066
 6979.00    0.60572   0.42779   16.509
 6980.00    0.69294   0.42822   -1.000
 6981.00    0.57575   0.42878   17.369
 6982.00    0.43093   0.42934   23.206
 6983.00    0.41139   0.42994   24.308
 6984.00    0.45182   0.43044   22.133
 6985.00    0.45792   0.43087   21.838
 6986.00    0.42067   0.43116   23.772
 6987.00    0.37717   0.43139   -2.000
 6988.00    0.37455   0.43151   -2.000
 6989.00    0.41463   0.43157   -2.000
 6990.00    0.44839   0.43158   -2.000
 6991.00    0.46201   0.43148   -2.000
 6992.00    0.49129   0.43138   -2.000
 6993.00    0.53572   0.43116   -2.000
 6994.00    0.54865   0.43095   -2.000
 6995.00    0.51598   0.43061   -2.000
 6996.00    0.46892   0.43026   -2.000
 6997.00    0.43946   0.42982   -2.000
 6998.00    0.44254   0.42943   -2.000
 6999.00    0.46687   0.42900   -2.000
 7000.00    0.48773   0.42865   -2.000
 7001.00    0.50228   0.42827   -2.000
 7002.00    0.52202   0.42801   -2.000
 7003.00    0.53899   0.42776   -2.000
 7004.00    0.53376   0.42761   -2.000
 7005.00    0.50420   0.42748   -2.000
 7006.00    0.46879   0.42740   -2.000
 7007.00    0.46094   0.42728   -2.000
 7008.00    0.49507   0.42716   -2.000
 7009.00    0.52143   0.42696   -2.000
 7010.00    0.49688   0.42677   -2.000
 7011.00    0.48237   0.42651   -2.000
 7012.00    0.53608   0.42625   -2.000
 7013.00    0.57898   0.42598   -2.000
 7014.00    0.53125   0.42577   -2.000
 7015.00    0.46486   0.42572   -2.000
 7016.00    0.46344   0.42569   -2.000
 7017.00    0.48175   0.42583   -2.000
 7018.00    0.45823   0.42593   -2.000
 7019.00    0.41696   0.42616   -2.000
 7020.00    0.40178   0.42634   -2.000
 7021.00    0.41909   0.42660   -2.000
 7022.00    0.44605   0.42682   -2.000
 7023.00    0.44619   0.42711   -2.000
 7024.00    0.41349   0.42734   -2.000
 7025.00    0.38773   0.42762   -2.000
 7026.00    0.38624   0.42786   -2.000
 7027.00    0.37978   0.42811   -2.000
 7028.00    0.36786   0.42832   -2.000
 7029.00    0.39540   0.42851   -2.000
 7030.00    0.45573   0.42866   -2.000
 7031.00    0.47696   0.42878   -2.000
 7032.00    0.44267   0.42890   -2.000
 7033.00    0.41097   0.42905   -2.000
 7034.00    0.40841   0.42925   -2.000
 7035.00    0.41161   0.42950   -2.000
 7036.00    0.41141   0.42988   -2.000
 7037.00    0.42013   0.43042   -2.000
 7038.00    0.43353   0.43102   -2.000
 7039.00    0.43528   0.43172   -2.000
 7040.00    0.43478   0.43239   -2.000
 7041.00    0.45342   0.43305   -2.000
 7042.00    0.47372   0.43357   -2.000
 7043.00    0.46104   0.43401   -2.000
 7044.00    0.42821   0.43419   -2.000
 7045.00    0.41797   0.43424   -2.000
 7046.00    0.44897   0.43395   -2.000
 7047.00    0.51892   0.43351   -2.000
 7048.00    0.62375   0.43280   -2.000
 7049.00    0.73201   0.43195   -2.000
 7050.00    0.75075   0.43088   -2.000
 7051.00    0.62395   0.42983   -2.000
 7052.00    0.45351   0.42866   -2.000
 7053.00    0.36946   0.42759   -2.000
 7054.00    0.37094   0.42650   -2.000
 7055.00    0.39782   0.42555   -2.000
 7056.00    0.42372   0.42463   -2.000
 7057.00    0.47260   0.42386   -2.000
 7058.00    0.60995   0.42318   -2.000
 7059.00    0.80336   0.42265   -2.000
 7060.00    0.84994   0.42219   -2.000
 7061.00    0.69473   0.42186   -2.000
 7062.00    0.60340   0.42160   -2.000
 7063.00    0.70958   0.42142   -2.000
 7064.00    0.78137   0.42134   -2.000
 7065.00    0.66255   0.42131   -2.000
 7066.00    0.48810   0.42141   -2.000
 7067.00    0.39328   0.42159   -2.000
 7068.00    0.37233   0.42183   -2.000
 7069.00    0.37270   0.42211   -2.000
 7070.00    0.35371   0.42241   -2.000
 7071.00    0.32896   0.42268   -2.000
 7072.00    0.35316   0.42289   -2.000
 7073.00    0.41270   0.42297   -2.000
 7074.00    0.42821   0.42291   -2.000
 7075.00    0.39811   0.42267   -2.000
 7076.00    0.39811   0.42224   -2.000
 7077.00    0.43767   0.42157   -2.000
 7078.00    0.45763   0.42070   -2.000
 7079.00    0.43718   0.41959   -2.000
 7080.00    0.40479   0.41830   -2.000
 7081.00    0.39480   0.41684   -2.000
 7082.00    0.42005   0.41527   -2.000
 7083.00    0.43955   0.41372   -2.000
 7084.00    0.40553   0.41210   -2.000
 7085.00    0.35993   0.41062   -2.000
 7086.00    0.37360   0.40916   -2.000
 7087.00    0.41916   0.40797   -2.000
 7088.00    0.42937   0.40684   -2.000
 7089.00    0.41296   0.40609   -2.000
 7090.00    0.41381   0.40544   -2.000
 7091.00    0.43629   0.40512   -2.000
 7092.00    0.48014   0.40503   -2.000
 7093.00    0.58706   0.40510   -2.000
 7094.00    0.75892   0.40555   -2.000
 7095.00    0.87511   0.40591   -2.000
 7096.00    0.80500   0.40679   -2.000
 7097.00    0.53020   0.40734   -2.000
 7098.00    0.19666   0.40832   -2.000
 7099.00    0.10491   0.40891   -2.000
 7100.00    0.34159   0.40978   -2.000
 7101.00    0.56905   0.41029   -2.000
 7102.00    0.55087   0.41090   -2.000
 7103.00    0.46149   0.41123   -2.000
 7104.00    0.47206   0.41155   -2.000
 7105.00    0.51792   0.41170   -2.000
 7106.00    0.50905   0.41182   -2.000
 7107.00    0.44540   0.41186   -2.000
 7108.00    0.36995   0.41190   -2.000
 7109.00    0.33444   0.41195   -2.000
 7110.00    0.36439   0.41205   -2.000
 7111.00    0.44273   0.41217   -2.000
 7112.00    0.50661   0.41234   -2.000
 7113.00    0.49063   0.41250   -2.000
 7114.00    0.47451   0.41269   -2.000
 7115.00    0.61578   0.41281   -2.000
 7116.00    0.79207   0.41290   -2.000
 7117.00    0.70133   0.41286   -2.000
 7118.00    0.43599   0.41276   -2.000
 7119.00    0.37329   0.41250   -2.000
 7120.00    0.51831   0.41218   -2.000
 7121.00    0.58413   0.41173   -2.000
 7122.00    0.52545   0.41119   -2.000
 7123.00    0.49078   0.41061   -2.000
 7124.00    0.49807   0.40997   -2.000
 7125.00    0.47063   0.40939   -2.000
 7126.00    0.41112   0.40880   -2.000
 7127.00    0.37552   0.40836   -2.000
 7128.00    0.38375   0.40796   -2.000
 7129.00    0.40780   0.40778   -2.000
 7130.00    0.38192   0.40770   -2.000
 7131.00    0.30925   0.40777   -2.000
 7132.00    0.37223   0.40797   -2.000
 7133.00    0.66244   0.40820   -2.000
 7134.00    0.89622   0.40856   -2.000
 7135.00    0.79998   0.40881   -2.000
 7136.00    0.50088   0.40916   -2.000
 7137.00    0.25378   0.40931   -2.000
 7138.00    0.16551   0.40953   -2.000
 7139.00    0.22926   0.40952   -2.000
 7140.00    0.37366   0.40955   -2.000
 7141.00    0.48543   0.40940   -2.000
 7142.00    0.44944   0.40929   -2.000
 7143.00    0.31645   0.40906   -2.000
 7144.00    0.33846   0.40896   -2.000
 7145.00    0.55187   0.40882   -2.000
 7146.00    0.64236   0.40890   -2.000
 7147.00    0.51015   0.40902   -2.000
 7148.00    0.44128   0.40936   -2.000
 7149.00    0.52008   0.40974   -2.000
 7150.00    0.48754   0.41029   -2.000
 7151.00    0.30128   0.41083   -2.000
 7152.00    0.22804   0.41141   -2.000
 7153.00    0.32327   0.41190   -2.000
 7154.00    0.37859   0.41228   -2.000
 7155.00    0.38260   0.41250   -2.000
 7156.00    0.52135   0.41250   -2.000
 7157.00    0.73864   0.41238   -2.000
 7158.00    0.77902   0.41198   -2.000
 7159.00    0.62865   0.41156   -2.000
 7160.00    0.46416   0.41089   -2.000
 7161.00    0.27464   0.41038   -2.000
 7162.00    0.00354   0.40975   -2.000
 7163.00    0.00138   0.40937   -2.000
 7164.00    0.59810   0.40897   -2.000
 7165.00    1.19103   0.40884   -2.000
 7166.00    0.96787   0.40875   -2.000
 7167.00    0.31603   0.40885   -2.000
 7168.00    0.09842   0.40899   -2.000
 7169.00    0.28623   0.40917   -2.000
 7170.00    0.40658   0.40932   -2.000
 7171.00    0.37863   0.40939   -2.000
 7172.00    0.35721   0.40941   -2.000
 7173.00    0.41948   0.40928   -2.000
 7174.00    0.53345   0.40910   -2.000
 7175.00    0.57698   0.40876   -2.000
 7176.00    0.49410   0.40842   -2.000
 7177.00    0.41626   0.40798   -2.000
 7178.00    0.43433   0.40760   -2.000
 7179.00    0.42813   0.40716   -2.000
 7180.00    0.32213   0.40679   -2.000
 7181.00    0.25513   0.40640   -2.000
 7182.00    0.33664   0.40606   -2.000
 7183.00    0.49792   0.40573   -2.000
 7184.00    0.65019   0.40549   -2.000
 7185.00    0.76691   0.40526   -2.000
 7186.00    0.77513   0.40515   -2.000
 7187.00    0.54931   0.40505   -2.000
 7188.00    0.17468   0.40507   -2.000
 7189.00   -0.02959   0.40512   -2.000
 7190.00    0.03938   0.40528   -2.000
 7191.00    0.17567   0.40544   -2.000
 7192.00    0.26893   0.40563   -2.000
 7193.00    0.38379   0.40584   -2.000
 7194.00    0.48459   0.40598   -2.000
 7195.00    0.43785   0.40612   -2.000
 7196.00    0.30942   0.40613   -2.000
 7197.00    0.31294   0.40615   -2.000
 7198.00    0.42666   0.40602   -2.000
 7199.00    0.44652   0.40592   -2.000
 7200.00    0.36605   0.40567   -2.000
 7201.00    0.33419   0.40547   -2.000
 7202.00    0.36440   0.40515   -2.000
 7203.00    0.36980   0.40493   -2.000
 7204.00    0.35160   0.40470   -2.000
 7205.00    0.36817   0.40458   -2.000
 7206.00    0.41993   0.40454   -2.000
 7207.00    0.46656   0.40460   -2.000
 7208.00    0.48464   0.40479   -2.000
 7209.00    0.47270   0.40507   -2.000
 7210.00    0.44502   0.40547   -2.000
 7211.00    0.41813   0.40592   -2.000
 7212.00    0.39596   0.40642   -2.000
 7213.00    0.38206   0.40693   -2.000
 7214.00    0.39476   0.40742   -2.000
 7215.00    0.46599   0.40791   -2.000
 7216.00    0.62778   0.40835   -2.000
 7217.00    0.80988   0.40877   -2.000
 7218.00    0.78756   0.40916   -2.000
