###################################################################
## OUTPUT of StarlightChains_v04.for    [Cid@UFSC - 01/Apr/2007] ##
###################################################################

## Some input info
2011bm.txt                               [arq_obs]
Base.CB07.vall.4m                        [arq_base]
Masks.EmLines.NEW.gm                     [arq_masks]
StCv04.C11.config                        [arq_config]
   66                                    [N_base]
    0                                    [N_YAV_components = # of components with extra extinction!]
    0                                    [i_FitPowerLaw (1/0 = Yes/No)]
-9.99                                    [alpha_PowerLaw]
CCM                                      [red_law_option]
 1.458241                                [q_norm = A(l_norm)/A(V)]

## (Re)Sampling Parameters
 3741.00                                 [l_ini (A)]
 7218.00                                 [l_fin (A)]
    1.00                                 [dl    (A)]     (OBS: dl_cushion =    50.00 A)

## Normalization info
 4020.00                                 [l_norm (A) - for base]
 4010.00                                 [llow_norm (A) - window for f_obs]
 4060.00                                 [lupp_norm (A) - window for f_obs]
6.431571E-17                             [fobs_norm (in input units)]

## S/N
 3691.00                                 [llow_SN (A) - window for S/N]
 7268.00                                 [lupp_SN (A) - window for S/N]
   3.698                                 [S/N in S/N window]
   5.570                                 [S/N in norm. window]
  12.281                                 [S/N_err in S/N window]
  18.496                                 [S/N_err in norm. window]
  1.0000                                 [fscale_chi2]

## etc...
    -2007371                             [idum_orig]
  2385                                   [NOl_eff]
  2379                                   [Nl_eff]
     6    NSIGMA                         [Ntot_cliped & clip_method]
  1792140                                [Nglobal_steps]
   7                                     [N_chains]
  30                                     [NEX0s_base = N_base in EX0s-fits]
 0   0   1        0   2.0   3.741E+01    [Clip-Bug, RC-Crash & Burn-In warning-flags, n_censored_weights, wei_nsig_threshold & wei_limit]
    16     15.913     15.407      0.506  [idt_all, wdt_TotTime, wdt_UsrTime & wdt_SysTime (sec)]

## Synthesis Results - Best model ##

 3.06006E-01                             [chi2/Nl_eff]
     3.38724                             [adev (%)]

   103.31364                             [sum-of-x (%)]
 8.00307E-17                             [Flux_tot (units of input spectrum!)]
 1.39365E-13                             [Mini_tot (???)]
 7.88409E-14                             [Mcor_tot (???)]

  60.99                                  [v0_min  (km/s)]
 259.78                                  [vd_min  (km/s)]
 0.1385                                  [AV_min  (mag)]
 0.0000                                  [YAV_min (mag)]

# j     x_j(%)      Mini_j(%)     Mcor_j(%)     age_j(yr)     Z_j      (L/M)_j    YAV?  Mstars   component_j        a/Fe...       SSP_chi2r SSP_adev(%)   SSP_AV   SSP_x(%)
  1      4.0237     2.0444E-01    3.6138E-01    1.000000E+06  0.00400  1.094E-02    0   1.0000   age020_m42            0.0000     6.6828E-01     5.2818   1.8810    89.3515
  2      0.0162     2.2414E-04    3.9617E-04    3.160000E+06  0.00400  4.007E-02    0   0.9999   age045_m42            0.0000     5.4592E-01     4.6233   1.1337    96.6437
  3      0.0023     5.0101E-05    8.4028E-05    5.010000E+06  0.00400  2.539E-02    0   0.9488   age055_m42            0.0000     5.5994E-01     4.7247   1.4603    93.9097
  4      0.0000     0.0000E+00    0.0000E+00    6.610000E+06  0.00400  2.620E-02    0   0.9220   age061_m42            0.0000     5.2333E-01     4.4955   1.0560    97.0874
  5      0.2531     1.0640E-02    1.6667E-02    1.000000E+07  0.00400  1.322E-02    0   0.8862   age070_m42            0.0000     3.6090E-01     3.6604   0.7596    99.9769
  6      0.1499     1.0569E-02    1.6013E-02    1.445000E+07  0.00400  7.883E-03    0   0.8571   age078_m42            0.0000     3.9022E-01     3.8338   1.0948    97.0182
  7      0.0000     0.0000E+00    0.0000E+00    2.512000E+07  0.00400  5.251E-03    0   0.8174   age090_m42            0.0000     3.4967E-01     3.5961   0.6249   100.7969
  8      3.8797     5.9097E-01    8.2015E-01    4.000000E+07  0.00400  3.649E-03    0   0.7851   age104_m42            0.0000     3.5107E-01     3.6086   0.3948   101.7816
  9      0.0000     0.0000E+00    0.0000E+00    5.500000E+07  0.00400  3.098E-03    0   0.7629   age110_m42            0.0000     4.3135E-01     3.9602   0.5521   101.5851
 10      0.0000     0.0000E+00    0.0000E+00    1.015200E+08  0.00400  2.228E-03    0   0.7207   age116_m42            0.0000     5.2556E-01     4.3036   0.5741   101.6802
 11      0.0116     5.9061E-03    6.9406E-03    2.861200E+08  0.00400  1.093E-03    0   0.6648   age125_m42            0.0000     5.4087E-01     4.2929  -0.0020   105.3089
 12      0.0000     0.0000E+00    0.0000E+00    5.088000E+08  0.00400  6.597E-04    0   0.6365   age130_m42            0.0000     6.8694E-01     4.6855  -0.0081   105.9223
 13      0.0000     0.0000E+00    0.0000E+00    1.434000E+09  0.00400  2.132E-04    0   0.5798   age139_m42            0.0000     7.2406E-01     4.9694  -0.9799   107.9610
 14      0.0000     0.0000E+00    0.0000E+00    4.250000E+09  0.00400  5.895E-05    0   0.5377   age158_m42            0.0000     1.6041E+00     7.8198  -1.0000    86.6247
 15      0.0000     0.0000E+00    0.0000E+00    7.500000E+09  0.00400  3.510E-05    0   0.5212   age171_m42            0.0000     2.5306E+00    10.1146  -1.0000    79.1083
 16      0.0000     0.0000E+00    0.0000E+00    1.300000E+10  0.00400  2.005E-05    0   0.5034   age193_m42            0.0000     3.5267E+00    12.2094  -1.0000    72.9593
 17      1.0593     3.8611E+01    3.3901E+01    1.800000E+10  0.00400  1.525E-05    0   0.4967   age213_m42            0.0000     3.6603E+00    12.5274  -1.0000    71.8417
 18      3.7344     1.6767E-01    2.9638E-01    1.000000E+06  0.00800  1.238E-02    0   1.0000   age020_m52            0.0000     6.6906E-01     5.2869   1.8773    89.5229
 19      0.6074     1.0983E-02    1.9349E-02    3.160000E+06  0.00800  3.074E-02    0   0.9966   age045_m52            0.0000     6.5759E-01     5.2311   1.7983    90.4131
 20      0.0000     0.0000E+00    0.0000E+00    5.010000E+06  0.00800  2.668E-02    0   0.9443   age055_m52            0.0000     5.6123E-01     4.7508   1.5448    92.9559
 21     43.7799     1.1392E+00    1.8481E+00    6.610000E+06  0.00800  2.136E-02    0   0.9177   age061_m52            0.0000     3.2912E-01     3.5486   0.2648   100.8058
 22      0.8488     3.8828E-02    6.0585E-02    1.000000E+07  0.00800  1.215E-02    0   0.8827   age070_m52            0.0000     3.5410E-01     3.6289   0.9395    99.7628
 23      0.0000     0.0000E+00    0.0000E+00    1.445000E+07  0.00800  8.717E-03    0   0.8552   age078_m52            0.0000     3.7277E-01     3.7370   1.0566    98.5330
 24      1.0133     1.0072E-01    1.4531E-01    2.512000E+07  0.00800  5.592E-03    0   0.8162   age090_m52            0.0000     3.4990E-01     3.6033   0.6865   102.1238
 25      2.3556     3.3607E-01    4.6580E-01    4.000000E+07  0.00800  3.896E-03    0   0.7841   age104_m52            0.0000     3.6979E-01     3.6934   0.5989   102.9568
 26      0.0000     0.0000E+00    0.0000E+00    1.015200E+08  0.00800  2.148E-03    0   0.7226   age116_m52            0.0000     4.5047E-01     3.9872   0.5398   102.6438
 27      0.0171     9.5814E-03    1.1319E-02    2.861200E+08  0.00800  9.925E-04    0   0.6683   age125_m52            0.0000     6.8297E-01     4.6193   0.0558   106.9621
 28      2.7887     4.9349E+00    5.3543E+00    9.047900E+08  0.00800  3.141E-04    0   0.6138   age135_m52            0.0000     9.1276E-01     5.4938  -0.7333   110.9352
 29      0.0000     0.0000E+00    0.0000E+00    1.434000E+09  0.00800  1.719E-04    0   0.5853   age139_m52            0.0000     1.3397E+00     6.9211  -1.0000    95.1386
 30      0.0000     0.0000E+00    0.0000E+00    2.500000E+09  0.00800  7.872E-05    0   0.5600   age150_m52            0.0000     2.5316E+00     9.9548  -1.0000    82.0980
 31      1.6597     2.1275E+01    2.0406E+01    4.250000E+09  0.00800  4.336E-05    0   0.5426   age158_m52            0.0000     2.6033E+00    10.0933  -1.0000    80.7618
 32      0.0000     0.0000E+00    0.0000E+00    6.250000E+09  0.00800  3.159E-05    0   0.5319   age166_m52            0.0000     3.8889E+00    12.6227  -1.0000    73.5988
 33      0.0000     0.0000E+00    0.0000E+00    1.300000E+10  0.00800  1.361E-05    0   0.5073   age193_m52            0.0000     7.4523E+00    18.5399  -1.0000    58.4613
 34      0.0000     0.0000E+00    0.0000E+00    1.800000E+10  0.00800  9.886E-06    0   0.4990   age213_m52            0.0000     8.4006E+00    19.6614  -1.0000    55.2239
 35      1.1757     4.2324E-02    7.4815E-02    1.000000E+06  0.02000  1.544E-02    0   1.0000   age020_m62            0.0000     6.7601E-01     5.3186   1.8736    89.7113
 36      0.0000     0.0000E+00    0.0000E+00    3.160000E+06  0.02000  3.762E-02    0   0.9858   age045_m62            0.0000     6.7888E-01     5.3250   1.8124    90.5116
 37      0.0000     0.0000E+00    0.0000E+00    5.010000E+06  0.02000  3.296E-02    0   0.9342   age055_m62            0.0000     5.7195E-01     4.7700   1.4169    95.2330
 38     16.6782     8.0332E-01    1.2583E+00    8.710000E+06  0.02000  1.154E-02    0   0.8861   age067_m62            0.0000     7.2134E-01     5.2224   0.3752   103.5218
 39      0.0112     8.1122E-04    1.2149E-03    1.445000E+07  0.02000  7.663E-03    0   0.8472   age078_m62            0.0000     3.7975E-01     3.7750   0.5801   102.4570
 40      0.0000     0.0000E+00    0.0000E+00    2.512000E+07  0.02000  4.532E-03    0   0.8099   age090_m62            0.0000     4.1045E-01     3.9169   0.5685   102.4137
 41      0.0000     0.0000E+00    0.0000E+00    5.500000E+07  0.02000  2.733E-03    0   0.7595   age110_m62            0.0000     3.6794E-01     3.6625   0.5820   102.1590
 42      0.0044     1.7847E-03    2.2036E-03    1.609000E+08  0.02000  1.369E-03    0   0.6985   age120_m62            0.0000     5.7078E-01     4.2853   0.4187   105.1162
 43      0.0000     0.0000E+00    0.0000E+00    2.861200E+08  0.02000  9.013E-04    0   0.6714   age125_m62            0.0000     7.7824E-01     4.8137   0.1653   108.2766
 44      0.0000     0.0000E+00    0.0000E+00    5.088000E+08  0.02000  5.028E-04    0   0.6449   age130_m62            0.0000     1.0258E+00     5.6367  -0.2009   110.5661
 45      2.5671     5.8767E+00    6.4188E+00    9.047900E+08  0.02000  2.428E-04    0   0.6179   age135_m62            0.0000     9.9074E-01     5.8360  -0.7775   109.4178
 46      0.9000     3.9610E+00    4.1366E+00    1.434000E+09  0.02000  1.263E-04    0   0.5908   age139_m62            0.0000     1.2690E+00     6.5102  -1.0000    98.1934
 47      0.0000     0.0000E+00    0.0000E+00    2.500000E+09  0.02000  5.985E-05    0   0.5673   age150_m62            0.0000     2.7660E+00    10.2075  -1.0000    82.3806
 48      0.0000     0.0000E+00    0.0000E+00    4.250000E+09  0.02000  3.271E-05    0   0.5468   age158_m62            0.0000     4.7597E+00    13.8931  -1.0000    70.9409
 49      0.0000     0.0000E+00    0.0000E+00    1.000000E+10  0.02000  1.360E-05    0   0.5167   age181_m62            0.0000     7.5128E+00    18.0882  -1.0000    59.8608
 50      0.0000     0.0000E+00    0.0000E+00    1.800000E+10  0.02000  7.124E-06    0   0.5013   age213_m62            0.0000     9.3094E+00    20.3950  -1.0000    53.6505
 51      2.3553     5.0507E-02    8.9262E-02    1.000000E+06  0.05000  2.592E-02    0   0.9998   age020_m72            0.0000     6.9124E-01     5.3860   1.8668    89.6521
 52      0.0000     0.0000E+00    0.0000E+00    3.160000E+06  0.05000  4.845E-02    0   0.9577   age045_m72            0.0000     6.4474E-01     5.1382   1.6887    92.0310
 53      0.0000     0.0000E+00    0.0000E+00    5.010000E+06  0.05000  3.072E-02    0   0.9147   age055_m72            0.0000     4.4177E-01     4.1503   1.1907    97.4254
 54      0.0000     0.0000E+00    0.0000E+00    6.610000E+06  0.05000  1.455E-02    0   0.8877   age061_m72            0.0000     1.4471E+00     7.5195   0.4333   104.6018
 55      0.0000     0.0000E+00    0.0000E+00    1.000000E+07  0.05000  9.074E-03    0   0.8524   age070_m72            0.0000     5.9322E-01     4.8401   1.3881    96.8771
 56      0.0000     0.0000E+00    0.0000E+00    2.512000E+07  0.05000  4.250E-03    0   0.7902   age090_m72            0.0000     4.7255E-01     4.2831   1.0637    99.6435
 57      0.0000     0.0000E+00    0.0000E+00    4.000000E+07  0.05000  3.087E-03    0   0.7618   age104_m72            0.0000     4.9789E-01     4.3892   0.8254   101.8245
 58      0.0015     4.8311E-04    6.0598E-04    1.015200E+08  0.05000  1.700E-03    0   0.7096   age116_m72            0.0000     5.2648E-01     4.1923   0.5583   104.8772
 59      4.0898     3.0786E+00    3.6097E+00    2.861200E+08  0.05000  7.384E-04    0   0.6633   age125_m72            0.0000     9.1480E-01     5.2032   0.0380   109.5162
 60      6.5585     9.5455E+00    1.0752E+01    5.088000E+08  0.05000  3.819E-04    0   0.6372   age130_m72            0.0000     1.0200E+00     5.8450  -0.4451   110.7216
 61      2.7715     9.1915E+00    9.9273E+00    9.047900E+08  0.05000  1.676E-04    0   0.6110   age135_m72            0.0000     1.3640E+00     7.0019  -1.0000   102.4409
 62      0.0000     0.0000E+00    0.0000E+00    1.434000E+09  0.05000  8.837E-05    0   0.5874   age139_m72            0.0000     2.8818E+00    10.3853  -1.0000    83.5528
 63      0.0000     0.0000E+00    0.0000E+00    2.500000E+09  0.05000  4.233E-05    0   0.5598   age150_m72            0.0000     4.8640E+00    13.9253  -1.0000    71.5386
 64      0.0000     0.0000E+00    0.0000E+00    6.250000E+09  0.05000  1.435E-05    0   0.5249   age166_m72            0.0000     8.3200E+00    19.2111  -1.0000    56.8668
 65      0.0000     0.0000E+00    0.0000E+00    1.300000E+10  0.05000  6.513E-06    0   0.5036   age193_m72            0.0000     1.0765E+01    22.1857  -1.0000    50.0663
 66      0.0000     0.0000E+00    0.0000E+00    1.800000E+10  0.05000  4.527E-06    0   0.4945   age213_m72            0.0000     1.2197E+01    23.7857  -1.0000    46.1495


## Synthesis Results - Average & Chains ##

# j      x_j: min, <> & last-chain-values for 1 ...  7 chains
  1      4.0237      0.8939      2.1426      2.8177      0.0000      0.0000      1.6071      1.3452      3.6553
  2      0.0162      0.4836      0.0000      0.6769      1.3987      0.0000      0.0000      0.0000      0.0000
  3      0.0023      0.8999      3.7429      1.1068      0.8834      0.9014      1.8494      4.0545      1.0879
  4      0.0000      0.5079      0.0000      0.0000      0.0000      0.0000      0.0000      0.0000      0.0000
  5      0.2531      0.8254      1.4565      1.1651      0.1046      0.0000      0.0000      3.8472      0.0000
  6      0.1499      0.5011      0.2072      1.3152      0.3760      1.7031      0.4628      0.0000      0.1523
  7      0.0000      1.6585      4.3384      0.0000      1.4848      2.3758      0.0384      0.9745      3.0149
  8      3.8797      3.3826      6.5773      2.7487      1.1394      2.5243      4.9223      0.0000      0.1976
  9      0.0000      1.5680      0.3188      0.0000      0.2657      3.2454      0.0000      0.0000      3.1250
 10      0.0000      0.7748      0.1424      0.0000      3.0643      0.0000      0.0000      2.3908      0.0000
 11      0.0116      1.1574      0.0000      1.5622      0.2454      0.0000      0.0000      0.9007      0.0000
 12      0.0000      0.9431      0.0000      0.0000      0.0000      0.0000      0.0000      0.9866      0.0000
 13      0.0000      0.6127      0.0000      0.1919      0.7168      1.7144      0.6308      0.0127      0.5037
 14      0.0000      0.3239      0.0000      0.0000      0.0000      0.0000      0.8186      0.8044      1.9473
 15      0.0000      0.0625      0.0000      0.0000      0.0000      0.0000      0.4703      0.5994      0.0000
 16      0.0000      0.0219      0.4058      0.0000      0.0000      0.0000      0.0476      0.0000      0.0000
 17      1.0593      0.4821      1.6046      0.4557      0.9765      1.2428      0.0000      0.3584      0.0000
 18      3.7344      0.6982      0.0522      3.3953      0.0000      0.4881      1.7830      0.7685      0.0000
 19      0.6074      1.7344      1.5052      1.4860      0.7960      0.0000      0.8302      1.8958      0.0000
 20      0.0000      0.3211      1.1361      0.0000      0.0000      0.0000      0.0000      0.0000      0.6717
 21     43.7799     39.3222     37.3993     37.8007     48.2437     49.4349     40.2796     40.1906     42.5797
 22      0.8488      1.3492      1.4897      5.6063      3.2055      1.1517      0.0000      0.0000      0.0000
 23      0.0000      0.5543      0.0608      0.0000      2.9833      0.0000      0.0000      1.1354      3.1357
 24      1.0133      1.5130      2.7158      1.9314      1.7846      0.0000      4.9870      2.5139      0.6796
 25      2.3556      0.9520      2.0196      0.7160      0.0000      0.0000      0.0000      0.0000      2.2891
 26      0.0000      1.2894      0.0000      0.0000      0.0000      0.3531      0.0000      0.0000      0.0000
 27      0.0171      1.1978      0.0388      1.2773      0.0000      0.6340      0.0000      1.1852      0.0000
 28      2.7887      0.3718      0.0000      1.3417      0.0000      0.0000      1.0157      0.2937      0.0000
 29      0.0000      0.9032      1.6310      0.0000      1.1988      0.0000      1.1326      0.9773      0.0000
 30      0.0000      0.1776      0.8422      0.4555      0.0000      0.0000      0.0000      0.0000      0.4368
 31      1.6597      0.3674      0.8115      0.5716      0.0000      0.3492      0.6410      0.8881      0.0000
 32      0.0000      0.0941      0.0000      0.0000      0.0000      0.0000      0.0000      0.0000      0.5962
 33      0.0000      0.0251      0.0000      0.0000      0.0000      0.0000      0.1046      0.0000      0.1281
 34      0.0000      0.0160      0.0116      0.0255      0.0000      0.0000      0.0000      0.1390      0.0000
 35      1.1757      0.7520      0.0000      2.6299      0.0000      0.0000      0.0000      1.3437      0.0000
 36      0.0000      0.6178      0.7355      0.0000      0.5357      0.0000      1.2681      0.0000      3.7535
 37      0.0000      1.1514      0.5127      0.6933      0.0000      5.1071      0.0000      0.0000      0.0000
 38     16.6782     13.8195     10.9110      9.4787     18.0723     14.4799     13.5942     13.5884     13.0855
 39      0.0112      2.1472      2.6568      5.0139      1.7617      2.5930      4.2928      4.7789      0.0000
 40      0.0000      1.2864      0.5478      0.0000      0.0000      1.4564      1.9690      0.9288      1.3548
 41      0.0000      1.5010      0.0000      0.0000      0.0000      2.2203      0.0000      0.0000      3.9248
 42      0.0044      0.6996      0.0000      0.5373      0.0000      0.3481      1.2016      0.0000      0.0000
 43      0.0000      0.8829      0.6742      0.0000      0.3450      0.0000      0.0415      0.0000      0.0000
 44      0.0000      1.2847      4.5905      0.0000      0.0000      1.2125      1.5892      1.7348      2.2261
 45      2.5671      1.1762      1.2702      4.4126      1.7477      0.0000      1.3540      1.0517      0.0000
 46      0.9000      1.1448      1.3123      1.3802      0.9517      1.5561      1.0728      0.9304      1.5381
 47      0.0000      0.0479      0.0000      0.3513      0.0176      0.0000      0.0397      0.0000      0.0000
 48      0.0000      0.0880      0.0000      0.3476      0.0000      0.0000      0.0000      0.0000      0.0000
 49      0.0000      0.0304      0.0000      0.1565      0.0000      0.0000      0.0000      0.0000      0.0000
 50      0.0000      0.0410      0.0000      0.0000      0.0000      0.0000      0.0000      0.0000      0.0000
 51      2.3553      0.5800      2.8581      1.7316      0.8718      0.0000      1.5810      2.7960      0.0000
 52      0.0000      0.2174      0.0000      0.1997      0.0000      0.1621      1.6167      0.0000      0.7987
 53      0.0000      0.6162      0.0000      0.0000      0.0000      0.0000      0.6992      0.0322      0.0000
 54      0.0000      0.7018      0.0000      0.0000      0.0000      0.6623      0.0359      0.0000      0.0000
 55      0.0000      0.1870      0.6138      0.0000      0.5155      0.0000      0.0000      0.0000      1.8480
 56      0.0000      0.3018      0.0000      0.0000      0.0000      0.2078      0.8588      0.0000      0.0000
 57      0.0000      0.2907      0.0000      0.0000      0.4280      0.0000      0.0000      0.0000      0.3009
 58      0.0015      0.4965      0.0000      1.5970      0.0000      0.0000      0.0000      0.0000      0.0000
 59      4.0898      1.4099      0.0000      1.6426      3.1607      0.0000      3.9441      1.2711      1.9409
 60      6.5585      3.6267      4.8942      2.4351      4.1868      4.8000      4.4519      6.2601      5.4513
 61      2.7715      1.9773      0.8733      3.2775      1.7725      1.8575      2.1874      1.8757      2.3571
 62      0.0000      0.0981      0.0000      0.4750      0.0000      0.0000      0.1141      0.3416      0.0000
 63      0.0000      0.0257      0.0000      0.0000      0.0000      0.0000      0.0000      0.0000      0.0000
 64      0.0000      0.0123      0.0000      0.0000      0.0000      0.0000      0.0000      0.0000      0.0000
 65      0.0000      0.0286      0.0000      0.0000      0.0000      0.0000      0.0000      0.0000      0.2876
 66      0.0000      0.0140      0.0000      0.0000      0.0000      0.0000      0.0000      0.0000      0.0000

# j      m_j: min, <> & last-chain-values for 1 ...  7 chains
  1  3.6138E-01  1.0079E-01  1.6514E-01  2.8214E-01  0.0000E+00  0.0000E+00  2.0265E-01  1.3982E-01  3.4853E-01
  2  3.9617E-04  1.4887E-02  0.0000E+00  1.8503E-02  4.9924E-02  0.0000E+00  0.0000E+00  0.0000E+00  0.0000E+00
  3  8.4028E-05  4.1481E-02  1.1794E-01  4.5306E-02  4.7217E-02  4.1830E-02  9.5336E-02  1.7229E-01  4.2406E-02
  4  0.0000E+00  2.2047E-02  0.0000E+00  0.0000E+00  0.0000E+00  0.0000E+00  0.0000E+00  0.0000E+00  0.0000E+00
  5  1.6667E-02  6.8255E-02  8.2328E-02  8.5560E-02  1.0025E-02  0.0000E+00  0.0000E+00  2.9325E-01  0.0000E+00
  6  1.6013E-02  6.7213E-02  1.8998E-02  1.5665E-01  5.8482E-02  2.2995E-01  6.9415E-02  0.0000E+00  1.7275E-02
  7  0.0000E+00  3.1846E-01  5.6946E-01  0.0000E+00  3.3061E-01  4.5925E-01  8.2468E-03  1.7249E-01  4.8954E-01
  8  8.2015E-01  8.9772E-01  1.1933E+00  6.4786E-01  3.5064E-01  6.7443E-01  1.4610E+00  0.0000E+00  4.4355E-02
  9  0.0000E+00  4.7629E-01  6.6198E-02  0.0000E+00  9.3598E-02  9.9242E-01  0.0000E+00  0.0000E+00  8.0272E-01
 10  0.0000E+00  3.0917E-01  3.8836E-02  0.0000E+00  1.4178E+00  0.0000E+00  0.0000E+00  8.7937E-01  0.0000E+00
 11  6.9406E-03  8.6834E-01  0.0000E+00  1.0409E+00  2.1354E-01  0.0000E+00  0.0000E+00  6.2295E-01  0.0000E+00
 12  0.0000E+00  1.1225E+00  0.0000E+00  0.0000E+00  0.0000E+00  0.0000E+00  0.0000E+00  1.0824E+00  0.0000E+00
 13  0.0000E+00  2.0554E+00  0.0000E+00  5.7161E-01  2.7883E+00  5.7896E+00  2.3665E+00  3.9375E-02  1.4288E+00
 14  0.0000E+00  3.6445E+00  0.0000E+00  0.0000E+00  0.0000E+00  0.0000E+00  1.0300E+01  8.3429E+00  1.8528E+01
 15  0.0000E+00  1.1449E+00  0.0000E+00  0.0000E+00  0.0000E+00  0.0000E+00  9.6341E+00  1.0121E+01  0.0000E+00
 16  0.0000E+00  6.7676E-01  8.5910E+00  0.0000E+00  0.0000E+00  0.0000E+00  1.6496E+00  0.0000E+00  0.0000E+00
 17  3.3901E+01  1.9370E+01  4.4068E+01  1.6259E+01  4.5491E+01  5.0266E+01  0.0000E+00  1.3272E+01  0.0000E+00
 18  2.9638E-01  6.9569E-02  3.5534E-03  3.0044E-01  0.0000E+00  4.8955E-02  1.9867E-01  7.0584E-02  0.0000E+00
 19  1.9349E-02  6.9363E-02  4.1149E-02  5.2776E-02  3.6915E-02  0.0000E+00  3.7128E-02  6.9887E-02  0.0000E+00
 20  0.0000E+00  1.4020E-02  3.3905E-02  0.0000E+00  0.0000E+00  0.0000E+00  0.0000E+00  0.0000E+00  2.4797E-02
 21  1.8481E+00  2.0839E+00  1.3549E+00  1.7791E+00  2.9648E+00  2.6374E+00  2.3873E+00  1.9635E+00  1.9082E+00
 22  6.0585E-02  1.2091E-01  9.1260E-02  4.4618E-01  3.3311E-01  1.0390E-01  0.0000E+00  0.0000E+00  0.0000E+00
 23  0.0000E+00  6.7084E-02  5.0296E-03  0.0000E+00  4.1865E-01  0.0000E+00  0.0000E+00  1.2667E-01  3.2089E-01
 24  1.4531E-01  2.7241E-01  3.3424E-01  3.0881E-01  3.7257E-01  0.0000E+00  1.0041E+00  4.1722E-01  1.0347E-01
 25  4.6580E-01  2.3635E-01  3.4273E-01  1.5787E-01  0.0000E+00  0.0000E+00  0.0000E+00  0.0000E+00  4.8055E-01
 26  0.0000E+00  5.3504E-01  0.0000E+00  0.0000E+00  0.0000E+00  1.4751E-01  0.0000E+00  0.0000E+00  0.0000E+00
 27  1.1319E-02  9.9484E-01  2.2055E-02  9.4220E-01  0.0000E+00  5.3015E-01  0.0000E+00  9.0746E-01  0.0000E+00
 28  5.3543E+00  8.9625E-01  0.0000E+00  2.8721E+00  0.0000E+00  0.0000E+00  2.7380E+00  6.5267E-01  0.0000E+00
 29  0.0000E+00  3.7933E+00  4.6827E+00  0.0000E+00  5.8386E+00  0.0000E+00  5.3198E+00  3.7837E+00  0.0000E+00
 30  0.0000E+00  1.5588E+00  5.0518E+00  3.5499E+00  0.0000E+00  0.0000E+00  0.0000E+00  0.0000E+00  3.2409E+00
 31  2.0406E+01  5.6709E+00  8.5633E+00  7.8363E+00  0.0000E+00  5.4266E+00  1.1066E+01  1.2637E+01  0.0000E+00
 32  0.0000E+00  1.9552E+00  0.0000E+00  0.0000E+00  0.0000E+00  0.0000E+00  0.0000E+00  0.0000E+00  1.0472E+01
 33  0.0000E+00  1.1546E+00  0.0000E+00  0.0000E+00  0.0000E+00  0.0000E+00  5.3797E+00  0.0000E+00  4.9814E+00
 34  0.0000E+00  9.9782E-01  4.9535E-01  1.4117E+00  0.0000E+00  0.0000E+00  0.0000E+00  7.9794E+00  0.0000E+00
 35  7.4815E-02  6.0076E-02  0.0000E+00  1.8659E-01  0.0000E+00  0.0000E+00  0.0000E+00  9.8962E-02  0.0000E+00
 36  0.0000E+00  1.9970E-02  1.6252E-02  0.0000E+00  2.0078E-02  0.0000E+00  4.5841E-02  0.0000E+00  1.0260E-01
 37  0.0000E+00  4.0257E-02  1.2253E-02  2.1525E-02  0.0000E+00  1.7975E-01  0.0000E+00  0.0000E+00  0.0000E+00
 38  1.2583E+00  1.3089E+00  7.0645E-01  7.9729E-01  1.9849E+00  1.3806E+00  1.4400E+00  1.1864E+00  1.0481E+00
 39  1.2149E-03  2.9282E-01  2.4767E-01  6.0723E-01  2.7859E-01  3.5599E-01  6.5470E-01  6.0077E-01  0.0000E+00
 40  0.0000E+00  2.8358E-01  8.2548E-02  0.0000E+00  0.0000E+00  3.2319E-01  4.8540E-01  1.8873E-01  2.5255E-01
 41  0.0000E+00  5.1455E-01  0.0000E+00  0.0000E+00  0.0000E+00  7.6620E-01  0.0000E+00  0.0000E+00  1.1377E+00
 42  2.2036E-03  4.4030E-01  0.0000E+00  3.0030E-01  0.0000E+00  2.2056E-01  8.4573E-01  0.0000E+00  0.0000E+00
 43  0.0000E+00  8.1130E-01  4.2349E-01  0.0000E+00  3.6765E-01  0.0000E+00  4.2615E-02  0.0000E+00  0.0000E+00
 44  0.0000E+00  2.0326E+00  4.9647E+00  0.0000E+00  0.0000E+00  1.9312E+00  2.8119E+00  2.5301E+00  2.9783E+00
 45  6.4188E+00  3.6922E+00  2.7256E+00  1.2302E+01  6.3620E+00  0.0000E+00  4.7534E+00  3.0434E+00  0.0000E+00
 46  4.1366E+00  6.6059E+00  5.1762E+00  7.0723E+00  6.3676E+00  9.0389E+00  6.9228E+00  4.9489E+00  7.5049E+00
 47  0.0000E+00  5.6008E-01  0.0000E+00  3.6480E+00  2.3903E-01  0.0000E+00  5.1898E-01  0.0000E+00  0.0000E+00
 48  0.0000E+00  1.8140E+00  0.0000E+00  6.3652E+00  0.0000E+00  0.0000E+00  0.0000E+00  0.0000E+00  0.0000E+00
 49  0.0000E+00  1.4246E+00  0.0000E+00  6.5120E+00  0.0000E+00  0.0000E+00  0.0000E+00  0.0000E+00  0.0000E+00
 50  0.0000E+00  3.5589E+00  0.0000E+00  0.0000E+00  0.0000E+00  0.0000E+00  0.0000E+00  0.0000E+00  0.0000E+00
 51  8.9262E-02  2.7596E-02  9.2958E-02  7.3167E-02  4.8099E-02  0.0000E+00  8.4128E-02  1.2263E-01  0.0000E+00
 52  0.0000E+00  5.3012E-03  0.0000E+00  4.3249E-03  0.0000E+00  3.9784E-03  4.4085E-02  0.0000E+00  1.6468E-02
 53  0.0000E+00  2.2632E-02  0.0000E+00  0.0000E+00  0.0000E+00  0.0000E+00  2.8719E-02  1.0908E-03  0.0000E+00
 54  0.0000E+00  5.2814E-02  0.0000E+00  0.0000E+00  0.0000E+00  5.0176E-02  3.0242E-03  0.0000E+00  0.0000E+00
 55  0.0000E+00  2.1669E-02  4.8618E-02  0.0000E+00  6.9262E-02  0.0000E+00  0.0000E+00  0.0000E+00  1.8108E-01
 56  0.0000E+00  6.9226E-02  0.0000E+00  0.0000E+00  0.0000E+00  4.7983E-02  2.2028E-01  0.0000E+00  0.0000E+00
 57  0.0000E+00  8.8476E-02  0.0000E+00  0.0000E+00  1.5106E-01  0.0000E+00  0.0000E+00  0.0000E+00  7.7455E-02
 58  6.0598E-04  2.5565E-01  0.0000E+00  7.3023E-01  0.0000E+00  0.0000E+00  0.0000E+00  0.0000E+00  0.0000E+00
 59  3.6097E+00  1.5623E+00  0.0000E+00  1.6164E+00  4.0611E+00  0.0000E+00  4.8875E+00  1.2984E+00  1.8186E+00
 60  1.0752E+01  7.4643E+00  6.8857E+00  4.4509E+00  9.9921E+00  9.9450E+00  1.0247E+01  1.1877E+01  9.4875E+00
 61  9.9273E+00  8.8918E+00  2.6847E+00  1.3089E+01  9.2426E+00  8.4088E+00  1.1000E+01  7.7755E+00  8.9635E+00
 62  0.0000E+00  8.0462E-01  0.0000E+00  3.4589E+00  0.0000E+00  0.0000E+00  1.0466E+00  2.5819E+00  0.0000E+00
 63  0.0000E+00  4.1849E-01  0.0000E+00  0.0000E+00  0.0000E+00  0.0000E+00  0.0000E+00  0.0000E+00  0.0000E+00
 64  0.0000E+00  5.5308E-01  0.0000E+00  0.0000E+00  0.0000E+00  0.0000E+00  0.0000E+00  0.0000E+00  0.0000E+00
 65  0.0000E+00  2.7271E+00  0.0000E+00  0.0000E+00  0.0000E+00  0.0000E+00  0.0000E+00  0.0000E+00  2.3198E+01
 66  0.0000E+00  1.8860E+00  0.0000E+00  0.0000E+00  0.0000E+00  0.0000E+00  0.0000E+00  0.0000E+00  0.0000E+00

# AV, chi2 & Mass for <> & i_chain = 1 ...  7 solutions
AV       0.1385      0.1991      0.1766      0.1999      0.1929      0.1913      0.1802      0.1873      0.1934
chi2 3.0601E-01  3.0981E-01  3.0818E-01  3.0777E-01  3.0846E-01  3.0841E-01  3.0826E-01  3.0810E-01  3.0809E-01
Mass 7.8841E-14  6.8125E-14  9.6691E-14  7.6790E-14  5.8264E-14  6.6967E-14  5.9386E-14  7.2743E-14  7.9952E-14
  60.99                                  [v0_min (km/s) before EX0s...]
 259.78                                  [vd_min (km/s) before EX0s...]


## Synthetic spectrum (Best Model) ##l_obs f_obs f_syn wei
 3478    [Nl_obs]
 3741.00    0.90485   0.85066    0.000
 3742.00    0.95987   0.85980    0.000
 3743.00    0.97568   0.86054    0.000
 3744.00    0.95447   0.85312    0.000
 3745.00    0.90625   0.83881   11.035
 3746.00    0.84335   0.81900   11.858
 3747.00    0.78423   0.79657   12.751
 3748.00    0.74804   0.77623   13.368
 3749.00    0.73836   0.76149   13.543
 3750.00    0.74432   0.75323   13.435
 3751.00    0.75302   0.75305   13.280
 3752.00    0.75892   0.76319   13.177
 3753.00    0.77625   0.78223   12.882
 3754.00    0.82468   0.80505   12.126
 3755.00    0.89803   0.82779   11.136
 3756.00    0.96988   0.84933   10.311
 3757.00    1.01379   0.86844    9.864
 3758.00    1.01119   0.88306    9.889
 3759.00    0.95849   0.89242   10.433
 3760.00    0.87588   0.89781   11.417
 3761.00    0.81512   0.90023   12.268
 3762.00    0.81376   0.89936   12.289
 3763.00    0.83932   0.89399   11.914
 3764.00    0.84442   0.88340   11.843
 3765.00    0.83584   0.86834   11.964
 3766.00    0.83758   0.84978   11.939
 3767.00    0.84474   0.82799   11.838
 3768.00    0.83853   0.80482   11.926
 3769.00    0.80697   0.78511   12.392
 3770.00    0.76235   0.77224   13.117
 3771.00    0.74817   0.76634   13.366
 3772.00    0.78249   0.76867   12.780
 3773.00    0.82196   0.78171   12.166
 3774.00    0.83455   0.80386   11.983
 3775.00    0.84559   0.83019   11.826
 3776.00    0.87899   0.85800   11.377
 3777.00    0.92145   0.88671   10.852
 3778.00    0.95343   0.91430   10.489
 3779.00    0.96938   0.93802   10.316
 3780.00    0.98039   0.95723   10.200
 3781.00    1.00728   0.97264    9.928
 3782.00    1.04425   0.98371    9.576
 3783.00    1.05687   0.98930    9.462
 3784.00    1.05102   0.99000    9.515
 3785.00    1.07470   0.98727    9.305
 3786.00    1.10371   0.98104    9.060
 3787.00    1.04650   0.97070    9.556
 3788.00    0.92565   0.95722   10.803
 3789.00    0.87423   0.94179   11.439
 3790.00    0.90927   0.92367   10.998
 3791.00    0.92136   0.90175   10.854
 3792.00    0.86611   0.87652   11.546
 3793.00    0.79114   0.84897   12.640
 3794.00    0.75140   0.81938   13.309
 3795.00    0.76944   0.78906   12.996
 3796.00    0.79971   0.76213   12.505
 3797.00    0.77252   0.74274   12.945
 3798.00    0.70584   0.73224   14.167
 3799.00    0.67333   0.73138   14.852
 3800.00    0.69393   0.74217   14.411
 3801.00    0.75413   0.76424   13.260
 3802.00    0.88403   0.79292   11.312
 3803.00    1.08733   0.82339    9.197
 3804.00    1.21510   0.85386   -1.000
 3805.00    1.12612   0.88342    8.880
 3806.00    0.94136   0.90988   10.623
 3807.00    0.86546   0.93152   11.555
 3808.00    0.90561   0.94907   11.042
 3809.00    0.97086   0.96388   10.300
 3810.00    1.03526   0.97540    9.659
 3811.00    1.10845   0.98258    9.022
 3812.00    1.18144   0.98575    8.464
 3813.00    1.22205   0.98536    8.183
 3814.00    1.18162   0.98178    8.463
 3815.00    1.05094   0.97572    9.515
 3816.00    0.90263   0.96722   11.079
 3817.00    0.81805   0.95677   12.224
 3818.00    0.82400   0.94729   12.136
 3819.00    0.89929   0.94030   11.120
 3820.00    0.98853   0.93350   10.116
 3821.00    1.03925   0.92642    9.622
 3822.00    1.02786   0.92201    9.729
 3823.00    0.96443   0.92018   10.369
 3824.00    0.89118   0.91674   11.221
 3825.00    0.86233   0.90949   11.597
 3826.00    0.91623   0.89915   10.914
 3827.00    0.99447   0.88599   10.056
 3828.00    0.95152   0.86863   10.510
 3829.00    0.78472   0.84617   12.743
 3830.00    0.67784   0.81944   14.753
 3831.00    0.73344   0.79015   13.634
 3832.00    0.88250   0.75964   11.332
 3833.00    0.98131   0.73024   10.190
 3834.00    0.90618   0.70577   11.035
 3835.00    0.73471   0.68899   13.611
 3836.00    0.68907   0.68125   14.512
 3837.00    0.77664   0.68459   12.876
 3838.00    0.80632   0.69958   12.402
 3839.00    0.74651   0.72345   13.396
 3840.00    0.72095   0.75296   13.870
 3841.00    0.74154   0.78595   13.485
 3842.00    0.72513   0.81972   13.791
 3843.00    0.68799   0.85168   14.535
 3844.00    0.71608   0.88039   13.965
 3845.00    0.81140   0.90519   12.324
 3846.00    0.90757   0.92556   11.018
 3847.00    0.96026   0.94150    0.000
 3848.00    0.96333   0.95413    0.000
 3849.00    0.94523   0.96459    0.000
 3850.00    0.94419   0.97250    0.000
 3851.00    0.97171   0.97776    0.000
 3852.00    1.01790   0.98175    0.000
 3853.00    1.06751   0.98498    0.000
 3854.00    1.10804   0.98677    0.000
 3855.00    1.13637   0.98743    0.000
 3856.00    1.14546   0.98734    0.000
 3857.00    1.11091   0.98650    0.000
 3858.00    1.02426   0.98614    0.000
 3859.00    0.92700   0.98698    0.000
 3860.00    0.88385   0.98771    0.000
 3861.00    0.94577   0.98812    0.000
 3862.00    1.07468   0.98957    0.000
 3863.00    1.10925   0.99157    0.000
 3864.00    1.00081   0.99227    0.000
 3865.00    0.95621   0.99142    0.000
 3866.00    1.09390   0.99024    0.000
 3867.00    1.23829   0.98853    0.000
 3868.00    1.25083   0.98494    0.000
 3869.00    1.21455   0.97982    0.000
 3870.00    1.18711   0.97490    0.000
 3871.00    1.09181   0.97045    0.000
 3872.00    0.95429   0.96523    0.000
 3873.00    0.96115   0.95931    0.000
 3874.00    1.11394   0.95399    0.000
 3875.00    1.15637   0.94906    0.000
 3876.00    1.00145   0.94281    0.000
 3877.00    0.83940   0.93514    0.000
 3878.00    0.80545   0.92618    0.000
 3879.00    0.86968   0.91436    0.000
 3880.00    0.93451   0.89945    0.000
 3881.00    0.90487   0.88279   11.051
 3882.00    0.78950   0.86296   12.666
 3883.00    0.68848   0.83802   14.525
 3884.00    0.66145   0.81021   15.118
 3885.00    0.70200   0.78200   14.245
 3886.00    0.77583   0.75301   12.889
 3887.00    0.83688   0.72562   11.949
 3888.00    0.84040   0.70551   11.899
 3889.00    0.76806   0.69464   13.020
 3890.00    0.67282   0.69263   14.863
 3891.00    0.63830   0.70135   15.667
 3892.00    0.68156   0.72080   14.672
 3893.00    0.76082   0.74671   13.144
 3894.00    0.82459   0.77571   12.127
 3895.00    0.83534   0.80608   11.971
 3896.00    0.79257   0.83492   12.617
 3897.00    0.72483   0.86050   13.796
 3898.00    0.67141   0.88332   -1.000
 3899.00    0.66161   0.90299   -1.000
 3900.00    0.69249   0.91850   -1.000
 3901.00    0.75345   0.93125   13.272
 3902.00    0.85537   0.94300   11.691
 3903.00    0.98155   0.95261   10.188
 3904.00    1.04212   0.95983    9.596
 3905.00    1.00667   0.96696    9.934
 3906.00    1.01663   0.97434    9.836
 3907.00    1.14103   0.98066    8.764
 3908.00    1.18469   0.98659    8.441
 3909.00    1.03635   0.99307    9.649
 3910.00    0.91813   0.99875   10.892
 3911.00    0.97955   1.00264   10.209
 3912.00    1.03503   1.00517    9.662
 3913.00    0.96385   1.00641   10.375
 3914.00    0.93642   1.00565   10.679
 3915.00    1.04005   1.00313    9.615
 3916.00    1.09866   0.99951    9.102
 3917.00    1.01617   0.99473    9.841
 3918.00    0.92367   0.98918   10.826
 3919.00    0.91163   0.98377   10.969
 3920.00    0.92285   0.97851   10.836
 3921.00    0.91057   0.97308   10.982
 3922.00    0.89827   0.96804   11.133
 3923.00    0.91166   0.96302   10.969
 3924.00    0.94842   0.95673   10.544
 3925.00    0.97742   0.94923   10.231
 3926.00    0.96012   0.94030   10.415
 3927.00    0.91989   0.92899   10.871
 3928.00    0.92151   0.91584   10.852
 3929.00    0.93855   0.90207   10.655
 3930.00    0.87635   0.88761   11.411
 3931.00    0.74692   0.87304   13.388
 3932.00    0.65681   0.86104   -1.000
 3933.00    0.65352   0.85314   -1.000
 3934.00    0.70836   0.84923   14.117
 3935.00    0.76921   0.85012   13.000
 3936.00    0.79940   0.85684   12.509
 3937.00    0.82881   0.86839   12.066
 3938.00    0.90434   0.88232   11.058
 3939.00    0.98204   0.89707   10.183
 3940.00    0.98242   0.91198   10.179
 3941.00    0.91572   0.92543   10.920
 3942.00    0.85601   0.93601   11.682
 3943.00    0.86674   0.94463   11.537
 3944.00    0.95518   0.95209   10.469
 3945.00    1.03253   0.95722    9.685
 3946.00    1.02128   0.96060    9.792
 3947.00    0.98733   0.96422   10.128
 3948.00    1.01066   0.96740    9.895
 3949.00    1.03001   0.96847    9.709
 3950.00    0.97759   0.96822   10.229
 3951.00    0.92369   0.96794   10.826
 3952.00    0.93641   0.96686   10.679
 3953.00    0.95107   0.96359   10.514
 3954.00    0.91993   0.95855   10.870
 3955.00    0.92921   0.95295   10.762
 3956.00    1.01709   0.94622    9.832
 3957.00    1.05406   0.93678    9.487
 3958.00    0.96719   0.92422   10.339
 3959.00    0.87555   0.90876   11.421
 3960.00    0.88506   0.89039    0.000
 3961.00    0.96231   0.86795    0.000
 3962.00    1.01354   0.84023    0.000
 3963.00    0.95449   0.80875    0.000
 3964.00    0.80819   0.77527    0.000
 3965.00    0.71497   0.73935    0.000
 3966.00    0.73869   0.70223    0.000
 3967.00    0.80256   0.66772    0.000
 3968.00    0.82355   0.63893    0.000
 3969.00    0.77696   0.61826    0.000
 3970.00    0.70785   0.60762    0.000
 3971.00    0.70015   0.60825    0.000
 3972.00    0.75778   0.62132    0.000
 3973.00    0.80113   0.64548    0.000
 3974.00    0.79216   0.67664    0.000
 3975.00    0.75638   0.71212    0.000
 3976.00    0.72567   0.75019    0.000
 3977.00    0.72052   0.78728    0.000
 3978.00    0.74947   0.82073    0.000
 3979.00    0.80399   0.85004    0.000
 3980.00    0.84802   0.87486    0.000
 3981.00    0.84856   0.89542   11.785
 3982.00    0.84366   0.91248   11.853
 3983.00    0.89180   0.92635   11.213
 3984.00    0.94921   0.93765   10.535
 3985.00    0.93734   0.94791   10.668
 3986.00    0.89991   0.95757   11.112
 3987.00    0.93581   0.96561   10.686
 3988.00    1.04855   0.97244    9.537
 3989.00    1.15596   0.97917    8.651
 3990.00    1.14661   0.98503    8.721
 3991.00    0.99735   0.98900   10.027
 3992.00    0.89889   0.99160   11.125
 3993.00    1.00330   0.99373    9.967
 3994.00    1.12775   0.99511    8.867
 3995.00    1.06699   0.99521    9.372
 3996.00    0.94589   0.99500   10.572
 3997.00    0.94477   0.99589   10.585
 3998.00    1.00925   0.99709    9.908
 3999.00    1.02823   0.99745    9.725
 4000.00    1.00973   0.99830    9.904
 4001.00    1.00448   0.99990    9.955
 4002.00    1.03219   0.99980    9.688
 4003.00    1.08893   0.99759    9.183
 4004.00    1.15443   0.99585    8.662
 4005.00    1.17857   0.99443    8.485
 4006.00    1.09171   0.99138    9.160
 4007.00    0.92526   0.98847   10.808
 4008.00    0.84322   0.98852   11.859
 4009.00    0.90638   0.99003   11.033
 4010.00    0.98482   0.99123   10.154
 4011.00    0.98954   0.99408   10.106
 4012.00    0.96529   0.99880   10.360
 4013.00    0.96428   1.00328   10.370
 4014.00    0.99383   1.00701   10.062
 4015.00    1.05021   1.01027    9.522
 4016.00    1.12490   1.01306    8.890
 4017.00    1.17312   1.01500    8.524
 4018.00    1.13231   1.01498    8.832
 4019.00    1.02134   1.01272    9.791
 4020.00    0.93231   1.00930   10.726
 4021.00    0.90451   1.00436   11.056
 4022.00    0.91583   0.99681   10.919
 4023.00    0.96661   0.98769   10.345
 4024.00    1.06817   0.97915    9.362
 4025.00    1.15800   0.97232    8.636
 4026.00    1.14310   0.96671    8.748
 4027.00    1.04247   0.96265    9.593
 4028.00    0.95521   0.96156   10.469
 4029.00    0.92998   0.96327   10.753
 4030.00    0.95617   0.96602   10.458
 4031.00    0.99900   0.96914   10.010
 4032.00    1.02408   0.97372    9.765
 4033.00    1.02636   0.97936    9.743
 4034.00    1.01839   0.98515    9.819
 4035.00    1.00543   0.99104    9.946
 4036.00    0.99031   0.99714   10.098
 4037.00    0.98392   1.00314   10.163
 4038.00    0.98766   1.00774   10.125
 4039.00    0.97357   1.01036   10.271
 4040.00    0.93400   1.01142   10.707
 4041.00    0.93262   1.01054   10.722
 4042.00    1.00914   1.00719    9.909
 4043.00    1.08620   1.00249    9.206
 4044.00    1.08600   0.99837    9.208
 4045.00    1.03979   0.99541    9.617
 4046.00    1.00637   0.99263    9.937
 4047.00    0.99772   0.99117   10.023
 4048.00    1.00994   0.99255    9.902
 4049.00    1.04768   0.99466    9.545
 4050.00    1.09407   0.99555    9.140
 4051.00    1.09840   0.99647    9.104
 4052.00    1.04144   0.99730    9.602
 4053.00    0.96809   0.99632   10.330
 4054.00    0.92828   0.99419   10.773
 4055.00    0.93952   0.99168   10.644
 4056.00    0.97978   0.98880   10.206
 4057.00    1.00000   0.98631   10.000
 4058.00    0.99583   0.98410   10.042
 4059.00    1.01751   0.98182    9.828
 4060.00    1.06563   0.97959    9.384
 4061.00    1.07459   0.97692    9.306
 4062.00    1.02604   0.97438    9.746
 4063.00    0.96888   0.97256   10.321
 4064.00    0.93046   0.96991   10.747
 4065.00    0.90146   0.96684   11.093
 4066.00    0.89029   0.96549   11.232
 4067.00    0.92346   0.96447   10.829
 4068.00    0.99569   0.96207   10.043
 4069.00    1.06641   0.95955    9.377
 4070.00    1.08947   0.95770    9.179
 4071.00    1.04226   0.95580    9.595
 4072.00    0.97217   0.95261   10.286
 4073.00    0.95530   0.94849   10.468
 4074.00    0.98747   0.94521   10.127
 4075.00    1.00821   0.94252    9.919
 4076.00    0.99242   0.93947   10.076
 4077.00    0.95889   0.93745   10.429
 4078.00    0.95149   0.93760   10.510
 4079.00    0.99908   0.93871   10.009
 4080.00    1.06030   0.94007    9.431
 4081.00    1.06873   0.94196    9.357
 4082.00    1.00987   0.94375    9.902
 4083.00    0.91430   0.94446   10.937
 4084.00    0.83247   0.94412   12.013
 4085.00    0.80381   0.94293   12.441
 4086.00    0.82593   0.94029   12.108
 4087.00    0.87598   0.93638   11.416
 4088.00    0.93667   0.93237   10.676
 4089.00    0.98354   0.92714   10.167
 4090.00    0.97582   0.91934   10.248
 4091.00    0.91266   0.91014   10.957
 4092.00    0.87157   0.89907    0.000
 4093.00    0.90014   0.88351    0.000
 4094.00    0.93937   0.86408    0.000
 4095.00    0.93272   0.84203    0.000
 4096.00    0.90211   0.81634    0.000
 4097.00    0.88467   0.78786    0.000
 4098.00    0.88933   0.75872    0.000
 4099.00    0.91232   0.73007    0.000
 4100.00    0.94655   0.70552    0.000
 4101.00    0.97316   0.68842    0.000
 4102.00    0.96498   0.67841    0.000
 4103.00    0.92773   0.67725    0.000
 4104.00    0.90441   0.68691    0.000
 4105.00    0.90261   0.70418    0.000
 4106.00    0.88230   0.72608    0.000
 4107.00    0.84156   0.75185    0.000
 4108.00    0.82699   0.77881    0.000
 4109.00    0.84128   0.80395    0.000
 4110.00    0.83771   0.82665    0.000
 4111.00    0.81727   0.84681    0.000
 4112.00    0.82785   0.86391    0.000
 4113.00    0.86377   0.87767   11.577
 4114.00    0.87304   0.88885   11.454
 4115.00    0.86030   0.89812   11.624
 4116.00    0.87360   0.90442   11.447
 4117.00    0.90306   0.90834   11.073
 4118.00    0.90050   0.91164   11.105
 4119.00    0.87865   0.91393   11.381
 4120.00    0.89010   0.91539   11.235
 4121.00    0.94033   0.91743   10.635
 4122.00    0.99247   0.92017   10.076
 4123.00    1.00982   0.92314    9.903
 4124.00    0.97900   0.92613   10.214
 4125.00    0.93289   0.92863   10.719
 4126.00    0.91615   0.93023   10.915
 4127.00    0.92905   0.93116   10.764
 4128.00    0.94743   0.93093   10.555
 4129.00    0.96079   0.92957   10.408
 4130.00    0.96617   0.92839   10.350
 4131.00    0.95495   0.92802   10.472
 4132.00    0.92387   0.92814   10.824
 4133.00    0.88889   0.92954   11.250
 4134.00    0.88012   0.93268   11.362
 4135.00    0.93019   0.93616   10.750
 4136.00    1.02509   0.93994    9.755
 4137.00    1.07244   0.94362    9.325
 4138.00    1.02159   0.94527    9.789
 4139.00    0.95220   0.94524   10.502
 4140.00    0.94475   0.94364   10.585
 4141.00    0.98266   0.93895   10.176
 4142.00    1.00943   0.93366    9.907
 4143.00    0.98052   0.93009   10.199
 4144.00    0.90778   0.92602   11.016
 4145.00    0.86817   0.92308   11.518
 4146.00    0.90168   0.92408   11.090
 4147.00    0.96500   0.92598   10.363
 4148.00    1.00273   0.92757    9.973
 4149.00    0.98980   0.93076   10.103
 4150.00    0.94584   0.93359   10.573
 4151.00    0.92332   0.93440   10.831
 4152.00    0.93285   0.93500   10.720
 4153.00    0.93335   0.93570   10.714
 4154.00    0.91791   0.93546   10.894
 4155.00    0.92318   0.93538   10.832
 4156.00    0.94450   0.93656   10.588
 4157.00    0.94088   0.93822   10.628
 4158.00    0.94387   0.94005   10.595
 4159.00    1.02956   0.94246    9.713
 4160.00    1.14279   0.94535    8.751
 4161.00    1.14274   0.94780    8.751
 4162.00    1.04718   0.94924    9.549
 4163.00    0.98914   0.95037   10.110
 4164.00    0.96974   0.95085   10.312
 4165.00    0.90332   0.94971   11.070
 4166.00    0.83319   0.94761   12.002
 4167.00    0.86202   0.94514   11.601
 4168.00    0.93578   0.94161   10.686
 4169.00    0.93476   0.93706   10.698
 4170.00    0.89817   0.93224   11.134
 4171.00    0.93038   0.92757   10.748
 4172.00    0.99717   0.92311   10.028
 4173.00    1.00524   0.91904    9.948
 4174.00    0.95838   0.91607   10.434
 4175.00    0.91371   0.91444   10.944
 4176.00    0.89662   0.91359   11.153
 4177.00    0.90342   0.91386   11.069
 4178.00    0.91814   0.91538   10.892
 4179.00    0.92429   0.91694   10.819
 4180.00    0.91621   0.91863   10.914
 4181.00    0.90546   0.92091   11.044
 4182.00    0.92159   0.92247   10.851
 4183.00    0.96972   0.92355   10.312
 4184.00    1.00101   0.92476    9.990
 4185.00    0.98266   0.92496   10.176
 4186.00    0.94808   0.92503   10.548
 4187.00    0.93292   0.92575   10.719
 4188.00    0.93089   0.92604   10.742
 4189.00    0.93152   0.92633   10.735
 4190.00    0.94318   0.92740   10.602
 4191.00    0.96764   0.92855   10.334
 4192.00    0.98823   0.92882   10.119
 4193.00    0.99438   0.92803   10.057
 4194.00    0.99177   0.92676   10.083
 4195.00    0.98382   0.92460   10.164
 4196.00    0.96666   0.92039   10.345
 4197.00    0.94857   0.91575   10.542
 4198.00    0.94816   0.91237   10.547
 4199.00    0.95155   0.90868   10.509
 4200.00    0.91683   0.90542   10.907
 4201.00    0.85336   0.90508   11.718
 4202.00    0.82477   0.90602   12.125
 4203.00    0.86247   0.90729   11.595
 4204.00    0.94338   0.91061   10.600
 4205.00    1.01309   0.91486    9.871
 4206.00    1.01921   0.91867    9.812
 4207.00    0.97851   0.92255   10.220
 4208.00    0.95415   0.92613   10.481
 4209.00    0.95697   0.92883   10.450
 4210.00    0.95615   0.93036   10.459
 4211.00    0.95602   0.93092   10.460
 4212.00    0.97826   0.93109   10.222
 4213.00    0.99339   0.93021   10.067
 4214.00    0.95736   0.92877   10.445
 4215.00    0.90059   0.92835   11.104
 4216.00    0.88811   0.92791   11.260
 4217.00    0.92839   0.92708   10.771
 4218.00    0.98247   0.92734   10.178
 4219.00    1.00241   0.92758    9.976
 4220.00    0.96748   0.92605   10.336
 4221.00    0.92110   0.92341   10.857
 4222.00    0.90953   0.91990   10.995
 4223.00    0.90569   0.91487   11.041
 4224.00    0.87595   0.90860   11.416
 4225.00    0.85874   0.90266   11.645
 4226.00    0.89172   0.89873   11.214
 4227.00    0.93599   0.89612   10.684
 4228.00    0.94725   0.89476   10.557
 4229.00    0.94247   0.89683   10.610
 4230.00    0.94472   0.90017   10.585
 4231.00    0.93789   0.90220   10.662
 4232.00    0.91385   0.90529   10.943
 4233.00    0.90407   0.90808   11.061
 4234.00    0.92791   0.90792   10.777
 4235.00    0.96126   0.90803   10.403
 4236.00    0.97752   0.90881   10.230
 4237.00    0.97344   0.90793   10.273
 4238.00    0.96039   0.90795   10.413
 4239.00    0.95352   0.90989   10.487
 4240.00    0.94705   0.91115   10.559
 4241.00    0.91537   0.91248   10.925
 4242.00    0.87652   0.91501   11.409
 4243.00    0.89514   0.91665   11.171
 4244.00    0.96896   0.91686   10.319
 4245.00    1.01577   0.91663    9.846
 4246.00    1.00969   0.91567    9.907
 4247.00    1.00103   0.91352    9.985
 4248.00    1.00047   0.91034    9.987
 4249.00    0.96702   0.90739   10.357
 4250.00    0.89910   0.90523   11.149
 4251.00    0.84512   0.90267   11.772
 4252.00    0.84975   0.90059   11.692
 4253.00    0.92064   0.90015   11.019
 4254.00    0.98728   0.89987   10.285
 4255.00    0.95884   0.89940    9.911
 4256.00    0.87766   0.89957    9.894
 4257.00    0.86480   0.90010    9.996
 4258.00    0.93327   0.90031   -2.000
 4259.00    1.00599   0.90032   -2.000
 4260.00    1.02667   0.90120   -2.000
 4261.00    0.98907   0.90244   -2.000
 4262.00    0.94683   0.90313   -2.000
 4263.00    0.95634   0.90458   -2.000
 4264.00    0.98861   0.90605   -2.000
 4265.00    0.97943   0.90555   -2.000
 4266.00    0.91906   0.90428   -2.000
 4267.00    0.84530   0.90233   -2.000
 4268.00    0.81475   0.89814   -2.000
 4269.00    0.85201   0.89277   -2.000
 4270.00    0.90110   0.88778   -2.000
 4271.00    0.90255   0.88314   -2.000
 4272.00    0.87596   0.87867   -2.000
 4273.00    0.86330   0.87580    9.958
 4274.00    0.86805   0.87555    9.894
 4275.00    0.87536   0.87622   10.068
 4276.00    0.87563   0.87784   10.336
 4277.00    0.87312   0.88111   10.475
 4278.00    0.88746   0.88412   10.506
 4279.00    0.92415   0.88650   10.553
 4280.00    0.95769   0.88834   10.681
 4281.00    0.96428   0.88868   10.841
 4282.00    0.94321   0.88816   10.870
 4283.00    0.91027   0.88655   10.785
 4284.00    0.88809   0.88361   10.865
 4285.00    0.88023   0.88063   11.172
 4286.00    0.86644   0.87719   11.379
 4287.00    0.84741   0.87317   11.312
 4288.00    0.85401   0.86980   11.212
 4289.00    0.88924   0.86691   11.257
 4290.00    0.91618   0.86440   11.399
 4291.00    0.91527   0.86270   11.512
 4292.00    0.89993   0.86134   11.487
 4293.00    0.88722   0.86030   11.350
 4294.00    0.88277   0.85892   11.251
 4295.00    0.86928   0.85616   11.305
 4296.00    0.82260   0.85287   11.530
 4297.00    0.76870   0.84836   11.750
 4298.00    0.76514   0.84213   11.693
 4299.00    0.80741   0.83634   11.467
 4300.00    0.83648   0.83027   11.418
 4301.00    0.81923   0.82390   11.563
 4302.00    0.76981   0.81969   11.660
 4303.00    0.74961   0.81614   11.592
 4304.00    0.80990   0.81287   11.432
 4305.00    0.88336   0.81172   11.322
 4306.00    0.86460   0.81105   11.364
 4307.00    0.78918   0.81071   11.481
 4308.00    0.76395   0.81205   11.526
 4309.00    0.80247   0.81399   11.493
 4310.00    0.85516   0.81689   11.425
 4311.00    0.89342   0.82166   11.235
 4312.00    0.90775   0.82722   10.916
 4313.00    0.88956   0.83361   10.778
 4314.00    0.84927   0.84134   11.004
 4315.00    0.83636   0.84879   11.175
 4316.00    0.87809   0.85541   10.901
 4317.00    0.91682   0.86167   10.629
 4318.00    0.90156   0.86573   10.764
 4319.00    0.87757   0.86705   10.957
 4320.00    0.88963   0.86658   10.826
 4321.00    0.89554   0.86335   10.679
 4322.00    0.85679   0.85772   10.827
 4323.00    0.81120   0.85120   11.074
 4324.00    0.79668   0.84391   11.176
 4325.00    0.79662   0.83687   11.224
 4326.00    0.79361   0.83089   11.253
 4327.00    0.80203   0.82573   11.036
 4328.00    0.82198   0.82162   10.748
 4329.00    0.81942   0.81769   11.087
 4330.00    0.78524   0.81295    0.000
 4331.00    0.75647   0.80644    0.000
 4332.00    0.74800   0.79692    0.000
 4333.00    0.73156   0.78423    0.000
 4334.00    0.70463   0.76770    0.000
 4335.00    0.70746   0.74678    0.000
 4336.00    0.75641   0.72376    0.000
 4337.00    0.82718   0.70002    0.000
 4338.00    0.90079   0.67566    0.000
 4339.00    0.97658   0.65508    0.000
 4340.00    1.05390   0.64139    0.000
 4341.00    1.12431   0.63314    0.000
 4342.00    1.16818   0.63285    0.000
 4343.00    1.16163   0.64221    0.000
 4344.00    1.09795   0.65670    0.000
 4345.00    0.99244   0.67493    0.000
 4346.00    0.87806   0.69689    0.000
 4347.00    0.79170   0.71852    0.000
 4348.00    0.74587   0.73800    0.000
 4349.00    0.72937   0.75563    0.000
 4350.00    0.72273   0.77062    0.000
 4351.00    0.71051   0.78337   11.872
 4352.00    0.69781   0.79412   11.642
 4353.00    0.70420   0.80350   11.425
 4354.00    0.74740   0.81302   11.359
 4355.00    0.82211   0.82198   11.418
 4356.00    0.87537   0.83004   11.527
 4357.00    0.86318   0.83834   11.597
 4358.00    0.83033   0.84629   11.565
 4359.00    0.83800   0.85301   11.450
 4360.00    0.86250   0.85906   11.385
 4361.00    0.86581   0.86462   11.447
 4362.00    0.88505   0.86910   11.484
 4363.00    0.94952   0.87256   11.385
 4364.00    0.99283   0.87502   11.346
 4365.00    0.95966   0.87625   11.496
 4366.00    0.90585   0.87658   11.574
 4367.00    0.89426   0.87586   11.416
 4368.00    0.90408   0.87403   11.363
 4369.00    0.89948   0.87202   11.598
 4370.00    0.88567   0.86992   11.714
 4371.00    0.87758   0.86746   11.491
 4372.00    0.87620   0.86529   11.388
 4373.00    0.88201   0.86378   11.637
 4374.00    0.90147   0.86268   11.811
 4375.00    0.92751   0.86185   11.680
 4376.00    0.93434   0.86144   11.651
 4377.00    0.91289   0.86123   11.916
 4378.00    0.88447   0.86025   12.116
 4379.00    0.87224   0.85826   12.050
 4380.00    0.88406   0.85513   11.970
 4381.00    0.90157   0.85020   12.027
 4382.00    0.88913   0.84411   12.100
 4383.00    0.84619   0.83763   12.123
 4384.00    0.81260   0.83113   12.168
 4385.00    0.81217   0.82557   12.250
 4386.00    0.83554   0.82199   12.301
 4387.00    0.85365   0.82101   12.321
 4388.00    0.83720   0.82165   12.379
 4389.00    0.79828   0.82401   12.459
 4390.00    0.77951   0.82909   12.465
 4391.00    0.79309   0.83435   12.383
 4392.00    0.81883   0.83921   12.285
 4393.00    0.83940   0.84510   12.236
 4394.00    0.84868   0.85029   12.273
 4395.00    0.85038   0.85406   12.401
 4396.00    0.85103   0.85722   12.573
 4397.00    0.84764   0.85987   12.656
 4398.00    0.83555   0.86133   12.542
 4399.00    0.82622   0.86129   12.369
 4400.00    0.83654   0.86112   12.323
 4401.00    0.86654   0.86037   12.329
 4402.00    0.89977   0.85827   12.237
 4403.00    0.91056   0.85675   12.152
 4404.00    0.88675   0.85576   12.242
 4405.00    0.85580   0.85424   12.447
 4406.00    0.84754   0.85375   12.584
 4407.00    0.84787   0.85483   12.548
 4408.00    0.83523   0.85589   12.370
 4409.00    0.82394   0.85696   12.220
 4410.00    0.83166   0.85897   12.224
 4411.00    0.84518   0.86080   12.317
 4412.00    0.85028   0.86092   12.332
 4413.00    0.85880   0.86065   12.119
 4414.00    0.88182   0.86090   11.774
 4415.00    0.90766   0.85970   11.677
 4416.00    0.91903   0.85834   11.913
 4417.00    0.90829   0.85906   11.985
 4418.00    0.88420   0.85962   11.673
 4419.00    0.87001   0.86033   11.529
 4420.00    0.86747   0.86272   11.841
 4421.00    0.84641   0.86479   12.214
 4422.00    0.81254   0.86631   12.287
 4423.00    0.82504   0.86774   12.202
 4424.00    0.88892   0.86859   12.150
 4425.00    0.92640   0.86885   12.136
 4426.00    0.90205   0.86839   12.177
 4427.00    0.86104   0.86774   12.351
 4428.00    0.84152   0.86659   12.595
 4429.00    0.84372   0.86509   12.674
 4430.00    0.85740   0.86374   12.509
 4431.00    0.87196   0.86155   12.266
 4432.00    0.87351   0.85971   12.127
 4433.00    0.85159   0.85866   12.185
 4434.00    0.82250   0.85715   12.363
 4435.00    0.81803   0.85650   12.466
 4436.00    0.83516   0.85680   12.472
 4437.00    0.84390   0.85728   12.504
 4438.00    0.84205   0.85808   12.529
 4439.00    0.84691   0.85872   12.425
 4440.00    0.84552   0.85941   12.309
 4441.00    0.81449   0.85975   12.394
 4442.00    0.78293   0.85949   12.597
 4443.00    0.80001   0.85961   12.662
 4444.00    0.85176   0.85976   12.575
 4445.00    0.88565   0.85980   12.505
 4446.00    0.87882   0.86076   12.521
 4447.00    0.84429   0.86175   12.604
 4448.00    0.82024   0.86181   12.715
 4449.00    0.83288   0.86227   12.824
 4450.00    0.85072   0.86207   12.927
 4451.00    0.83702   0.85979   13.016
 4452.00    0.81982   0.85737   13.041
 4453.00    0.83465   0.85460   12.978
 4454.00    0.85360   0.85064   12.912
 4455.00    0.84070   0.84685   12.913
 4456.00    0.81408   0.84335   12.918
 4457.00    0.80190   0.84026   12.880
 4458.00    0.79738   0.83807   12.900
 4459.00    0.78678   0.83616   13.076
 4460.00    0.77583   0.83501   13.372
 4461.00    0.77999   0.83520    0.000
 4462.00    0.81201   0.83508    0.000
 4463.00    0.85870   0.83453    0.000
 4464.00    0.87461   0.83483    0.000
 4465.00    0.84546   0.83424    0.000
 4466.00    0.81739   0.83228    0.000
 4467.00    0.82278   0.83064    0.000
 4468.00    0.84372   0.82889    0.000
 4469.00    0.85866   0.82660    0.000
 4470.00    0.86615   0.82541    0.000
 4471.00    0.87283   0.82618    0.000
 4472.00    0.88502   0.82776    0.000
 4473.00    0.90056   0.83089    0.000
 4474.00    0.90831   0.83598    0.000
 4475.00    0.90023   0.84065    0.000
 4476.00    0.87682   0.84471    0.000
 4477.00    0.84876   0.84846    0.000
 4478.00    0.83150   0.85060    0.000
 4479.00    0.82675   0.85091    0.000
 4480.00    0.82253   0.85046    0.000
 4481.00    0.81096   0.84993    0.000
 4482.00    0.79403   0.84931   13.191
 4483.00    0.78407   0.84955   13.274
 4484.00    0.79622   0.85079   13.222
 4485.00    0.83052   0.85200   13.057
 4486.00    0.87122   0.85361   12.914
 4487.00    0.89522   0.85537   12.903
 4488.00    0.88943   0.85627   13.032
 4489.00    0.87909   0.85632   13.128
 4490.00    0.89805   0.85593   13.004
 4491.00    0.92818   0.85554   12.826
 4492.00    0.92755   0.85487   12.855
 4493.00    0.89219   0.85448   13.010
 4494.00    0.84836   0.85478   13.062
 4495.00    0.82541   0.85517   13.020
 4496.00    0.83573   0.85641   13.019
 4497.00    0.85565   0.85820   13.097
 4498.00    0.85620   0.86007   13.210
 4499.00    0.84175   0.86261   13.298
 4500.00    0.83399   0.86550   13.298
 4501.00    0.84822   0.86858   13.169
 4502.00    0.88000   0.87139   12.969
 4503.00    0.89821   0.87419   12.886
 4504.00    0.88394   0.87702   13.021
 4505.00    0.86149   0.87863   13.228
 4506.00    0.85643   0.87965   13.298
 4507.00    0.86149   0.88038   13.159
 4508.00    0.85702   0.87988   12.968
 4509.00    0.83112   0.87855   13.052
 4510.00    0.79828   0.87677   13.387
 4511.00    0.80100   0.87456   13.366
 4512.00    0.84608   0.87193   12.879
 4513.00    0.88033   0.86900   12.715
 4514.00    0.87637   0.86653   13.160
 4515.00    0.86797   0.86402   13.582
 4516.00    0.87966   0.86139   13.531
 4517.00    0.89691   0.85985   13.367
 4518.00    0.89928   0.85806   13.333
 4519.00    0.87758   0.85606   13.264
 4520.00    0.83830   0.85465   13.180
 4521.00    0.80054   0.85230   13.355
 4522.00    0.77903   0.84969   13.734
 4523.00    0.77803   0.84648   13.850
 4524.00    0.79315   0.84219   13.583
 4525.00    0.81450   0.83848   13.283
 4526.00    0.83421   0.83406   13.163
 4527.00    0.84722   0.82930   13.208
 4528.00    0.84694   0.82604   13.328
 4529.00    0.82900   0.82287   13.438
 4530.00    0.80304   0.82050   13.561
 4531.00    0.78750   0.81969   13.755
 4532.00    0.79108   0.81934   13.838
 4533.00    0.80673   0.82038   13.602
 4534.00    0.80930   0.82212   13.363
 4535.00    0.78168   0.82414   13.538
 4536.00    0.76132   0.82708   13.856
 4537.00    0.79412   0.82979   13.760
 4538.00    0.84583   0.83259   13.491
 4539.00    0.85586   0.83488   13.564
 4540.00    0.83892   0.83630   13.811
 4541.00    0.83851   0.83757   13.793
 4542.00    0.84389   0.83761   13.618
 4543.00    0.82544   0.83720   13.600
 4544.00    0.79196   0.83681   13.731
 4545.00    0.77254   0.83506   13.835
 4546.00    0.78644   0.83327   13.804
 4547.00    0.82780   0.83171   13.666
 4548.00    0.85775   0.82939   13.574
 4549.00    0.85199   0.82738   13.589
 4550.00    0.84013   0.82516    0.000
 4551.00    0.84587   0.82340    0.000
 4552.00    0.84025   0.82325    0.000
 4553.00    0.80492   0.82265    0.000
 4554.00    0.77634   0.82302    0.000
 4555.00    0.78509   0.82534    0.000
 4556.00    0.81506   0.82733    0.000
 4557.00    0.83508   0.83005    0.000
 4558.00    0.82499   0.83374    0.000
 4559.00    0.79796   0.83645    0.000
 4560.00    0.79991   0.83893    0.000
 4561.00    0.84153   0.84106    0.000
 4562.00    0.87691   0.84206    0.000
 4563.00    0.87559   0.84270    0.000
 4564.00    0.85023   0.84244    0.000
 4565.00    0.82216   0.84196    0.000
 4566.00    0.80484   0.84197    0.000
 4567.00    0.80169   0.84159    0.000
 4568.00    0.80868   0.84158    0.000
 4569.00    0.82608   0.84177    0.000
 4570.00    0.85672   0.84176    0.000
 4571.00    0.88748   0.84232    0.000
 4572.00    0.89394   0.84203    0.000
 4573.00    0.87066   0.84145    0.000
 4574.00    0.83532   0.84190    0.000
 4575.00    0.81561   0.84107    0.000
 4576.00    0.82885   0.83948    0.000
 4577.00    0.84439   0.83841    0.000
 4578.00    0.81673   0.83654    0.000
 4579.00    0.77277   0.83409    0.000
 4580.00    0.77228   0.83162    0.000
 4581.00    0.79742   0.82909    0.000
 4582.00    0.79393   0.82703    0.000
 4583.00    0.77909   0.82568    0.000
 4584.00    0.79912   0.82454    0.000
 4585.00    0.83362   0.82418    0.000
 4586.00    0.83528   0.82480    0.000
 4587.00    0.80769   0.82528    0.000
 4588.00    0.78346   0.82587    0.000
 4589.00    0.78057   0.82662    0.000
 4590.00    0.79852   0.82698    0.000
 4591.00    0.82147   0.82691    0.000
 4592.00    0.82926   0.82652    0.000
 4593.00    0.81031   0.82592    0.000
 4594.00    0.77632   0.82545    0.000
 4595.00    0.76937   0.82516    0.000
 4596.00    0.80465   0.82455    0.000
 4597.00    0.82843   0.82440    0.000
 4598.00    0.80641   0.82470    0.000
 4599.00    0.78706   0.82481    0.000
 4600.00    0.80996   0.82540    0.000
 4601.00    0.84380   0.82590    0.000
 4602.00    0.85415   0.82651    0.000
 4603.00    0.84678   0.82788    0.000
 4604.00    0.83494   0.82919    0.000
 4605.00    0.82075   0.83080    0.000
 4606.00    0.81250   0.83261    0.000
 4607.00    0.82782   0.83447    0.000
 4608.00    0.85852   0.83648    0.000
 4609.00    0.86627   0.83803    0.000
 4610.00    0.84299   0.83937    0.000
 4611.00    0.82419   0.84013    0.000
 4612.00    0.82933   0.84012    0.000
 4613.00    0.84397   0.84022    0.000
 4614.00    0.84792   0.83949    0.000
 4615.00    0.83250   0.83846    0.000
 4616.00    0.82033   0.83804    0.000
 4617.00    0.84724   0.83691    0.000
 4618.00    0.88988   0.83625    0.000
 4619.00    0.88477   0.83620    0.000
 4620.00    0.83918   0.83555    0.000
 4621.00    0.81587   0.83575    0.000
 4622.00    0.82011   0.83633    0.000
 4623.00    0.81332   0.83629    0.000
 4624.00    0.80599   0.83652    0.000
 4625.00    0.83249   0.83652    0.000
 4626.00    0.85934   0.83591    0.000
 4627.00    0.83036   0.83517    0.000
 4628.00    0.78084   0.83432    0.000
 4629.00    0.78037   0.83308    0.000
 4630.00    0.80606   0.83136    0.000
 4631.00    0.79777   0.82978    0.000
 4632.00    0.77053   0.82852    0.000
 4633.00    0.76924   0.82679    0.000
 4634.00    0.78551   0.82470    0.000
 4635.00    0.78962   0.82293    0.000
 4636.00    0.78340   0.82118    0.000
 4637.00    0.78615   0.81952    0.000
 4638.00    0.81018   0.81774    0.000
 4639.00    0.84590   0.81585    0.000
 4640.00    0.85432   0.81446    0.000
 4641.00    0.82091   0.81285    0.000
 4642.00    0.79752   0.81093    0.000
 4643.00    0.81780   0.80901    0.000
 4644.00    0.83304   0.80667    0.000
 4645.00    0.80362   0.80428    0.000
 4646.00    0.76412   0.80199    0.000
 4647.00    0.75117   0.79946    0.000
 4648.00    0.75580   0.79762    0.000
 4649.00    0.76564   0.79697    0.000
 4650.00    0.78814   0.79688    0.000
 4651.00    0.81603   0.79778    0.000
 4652.00    0.81763   0.79948    0.000
 4653.00    0.79499   0.80176    0.000
 4654.00    0.79696   0.80485    0.000
 4655.00    0.83459   0.80745    0.000
 4656.00    0.86019   0.81015    0.000
 4657.00    0.85350   0.81300    0.000
 4658.00    0.84290   0.81491    0.000
 4659.00    0.84024   0.81650    0.000
 4660.00    0.82887   0.81717    0.000
 4661.00    0.81319   0.81661    0.000
 4662.00    0.82003   0.81477    0.000
 4663.00    0.84719   0.81175    0.000
 4664.00    0.86096   0.80826    0.000
 4665.00    0.83734   0.80448    0.000
 4666.00    0.78035   0.80089    0.000
 4667.00    0.73582   0.79771    0.000
 4668.00    0.75637   0.79512    0.000
 4669.00    0.81430   0.79420    0.000
 4670.00    0.83775   0.79461    0.000
 4671.00    0.82919   0.79570    0.000
 4672.00    0.83677   0.79775    0.000
 4673.00    0.85207   0.80000    0.000
 4674.00    0.83695   0.80191    0.000
 4675.00    0.80352   0.80373    0.000
 4676.00    0.79049   0.80496    0.000
 4677.00    0.80412   0.80553    0.000
 4678.00    0.82573   0.80548    0.000
 4679.00    0.83653   0.80481    0.000
 4680.00    0.82849   0.80377    0.000
 4681.00    0.81272   0.80260    0.000
 4682.00    0.80193   0.80143    0.000
 4683.00    0.79025   0.80034    0.000
 4684.00    0.77395   0.79975    0.000
 4685.00    0.77327   0.79943    0.000
 4686.00    0.79957   0.79902    0.000
 4687.00    0.82500   0.79917    0.000
 4688.00    0.82096   0.79991    0.000
 4689.00    0.79292   0.80063    0.000
 4690.00    0.76237   0.80152    0.000
 4691.00    0.74858   0.80251    0.000
 4692.00    0.75896   0.80318    0.000
 4693.00    0.78388   0.80393    0.000
 4694.00    0.80441   0.80412    0.000
 4695.00    0.80152   0.80360    0.000
 4696.00    0.77907   0.80290    0.000
 4697.00    0.76797   0.80147    0.000
 4698.00    0.77386   0.79942    0.000
 4699.00    0.76269   0.79676    0.000
 4700.00    0.73364   0.79401    0.000
 4701.00    0.73512   0.79188    0.000
 4702.00    0.77091   0.78976    0.000
 4703.00    0.78357   0.78763    0.000
 4704.00    0.76131   0.78603    0.000
 4705.00    0.75508   0.78509    0.000
 4706.00    0.77812   0.78466    0.000
 4707.00    0.79211   0.78451    0.000
 4708.00    0.78668   0.78420    0.000
 4709.00    0.78695   0.78410    0.000
 4710.00    0.79485   0.78444    0.000
 4711.00    0.79029   0.78504    0.000
 4712.00    0.78263   0.78636    0.000
 4713.00    0.79964   0.78761    0.000
 4714.00    0.82665   0.78897    0.000
 4715.00    0.82618   0.79138    0.000
 4716.00    0.81372   0.79442    0.000
 4717.00    0.83147   0.79760    0.000
 4718.00    0.86306   0.80084    0.000
 4719.00    0.86135   0.80362    0.000
 4720.00    0.82964   0.80632    0.000
 4721.00    0.80482   0.80842    0.000
 4722.00    0.80472   0.80939    0.000
 4723.00    0.82354   0.80928    0.000
 4724.00    0.83950   0.80823    0.000
 4725.00    0.83313   0.80670    0.000
 4726.00    0.80980   0.80441    0.000
 4727.00    0.78770   0.80146    0.000
 4728.00    0.77867   0.79830    0.000
 4729.00    0.78108   0.79538    0.000
 4730.00    0.77688   0.79323    0.000
 4731.00    0.76058   0.79178    0.000
 4732.00    0.76416   0.79048    0.000
 4733.00    0.80537   0.79016    0.000
 4734.00    0.84388   0.79075    0.000
 4735.00    0.84105   0.79134    0.000
 4736.00    0.80960   0.79249    0.000
 4737.00    0.77999   0.79332    0.000
 4738.00    0.77050   0.79415    0.000
 4739.00    0.77985   0.79581    0.000
 4740.00    0.78808   0.79689    0.000
 4741.00    0.78532   0.79766    0.000
 4742.00    0.78557   0.79866    0.000
 4743.00    0.79896   0.79958    0.000
 4744.00    0.81808   0.80060    0.000
 4745.00    0.83288   0.80135    0.000
 4746.00    0.83854   0.80165    0.000
 4747.00    0.83356   0.80201    0.000
 4748.00    0.81951   0.80207    0.000
 4749.00    0.80427   0.80154    0.000
 4750.00    0.79855   0.80073    0.000
 4751.00    0.79773   0.79970    0.000
 4752.00    0.78645   0.79828    0.000
 4753.00    0.77782   0.79666    0.000
 4754.00    0.80449   0.79500    0.000
 4755.00    0.84819   0.79329    0.000
 4756.00    0.85264   0.79181    0.000
 4757.00    0.82219   0.79016    0.000
 4758.00    0.80999   0.78845    0.000
 4759.00    0.81544   0.78689    0.000
 4760.00    0.79827   0.78518    0.000
 4761.00    0.77240   0.78339   16.739
 4762.00    0.78074   0.78136   16.762
 4763.00    0.79786   0.77931   16.659
 4764.00    0.77084   0.77783   16.788
 4765.00    0.73362   0.77690   17.060
 4766.00    0.75169   0.77643   17.139
 4767.00    0.79240   0.77635   17.087
 4768.00    0.78965   0.77716   17.133
 4769.00    0.77586   0.77863   17.110
 4770.00    0.81057   0.78056   16.811
 4771.00    0.85467   0.78268   16.562
 4772.00    0.84711   0.78432   16.679
 4773.00    0.82132   0.78619   16.822
 4774.00    0.82977   0.78805   16.609
 4775.00    0.84365   0.78949   16.423
 4776.00    0.82053   0.79052   16.628
 4777.00    0.78390   0.79075   16.783
 4778.00    0.77014   0.79077   16.487
 4779.00    0.77270   0.79027   16.245
 4780.00    0.77601   0.78918   16.497
 4781.00    0.78690   0.78788   16.904
 4782.00    0.80944   0.78608   16.995
 4783.00    0.82553   0.78433   16.812
 4784.00    0.81787   0.78249   16.654
 4785.00    0.78733   0.78075   16.768
 4786.00    0.74938   0.77976   17.136
 4787.00    0.72736   0.77871   17.383
 4788.00    0.73071   0.77827   17.324
 4789.00    0.74674   0.77879   17.248
 4790.00    0.76692   0.77942   17.215
 4791.00    0.79588   0.78078   16.880
 4792.00    0.82329   0.78232   16.408
 4793.00    0.82120   0.78370   16.504
 4794.00    0.79396   0.78526   17.127
 4795.00    0.78332   0.78636   17.250
 4796.00    0.79783   0.78696   16.697
 4797.00    0.80267   0.78711   16.466
 4798.00    0.78774   0.78672   16.754
 4799.00    0.77716   0.78591   16.857
 4800.00    0.77692   0.78482   16.628
 4801.00    0.76998   0.78358   16.628
 4802.00    0.75459   0.78262   16.934
 4803.00    0.74668   0.78163   17.080
 4804.00    0.75455   0.78047   16.874
 4805.00    0.77239   0.77942   16.557
 4806.00    0.78217   0.77833   16.465
 4807.00    0.77039   0.77778   16.780
 4808.00    0.76184   0.77735   17.147
 4809.00    0.79059   0.77683   17.001
 4810.00    0.82944   0.77683   16.620
 4811.00    0.82597   0.77700   16.646
 4812.00    0.79136   0.77746   17.015
 4813.00    0.77381   0.77814   17.247
 4814.00    0.78857   0.77869   17.199
 4815.00    0.82006   0.77940   17.034
 4816.00    0.84322   0.78002   16.868
 4817.00    0.84092   0.78019   16.769
 4818.00    0.82203   0.78016   16.810
 4819.00    0.80361   0.77922   17.018
 4820.00    0.78708   0.77796   17.280
 4821.00    0.76971   0.77659   17.460
 4822.00    0.75950   0.77464   17.543
 4823.00    0.76388   0.77276   17.546
 4824.00    0.77742   0.77012   17.409
 4825.00    0.79009   0.76788   17.166
 4826.00    0.79586   0.76663   17.066
 4827.00    0.79119   0.76528   17.189
 4828.00    0.77422   0.76405   17.216
 4829.00    0.75293   0.76271   16.953
 4830.00    0.74785   0.76161   16.690
 4831.00    0.76737   0.76116   16.660
 4832.00    0.79351   0.76044   16.758
 4833.00    0.80264   0.75934   16.856
 4834.00    0.78231   0.75838   16.964
 4835.00    0.74825   0.75724   17.051
 4836.00    0.74185   0.75598   16.978
 4837.00    0.77020   0.75435   16.764
 4838.00    0.78916   0.75258   16.657
 4839.00    0.77079   0.75054   16.824
 4840.00    0.73036   0.74829   17.233
 4841.00    0.70236   0.74602   17.593
 4842.00    0.71831   0.74367   17.461
 4843.00    0.76505   0.74135   16.899
 4844.00    0.79103   0.73831   16.451
 4845.00    0.78151   0.73524   16.385
 4846.00    0.76643   0.73210   16.632
 4847.00    0.76222   0.72814   16.969
 4848.00    0.76142   0.72335    0.000
 4849.00    0.75645   0.71724    0.000
 4850.00    0.74532   0.71019    0.000
 4851.00    0.72810   0.70217    0.000
 4852.00    0.70474   0.69241    0.000
 4853.00    0.67254   0.68097    0.000
 4854.00    0.63573   0.66784    0.000
 4855.00    0.62535   0.65297    0.000
 4856.00    0.67990   0.63668    0.000
 4857.00    0.80176   0.61996    0.000
 4858.00    0.97275   0.60438    0.000
 4859.00    1.19366   0.59014    0.000
 4860.00    1.46147   0.57778    0.000
 4861.00    1.72452   0.56850    0.000
 4862.00    1.90068   0.56328    0.000
 4863.00    1.91529   0.56419    0.000
 4864.00    1.74404   0.57026    0.000
 4865.00    1.45658   0.57908    0.000
 4866.00    1.15932   0.59049    0.000
 4867.00    0.92193   0.60333    0.000
 4868.00    0.77132   0.61734    0.000
 4869.00    0.69596   0.63149    0.000
 4870.00    0.66569   0.64433    0.000
 4871.00    0.65198   0.65574    0.000
 4872.00    0.64018   0.66536    0.000
 4873.00    0.63659   0.67447    0.000
 4874.00    0.64873   0.68312    0.000
 4875.00    0.67071   0.69091   16.507
 4876.00    0.69427   0.69784   16.303
 4877.00    0.71635   0.70371   16.248
 4878.00    0.72994   0.70938   16.335
 4879.00    0.72187   0.71422   16.508
 4880.00    0.69730   0.71830   16.685
 4881.00    0.68688   0.72133   16.786
 4882.00    0.70550   0.72276   16.776
 4883.00    0.73496   0.72377   16.695
 4884.00    0.75068   0.72430   16.665
 4885.00    0.73929   0.72419   16.834
 4886.00    0.71524   0.72382   17.144
 4887.00    0.71311   0.72322   17.299
 4888.00    0.72988   0.72360   17.209
 4889.00    0.72362   0.72473   17.112
 4890.00    0.69168   0.72627   17.215
 4891.00    0.67550   0.72862   17.563
 4892.00    0.68248   0.73122   17.949
 4893.00    0.68320   0.73535   18.007
 4894.00    0.68005   0.74007   17.734
 4895.00    0.70311   0.74417   17.447
 4896.00    0.74504   0.74797   17.225
 4897.00    0.76944   0.75090   16.962
 4898.00    0.77341   0.75323   16.735
 4899.00    0.77844   0.75477   16.740
 4900.00    0.77786   0.75523   17.002
 4901.00    0.75309   0.75494   17.374
 4902.00    0.72746   0.75472   17.602
 4903.00    0.73836   0.75401   17.511
 4904.00    0.76980   0.75281   17.304
 4905.00    0.78051   0.75169   17.287
 4906.00    0.76853   0.75065   17.405
 4907.00    0.75593   0.74981   17.456
 4908.00    0.75104   0.74860   17.496
 4909.00    0.74998   0.74717   17.655
 4910.00    0.74672   0.74577   17.799
 4911.00    0.74063   0.74417   17.746
 4912.00    0.74261   0.74270   17.577
 4913.00    0.75838   0.74106   17.479
 4914.00    0.77131   0.73877   17.516
 4915.00    0.76734   0.73568   17.641
 4916.00    0.75898   0.73220   17.720
 4917.00    0.75600   0.72790   17.725
 4918.00    0.74066   0.72330   17.881
 4919.00    0.70589   0.71837   18.304
 4920.00    0.68313   0.71384   18.703
 4921.00    0.69672   0.71073   18.755
 4922.00    0.73102   0.70886   18.494
 4923.00    0.75384   0.70946   18.211
 4924.00    0.73882   0.71144   18.243
 4925.00    0.69380   0.71498   18.600
 4926.00    0.66667   0.71940   18.815
 4927.00    0.68187   0.72486   18.611
 4928.00    0.71307   0.73000   18.281
 4929.00    0.73097   0.73418   18.163
 4930.00    0.72899   0.73767   18.376
 4931.00    0.72307   0.73973   18.769
 4932.00    0.73900   0.74057   18.960
 4933.00    0.76322   0.74026   18.867
 4934.00    0.74660   0.73862   18.818
 4935.00    0.69511   0.73681   18.958
 4936.00    0.67334   0.73565   19.122
 4937.00    0.69803   0.73458   19.165
 4938.00    0.72571   0.73367   19.087
 4939.00    0.73027   0.73320   19.014
 4940.00    0.72013   0.73374    0.000
 4941.00    0.71605   0.73543    0.000
 4942.00    0.73306   0.73784    0.000
 4943.00    0.75298   0.74008    0.000
 4944.00    0.74373   0.74253    0.000
 4945.00    0.71775   0.74499    0.000
 4946.00    0.71206   0.74695    0.000
 4947.00    0.72011   0.74855    0.000
 4948.00    0.71432   0.74980    0.000
 4949.00    0.71311   0.75043    0.000
 4950.00    0.74694   0.75029    0.000
 4951.00    0.78168   0.74922    0.000
 4952.00    0.76915   0.74772    0.000
 4953.00    0.74201   0.74545    0.000
 4954.00    0.76751   0.74277    0.000
 4955.00    0.86361   0.74038    0.000
 4956.00    1.01618   0.73780    0.000
 4957.00    1.21447   0.73569    0.000
 4958.00    1.43605   0.73330    0.000
 4959.00    1.62603   0.73213    0.000
 4960.00    1.71857   0.73262    0.000
 4961.00    1.66585   0.73299    0.000
 4962.00    1.47712   0.73347    0.000
 4963.00    1.24404   0.73377    0.000
 4964.00    1.05265   0.73413    0.000
 4965.00    0.91166   0.73448    0.000
 4966.00    0.81253   0.73422    0.000
 4967.00    0.77387   0.73404    0.000
 4968.00    0.78416   0.73408    0.000
 4969.00    0.77369   0.73391    0.000
 4970.00    0.71688   0.73415    0.000
 4971.00    0.68028   0.73435    0.000
 4972.00    0.70075   0.73468    0.000
 4973.00    0.72934   0.73503    0.000
 4974.00    0.72980   0.73479    0.000
 4975.00    0.72181   0.73420    0.000
 4976.00    0.72330   0.73275    0.000
 4977.00    0.72703   0.73044    0.000
 4978.00    0.72692   0.72751    0.000
 4979.00    0.72732   0.72381    0.000
 4980.00    0.73154   0.72008    0.000
 4981.00    0.73707   0.71651    0.000
 4982.00    0.73588   0.71315    0.000
 4983.00    0.71991   0.71028    0.000
 4984.00    0.69726   0.70833    0.000
 4985.00    0.68773   0.70772    0.000
 4986.00    0.69448   0.70815    0.000
 4987.00    0.70550   0.70921    0.000
 4988.00    0.71945   0.71105    0.000
 4989.00    0.73964   0.71289    0.000
 4990.00    0.74370   0.71445    0.000
 4991.00    0.70719   0.71604    0.000
 4992.00    0.66812   0.71705    0.000
 4993.00    0.68640   0.71801    0.000
 4994.00    0.73908   0.71825    0.000
 4995.00    0.76094   0.71765    0.000
 4996.00    0.75144   0.71695    0.000
 4997.00    0.74654   0.71553    0.000
 4998.00    0.74354   0.71357    0.000
 4999.00    0.72484   0.71128    0.000
 5000.00    0.70974   0.70843    0.000
 5001.00    0.74615   0.70552    0.000
 5002.00    0.88811   0.70283    0.000
 5003.00    1.17554   0.70034    0.000
 5004.00    1.61374   0.69860    0.000
 5005.00    2.17916   0.69685    0.000
 5006.00    2.82237   0.69528    0.000
 5007.00    3.40260   0.69391    0.000
 5008.00    3.64747   0.69295    0.000
 5009.00    3.40427   0.69229    0.000
 5010.00    2.84407   0.69129    0.000
 5011.00    2.21301   0.68967    0.000
 5012.00    1.62294   0.68792    0.000
 5013.00    1.13912   0.68573    0.000
 5014.00    0.84428   0.68374    0.000
 5015.00    0.74468   0.68221    0.000
 5016.00    0.72592   0.68089    0.000
 5017.00    0.69743   0.68080    0.000
 5018.00    0.66978   0.68106    0.000
 5019.00    0.67187   0.68201    0.000
 5020.00    0.70278   0.68376    0.000
 5021.00    0.73912   0.68610    0.000
 5022.00    0.74791   0.68867    0.000
 5023.00    0.72223   0.69115    0.000
 5024.00    0.68902   0.69381    0.000
 5025.00    0.67287   0.69663    0.000
 5026.00    0.68013   0.69887    0.000
 5027.00    0.69835   0.70114    0.000
 5028.00    0.70573   0.70287    0.000
 5029.00    0.70224   0.70428   20.289
 5030.00    0.70702   0.70569   20.342
 5031.00    0.71814   0.70642   20.228
 5032.00    0.71578   0.70664   20.347
 5033.00    0.70513   0.70621   20.571
 5034.00    0.71009   0.70500   20.400
 5035.00    0.72744   0.70290   20.009
 5036.00    0.73153   0.70014   19.986
 5037.00    0.71144   0.69705   20.289
 5038.00    0.67761   0.69448   20.429
 5039.00    0.65660   0.69192   20.300
 5040.00    0.66968   0.68985   20.157
 5041.00    0.69667   0.68840   20.158
 5042.00    0.70282   0.68762   20.287
 5043.00    0.69382   0.68819   20.370
 5044.00    0.69456   0.68984   20.242
 5045.00    0.70304   0.69144   20.008
 5046.00    0.70285   0.69335   19.902
 5047.00    0.69013   0.69496   20.068
 5048.00    0.67214   0.69610   20.472
 5049.00    0.65999   0.69692   20.818
 5050.00    0.65891   0.69770   20.853
 5051.00    0.65950   0.69893   20.784
 5052.00    0.65509   0.69987   20.911
 5053.00    0.65871   0.70119   21.202
 5054.00    0.67990   0.70275   21.411
 5055.00    0.70362   0.70468   21.273
 5056.00    0.71289   0.70631   20.891
 5057.00    0.70889   0.70806   20.871
 5058.00    0.70153   0.70941   21.399
 5059.00    0.69978   0.71056   21.679
 5060.00    0.70501   0.71102   21.255
 5061.00    0.70875   0.71087   20.924
 5062.00    0.70640   0.71018   21.080
 5063.00    0.70416   0.70873   21.029
 5064.00    0.70622   0.70697   20.447
 5065.00    0.70810   0.70460   20.016
 5066.00    0.70324   0.70213   20.125
 5067.00    0.68820   0.70026   20.501
 5068.00    0.66967   0.69841   20.821
 5069.00    0.66259   0.69674   20.991
 5070.00    0.66814   0.69533   20.968
 5071.00    0.67235   0.69432   20.715
 5072.00    0.67804   0.69320   20.330
 5073.00    0.70296   0.69166   20.025
 5074.00    0.72850   0.69048   19.940
 5075.00    0.70851   0.68924   20.077
 5076.00    0.65499   0.68761   20.240
 5077.00    0.63062   0.68598   20.142
 5078.00    0.64659   0.68439   19.853
 5079.00    0.66179   0.68303   19.701
 5080.00    0.66013   0.68140   19.729
 5081.00    0.65608   0.68058   19.715
 5082.00    0.65784   0.68062   19.508
 5083.00    0.66406   0.68134   19.121
 5084.00    0.67587   0.68244   18.734
 5085.00    0.69432   0.68412   18.549
 5086.00    0.71046   0.68626   18.601
 5087.00    0.71287   0.68839   18.772
 5088.00    0.70406   0.69048   18.851
 5089.00    0.69557   0.69238   18.700
 5090.00    0.69533   0.69407   18.506
 5091.00    0.70354   0.69505   18.552
 5092.00    0.71056   0.69550   18.888
 5093.00    0.70815   0.69535   19.380
 5094.00    0.70377   0.69470   19.809
 5095.00    0.70718   0.69342   19.983
 5096.00    0.71287   0.69169   19.922
 5097.00    0.70875   0.68969   19.863
 5098.00    0.68865   0.68756   20.181
 5099.00    0.66149   0.68565   20.920
 5100.00    0.65495   0.68399   21.296
 5101.00    0.67580   0.68289   20.851
 5102.00    0.68196   0.68231   20.557
 5103.00    0.65417   0.68185   21.073
 5104.00    0.64463   0.68150   21.665
 5105.00    0.68190   0.68123   21.538
 5106.00    0.71133   0.68108   21.094
 5107.00    0.69465   0.68106   20.930
 5108.00    0.66823   0.68106   21.145
 5109.00    0.66636   0.68140   21.471
 5110.00    0.67923   0.68214   21.408
 5111.00    0.69475   0.68295   20.841
 5112.00    0.71745   0.68425   20.263
 5113.00    0.73844   0.68577   20.123
 5114.00    0.73074   0.68709   20.593
 5115.00    0.69822   0.68839   21.348
 5116.00    0.68130   0.68920   21.572
 5117.00    0.68755   0.68953   21.265
 5118.00    0.68157   0.68927   21.376
 5119.00    0.65590   0.68825   21.965
 5120.00    0.64129   0.68650   22.056
 5121.00    0.65041   0.68410   21.669
 5122.00    0.66883   0.68120   21.832
 5123.00    0.68707   0.67820   22.356
 5124.00    0.70490   0.67510   21.991
 5125.00    0.71532   0.67239   21.043
 5126.00    0.70756   0.67023   20.827
 5127.00    0.68551   0.66864   21.271
 5128.00    0.66429   0.66763   21.383
 5129.00    0.65225   0.66724   21.229
 5130.00    0.64866   0.66732   21.571
 5131.00    0.64792   0.66770   22.082
 5132.00    0.64649   0.66847   21.882
 5133.00    0.65346   0.66903   21.490
 5134.00    0.67741   0.66958   21.835
 5135.00    0.70237   0.66974   22.249
 5136.00    0.70451   0.66974   21.576
 5137.00    0.68326   0.66917   20.617
 5138.00    0.65800   0.66815   20.517
 5139.00    0.65522   0.66715   20.945
 5140.00    0.68478   0.66569   21.032
 5141.00    0.71541   0.66460   20.705
 5142.00    0.71495   0.66367   20.379
 5143.00    0.69683   0.66247   20.288
 5144.00    0.68702   0.66167   20.408
 5145.00    0.68588   0.66116   20.448
 5146.00    0.68094   0.66071   20.323
 5147.00    0.66367   0.66028   20.523
 5148.00    0.64016   0.66018   21.284
 5149.00    0.63474   0.66005   21.866
 5150.00    0.65502   0.66041   21.623
 5151.00    0.67110   0.66074   21.088
 5152.00    0.66552   0.66128   20.905
 5153.00    0.66184   0.66207   21.155
 5154.00    0.67255   0.66307   21.607
 5155.00    0.67309   0.66428   21.857
 5156.00    0.65312   0.66543   21.698
 5157.00    0.63886   0.66662   21.337
 5158.00    0.64741   0.66715   21.085
 5159.00    0.66754   0.66715   21.131
 5160.00    0.68760   0.66585   21.226
 5161.00    0.70617   0.66359   20.798
 5162.00    0.71818   0.66010   20.112
 5163.00    0.71238   0.65534   20.146
 5164.00    0.68629   0.64976   21.061
 5165.00    0.65016   0.64353   21.986
 5166.00    0.61995   0.63684   22.289
 5167.00    0.61041   0.63049   22.201
 5168.00    0.62215   0.62467   22.054
 5169.00    0.64075   0.62031   21.996
 5170.00    0.64651   0.61762   22.129
 5171.00    0.62724   0.61677   22.483
 5172.00    0.60245   0.61732   22.791
 5173.00    0.60771   0.61884   22.649
 5174.00    0.64373   0.62181   22.140
 5175.00    0.68065   0.62565   21.707
 5176.00    0.69371   0.62970   21.636
 5177.00    0.67564   0.63318   21.961
 5178.00    0.64445   0.63594   22.390
 5179.00    0.62664   0.63775   22.535
 5180.00    0.62590   0.63833   22.485
 5181.00    0.62962   0.63808   22.564
 5182.00    0.62842   0.63704   22.755
 5183.00    0.62213   0.63584   22.818
 5184.00    0.62281   0.63457   22.615
 5185.00    0.63851   0.63403   22.275
 5186.00    0.65306   0.63467   22.248
 5187.00    0.64928   0.63578   22.778
 5188.00    0.63767   0.63759   23.309
 5189.00    0.63494   0.63931   23.219
 5190.00    0.63826   0.64110    0.000
 5191.00    0.63956   0.64301    0.000
 5192.00    0.64121   0.64431    0.000
 5193.00    0.64638   0.64552    0.000
 5194.00    0.65050   0.64670    0.000
 5195.00    0.65236   0.64812    0.000
 5196.00    0.66160   0.64914    0.000
 5197.00    0.68147   0.65027    0.000
 5198.00    0.69855   0.65114    0.000
 5199.00    0.70241   0.65165    0.000
 5200.00    0.69803   0.65193    0.000
 5201.00    0.69671   0.65144    0.000
 5202.00    0.70700   0.65052    0.000
 5203.00    0.71776   0.64890    0.000
 5204.00    0.69928   0.64723    0.000
 5205.00    0.65362   0.64515    0.000
 5206.00    0.62440   0.64336    0.000
 5207.00    0.62648   0.64200    0.000
 5208.00    0.62928   0.64158    0.000
 5209.00    0.62077   0.64168    0.000
 5210.00    0.62211   0.64282    0.000
 5211.00    0.64190   0.64469   21.901
 5212.00    0.66558   0.64697   21.824
 5213.00    0.67877   0.64974   22.015
 5214.00    0.67541   0.65237   21.935
 5215.00    0.65779   0.65493   21.562
 5216.00    0.63536   0.65694   21.394
 5217.00    0.62166   0.65862   21.620
 5218.00    0.62777   0.65980   22.039
 5219.00    0.64905   0.66042   22.244
 5220.00    0.67026   0.66063   21.931
 5221.00    0.68415   0.65996   21.459
 5222.00    0.69057   0.65877   21.420
 5223.00    0.68631   0.65686   21.791
 5224.00    0.66802   0.65459   22.150
 5225.00    0.64129   0.65206   22.310
 5226.00    0.61701   0.64968   22.347
 5227.00    0.60252   0.64767   22.355
 5228.00    0.59982   0.64628   22.347
 5229.00    0.60549   0.64600   22.185
 5230.00    0.61489   0.64647   21.813
 5231.00    0.62772   0.64747   21.532
 5232.00    0.64375   0.64914   21.519
 5233.00    0.65708   0.65089   21.330
 5234.00    0.66146   0.65283   20.703
 5235.00    0.65710   0.65510   20.327
 5236.00    0.65073   0.65735   20.699
 5237.00    0.65367   0.65988   21.205
 5238.00    0.66843   0.66219   21.093
 5239.00    0.67883   0.66427   20.645
 5240.00    0.67223   0.66602   20.438
 5241.00    0.65747   0.66721   20.639
 5242.00    0.64981   0.66796   21.046
 5243.00    0.65725   0.66804   21.153
 5244.00    0.67393   0.66760   20.853
 5245.00    0.67986   0.66672   20.787
 5246.00    0.66530   0.66543   21.275
 5247.00    0.64282   0.66376   21.831
 5248.00    0.62602   0.66197   22.117
 5249.00    0.61775   0.66032   22.490
 5250.00    0.61548   0.65898   23.014
 5251.00    0.61573   0.65782   23.051
 5252.00    0.61934   0.65729   22.539
 5253.00    0.63110   0.65701   22.272
 5254.00    0.64779   0.65702   22.493
 5255.00    0.65808   0.65709   22.653
 5256.00    0.66200   0.65687   22.439
 5257.00    0.67168   0.65643   22.099
 5258.00    0.68773   0.65531   21.962
 5259.00    0.69681   0.65343   22.200
 5260.00    0.69103   0.65061   22.585
 5261.00    0.67290   0.64677   22.633
 5262.00    0.65090   0.64217   22.420
 5263.00    0.63500   0.63707   22.426
 5264.00    0.62854   0.63190   22.531
 5265.00    0.62755   0.62692   22.250
 5266.00    0.62426   0.62269   21.845
 5267.00    0.61323   0.61926   21.942
 5268.00    0.60185   0.61724   22.372
 5269.00    0.60342   0.61634   22.462
 5270.00    0.61976   0.61642   22.146
 5271.00    0.64063   0.61769   21.848
 5272.00    0.64944   0.62006   21.798
 5273.00    0.63785   0.62327   21.987
 5274.00    0.62561   0.62696   22.213
 5275.00    0.63552   0.63104   22.273
 5276.00    0.65495   0.63485   22.247
 5277.00    0.65963   0.63866   22.318
 5278.00    0.65054   0.64229   22.491
 5279.00    0.64073   0.64550   22.653
 5280.00    0.63452   0.64828   22.705
 5281.00    0.63160   0.65067   22.655
 5282.00    0.63370   0.65266   22.670
 5283.00    0.64109   0.65466   22.787
 5284.00    0.64914   0.65659   22.684
 5285.00    0.65246   0.65861   22.297
 5286.00    0.64911   0.66085   22.224
 5287.00    0.64103   0.66302   22.797
 5288.00    0.63371   0.66501   23.472
 5289.00    0.63271   0.66656   23.754
 5290.00    0.64070   0.66746   24.005
 5291.00    0.65523   0.66773   24.396
 5292.00    0.66830   0.66716   24.274
 5293.00    0.67183   0.66600   23.555
 5294.00    0.66187   0.66407   23.211
 5295.00    0.64241   0.66190   23.604
 5296.00    0.62522   0.65944   24.028
 5297.00    0.61896   0.65715   23.978
 5298.00    0.62380   0.65513   23.783
 5299.00    0.63206   0.65370   23.806
 5300.00    0.63307   0.65311   24.069
 5301.00    0.63034   0.65334   24.242
 5302.00    0.63951   0.65426   23.872
 5303.00    0.65553   0.65581   23.322
 5304.00    0.65472   0.65764   23.475
 5305.00    0.64144   0.65976   24.222
 5306.00    0.64583   0.66180   24.465
 5307.00    0.67110   0.66369   23.993
 5308.00    0.69142   0.66513   23.655
 5309.00    0.69042   0.66617   23.846
 5310.00    0.66947   0.66674   24.395
 5311.00    0.64138   0.66687   24.965
 5312.00    0.62231   0.66651   25.206
 5313.00    0.61812   0.66573   24.988
 5314.00    0.62550   0.66453   24.477
 5315.00    0.64055   0.66309   24.058
 5316.00    0.65775   0.66145   24.037
 5317.00    0.66532   0.65955   24.251
 5318.00    0.65478   0.65758   24.294
 5319.00    0.63719   0.65546   24.009
 5320.00    0.63112   0.65318   23.544
 5321.00    0.64067   0.65069   23.219
 5322.00    0.65624   0.64797   23.238
 5323.00    0.66119   0.64492   23.403
 5324.00    0.64868   0.64185   23.415
 5325.00    0.63917   0.63864   23.295
 5326.00    0.65099   0.63590   23.237
 5327.00    0.66768   0.63348   23.370
 5328.00    0.66673   0.63190   23.631
 5329.00    0.65117   0.63091   23.690
 5330.00    0.63576   0.63105   23.411
 5331.00    0.63088   0.63192   23.221
 5332.00    0.63826   0.63366   23.380
 5333.00    0.64954   0.63586   23.494
 5334.00    0.65435   0.63803   23.331
 5335.00    0.64738   0.64004   23.369
 5336.00    0.63303   0.64165   23.806
 5337.00    0.62512   0.64289   -2.000
 5338.00    0.62580   0.64363   -2.000
 5339.00    0.61781   0.64399   -2.000
 5340.00    0.59719   0.64402   -2.000
 5341.00    0.58525   0.64395   -2.000
 5342.00    0.59185   0.64385   -2.000
 5343.00    0.60271   0.64397   -2.000
 5344.00    0.61197   0.64417   -2.000
 5345.00    0.63119   0.64484   -2.000
 5346.00    0.66017   0.64545   -2.000
 5347.00    0.68069   0.64641   -2.000
 5348.00    0.68116   0.64755   -2.000
 5349.00    0.66521   0.64897   -2.000
 5350.00    0.64730   0.65067   -2.000
 5351.00    0.64407   0.65265   -2.000
 5352.00    0.65303   0.65476   23.690
 5353.00    0.65490   0.65701   23.771
 5354.00    0.63901   0.65917   23.868
 5355.00    0.61119   0.66108   24.202
 5356.00    0.59420   0.66256   24.676
 5357.00    0.61099   0.66351   24.969
 5358.00    0.64736   0.66386   25.031
 5359.00    0.66859   0.66345   25.034
 5360.00    0.67164   0.66233   24.932
 5361.00    0.67541   0.66056   24.600
 5362.00    0.68115   0.65821   24.229
 5363.00    0.67855   0.65544   24.112
 5364.00    0.66898   0.65239   24.227
 5365.00    0.65961   0.64928   24.366
 5366.00    0.64844   0.64623   24.412
 5367.00    0.63285   0.64356   24.376
 5368.00    0.62393   0.64118   24.365
 5369.00    0.63055   0.63945   24.474
 5370.00    0.63799   0.63834   24.648
 5371.00    0.63129   0.63786   24.762
 5372.00    0.62356   0.63816   24.735
 5373.00    0.63029   0.63899   24.603
 5374.00    0.64070   0.64053   24.545
 5375.00    0.64076   0.64231   24.643
 5376.00    0.63660   0.64439   24.684
 5377.00    0.63709   0.64611   24.544
 5378.00    0.63805   0.64758   24.479
 5379.00    0.63375   0.64863   24.612
 5380.00    0.62661   0.64924   24.605
 5381.00    0.62294   0.64947   24.371
 5382.00    0.62839   0.64937   24.459
 5383.00    0.64156   0.64895   25.009
 5384.00    0.65262   0.64831   25.222
 5385.00    0.65936   0.64750   24.729
 5386.00    0.67174   0.64654   24.287
 5387.00    0.68396   0.64532   24.364
 5388.00    0.66879   0.64403   24.662
 5389.00    0.62556   0.64234   24.901
 5390.00    0.59151   0.64055   25.133
 5391.00    0.58634   0.63851   25.348
 5392.00    0.59535   0.63643   25.367
 5393.00    0.60412   0.63428   25.249
 5394.00    0.61037   0.63224   25.296
 5395.00    0.61391   0.63034   25.467
 5396.00    0.61415   0.62857   25.396
 5397.00    0.61448   0.62702   25.159
 5398.00    0.62004   0.62554   25.210
 5399.00    0.62699   0.62430   25.482
 5400.00    0.62551   0.62293   25.474
 5401.00    0.61622   0.62185   25.233
 5402.00    0.60922   0.62062   25.241
 5403.00    0.61088   0.61942   25.510
 5404.00    0.61976   0.61805   25.671
 5405.00    0.62529   0.61698   25.653
 5406.00    0.61673   0.61597   25.659
 5407.00    0.60064   0.61538   25.780
 5408.00    0.59315   0.61530   25.953
 5409.00    0.59978   0.61585   26.038
 5410.00    0.61546   0.61708   25.933
 5411.00    0.63078   0.61871   25.719
 5412.00    0.63710   0.62081   25.556
 5413.00    0.63249   0.62307   25.504
 5414.00    0.62307   0.62573   25.498
 5415.00    0.62261   0.62828   25.367
 5416.00    0.63768   0.63070   25.115
 5417.00    0.65146   0.63266   25.170
 5418.00    0.64771   0.63431   25.685
 5419.00    0.63754   0.63546   25.777
 5420.00    0.63554   0.63626   24.903
 5421.00    0.63491   0.63640   24.172
 5422.00    0.62768   0.63626   24.376
 5423.00    0.62334   0.63568   24.788
 5424.00    0.62915   0.63490   24.625
 5425.00    0.63462   0.63388   24.347
 5426.00    0.62972   0.63266   24.477
 5427.00    0.61834   0.63123   24.770
 5428.00    0.60846   0.62986   24.832
 5429.00    0.60443   0.62859   24.617
 5430.00    0.60520   0.62731   24.449
 5431.00    0.60531   0.62623   24.840
 5432.00    0.60525   0.62540   25.662
 5433.00    0.61371   0.62507   25.844
 5434.00    0.62898   0.62555   25.215
 5435.00    0.63531   0.62631   25.029
 5436.00    0.63116   0.62751   25.542
 5437.00    0.63466   0.62912   25.555
 5438.00    0.65011   0.63085   24.817
 5439.00    0.66122   0.63272   24.492
 5440.00    0.66038   0.63419   24.922
 5441.00    0.65450   0.63537   25.378
 5442.00    0.64602   0.63585   25.447
 5443.00    0.63197   0.63582   25.361
 5444.00    0.62195   0.63519   25.121
 5445.00    0.63179   0.63419   24.594
 5446.00    0.65097   0.63296   24.490
 5447.00    0.65104   0.63162   -2.000
 5448.00    0.63016   0.63028   -2.000
 5449.00    0.61115   0.62915   -2.000
 5450.00    0.61036   0.62819   -2.000
 5451.00    0.62906   0.62769   -2.000
 5452.00    0.65144   0.62720   -2.000
 5453.00    0.64688   0.62680   -2.000
 5454.00    0.57706   0.62637   -2.000
 5455.00    0.44731   0.62608   -2.000
 5456.00    0.38429   0.62579   -2.000
 5457.00    0.50400   0.62563   -2.000
 5458.00    0.69702   0.62545   -2.000
 5459.00    0.78752   0.62550   -2.000
 5460.00    0.79478   0.62575   -2.000
 5461.00    0.80815   0.62591   -2.000
 5462.00    0.79008   0.62601   -2.000
 5463.00    0.69949   0.62598   -2.000
 5464.00    0.64831   0.62596   -2.000
 5465.00    0.72005   0.62582   -2.000
 5466.00    0.78083   0.62563   -2.000
 5467.00    0.70558   0.62539   -2.000
 5468.00    0.59279   0.62508   -2.000
 5469.00    0.56602   0.62438   -2.000
 5470.00    0.59684   0.62351   17.043
 5471.00    0.61862   0.62237   20.574
 5472.00    0.62326   0.62097   25.794
 5473.00    0.62189   0.61935   26.500
 5474.00    0.61372   0.61772   25.036
 5475.00    0.60032   0.61614   25.361
 5476.00    0.59356   0.61473   26.175
 5477.00    0.59921   0.61364   25.836
 5478.00    0.60935   0.61303   25.204
 5479.00    0.61592   0.61274   25.130
 5480.00    0.61769   0.61291   25.346
 5481.00    0.61693   0.61372   25.485
 5482.00    0.61694   0.61470   25.491
 5483.00    0.61867   0.61590   25.360
 5484.00    0.61998   0.61704   25.063
 5485.00    0.61833   0.61831   24.809
 5486.00    0.61310   0.61947   24.951
 5487.00    0.60926   0.62050   25.412
 5488.00    0.61419   0.62135   25.687
 5489.00    0.62348   0.62195   25.650
 5490.00    0.62414   0.62233   25.673
 5491.00    0.61752   0.62257   25.961
 5492.00    0.61662   0.62275   26.403
 5493.00    0.62078   0.62274   26.656
 5494.00    0.61895   0.62262   26.422
 5495.00    0.61372   0.62240   26.033
 5496.00    0.61662   0.62199   26.050
 5497.00    0.62535   0.62151   26.289
 5498.00    0.62863   0.62095   26.147
 5499.00    0.62554   0.62024   25.696
 5500.00    0.62363   0.61942   25.403
 5501.00    0.62836   0.61854   25.312
 5502.00    0.63888   0.61769   25.238
 5503.00    0.64484   0.61673   25.225
 5504.00    0.63607   0.61576   25.319
 5505.00    0.61717   0.61485   25.177
 5506.00    0.60075   0.61401   24.850
 5507.00    0.59533   0.61334   25.686
 5508.00    0.60178   0.61269   27.843
 5509.00    0.61159   0.61226   26.149
 5510.00    0.61515   0.61191   20.052
 5511.00    0.61092   0.61194   16.331
 5512.00    0.60259   0.61204   15.898
 5513.00    0.59497   0.61250   16.851
 5514.00    0.59015   0.61313   17.244
 5515.00    0.58542   0.61403   17.045
 5516.00    0.58121   0.61509   17.005
 5517.00    0.58637   0.61632   17.110
 5518.00    0.60537   0.61747   16.840
 5519.00    0.62971   0.61858   15.741
 5520.00    0.64845   0.61934   14.731
 5521.00    0.65595   0.61986   15.777
 5522.00    0.65314   0.61987   20.348
 5523.00    0.64690   0.61954   26.336
 5524.00    0.64347   0.61879   26.962
 5525.00    0.64454   0.61781   25.108
 5526.00    0.64620   0.61666   24.891
 5527.00    0.64068   0.61551   25.516
 5528.00    0.62571   0.61445   25.865
 5529.00    0.60720   0.61359   26.025
 5530.00    0.59177   0.61302   26.225
 5531.00    0.58298   0.61271   26.383
 5532.00    0.57951   0.61276   26.510
 5533.00    0.57703   0.61307   26.760
 5534.00    0.57647   0.61358   27.011
 5535.00    0.58276   0.61424   26.923
 5536.00    0.59211   0.61495   26.639
 5537.00    0.59417   0.61570   26.649
 5538.00    0.58869   0.61642   26.883
 5539.00    0.58469   0.61717   26.831
 5540.00    0.58649   0.61782   26.468
 5541.00    0.59216   0.61843   26.167
 5542.00    0.59840   0.61895   25.945
 5543.00    0.60322   0.61939   25.608
 5544.00    0.60899   0.61977   25.285
 5545.00    0.61995   0.62012   25.201
 5546.00    0.63660   0.62044   25.135
 5547.00    0.65532   0.62074   24.765
 5548.00    0.66964   0.62103   24.363
 5549.00    0.67353   0.62124   24.377
 5550.00    0.66589   0.62141   24.772
 5551.00    0.65023   0.62142   25.204
 5552.00    0.63281   0.62129   25.390
 5553.00    0.61914   0.62099   25.270
 5554.00    0.60999   0.62052   25.095
 5555.00    0.60466   0.61988   25.066
 5556.00    0.60503   0.61913   24.976
 5557.00    0.61190   0.61825   24.621
 5558.00    0.62097   0.61732   24.213
 5559.00    0.62574   0.61630   23.951
 5560.00    0.62107   0.61525   23.678
 5561.00    0.60660   0.61413   23.340
 5562.00    0.58896   0.61302   23.275
 5563.00    0.57683   0.61184   23.558
 5564.00    0.57634   0.61074   23.603
 5565.00    0.58716   0.60966   23.131
 5566.00    0.60078   0.60869   22.749
 5567.00    0.60677   0.60788   22.863
 5568.00    0.59833   0.60720   23.206
 5569.00    0.57982   0.60676   23.530
 5570.00    0.56763   0.60649   23.960
 5571.00    0.57193   0.60641   24.485
 5572.00    0.58872   0.60652   24.732
 5573.00    0.60972   0.60677   24.622
 5574.00    0.62792   0.60712   24.563
 5575.00    0.63953   0.60750   24.715
 5576.00    0.64420   0.60791   24.842
 5577.00    0.64269   0.60818   24.956
 5578.00    0.63629   0.60823   25.396
 5579.00    0.62823   0.60813   26.084
 5580.00    0.62238   0.60765   26.421
 5581.00    0.61780   0.60677   26.177
 5582.00    0.60971   0.60553   25.728
 5583.00    0.59746   0.60393   25.551
 5584.00    0.58490   0.60198   25.924
 5585.00    0.57496   0.59990   26.559
 5586.00    0.56952   0.59770   26.779
 5587.00    0.57231   0.59560   26.496
 5588.00    0.58540   0.59373   26.188
 5589.00    0.60034   0.59225   26.152
 5590.00    0.60467   0.59115   26.317
 5591.00    0.59791   0.59055   26.158
 5592.00    0.58805   0.59033   25.340
 5593.00    0.57962   0.59056   24.718
 5594.00    0.57419   0.59100   25.173
 5595.00    0.57444   0.59166   26.067
 5596.00    0.58148   0.59231   26.107
 5597.00    0.59018   0.59302   25.491
 5598.00    0.59362   0.59363   25.185
 5599.00    0.58983   0.59433   25.447
 5600.00    0.58120   0.59502   26.003
 5601.00    0.57255   0.59599   26.300
 5602.00    0.56805   0.59700   26.057
 5603.00    0.56828   0.59837   25.826
 5604.00    0.57179   0.59983   26.062
 5605.00    0.57709   0.60162   26.324
 5606.00    0.58369   0.60326   26.209
 5607.00    0.59268   0.60498   26.215
 5608.00    0.60364   0.60627   26.678
 5609.00    0.61257   0.60733   26.978
 5610.00    0.61522   0.60777   26.743
 5611.00    0.60992   0.60773   26.703
 5612.00    0.59895   0.60711   27.237
 5613.00    0.58858   0.60608   27.588
 5614.00    0.58389   0.60471   27.281
 5615.00    0.58554   0.60319   26.963
 5616.00    0.58921   0.60166   27.068
 5617.00    0.58751   0.60026   27.280
 5618.00    0.57998   0.59907   27.278
 5619.00    0.57520   0.59815   27.099
 5620.00    0.57711   0.59751   26.890
 5621.00    0.58120   0.59714   26.747
 5622.00    0.58526   0.59705   26.626
 5623.00    0.59166   0.59713   26.392
 5624.00    0.59889   0.59746   26.135
 5625.00    0.60131   0.59787   26.117
 5626.00    0.59939   0.59847   26.314
 5627.00    0.59918   0.59910   26.421
 5628.00    0.60008   0.59986   26.353
 5629.00    0.59600   0.60054   26.272
 5630.00    0.58861   0.60119   26.214
 5631.00    0.58539   0.60164   26.074
 5632.00    0.58556   0.60189   25.852
 5633.00    0.58236   0.60190   25.691
 5634.00    0.57639   0.60160   25.807
 5635.00    0.57349   0.60109   26.293
 5636.00    0.57431   0.60032   26.687
 5637.00    0.57570   0.59954   26.364
 5638.00    0.57731   0.59861   25.616
 5639.00    0.58008   0.59788   25.184
 5640.00    0.58193   0.59716   25.340
 5641.00    0.57999   0.59674   25.881
 5642.00    0.57505   0.59644   26.121
 5643.00    0.57125   0.59641   25.532
 5644.00    0.57416   0.59649   24.680
 5645.00    0.58556   0.59673   24.287
 5646.00    0.59771   0.59703   24.280
 5647.00    0.60143   0.59730   24.392
 5648.00    0.59588   0.59749   24.771
 5649.00    0.58607   0.59753   25.562
 5650.00    0.57884   0.59736   26.363
 5651.00    0.57988   0.59693   26.747
 5652.00    0.59090   0.59621   26.964
 5653.00    0.60741   0.59524   27.336
 5654.00    0.61817   0.59398   27.645
 5655.00    0.61577   0.59260   27.643
 5656.00    0.60380   0.59105   27.502
 5657.00    0.58938   0.58959   27.496
 5658.00    0.57775   0.58817   27.717
 5659.00    0.57503   0.58707   27.913
 5660.00    0.58807   0.58618   27.515
 5661.00    0.61240   0.58576   26.538
 5662.00    0.62935   0.58560   25.729
 5663.00    0.62878   0.58595   25.329
 5664.00    0.61824   0.58646   24.884
 5665.00    0.60765   0.58741   24.299
 5666.00    0.60143   0.58839   24.039
 5667.00    0.59752   0.58968   24.292
 5668.00    0.58963   0.59086   24.773
 5669.00    0.57713   0.59227   25.068
 5670.00    0.56712   0.59345   24.902
 5671.00    0.56789   0.59473   24.550
 5672.00    0.58390   0.59574   24.605
 5673.00    0.60804   0.59673   25.049
 5674.00    0.62572   0.59738   25.285
 5675.00    0.63347   0.59786   25.165
 5676.00    0.63857   0.59797   25.062
 5677.00    0.64373   0.59783   25.099
 5678.00    0.64483   0.59735   25.133
 5679.00    0.63570   0.59662   25.175
 5680.00    0.61358   0.59566   25.388
 5681.00    0.58793   0.59457   25.852
 5682.00    0.57294   0.59340   26.496
 5683.00    0.56977   0.59229   27.020
 5684.00    0.57117   0.59126   27.122
 5685.00    0.57542   0.59047   26.974
 5686.00    0.58384   0.58985   26.965
 5687.00    0.59288   0.58960   27.145
 5688.00    0.59712   0.58951   27.305
 5689.00    0.59536   0.58979   27.208
 5690.00    0.59113   0.59009   26.864
 5691.00    0.59160   0.59065   26.749
 5692.00    0.60074   0.59104   27.091
 5693.00    0.61207   0.59151   27.117
 5694.00    0.61748   0.59164   26.351
 5695.00    0.61730   0.59169   25.939
 5696.00    0.61518   0.59132   26.674
 5697.00    0.61209   0.59077   27.459
 5698.00    0.60777   0.58984   27.125
 5699.00    0.60236   0.58876   26.571
 5700.00    0.59487   0.58741   26.715
 5701.00    0.58288   0.58597   27.035
 5702.00    0.57019   0.58440   26.796
 5703.00    0.56994   0.58283   26.062
 5704.00    0.58664   0.58125   25.307
 5705.00    0.60666   0.57976   24.966
 5706.00    0.61627   0.57840   25.124
 5707.00    0.61254   0.57726   25.433
 5708.00    0.60017   0.57642   25.545
 5709.00    0.58803   0.57593   25.389
 5710.00    0.58234   0.57590   25.149
 5711.00    0.58350   0.57628   25.130
 5712.00    0.58712   0.57720   25.351
 5713.00    0.58700   0.57846   25.492
 5714.00    0.58454   0.58020   25.410
 5715.00    0.58806   0.58207   25.286
 5716.00    0.59587   0.58424   25.258
 5717.00    0.59611   0.58630   25.334
 5718.00    0.58729   0.58843   25.549
 5719.00    0.57985   0.59024   25.955
 5720.00    0.57920   0.59195   26.394
 5721.00    0.58273   0.59325   26.563
 5722.00    0.58608   0.59434   26.477
 5723.00    0.58635   0.59501   26.435
 5724.00    0.58526   0.59547   26.582
 5725.00    0.58772   0.59560   26.849
 5726.00    0.59677   0.59557   27.064
 5727.00    0.61068   0.59534   27.097
 5728.00    0.62005   0.59504   27.101
 5729.00    0.61495   0.59469   27.316
 5730.00    0.59903   0.59435   27.609
 5731.00    0.58478   0.59406   27.651
 5732.00    0.58136   0.59383   27.414
 5733.00    0.58996   0.59367   27.100
 5734.00    0.60066   0.59356   26.889
 5735.00    0.60284   0.59349   26.757
 5736.00    0.59953   0.59341   26.333
 5737.00    0.59748   0.59337   25.433
 5738.00    0.59314   0.59323   24.568
 5739.00    0.58343   0.59314   24.057
 5740.00    0.57843   0.59290    0.000
 5741.00    0.58625   0.59275    0.000
 5742.00    0.59748   0.59241    0.000
 5743.00    0.60125   0.59218    0.000
 5744.00    0.60065   0.59174    0.000
 5745.00    0.60219   0.59137    0.000
 5746.00    0.60627   0.59082    0.000
 5747.00    0.61181   0.59029    0.000
 5748.00    0.61956   0.58961    0.000
 5749.00    0.62596   0.58894    0.000
 5750.00    0.62087   0.58820    0.000
 5751.00    0.60275   0.58750    0.000
 5752.00    0.58503   0.58682    0.000
 5753.00    0.57636   0.58626    0.000
 5754.00    0.57122   0.58574    0.000
 5755.00    0.56320   0.58541    0.000
 5756.00    0.55237   0.58510    0.000
 5757.00    0.54529   0.58499    0.000
 5758.00    0.55156   0.58485   -2.000
 5759.00    0.56986   0.58490   -2.000
 5760.00    0.58541   0.58489   -2.000
 5761.00    0.58337   0.58508   -2.000
 5762.00    0.55817   0.58521   -2.000
 5763.00    0.52640   0.58554   -2.000
 5764.00    0.51890   0.58584   -2.000
 5765.00    0.54222   0.58629   -2.000
 5766.00    0.57578   0.58671   -2.000
 5767.00    0.59960   0.58713   -2.000
 5768.00    0.60226   0.58749   -2.000
 5769.00    0.57995   0.58767   -2.000
 5770.00    0.53935   0.58775   -2.000
 5771.00    0.50436   0.58753   -2.000
 5772.00    0.50038   0.58717   -2.000
 5773.00    0.51879   0.58646   -2.000
 5774.00    0.53132   0.58562   -2.000
 5775.00    0.53195   0.58444   -2.000
 5776.00    0.53355   0.58314   -2.000
 5777.00    0.54737   0.58158   -2.000
 5778.00    0.57559   0.57994    0.000
 5779.00    0.60602   0.57817    0.000
 5780.00    0.62318   0.57645    0.000
 5781.00    0.62505   0.57479    0.000
 5782.00    0.61788   0.57334    0.000
 5783.00    0.60629   0.57213    0.000
 5784.00    0.59270   0.57132    0.000
 5785.00    0.57842   0.57083    0.000
 5786.00    0.56654   0.57082    0.000
 5787.00    0.56393   0.57110    0.000
 5788.00    0.57205   0.57179    0.000
 5789.00    0.57922   0.57266    0.000
 5790.00    0.57558   0.57377    0.000
 5791.00    0.56594   0.57494    0.000
 5792.00    0.55951   0.57617    0.000
 5793.00    0.56053   0.57736    0.000
 5794.00    0.56703   0.57848    0.000
 5795.00    0.57149   0.57953    0.000
 5796.00    0.56898   0.58046    0.000
 5797.00    0.56180   0.58129    0.000
 5798.00    0.55485   0.58200    0.000
 5799.00    0.55249   0.58260    0.000
 5800.00    0.55785   0.58309    0.000
 5801.00    0.57177   0.58346    0.000
 5802.00    0.58900   0.58372    0.000
 5803.00    0.59896   0.58388    0.000
 5804.00    0.59753   0.58394    0.000
 5805.00    0.59021   0.58395    0.000
 5806.00    0.58301   0.58388    0.000
 5807.00    0.57858   0.58383    0.000
 5808.00    0.57648   0.58372    0.000
 5809.00    0.57444   0.58367    0.000
 5810.00    0.57217   0.58357    0.000
 5811.00    0.57149   0.58358    0.000
 5812.00    0.57279   0.58353    0.000
 5813.00    0.57428   0.58358    0.000
 5814.00    0.57295   0.58362    0.000
 5815.00    0.56619   0.58377    0.000
 5816.00    0.55528   0.58394    0.000
 5817.00    0.54522   0.58421    0.000
 5818.00    0.54261   0.58453    0.000
 5819.00    0.55201   0.58491    0.000
 5820.00    0.56987   0.58534    0.000
 5821.00    0.58777   0.58576    0.000
 5822.00    0.60059   0.58619    0.000
 5823.00    0.60796   0.58654    0.000
 5824.00    0.61396   0.58687    0.000
 5825.00    0.62191   0.58707    0.000
 5826.00    0.62722   0.58724    0.000
 5827.00    0.62425   0.58726    0.000
 5828.00    0.61679   0.58726    0.000
 5829.00    0.61166   0.58711    0.000
 5830.00    0.60928   0.58696    0.000
 5831.00    0.60768   0.58669    0.000
 5832.00    0.60785   0.58646    0.000
 5833.00    0.60894   0.58613    0.000
 5834.00    0.60381   0.58587    0.000
 5835.00    0.58975   0.58554    0.000
 5836.00    0.57748   0.58533    0.000
 5837.00    0.57862   0.58504    0.000
 5838.00    0.59456   0.58487    0.000
 5839.00    0.61757   0.58461    0.000
 5840.00    0.63386   0.58441    0.000
 5841.00    0.63494   0.58408    0.000
 5842.00    0.62422   0.58373    0.000
 5843.00    0.60933   0.58319    0.000
 5844.00    0.59658   0.58256    0.000
 5845.00    0.58858   0.58172    0.000
 5846.00    0.58374   0.58074    0.000
 5847.00    0.57893   0.57956    0.000
 5848.00    0.57173   0.57826    0.000
 5849.00    0.56334   0.57679    0.000
 5850.00    0.55864   0.57525    0.000
 5851.00    0.56048   0.57363    0.000
 5852.00    0.56729   0.57201    0.000
 5853.00    0.57382   0.57041    0.000
 5854.00    0.57399   0.56893    0.000
 5855.00    0.56967   0.56757    0.000
 5856.00    0.56925   0.56646    0.000
 5857.00    0.57390   0.56556    0.000
 5858.00    0.57698   0.56499    0.000
 5859.00    0.57499   0.56465    0.000
 5860.00    0.56912   0.56466    0.000
 5861.00    0.56071   0.56485    0.000
 5862.00    0.55104   0.56532    0.000
 5863.00    0.54354   0.56585    0.000
 5864.00    0.54202   0.56655    0.000
 5865.00    0.54588   0.56716    0.000
 5866.00    0.55195   0.56780    0.000
 5867.00    0.55962   0.56823    0.000
 5868.00    0.57050   0.56856    0.000
 5869.00    0.58593   0.56862    0.000
 5870.00    0.60519   0.56847    0.000
 5871.00    0.62358   0.56810    0.000
 5872.00    0.63712   0.56743    0.000
 5873.00    0.64931   0.56674    0.000
 5874.00    0.66576   0.56567    0.000
 5875.00    0.68609   0.56484    0.000
 5876.00    0.70415   0.56357    0.000
 5877.00    0.71023   0.56275    0.000
 5878.00    0.69933   0.56139    0.000
 5879.00    0.67867   0.56049    0.000
 5880.00    0.65665   0.55891    0.000
 5881.00    0.63210   0.55755    0.000
 5882.00    0.60238   0.55543    0.000
 5883.00    0.57126   0.55319    0.000
 5884.00    0.54756   0.55017    0.000
 5885.00    0.54185   0.54682    0.000
 5886.00    0.55392   0.54285    0.000
 5887.00    0.56671   0.53862    0.000
 5888.00    0.56652   0.53415    0.000
 5889.00    0.55509   0.52981    0.000
 5890.00    0.53966   0.52574    0.000
 5891.00    0.52650   0.52230    0.000
 5892.00    0.52149   0.51955    0.000
 5893.00    0.52926   0.51784    0.000
 5894.00    0.54668   0.51706    0.000
 5895.00    0.56235   0.51743    0.000
 5896.00    0.56850   0.51872    0.000
 5897.00    0.56538   0.52101    0.000
 5898.00    0.55667   0.52398    0.000
 5899.00    0.54688   0.52760    0.000
 5900.00    0.53873   0.53151    0.000
 5901.00    0.53309   0.53566   29.800
 5902.00    0.53196   0.53969   29.342
 5903.00    0.53739   0.54362   29.143
 5904.00    0.54593   0.54710   29.129
 5905.00    0.55013   0.55025   28.955
 5906.00    0.54709   0.55279   28.732
 5907.00    0.53970   0.55491   28.827
 5908.00    0.53379   0.55646   28.969
 5909.00    0.53438   0.55760   28.568
 5910.00    0.53956   0.55831   27.916
 5911.00    0.54375   0.55871   27.697
 5912.00    0.54694   0.55885   27.755
 5913.00    0.55257   0.55882   27.477
 5914.00    0.56041   0.55871   26.823
 5915.00    0.56642   0.55858   26.229
 5916.00    0.56485   0.55848   26.147
 5917.00    0.55340   0.55846   26.731
 5918.00    0.53977   0.55851   27.429
 5919.00    0.53438   0.55869   27.567
 5920.00    0.53943   0.55889   27.509
 5921.00    0.55132   0.55918   27.900
 5922.00    0.56547   0.55940   28.528
 5923.00    0.57634   0.55965   28.872
 5924.00    0.57737   0.55978   28.974
 5925.00    0.56791   0.55987   29.200
 5926.00    0.55892   0.55985   29.802
 5927.00    0.55904   0.55974   30.556
 5928.00    0.56265   0.55958   30.498
 5929.00    0.56181   0.55936   29.416
 5930.00    0.55684   0.55915   28.712
 5931.00    0.55262   0.55894   29.177
 5932.00    0.55429   0.55878   30.000
 5933.00    0.56130   0.55865   30.275
 5934.00    0.56530   0.55857   30.205
 5935.00    0.56170   0.55854   30.156
 5936.00    0.55581   0.55849   30.013
 5937.00    0.55506   0.55851   29.646
 5938.00    0.56318   0.55846   29.157
 5939.00    0.57409   0.55845   28.677
 5940.00    0.57345   0.55832   28.293
 5941.00    0.55936   0.55822   28.180
 5942.00    0.54685   0.55800   28.542
 5943.00    0.54547   0.55779   29.078
 5944.00    0.55197   0.55749   28.985
 5945.00    0.56008   0.55718   28.270
 5946.00    0.56490   0.55683   27.782
 5947.00    0.56434   0.55644   27.762
 5948.00    0.55952   0.55603   27.812
 5949.00    0.55474   0.55562   27.913
 5950.00    0.55458   0.55525   28.423
 5951.00    0.55636   0.55487   29.117
 5952.00    0.55256   0.55457   29.287
 5953.00    0.54225   0.55434   29.035
 5954.00    0.53167   0.55424   29.082
 5955.00    0.52823   0.55423   29.483
 5956.00    0.53633   0.55435   29.778
 5957.00    0.55188   0.55460   29.921
 5958.00    0.56563   0.55495   30.181
 5959.00    0.57171   0.55541   30.483
 5960.00    0.56943   0.55591   30.567
 5961.00    0.56340   0.55648   30.522
 5962.00    0.55914   0.55703   30.625
 5963.00    0.55642   0.55759   30.938
 5964.00    0.55288   0.55809   31.286
 5965.00    0.55033   0.55854   31.326
 5966.00    0.55145   0.55890   30.861
 5967.00    0.55457   0.55918   30.185
 5968.00    0.55670   0.55932   29.690
 5969.00    0.55768   0.55938   29.449
 5970.00    0.55864   0.55922   29.305
 5971.00    0.55984   0.55899   28.986
 5972.00    0.56104   0.55853   28.450
 5973.00    0.56202   0.55801   28.087
 5974.00    0.56273   0.55728   28.083
 5975.00    0.56330   0.55653   28.016
 5976.00    0.56363   0.55564   27.637
 5977.00    0.56306   0.55476   27.399
 5978.00    0.56014   0.55383   27.583
 5979.00    0.55320   0.55292   27.811
 5980.00    0.54474   0.55211   27.738
 5981.00    0.54246   0.55136   27.498
 5982.00    0.54855   0.55076   27.315
 5983.00    0.55511   0.55022   27.273
 5984.00    0.55523   0.54989   27.488
 5985.00    0.54879   0.54962   28.133
 5986.00    0.54019   0.54956   28.979
 5987.00    0.53555   0.54956   29.311
 5988.00    0.53646   0.54976   29.153
 5989.00    0.53922   0.54998   29.478
 5990.00    0.54320   0.55032   30.545
 5991.00    0.55163   0.55062   31.504
 5992.00    0.56239   0.55093   31.731
 5993.00    0.56787   0.55116   31.451
 5994.00    0.56557   0.55133   31.122
 5995.00    0.55943   0.55136   31.069
 5996.00    0.55298   0.55132   31.298
 5997.00    0.54788   0.55109   31.530
 5998.00    0.54579   0.55080   31.433
 5999.00    0.54784   0.55037   30.838
 6000.00    0.55255   0.54991   30.019
 6001.00    0.55612   0.54933   29.461
 6002.00    0.55452   0.54876   29.407
 6003.00    0.54630   0.54811   29.774
 6004.00    0.53700   0.54753   29.993
 6005.00    0.53469   0.54693   29.418
 6006.00    0.54049   0.54641   28.231
 6007.00    0.54932   0.54593   27.123
 6008.00    0.55398   0.54547   26.625
 6009.00    0.55055   0.54511   26.850
 6010.00    0.54469   0.54474   27.205
 6011.00    0.54454   0.54446   27.047
 6012.00    0.55027   0.54415   26.765
 6013.00    0.55808   0.54391   26.986
 6014.00    0.56652   0.54358   27.554
 6015.00    0.57436   0.54332   28.049
 6016.00    0.57763   0.54298   28.515
 6017.00    0.57388   0.54271   29.109
 6018.00    0.56619   0.54244   29.604
 6019.00    0.55818   0.54225   29.803
 6020.00    0.54970   0.54215   29.984
 6021.00    0.54243   0.54217   30.430
 6022.00    0.54336   0.54233   31.002
 6023.00    0.55344   0.54266   31.373
 6024.00    0.56094   0.54313   31.300
 6025.00    0.55735   0.54377   30.900
 6026.00    0.54717   0.54452   30.668
 6027.00    0.53838   0.54539   30.794
 6028.00    0.53568   0.54630   30.908
 6029.00    0.53856   0.54725   30.752
 6030.00    0.54183   0.54817   30.499
 6031.00    0.54287   0.54905   30.270
 6032.00    0.54387   0.54982   29.963
 6033.00    0.54472   0.55051   29.592
 6034.00    0.54152   0.55106   29.325
 6035.00    0.53449   0.55149   29.079
 6036.00    0.52923   0.55180   28.537
 6037.00    0.52847   0.55197   27.782
 6038.00    0.53052   0.55210   27.255
 6039.00    0.53503   0.55211   27.099
 6040.00    0.54339   0.55215   27.142
 6041.00    0.55390   0.55210   27.291
 6042.00    0.56206   0.55211   27.597
 6043.00    0.56588   0.55207   28.091
 6044.00    0.56622   0.55206   28.730
 6045.00    0.56407   0.55204   29.367
 6046.00    0.56000   0.55198   29.859
 6047.00    0.55471   0.55192   30.376
 6048.00    0.54916   0.55174   31.161
 6049.00    0.54444   0.55153   31.778
 6050.00    0.54163   0.55117   31.571
 6051.00    0.54155   0.55077   31.084
 6052.00    0.54379   0.55028   31.284
 6053.00    0.54541   0.54969   32.049
 6054.00    0.54294   0.54915   32.607
 6055.00    0.53586   0.54850   32.669
 6056.00    0.52784   0.54800   32.371
 6057.00    0.52715   0.54737   31.783
 6058.00    0.53905   0.54694   30.987
 6059.00    0.55677   0.54640   30.226
 6060.00    0.56982   0.54602   29.744
 6061.00    0.57472   0.54565   29.633
 6062.00    0.57255   0.54536   29.788
 6063.00    0.56517   0.54520   29.870
 6064.00    0.55619   0.54518   29.670
 6065.00    0.55148   0.54527   29.427
 6066.00    0.55279   0.54547   29.290
 6067.00    0.55339   0.54580   28.930
 6068.00    0.54934   0.54619   28.189
 6069.00    0.54699   0.54666   27.478
 6070.00    0.54971   0.54711   27.228
 6071.00    0.55004   0.54750   27.600
 6072.00    0.54360   0.54776   28.406
 6073.00    0.53668   0.54783   29.064
 6074.00    0.53545   0.54769   29.405
 6075.00    0.53978   0.54732   30.072
 6076.00    0.54665   0.54672   31.175
 6077.00    0.55232   0.54600   31.677
 6078.00    0.55300   0.54506   31.215
 6079.00    0.54623   0.54406   30.839
 6080.00    0.53531   0.54299   31.197
 6081.00    0.52882   0.54201   32.019
 6082.00    0.53095   0.54100   32.646
 6083.00    0.53886   0.54017   32.452
 6084.00    0.54727   0.53940   31.751
 6085.00    0.55094   0.53881   31.470
 6086.00    0.54718   0.53828   31.553
 6087.00    0.53707   0.53789   31.102
 6088.00    0.52694   0.53760   30.058
 6089.00    0.52499   0.53744   29.149
 6090.00    0.53194   0.53732   28.691
 6091.00    0.54211   0.53728   28.595
 6092.00    0.55219   0.53729   28.784
 6093.00    0.56105   0.53728   29.186
 6094.00    0.56470   0.53725   29.546
 6095.00    0.55927   0.53715   29.561
 6096.00    0.54878   0.53702   29.279
 6097.00    0.54147   0.53673   28.847
 6098.00    0.54044   0.53638   27.958
 6099.00    0.54335   0.53579   26.359
 6100.00    0.54484   0.53520   24.532
 6101.00    0.54029   0.53474   23.120
 6102.00    0.53058   0.53428   22.460
 6103.00    0.51989   0.53392   22.626
 6104.00    0.51179   0.53365   23.384
 6105.00    0.50800   0.53356   24.402
 6106.00    0.50777   0.53368   25.565
 6107.00    0.51047   0.53397   26.790
 6108.00    0.51805   0.53433   27.689
 6109.00    0.53075   0.53476   28.040
 6110.00    0.54286   0.53527   28.378
 6111.00    0.54796   0.53568   29.251
 6112.00    0.54395   0.53602   30.487
 6113.00    0.53307   0.53612   31.579
 6114.00    0.52100   0.53612   32.194
 6115.00    0.51259   0.53590   32.225
 6116.00    0.50907   0.53547   31.771
 6117.00    0.51109   0.53481   31.077
 6118.00    0.52010   0.53404   30.411
 6119.00    0.53364   0.53306   29.750
 6120.00    0.54407   0.53221   28.731
 6121.00    0.54876   0.53140   27.113
 6122.00    0.55355   0.53064   25.062
 6123.00    0.56101   0.52998   23.260
 6124.00    0.56604   0.52947   22.466
 6125.00    0.56397   0.52910   22.800
 6126.00    0.55436   0.52885   23.799
 6127.00    0.54054   0.52874   24.928
 6128.00    0.52839   0.52863   25.788
 6129.00    0.52285   0.52847   26.312
 6130.00    0.52594   0.52824   26.740
 6131.00    0.53463   0.52782   27.043
 6132.00    0.54228   0.52722   26.971
 6133.00    0.54517   0.52638   26.948
 6134.00    0.54366   0.52538   27.836
 6135.00    0.53981   0.52449   29.560
 6136.00    0.53578   0.52370   30.956
 6137.00    0.53185   0.52300   31.367
 6138.00    0.52697   0.52239   31.248
 6139.00    0.52097   0.52201   31.294
 6140.00    0.51504   0.52205   31.824
 6141.00    0.51126   0.52229   32.158
 6142.00    0.51130   0.52282   31.412
 6143.00    0.51421   0.52344   30.385
 6144.00    0.51768   0.52422   30.290
 6145.00    0.52074   0.52492   30.807
 6146.00    0.52290   0.52565   30.872
 6147.00    0.52207   0.52620   30.298
 6148.00    0.51585   0.52667   29.673
 6149.00    0.50379   0.52689   29.612
 6150.00    0.49008   0.52696   29.498
 6151.00    0.48570   0.52673   26.608
 6152.00    0.49798   0.52626   21.623
 6153.00    0.51933   0.52561   18.484
 6154.00    0.53870   0.52463   18.017
 6155.00    0.55426   0.52348   18.975
 6156.00    0.56719   0.52202   19.973
 6157.00    0.57465   0.52041   20.759
 6158.00    0.57105   0.51844   21.681
 6159.00    0.55006   0.51642   22.652
 6160.00    0.50836   0.51442   -2.000
 6161.00    0.44943   0.51254   -2.000
 6162.00    0.39093   0.51087   -2.000
 6163.00    0.36477   0.50937   -2.000
 6164.00    0.38478   0.50826   -2.000
 6165.00    0.43026   0.50743   -2.000
 6166.00    0.47368   0.50687   -2.000
 6167.00    0.49876   0.50671   -2.000
 6168.00    0.50503   0.50695   -2.000
 6169.00    0.50552   0.50753   -2.000
 6170.00    0.50647   0.50826   -2.000
 6171.00    0.50174   0.50927   -2.000
 6172.00    0.49195   0.51035   24.389
 6173.00    0.48831   0.51157   24.618
 6174.00    0.49402   0.51277   25.742
 6175.00    0.50097   0.51407   27.607
 6176.00    0.50476   0.51529   29.259
 6177.00    0.50768   0.51640   29.711
 6178.00    0.51029   0.51746   29.330
 6179.00    0.51063   0.51832   29.459
 6180.00    0.50982   0.51903   30.146
 6181.00    0.51128   0.51947   30.267
 6182.00    0.51449   0.51976   29.700
 6183.00    0.51628   0.51970   29.268
 6184.00    0.51777   0.51948   29.019
 6185.00    0.52236   0.51898   28.471
 6186.00    0.52776   0.51834   27.748
 6187.00    0.52906   0.51759   27.388
 6188.00    0.52778   0.51664   27.696
 6189.00    0.52830   0.51584   28.652
 6190.00    0.52867   0.51515   29.715
 6191.00    0.52367   0.51461   30.011
 6192.00    0.51236   0.51428   29.199
 6193.00    0.49903   0.51413   27.772
 6194.00    0.49228   0.51424   26.725
 6195.00    0.49757   0.51447   26.719
 6196.00    0.50825   0.51485   27.609
 6197.00    0.51528   0.51533   28.894
 6198.00    0.51954   0.51593   30.203
 6199.00    0.52492   0.51658   31.253
 6200.00    0.52942   0.51724   31.776
 6201.00    0.52931   0.51787   31.727
 6202.00    0.52431   0.51840   31.431
 6203.00    0.51778   0.51885   31.158
 6204.00    0.51591   0.51915   30.813
 6205.00    0.52144   0.51933   30.371
 6206.00    0.52949   0.51929   30.154
 6207.00    0.53418   0.51903   30.278
 6208.00    0.53368   0.51851   30.343
 6209.00    0.52933   0.51782   29.989
 6210.00    0.52409   0.51678   29.295
 6211.00    0.51903   0.51564   28.595
 6212.00    0.51217   0.51432   28.259
 6213.00    0.50430   0.51298   28.478
 6214.00    0.50075   0.51168   29.191
 6215.00    0.50333   0.51042   30.092
 6216.00    0.50744   0.50924   30.656
 6217.00    0.50768   0.50823   30.632
 6218.00    0.50124   0.50741   30.243
 6219.00    0.49007   0.50678   29.677
 6220.00    0.48128   0.50637   28.953
 6221.00    0.48493   0.50603   28.239
 6222.00    0.50831   0.50587   27.664
 6223.00    0.53998   0.50568   26.539
 6224.00    0.55441   0.50557   23.999
 6225.00    0.54184   0.50540   20.734
 6226.00    0.51299   0.50517   17.969
 6227.00    0.48591   0.50483   16.243
 6228.00    0.47596   0.50445   15.683
 6229.00    0.48098   0.50411   16.298
 6230.00    0.48683   0.50370   18.184
 6231.00    0.48801   0.50352   21.411
 6232.00    0.48736   0.50324   25.572
 6233.00    0.48584   0.50313   29.535
 6234.00    0.48362   0.50293   31.815
 6235.00    0.48593   0.50275   32.039
 6236.00    0.49765   0.50256   31.319
 6237.00    0.51291   0.50225   30.909
 6238.00    0.52194   0.50201   31.341
 6239.00    0.52377   0.50160   31.876
 6240.00    0.52321   0.50114   31.456
 6241.00    0.52380   0.50065   30.417
 6242.00    0.52611   0.50010   29.715
 6243.00    0.52710   0.49955   29.819
 6244.00    0.52299   0.49907   30.735
 6245.00    0.51264   0.49864   31.963
 6246.00    0.49863   0.49825   32.742
 6247.00    0.48750   0.49791   32.629
 6248.00    0.48534   0.49757   31.754
 6249.00    0.49363   0.49710   30.728
 6250.00    0.50835   0.49672   30.129
 6251.00    0.52061   0.49617   30.249
 6252.00    0.52376   0.49576   31.022
 6253.00    0.51867   0.49519   31.918
 6254.00    0.51104   0.49476   32.449
 6255.00    0.50801   0.49432   32.646
 6256.00    0.51056   0.49401   32.668
 6257.00    0.51090   0.49400   32.493
 6258.00    0.50515   0.49403   32.180
 6259.00    0.49896   0.49452   31.945
 6260.00    0.49727   0.49500   31.805
 6261.00    0.49939   0.49584   31.537
 6262.00    0.50250   0.49663   31.295
 6263.00    0.50406   0.49767   31.630
 6264.00    0.50451   0.49869   32.418
 6265.00    0.50684   0.49974   32.684
 6266.00    0.51066   0.50077   32.264
 6267.00    0.51188   0.50163   32.094
 6268.00    0.50980   0.50248   32.550
 6269.00    0.50775   0.50311   33.192
 6270.00    0.50692   0.50377   33.601
 6271.00    0.50576   0.50416   33.689
 6272.00    0.50414   0.50454   33.641
 6273.00    0.50333   0.50472   33.741
 6274.00    0.50295   0.50485   34.021
 6275.00    0.50125   0.50485   34.260
 6276.00    0.49786   0.50482   34.207
 6277.00    0.49390   0.50470   33.749
 6278.00    0.49101   0.50461   33.107
 6279.00    0.49007   0.50450   32.619
 6280.00    0.48952   0.50447    0.000
 6281.00    0.48740   0.50458    0.000
 6282.00    0.48537   0.50466    0.000
 6283.00    0.48666   0.50491    0.000
 6284.00    0.49165   0.50512    0.000
 6285.00    0.49875   0.50543    0.000
 6286.00    0.50655   0.50573    0.000
 6287.00    0.51438   0.50595    0.000
 6288.00    0.52237   0.50608    0.000
 6289.00    0.52967   0.50608    0.000
 6290.00    0.53246   0.50592    0.000
 6291.00    0.52866   0.50565    0.000
 6292.00    0.52264   0.50523    0.000
 6293.00    0.52019   0.50463    0.000
 6294.00    0.52335   0.50393    0.000
 6295.00    0.53289   0.50310    0.000
 6296.00    0.55078   0.50230    0.000
 6297.00    0.57823   0.50151    0.000
 6298.00    0.61384   0.50080    0.000
 6299.00    0.65269   0.50017    0.000
 6300.00    0.68630   0.49968    0.000
 6301.00    0.70580   0.49940    0.000
 6302.00    0.70479   0.49930    0.000
 6303.00    0.68302   0.49941    0.000
 6304.00    0.64772   0.49961    0.000
 6305.00    0.60900   0.49992    0.000
 6306.00    0.57619   0.50026    0.000
 6307.00    0.55291   0.50054    0.000
 6308.00    0.53627   0.50077    0.000
 6309.00    0.52391   0.50086    0.000
 6310.00    0.51646   0.50084    0.000
 6311.00    0.51405   0.50062    0.000
 6312.00    0.51478   0.50028    0.000
 6313.00    0.51440   0.49987    0.000
 6314.00    0.50855   0.49935    0.000
 6315.00    0.49983   0.49879    0.000
 6316.00    0.49613   0.49837    0.000
 6317.00    0.49817   0.49797    0.000
 6318.00    0.49947   0.49783    0.000
 6319.00    0.49660   0.49785    0.000
 6320.00    0.49060   0.49805    0.000
 6321.00    0.48346   0.49848   31.433
 6322.00    0.47766   0.49897   31.745
 6323.00    0.47709   0.49973   32.246
 6324.00    0.48439   0.50036   31.633
 6325.00    0.49534   0.50112   30.071
 6326.00    0.50236   0.50175   28.689
 6327.00    0.50288   0.50229   28.040
 6328.00    0.50010   0.50275   28.112
 6329.00    0.50129   0.50292   28.386
 6330.00    0.51106   0.50306   28.297
 6331.00    0.52222   0.50290   28.060
 6332.00    0.52390   0.50258   28.245
 6333.00    0.51420   0.50208   29.085
 6334.00    0.49863   0.50145   30.421
 6335.00    0.48541   0.50084   31.595
 6336.00    0.48005   0.50018   32.020
 6337.00    0.48026   0.49970   32.114
 6338.00    0.48151   0.49913   32.398
 6339.00    0.48306   0.49873   32.438
 6340.00    0.48512   0.49837   31.950
 6341.00    0.48594   0.49801   31.774
 6342.00    0.48448   0.49786   32.544
 6343.00    0.48256   0.49761   33.704
 6344.00    0.48230   0.49766   34.332
 6345.00    0.48401   0.49763   34.102
 6346.00    0.48716   0.49781   33.388
 6347.00    0.49116   0.49790   32.947
 6348.00    0.49558   0.49811   33.199
 6349.00    0.50011   0.49817   33.966
 6350.00    0.50319   0.49814   34.707
 6351.00    0.50216   0.49802   34.780
 6352.00    0.49739   0.49766   34.333
 6353.00    0.49315   0.49729   34.339
 6354.00    0.49119   0.49664   34.826
 6355.00    0.48894   0.49598   34.471
 6356.00    0.48543   0.49512   32.652
 6357.00    0.48340   0.49422   30.143
 6358.00    0.48750   0.49322   27.775
 6359.00    0.50166   0.49235   26.001
 6360.00    0.52292   0.49155   25.144
 6361.00    0.54250   0.49091   25.430
 6362.00    0.55575   0.49051   26.532
 6363.00    0.56400   0.49036   27.566
 6364.00    0.57026   0.49051   28.209
 6365.00    0.57648   0.49086   28.873
 6366.00    0.57989   0.49144   29.464
 6367.00    0.57434   0.49213   29.542
 6368.00    0.55584   0.49300   29.822
 6369.00    0.52603   0.49387   31.499
 6370.00    0.49658   0.49484   33.837
 6371.00    0.48204   0.49580   34.422
 6372.00    0.48489   0.49668   33.423
 6373.00    0.49781   0.49749   32.847
 6374.00    0.51298   0.49807   32.879
 6375.00    0.52400   0.49858   32.768
 6376.00    0.52651   0.49889   32.673
 6377.00    0.51994   0.49907   33.098
 6378.00    0.50976   0.49910   33.726
 6379.00    0.50248   0.49910   33.854
 6380.00    0.49908   0.49902   33.338
 6381.00    0.49681   0.49888   32.529
 6382.00    0.49261   0.49872   31.897
 6383.00    0.48624   0.49847   31.741
 6384.00    0.48261   0.49825   32.034
 6385.00    0.48525   0.49801   32.551
 6386.00    0.49038   0.49774   32.981
 6387.00    0.49326   0.49740   33.124
 6388.00    0.49401   0.49702   33.046
 6389.00    0.49464   0.49660   32.615
 6390.00    0.49642   0.49603   31.298
 6391.00    0.50144   0.49551   29.213
 6392.00    0.51293   0.49483   27.321
 6393.00    0.52910   0.49431   26.240
 6394.00    0.54078   0.49389   26.051
 6395.00    0.54250   0.49345   26.686
 6396.00    0.53760   0.49304   28.032
 6397.00    0.52947   0.49257   29.916
 6398.00    0.51747   0.49234   31.997
 6399.00    0.50196   0.49198   33.565
 6400.00    0.48656   0.49202   33.709
 6401.00    0.47618   0.49208   32.534
 6402.00    0.47483   0.49214   31.238
 6403.00    0.48047   0.49234   30.718
 6404.00    0.48581   0.49238   31.254
 6405.00    0.48872   0.49243   32.283
 6406.00    0.49345   0.49239   32.561
 6407.00    0.50172   0.49229   32.106
 6408.00    0.51038   0.49216   32.105
 6409.00    0.51343   0.49215   32.343
 6410.00    0.50523   0.49202   31.419
 6411.00    0.48704   0.49181   29.457
 6412.00    0.46729   0.49169   27.702
 6413.00    0.45745   0.49151   26.595
 6414.00    0.46541   0.49132   26.112
 6415.00    0.48367   0.49122   26.599
 6416.00    0.49632   0.49110   28.483
 6417.00    0.49809   0.49110   31.002
 6418.00    0.49321   0.49114   32.057
 6419.00    0.48628   0.49114   30.957
 6420.00    0.47999   0.49129   28.935
 6421.00    0.47444   0.49161   27.072
 6422.00    0.46979   0.49201   25.894
 6423.00    0.47015   0.49230   25.655
 6424.00    0.47918   0.49262   26.395
 6425.00    0.49343   0.49289   27.729
 6426.00    0.50522   0.49312   29.066
 6427.00    0.50740   0.49321   30.211
 6428.00    0.49786   0.49313   31.221
 6429.00    0.48320   0.49302   31.957
 6430.00    0.47270   0.49282   32.376
 6431.00    0.47148   0.49281   32.885
 6432.00    0.47944   0.49263   33.512
 6433.00    0.49109   0.49243   33.158
 6434.00    0.49830   0.49229   31.365
 6435.00    0.49354   0.49211   29.437
 6436.00    0.47632   0.49201   28.340
 6437.00    0.45672   0.49189   28.020
 6438.00    0.44627   0.49185   28.282
 6439.00    0.45071   0.49200   29.132
 6440.00    0.46649   0.49234   30.428
 6441.00    0.48109   0.49259   31.620
 6442.00    0.48625   0.49275   32.351
 6443.00    0.48415   0.49283   32.918
 6444.00    0.47965   0.49278   33.608
 6445.00    0.47591   0.49261   34.301
 6446.00    0.47443   0.49218   34.766
 6447.00    0.47515   0.49163   34.875
 6448.00    0.47683   0.49104   34.737
 6449.00    0.47785   0.49039   34.642
 6450.00    0.47882   0.48988   34.737
 6451.00    0.48218   0.48932   34.906
 6452.00    0.48791   0.48875   34.800
 6453.00    0.49306   0.48821   34.102
 6454.00    0.49541   0.48775   33.238
 6455.00    0.49484   0.48738   32.988
 6456.00    0.49378   0.48721   33.310
 6457.00    0.49496   0.48715   33.533
 6458.00    0.49539   0.48712   33.519
 6459.00    0.48961   0.48713   33.556
 6460.00    0.48037   0.48719   33.294
 6461.00    0.47606   0.48704   32.189
 6462.00    0.47980   0.48693   30.804
 6463.00    0.48885   0.48713   30.062
 6464.00    0.49779   0.48716   30.070
 6465.00    0.50101   0.48739   30.534
 6466.00    0.49582   0.48750   31.445
 6467.00    0.48400   0.48769   32.811
 6468.00    0.47306   0.48767   33.944
 6469.00    0.47091   0.48772   34.026
 6470.00    0.47821   0.48778   33.509
 6471.00    0.49042   0.48774   33.237
 6472.00    0.50200   0.48800   33.133
 6473.00    0.50812   0.48798   32.986
 6474.00    0.50629   0.48789   33.382
 6475.00    0.49807   0.48770   34.699
 6476.00    0.49019   0.48756   35.853
 6477.00    0.48834   0.48727   35.684
 6478.00    0.49156   0.48688   34.979
 6479.00    0.49666   0.48651   34.806
 6480.00    0.50234   0.48595   35.084
 6481.00    0.50725   0.48541   35.315
 6482.00    0.50862   0.48484   35.183
 6483.00    0.50507   0.48423   34.611
 6484.00    0.49832   0.48349   33.762
 6485.00    0.48985   0.48265   33.104
 6486.00    0.47940   0.48161   33.242
 6487.00    0.46963   0.48039   33.956
 6488.00    0.46719   0.47897   33.857
 6489.00    0.47286   0.47732   32.633
 6490.00    0.47837   0.47554   31.716
 6491.00    0.47697   0.47361   31.633
 6492.00    0.46836   0.47171   31.583
 6493.00    0.45634   0.46962   31.321
 6494.00    0.44641   0.46784   31.593
 6495.00    0.44074   0.46647   32.610
 6496.00    0.43756   0.46534   33.677
 6497.00    0.43594   0.46494   34.314
 6498.00    0.43676   0.46469   34.701
 6499.00    0.43956   0.46515   35.077
 6500.00    0.44229   0.46596   35.493
 6501.00    0.44371   0.46715   35.880
 6502.00    0.44383   0.46870   36.119
 6503.00    0.44341   0.47032   36.145
 6504.00    0.44389   0.47228   35.995
 6505.00    0.44766   0.47395   35.787
 6506.00    0.45655   0.47563   35.682
 6507.00    0.46832   0.47697   35.817
 6508.00    0.47898   0.47808   36.127
 6509.00    0.48846   0.47900   36.010
 6510.00    0.49859   0.47958   34.925
 6511.00    0.50713   0.47993   33.488
 6512.00    0.50938   0.48002   32.663
 6513.00    0.50240   0.47994   32.726
 6514.00    0.48752   0.47966   33.393
 6515.00    0.47260   0.47931   33.868
 6516.00    0.46644   0.47895   33.476
 6517.00    0.47079   0.47862   32.677
 6518.00    0.47996   0.47833   32.272
 6519.00    0.48245   0.47818   32.445
 6520.00    0.47236   0.47802   32.985
 6521.00    0.46053   0.47788   33.501
 6522.00    0.45918   0.47778   33.686
 6523.00    0.46591   0.47769   33.604
 6524.00    0.47191   0.47768   33.543
 6525.00    0.47115   0.47760   33.791
 6526.00    0.46331   0.47754   34.461
 6527.00    0.45455   0.47750   35.349
 6528.00    0.44958   0.47744    0.000
 6529.00    0.44646   0.47732    0.000
 6530.00    0.44350   0.47711    0.000
 6531.00    0.44354   0.47686    0.000
 6532.00    0.44875   0.47660    0.000
 6533.00    0.45763   0.47635    0.000
 6534.00    0.46777   0.47613    0.000
 6535.00    0.47739   0.47584    0.000
 6536.00    0.48482   0.47544    0.000
 6537.00    0.48826   0.47499    0.000
 6538.00    0.48612   0.47442    0.000
 6539.00    0.47780   0.47374    0.000
 6540.00    0.46633   0.47286    0.000
 6541.00    0.45788   0.47184    0.000
 6542.00    0.45585   0.47065    0.000
 6543.00    0.46035   0.46923    0.000
 6544.00    0.47396   0.46766    0.000
 6545.00    0.50140   0.46578    0.000
 6546.00    0.54188   0.46388    0.000
 6547.00    0.58742   0.46180    0.000
 6548.00    0.62513   0.45945    0.000
 6549.00    0.64162   0.45683    0.000
 6550.00    0.63220   0.45384    0.000
 6551.00    0.60192   0.45052    0.000
 6552.00    0.56229   0.44662    0.000
 6553.00    0.52635   0.44235    0.000
 6554.00    0.50034   0.43772    0.000
 6555.00    0.48533   0.43274    0.000
 6556.00    0.48423   0.42753    0.000
 6557.00    0.51702   0.42203    0.000
 6558.00    0.64334   0.41641    0.000
 6559.00    0.94352   0.41077    0.000
 6560.00    1.48033   0.40543    0.000
 6561.00    2.24694   0.40052    0.000
 6562.00    3.10547   0.39668    0.000
 6563.00    3.83653   0.39497    0.000
 6564.00    4.21973   0.39448    0.000
 6565.00    4.11930   0.39492    0.000
 6566.00    3.56923   0.39652    0.000
 6567.00    2.73986   0.39907    0.000
 6568.00    1.88117   0.40237    0.000
 6569.00    1.20374   0.40650    0.000
 6570.00    0.77393   0.41169    0.000
 6571.00    0.55902   0.41703    0.000
 6572.00    0.48071   0.42228    0.000
 6573.00    0.46322   0.42736    0.000
 6574.00    0.46680   0.43189    0.000
 6575.00    0.47433   0.43618    0.000
 6576.00    0.47937   0.43998    0.000
 6577.00    0.48258   0.44347    0.000
 6578.00    0.48970   0.44643    0.000
 6579.00    0.51021   0.44910    0.000
 6580.00    0.55505   0.45144    0.000
 6581.00    0.62823   0.45337    0.000
 6582.00    0.72228   0.45529    0.000
 6583.00    0.81864   0.45664    0.000
 6584.00    0.89108   0.45799    0.000
 6585.00    0.91907   0.45882    0.000
 6586.00    0.89493   0.45963    0.000
 6587.00    0.82789   0.46026    0.000
 6588.00    0.74122   0.46060    0.000
 6589.00    0.65677   0.46097    0.000
 6590.00    0.58771   0.46093    0.000
 6591.00    0.53408   0.46097    0.000
 6592.00    0.48829   0.46069    0.000
 6593.00    0.45498   0.46077    0.000
 6594.00    0.44680   0.46100    0.000
 6595.00    0.45788   0.46109    0.000
 6596.00    0.46798   0.46130    0.000
 6597.00    0.46962   0.46142    0.000
 6598.00    0.46836   0.46170    0.000
 6599.00    0.46888   0.46199    0.000
 6600.00    0.47252   0.46247    0.000
 6601.00    0.47887   0.46295    0.000
 6602.00    0.48648   0.46335    0.000
 6603.00    0.49373   0.46366    0.000
 6604.00    0.49878   0.46384    0.000
 6605.00    0.49927   0.46407    0.000
 6606.00    0.49339   0.46422    0.000
 6607.00    0.48151   0.46441    0.000
 6608.00    0.46703   0.46448    0.000
 6609.00    0.45682   0.46476   33.030
 6610.00    0.45546   0.46509   33.464
 6611.00    0.45884   0.46536   33.969
 6612.00    0.46128   0.46575   34.224
 6613.00    0.46382   0.46608   34.081
 6614.00    0.46855   0.46661   33.723
 6615.00    0.47262   0.46699   33.672
 6616.00    0.47315   0.46744   34.222
 6617.00    0.47199   0.46785   35.003
 6618.00    0.47270   0.46815   35.572
 6619.00    0.47754   0.46834   35.984
 6620.00    0.48607   0.46834   36.305
 6621.00    0.49459   0.46830   36.224
 6622.00    0.49922   0.46803   35.600
 6623.00    0.49802   0.46766   34.798
 6624.00    0.49070   0.46714   34.292
 6625.00    0.47869   0.46673   34.382
 6626.00    0.46633   0.46617   34.819
 6627.00    0.46046   0.46558   34.754
 6628.00    0.46458   0.46497   33.949
 6629.00    0.47594   0.46431   33.144
 6630.00    0.48650   0.46370   32.785
 6631.00    0.48645   0.46308   32.729
 6632.00    0.47664   0.46261   32.821
 6633.00    0.46881   0.46218   33.062
 6634.00    0.46708   0.46197   33.381
 6635.00    0.46502   0.46181   33.610
 6636.00    0.46023   0.46168   33.730
 6637.00    0.45673   0.46162   33.886
 6638.00    0.45637   0.46157   34.153
 6639.00    0.45738   0.46153   34.506
 6640.00    0.45799   0.46161   34.974
 6641.00    0.45773   0.46182   35.567
 6642.00    0.45820   0.46184   35.950
 6643.00    0.46144   0.46196   35.743
 6644.00    0.46598   0.46215   35.419
 6645.00    0.46835   0.46229   35.721
 6646.00    0.46800   0.46236   36.210
 6647.00    0.46629   0.46249   35.872
 6648.00    0.46286   0.46268   34.999
 6649.00    0.45716   0.46266   34.489
 6650.00    0.45224   0.46272   34.280
 6651.00    0.45178   0.46281   33.878
 6652.00    0.45465   0.46285   33.346
 6653.00    0.45682   0.46273   33.078
 6654.00    0.45534   0.46260   33.337
 6655.00    0.45070   0.46236   34.003
 6656.00    0.44861   0.46202   34.258
 6657.00    0.45357   0.46171   33.644
 6658.00    0.46160   0.46121   33.245
 6659.00    0.46644   0.46075   33.937
 6660.00    0.46666   0.46015   34.844
 6661.00    0.46364   0.45968   34.932
 6662.00    0.45891   0.45902   34.927
 6663.00    0.45354   0.45852   35.591
 6664.00    0.44795   0.45827   36.169
 6665.00    0.44346   0.45785   35.975
 6666.00    0.44281   0.45759   35.759
 6667.00    0.44577   0.45730   36.089
 6668.00    0.44704   0.45719   36.352
 6669.00    0.44372   0.45688   35.974
 6670.00    0.43942   0.45667   35.250
 6671.00    0.43867   0.45654   34.724
 6672.00    0.44318   0.45630   34.705
 6673.00    0.45008   0.45597   34.832
 6674.00    0.45310   0.45553   34.159
 6675.00    0.45202   0.45518   32.855
 6676.00    0.45465   0.45442   32.183
 6677.00    0.46536   0.45390   32.115
 6678.00    0.48060   0.45357   31.176
 6679.00    0.49201   0.45359   28.822
 6680.00    0.49084   0.45357   25.975
 6681.00    0.47853   0.45356   23.590
 6682.00    0.46689   0.45390   22.104
 6683.00    0.46636   0.45399   21.381
 6684.00    0.48002   0.45440   21.085
 6685.00    0.49798   0.45501   21.185
 6686.00    0.50293   0.45579   21.839
 6687.00    0.48872   0.45634   22.773
 6688.00    0.46303   0.45672   23.393
 6689.00    0.44113   0.45715   23.944
 6690.00    0.43645   0.45736   25.316
 6691.00    0.44429   0.45752   27.484
 6692.00    0.44964   0.45759   29.314
 6693.00    0.44945   0.45755   30.082
 6694.00    0.44958   0.45737   30.014
 6695.00    0.45178   0.45706   29.459
 6696.00    0.45419   0.45681    0.000
 6697.00    0.45606   0.45659    0.000
 6698.00    0.45802   0.45632    0.000
 6699.00    0.46139   0.45616    0.000
 6700.00    0.46628   0.45592    0.000
 6701.00    0.46951   0.45568    0.000
 6702.00    0.46757   0.45534    0.000
 6703.00    0.46037   0.45508    0.000
 6704.00    0.45018   0.45498    0.000
 6705.00    0.43990   0.45480    0.000
 6706.00    0.43310   0.45466    0.000
 6707.00    0.43363   0.45433    0.000
 6708.00    0.43949   0.45401    0.000
 6709.00    0.43934   0.45348    0.000
 6710.00    0.43013   0.45299    0.000
 6711.00    0.42973   0.45263    0.000
 6712.00    0.46036   0.45210    0.000
 6713.00    0.53519   0.45165    0.000
 6714.00    0.65777   0.45101    0.000
 6715.00    0.82131   0.45053    0.000
 6716.00    1.00317   0.44997    0.000
 6717.00    1.16402   0.44955    0.000
 6718.00    1.26205   0.44952    0.000
 6719.00    1.26458   0.44937    0.000
 6720.00    1.16536   0.44940    0.000
 6721.00    0.99147   0.44941    0.000
 6722.00    0.79541   0.44964    0.000
 6723.00    0.63994   0.44993    0.000
 6724.00    0.55328   0.45021    0.000
 6725.00    0.52202   0.45066    0.000
 6726.00    0.53435   0.45106    0.000
 6727.00    0.59166   0.45145    0.000
 6728.00    0.69062   0.45174    0.000
 6729.00    0.81609   0.45205    0.000
 6730.00    0.93938   0.45225    0.000
 6731.00    1.02458   0.45233    0.000
 6732.00    1.04695   0.45230    0.000
 6733.00    0.99983   0.45232    0.000
 6734.00    0.89819   0.45226    0.000
 6735.00    0.77271   0.45207    0.000
 6736.00    0.65456   0.45182    0.000
 6737.00    0.56686   0.45144    0.000
 6738.00    0.51494   0.45104    0.000
 6739.00    0.49058   0.45063    0.000
 6740.00    0.48361   0.45029    0.000
 6741.00    0.48466   0.44986    0.000
 6742.00    0.48624   0.44934    0.000
 6743.00    0.48416   0.44897    0.000
 6744.00    0.47924   0.44856    0.000
 6745.00    0.47427   0.44814    0.000
 6746.00    0.46941   0.44788    0.000
 6747.00    0.46351   0.44760    0.000
 6748.00    0.45658   0.44740    0.000
 6749.00    0.45027   0.44713    0.000
 6750.00    0.44773   0.44716    0.000
 6751.00    0.45076   0.44725    0.000
 6752.00    0.45715   0.44722    0.000
 6753.00    0.46438   0.44750   25.968
 6754.00    0.47300   0.44768   25.802
 6755.00    0.48215   0.44801   26.192
 6756.00    0.48629   0.44831   27.242
 6757.00    0.48239   0.44867   28.835
 6758.00    0.47500   0.44906   30.236
 6759.00    0.47072   0.44919   30.633
 6760.00    0.47333   0.44945   29.951
 6761.00    0.47971   0.44955   28.573
 6762.00    0.47973   0.44961   26.883
 6763.00    0.47055   0.44957   25.196
 6764.00    0.46202   0.44941   23.781
 6765.00    0.46107   0.44922   23.013
 6766.00    0.46497   0.44888   23.353
 6767.00    0.47054   0.44865   24.812
 6768.00    0.47730   0.44850   26.658
 6769.00    0.48140   0.44835   28.274
 6770.00    0.47496   0.44817   29.701
 6771.00    0.45395   0.44810   30.198
 6772.00    0.42258   0.44814   28.320
 6773.00    0.39647   0.44824   25.060
 6774.00    0.39612   0.44834   22.513
 6775.00    0.42291   0.44852   21.253
 6776.00    0.45829   0.44859   21.131
 6777.00    0.48440   0.44861   22.089
 6778.00    0.49213   0.44865   24.180
 6779.00    0.48556   0.44861   27.108
 6780.00    0.47710   0.44850   29.830
 6781.00    0.47343   0.44820   31.389
 6782.00    0.47393   0.44784   31.816
 6783.00    0.47461   0.44741   31.823
 6784.00    0.47186   0.44707   32.038
 6785.00    0.46744   0.44672   32.188
 6786.00    0.46421   0.44637   31.553
 6787.00    0.45699   0.44612   30.139
 6788.00    0.44024   0.44578   28.407
 6789.00    0.42210   0.44556   26.583
 6790.00    0.41539   0.44540   24.869
 6791.00    0.42157   0.44538   23.689
 6792.00    0.43474   0.44532   23.411
 6793.00    0.45005   0.44527   24.212
 6794.00    0.46416   0.44539   26.074
 6795.00    0.47472   0.44535   28.363
 6796.00    0.48202   0.44542   29.341
 6797.00    0.49025   0.44547   27.060
 6798.00    0.50214   0.44548   22.843
 6799.00    0.51386   0.44553   19.813
 6800.00    0.51905   0.44552   18.734
 6801.00    0.51319   0.44558   18.866
 6802.00    0.49749   0.44554   19.625
 6803.00    0.48050   0.44545   21.115
 6804.00    0.46948   0.44547   23.438
 6805.00    0.46428   0.44538   25.781
 6806.00    0.46044   0.44523   27.088
 6807.00    0.45275   0.44520   27.554
 6808.00    0.44241   0.44508   27.703
 6809.00    0.43880   0.44493   27.419
 6810.00    0.44600   0.44487   26.779
 6811.00    0.45734   0.44480   26.350
 6812.00    0.46666   0.44475   26.387
 6813.00    0.47344   0.44464   26.638
 6814.00    0.47885   0.44455   26.836
 6815.00    0.48332   0.44465   26.894
 6816.00    0.48411   0.44472   26.777
 6817.00    0.47675   0.44477   26.450
 6818.00    0.46369   0.44482   25.892
 6819.00    0.45387   0.44476   25.154
 6820.00    0.45047   0.44483   24.468
 6821.00    0.45007   0.44493   24.175
 6822.00    0.45288   0.44500   24.575
 6823.00    0.46196   0.44510   25.774
 6824.00    0.47228   0.44502   27.032
 6825.00    0.47317   0.44496   26.916
 6826.00    0.46181   0.44484   25.502
 6827.00    0.44465   0.44461   24.078
 6828.00    0.43280   0.44452   23.180
 6829.00    0.43556   0.44439   22.769
 6830.00    0.44993   0.44419   22.761
 6831.00    0.46455   0.44386   23.173
 6832.00    0.47106   0.44341   24.249
 6833.00    0.46734   0.44306   26.170
 6834.00    0.45890   0.44265   28.124
 6835.00    0.45262   0.44220   28.825
 6836.00    0.44732   0.44171   28.964
 6837.00    0.43995   0.44122   29.898
 6838.00    0.43556   0.44064   30.846
 6839.00    0.43861   0.44011   30.443
 6840.00    0.44129   0.43960   29.799
 6841.00    0.43483   0.43920   30.359
 6842.00    0.42309   0.43893   31.584
 6843.00    0.41394   0.43872   32.223
 6844.00    0.40909   0.43867   32.200
 6845.00    0.40873   0.43858   32.095
 6846.00    0.41603   0.43856   32.183
 6847.00    0.43075   0.43859   32.323
 6848.00    0.44448   0.43866   32.003
 6849.00    0.44916   0.43874   31.009
 6850.00    0.44374   0.43880   29.808
 6851.00    0.43208   0.43883   28.863
 6852.00    0.42097   0.43876   28.273
 6853.00    0.41903   0.43851   27.756
 6854.00    0.43309   0.43811   26.835
 6855.00    0.45139   0.43791   25.944
 6856.00    0.44340   0.43773   26.314
 6857.00    0.40913   0.43745   27.670
 6858.00    0.39113   0.43726   27.363
 6859.00    0.40679   0.43694   24.998
 6860.00    0.42826   0.43660   23.238
 6861.00    0.43796   0.43637   22.756
 6862.00    0.44497   0.43636   22.510
 6863.00    0.45258   0.43650   22.119
 6864.00    0.45125   0.43643   22.147
 6865.00    0.44016   0.43633   22.710
 6866.00    0.43007   0.43622   23.257
 6867.00    0.42746   0.43607   23.397
 6868.00    0.43059   0.43619   23.222
 6869.00    0.43339   0.43632   23.073
 6870.00    0.43016   0.43633   23.248
 6871.00    0.42420   0.43622   23.574
 6872.00    0.42391   0.43612   23.590
 6873.00    0.42849   0.43619   23.337
 6874.00    0.43063   0.43617   23.222
 6875.00    0.42930   0.43621   23.294
 6876.00    0.42979   0.43627   23.267
 6877.00    0.43811   0.43636   22.825
 6878.00    0.45554   0.43634   21.952
 6879.00    0.47161   0.43634   21.204
 6880.00    0.47353   0.43637   21.118
 6881.00    0.46258   0.43635   21.618
 6882.00    0.44865   0.43643   22.289
 6883.00    0.43848   0.43655   22.806
 6884.00    0.43413   0.43681   23.035
 6885.00    0.43343   0.43683   23.072
 6886.00    0.43361   0.43698   23.062
 6887.00    0.43515   0.43724   22.980
 6888.00    0.43868   0.43745   22.795
 6889.00    0.44136   0.43780   22.657
 6890.00    0.44039   0.43807   22.707
 6891.00    0.43689   0.43835   22.889
 6892.00    0.43565   0.43853   22.954
 6893.00    0.44336   0.43876   22.555
 6894.00    0.45835   0.43894   21.818
 6895.00    0.46503   0.43909   21.504
 6896.00    0.45566   0.43928   21.946
 6897.00    0.44339   0.43941   22.554
 6898.00    0.43964   0.43950   22.746
 6899.00    0.44086   0.43947   22.683
 6900.00    0.44438   0.43956   22.503
 6901.00    0.45575   0.43970   21.942
 6902.00    0.47222   0.43976   21.177
 6903.00    0.47790   0.43977   20.925
 6904.00    0.46574   0.43973   21.471
 6905.00    0.44548   0.43971   22.448
 6906.00    0.42857   0.43967   23.334
 6907.00    0.42109   0.43956   23.748
 6908.00    0.42396   0.43937   23.587
 6909.00    0.43337   0.43920   23.075
 6910.00    0.44177   0.43888   22.636
 6911.00    0.44127   0.43852   22.662
 6912.00    0.43361   0.43825   23.062
 6913.00    0.42866   0.43776   23.329
 6914.00    0.43009   0.43750   23.251
 6915.00    0.43385   0.43720   23.050
 6916.00    0.43597   0.43677   22.938
 6917.00    0.43473   0.43660   23.003
 6918.00    0.43050   0.43625   23.229
 6919.00    0.42521   0.43612   23.518
 6920.00    0.42134   0.43599   23.734
 6921.00    0.41966   0.43584   23.829
 6922.00    0.41543   0.43585   24.071
 6923.00    0.40356   0.43556   24.779
 6924.00    0.38907   0.43550   25.702
 6925.00    0.38258   0.43541   26.138
 6926.00    0.38952   0.43545   25.673
 6927.00    0.40796   0.43550   24.512
 6928.00    0.42852   0.43534   23.336
 6929.00    0.44042   0.43536   22.706
 6930.00    0.43980   0.43527   22.737
 6931.00    0.42977   0.43534   23.268
 6932.00    0.41858   0.43524   23.890
 6933.00    0.41525   0.43529   24.082
 6934.00    0.42454   0.43541   23.555
 6935.00    0.44305   0.43531   22.571
 6936.00    0.45729   0.43529   21.868
 6937.00    0.45807   0.43507   21.831
 6938.00    0.45248   0.43504   22.101
 6939.00    0.44775   0.43491   22.334
 6940.00    0.43855   0.43477   22.802
 6941.00    0.42152   0.43462   23.724
 6942.00    0.40572   0.43427   24.647
 6943.00    0.40110   0.43400   24.931
 6944.00    0.40977   0.43355   24.404
 6945.00    0.42558   0.43335   23.498
 6946.00    0.43632   0.43323   22.919
 6947.00    0.43633   0.43295   22.918
 6948.00    0.43119   0.43278   23.192
 6949.00    0.42479   0.43253   23.541
 6950.00    0.41475   0.43234   24.111
 6951.00    0.40370   0.43235   24.771
 6952.00    0.40142   0.43236   24.912
 6953.00    0.41035   0.43245   24.369
 6954.00    0.42237   0.43251   23.676
 6955.00    0.43038   0.43262   23.235
 6956.00    0.43276   0.43288   23.108
 6957.00    0.43248   0.43301   23.122
 6958.00    0.43410   0.43328   23.036
 6959.00    0.43577   0.43347   22.948
 6960.00    0.43094   0.43370   23.205
 6961.00    0.42025   0.43400   23.796
 6962.00    0.41122   0.43414   24.318
 6963.00    0.40850   0.43436   24.480
 6964.00    0.41171   0.43439   24.289
 6965.00    0.41655   0.43434   24.007
 6966.00    0.41830   0.43440   23.906
 6967.00    0.41812   0.43439   23.917
 6968.00    0.42063   0.43424   23.774
 6969.00    0.42660   0.43389   23.441
 6970.00    0.43321   0.43336   23.084
 6971.00    0.43688   0.43295   22.889
 6972.00    0.43548   0.43250   22.963
 6973.00    0.43069   0.43187   23.219
 6974.00    0.42600   0.43129   23.474
 6975.00    0.42329   0.43060   23.624
 6976.00    0.42299   0.43000   23.641
 6977.00    0.42482   0.42934   23.540
 6978.00    0.42800   0.42878   23.365
 6979.00    0.43132   0.42875   23.185
 6980.00    0.43370   0.42867   23.057
 6981.00    0.43486   0.42865   22.996
 6982.00    0.43564   0.42873   22.955
 6983.00    0.43789   0.42886   22.837
 6984.00    0.44068   0.42936   22.692
 6985.00    0.43795   0.42985   22.834
 6986.00    0.42720   0.43036   23.408
 6987.00    0.41534   0.43084   24.077
 6988.00    0.40892   0.43110   24.455
 6989.00    0.40790   0.43150   24.516
 6990.00    0.41467   0.43187   24.115
 6991.00    0.43705   0.43216   22.881
 6992.00    0.46805   0.43232   21.365
 6993.00    0.48019   0.43215   20.825
 6994.00    0.46167   0.43207   21.661
 6995.00    0.43116   0.43203   23.193
 6996.00    0.41118   0.43189   24.320
 6997.00    0.41284   0.43168   24.222
 6998.00    0.42974   0.43111   23.270
 6999.00    0.44139   0.43063   22.656
 7000.00    0.43643   0.43037   22.913
 7001.00    0.41942   0.43012   -2.000
 7002.00    0.40050   0.42983   -2.000
 7003.00    0.38881   0.42925   -2.000
 7004.00    0.38445   0.42882   -2.000
 7005.00    0.38106   0.42852   -2.000
 7006.00    0.38092   0.42833   -2.000
 7007.00    0.39180   0.42822   -2.000
 7008.00    0.40633   0.42796   -2.000
 7009.00    0.40874   0.42768   -2.000
 7010.00    0.40436   0.42727   -2.000
 7011.00    0.41140   0.42704   -2.000
 7012.00    0.42701   0.42705   -2.000
 7013.00    0.43342   0.42695   -2.000
 7014.00    0.42535   0.42668   -2.000
 7015.00    0.41092   0.42611   -2.000
 7016.00    0.40261   0.42584   -2.000
 7017.00    0.40808   0.42598   -2.000
 7018.00    0.41854   0.42596   -2.000
 7019.00    0.42199   0.42589   -2.000
 7020.00    0.42484   0.42571   -2.000
 7021.00    0.43827   0.42561   -2.000
 7022.00    0.45634   0.42568   -2.000
 7023.00    0.46727   0.42573   -2.000
 7024.00    0.47048   0.42596   -2.000
 7025.00    0.47055   0.42622   -2.000
 7026.00    0.46840   0.42630   -2.000
 7027.00    0.46415   0.42640   -2.000
 7028.00    0.46077   0.42656   -2.000
 7029.00    0.46109   0.42683   -2.000
 7030.00    0.46505   0.42722   -2.000
 7031.00    0.47157   0.42741   -2.000
 7032.00    0.47982   0.42753   -2.000
 7033.00    0.48365   0.42776   -2.000
 7034.00    0.47035   0.42808   -2.000
 7035.00    0.44200   0.42860   -2.000
 7036.00    0.42488   0.42897   -2.000
 7037.00    0.43462   0.42905   -2.000
 7038.00    0.45786   0.42941   -2.000
 7039.00    0.47722   0.42999   -2.000
 7040.00    0.48534   0.43065   -2.000
 7041.00    0.47930   0.43120   -2.000
 7042.00    0.45947   0.43148   -2.000
 7043.00    0.43876   0.43185   -2.000
 7044.00    0.43864   0.43218   -2.000
 7045.00    0.45480   0.43256   -2.000
 7046.00    0.45544   0.43280   -2.000
 7047.00    0.43039   0.43277   -2.000
 7048.00    0.40095   0.43263   -2.000
 7049.00    0.38724   0.43223   -2.000
 7050.00    0.39486   0.43189   -2.000
 7051.00    0.41103   0.43132   -2.000
 7052.00    0.41528   0.43056   -2.000
 7053.00    0.41191   0.42986   -2.000
 7054.00    0.42282   0.42893   -2.000
 7055.00    0.44603   0.42821   -2.000
 7056.00    0.46018   0.42739   -2.000
 7057.00    0.45983   0.42651   -2.000
 7058.00    0.45299   0.42578   -2.000
 7059.00    0.43896   0.42495   -2.000
 7060.00    0.41499   0.42438   -2.000
 7061.00    0.39706   0.42390   -2.000
 7062.00    0.40358   0.42333   -2.000
 7063.00    0.42170   0.42300   -2.000
 7064.00    0.42726   0.42272   -2.000
 7065.00    0.42380   0.42241   -2.000
 7066.00    0.42518   0.42227   -2.000
 7067.00    0.42383   0.42204   -2.000
 7068.00    0.41087   0.42207   -2.000
 7069.00    0.40552   0.42230   -2.000
 7070.00    0.42455   0.42235   -2.000
 7071.00    0.44532   0.42242   -2.000
 7072.00    0.44402   0.42248   -2.000
 7073.00    0.43693   0.42260   -2.000
 7074.00    0.44235   0.42279   -2.000
 7075.00    0.44343   0.42284   -2.000
 7076.00    0.42499   0.42269   -2.000
 7077.00    0.40543   0.42247   -2.000
 7078.00    0.40742   0.42201   -2.000
 7079.00    0.43269   0.42148   -2.000
 7080.00    0.46523   0.42098   -2.000
 7081.00    0.48050   0.42010   -2.000
 7082.00    0.48227   0.41909   -2.000
 7083.00    0.51321   0.41787   -2.000
 7084.00    0.57323   0.41656   -2.000
 7085.00    0.59149   0.41563   -2.000
 7086.00    0.54302   0.41445   -2.000
 7087.00    0.49185   0.41314   -2.000
 7088.00    0.48497   0.41206   -2.000
 7089.00    0.50740   0.41085   -2.000
 7090.00    0.52330   0.41016   -2.000
 7091.00    0.50387   0.40960   -2.000
 7092.00    0.45965   0.40883   -2.000
 7093.00    0.43488   0.40870   -2.000
 7094.00    0.44204   0.40829   -2.000
 7095.00    0.45336   0.40826   -2.000
 7096.00    0.45247   0.40849   -2.000
 7097.00    0.44564   0.40841   -2.000
 7098.00    0.44260   0.40912   -2.000
 7099.00    0.44687   0.40932   -2.000
 7100.00    0.44670   0.40967   -2.000
 7101.00    0.42756   0.41009   -2.000
 7102.00    0.40700   0.41025   -2.000
 7103.00    0.41526   0.41097   -2.000
 7104.00    0.43560   0.41120   -2.000
 7105.00    0.42749   0.41136   -2.000
 7106.00    0.39750   0.41145   -2.000
 7107.00    0.38046   0.41149   -2.000
 7108.00    0.38056   0.41181   -2.000
 7109.00    0.38168   0.41179   -2.000
 7110.00    0.38132   0.41168   -2.000
 7111.00    0.38544   0.41156   -2.000
 7112.00    0.39281   0.41158   -2.000
 7113.00    0.39740   0.41173   -2.000
 7114.00    0.39471   0.41162   -2.000
 7115.00    0.37970   0.41158   -2.000
 7116.00    0.34574   0.41143   -2.000
 7117.00    0.31643   0.41149   -2.000
 7118.00    0.37105   0.41162   -2.000
 7119.00    0.53262   0.41142   -2.000
 7120.00    0.66822   0.41134   -2.000
 7121.00    0.65241   0.41103   -2.000
 7122.00    0.51690   0.41097   -2.000
 7123.00    0.36606   0.41099   -2.000
 7124.00    0.28986   0.41055   -2.000
 7125.00    0.31913   0.41021   -2.000
 7126.00    0.40463   0.40987   -2.000
 7127.00    0.47621   0.40975   -2.000
 7128.00    0.48865   0.40973   -2.000
 7129.00    0.44438   0.40934   -2.000
 7130.00    0.39478   0.40901   -2.000
 7131.00    0.37570   0.40906   -2.000
 7132.00    0.37842   0.40915   -2.000
 7133.00    0.39075   0.40931   -2.000
 7134.00    0.41445   0.40933   -2.000
 7135.00    0.44293   0.40934   -2.000
 7136.00    0.45911   0.40971   -2.000
 7137.00    0.47112   0.40990   -2.000
 7138.00    0.50851   0.41008   -2.000
 7139.00    0.55138   0.41023   -2.000
 7140.00    0.53471   0.41038   -2.000
 7141.00    0.45489   0.41056   -2.000
 7142.00    0.37767   0.41041   -2.000
 7143.00    0.34662   0.41043   -2.000
 7144.00    0.35918   0.41038   -2.000
 7145.00    0.38320   0.41041   -2.000
 7146.00    0.38392   0.41044   -2.000
 7147.00    0.37721   0.41007   -2.000
 7148.00    0.40288   0.41013   -2.000
 7149.00    0.43444   0.41015   -2.000
 7150.00    0.41523   0.41022   -2.000
 7151.00    0.37411   0.41056   -2.000
 7152.00    0.37701   0.41050   -2.000
 7153.00    0.39345   0.41068   -2.000
 7154.00    0.35538   0.41081   -2.000
 7155.00    0.29706   0.41095   -2.000
 7156.00    0.29652   0.41149   -2.000
 7157.00    0.35039   0.41156   -2.000
 7158.00    0.40804   0.41143   -2.000
 7159.00    0.44586   0.41126   -2.000
 7160.00    0.45605   0.41122   -2.000
 7161.00    0.42163   0.41155   -2.000
 7162.00    0.34948   0.41149   -2.000
 7163.00    0.30510   0.41108   -2.000
 7164.00    0.32659   0.41068   -2.000
 7165.00    0.34302   0.41068   -2.000
 7166.00    0.31454   0.41103   -2.000
 7167.00    0.34814   0.41116   -2.000
 7168.00    0.44924   0.41100   -2.000
 7169.00    0.35304   0.41083   -2.000
 7170.00    0.00506   0.41095   -2.000
 7171.00   -0.14279   0.41139   -2.000
 7172.00    0.14605   0.41170   -2.000
 7173.00    0.46382   0.41166   -2.000
 7174.00    0.48823   0.41146   -2.000
 7175.00    0.40018   0.41120   -2.000
 7176.00    0.39403   0.41119   -2.000
 7177.00    0.41467   0.41134   -2.000
 7178.00    0.39929   0.41098   -2.000
 7179.00    0.39127   0.41044   -2.000
 7180.00    0.41858   0.40983   -2.000
 7181.00    0.44967   0.40926   -2.000
 7182.00    0.47347   0.40926   -2.000
 7183.00    0.51706   0.40883   -2.000
 7184.00    0.57114   0.40821   -2.000
 7185.00    0.58279   0.40784   -2.000
 7186.00    0.53829   0.40712   -2.000
 7187.00    0.47787   0.40712   -2.000
 7188.00    0.44386   0.40700   -2.000
 7189.00    0.45148   0.40672   -2.000
 7190.00    0.45731   0.40685   -2.000
 7191.00    0.39921   0.40638   -2.000
 7192.00    0.32277   0.40650   -2.000
 7193.00    0.33484   0.40676   -2.000
 7194.00    0.41433   0.40696   -2.000
 7195.00    0.45174   0.40734   -2.000
 7196.00    0.43368   0.40708   -2.000
 7197.00    0.42271   0.40732   -2.000
 7198.00    0.43738   0.40769   -2.000
 7199.00    0.45488   0.40802   -2.000
 7200.00    0.45918   0.40825   -2.000
 7201.00    0.44795   0.40776   -2.000
 7202.00    0.42926   0.40792   -2.000
 7203.00    0.41401   0.40816   -2.000
 7204.00    0.40582   0.40828   -2.000
 7205.00    0.40121   0.40833   -2.000
 7206.00    0.39265   0.40764   -2.000
 7207.00    0.38035   0.40772   -2.000
 7208.00    0.38425   0.40798   -2.000
 7209.00    0.42101   0.40805   -2.000
 7210.00    0.47819   0.40829   -2.000
 7211.00    0.52728   0.40794   -2.000
 7212.00    0.54121   0.40813   -2.000
 7213.00    0.51112   0.40855   -2.000
 7214.00    0.45764   0.40881   -2.000
 7215.00    0.40783   0.40925   -2.000
 7216.00    0.37558   0.40940   -2.000
 7217.00    0.36537   0.40970   -2.000
 7218.00    0.37553   0.41006   -2.000
