###################################################################
## OUTPUT of StarlightChains_v04.for    [Cid@UFSC - 01/Apr/2007] ##
###################################################################

## Some input info
2011im.txt                               [arq_obs]
Base.CB07.vall.4m                        [arq_base]
Masks.EmLines.NEW.gm                     [arq_masks]
StCv04.C11.config                        [arq_config]
   66                                    [N_base]
    0                                    [N_YAV_components = # of components with extra extinction!]
    0                                    [i_FitPowerLaw (1/0 = Yes/No)]
-9.99                                    [alpha_PowerLaw]
CCM                                      [red_law_option]
 1.458241                                [q_norm = A(l_norm)/A(V)]

## (Re)Sampling Parameters
 3741.00                                 [l_ini (A)]
 7218.00                                 [l_fin (A)]
    1.00                                 [dl    (A)]     (OBS: dl_cushion =    50.00 A)

## Normalization info
 4020.00                                 [l_norm (A) - for base]
 4010.00                                 [llow_norm (A) - window for f_obs]
 4060.00                                 [lupp_norm (A) - window for f_obs]
3.688881E-17                             [fobs_norm (in input units)]

## S/N
 3691.00                                 [llow_SN (A) - window for S/N]
 7268.00                                 [lupp_SN (A) - window for S/N]
   6.196                                 [S/N in S/N window]
   7.261                                 [S/N in norm. window]
   5.892                                 [S/N_err in S/N window]
   6.904                                 [S/N_err in norm. window]
  1.0000                                 [fscale_chi2]

## etc...
    -2007380                             [idum_orig]
  2384                                   [NOl_eff]
  2381                                   [Nl_eff]
     3    NSIGMA                         [Ntot_cliped & clip_method]
  1088360                                [Nglobal_steps]
   7                                     [N_chains]
  20                                     [NEX0s_base = N_base in EX0s-fits]
 0   0   1       17   2.0   1.300E+01    [Clip-Bug, RC-Crash & Burn-In warning-flags, n_censored_weights, wei_nsig_threshold & wei_limit]
    12     12.031     11.525      0.506  [idt_all, wdt_TotTime, wdt_UsrTime & wdt_SysTime (sec)]

## Synthesis Results - Best model ##

 3.45543E-01                             [chi2/Nl_eff]
     8.53430                             [adev (%)]

   106.70647                             [sum-of-x (%)]
 4.01045E-17                             [Flux_tot (units of input spectrum!)]
 1.86669E-13                             [Mini_tot (???)]
 1.12102E-13                             [Mcor_tot (???)]

 -43.68                                  [v0_min  (km/s)]
 179.13                                  [vd_min  (km/s)]
 0.0139                                  [AV_min  (mag)]
 0.0000                                  [YAV_min (mag)]

# j     x_j(%)      Mini_j(%)     Mcor_j(%)     age_j(yr)     Z_j      (L/M)_j    YAV?  Mstars   component_j        a/Fe...       SSP_chi2r SSP_adev(%)   SSP_AV   SSP_x(%)
  1      0.0000     0.0000E+00    0.0000E+00    1.000000E+06  0.00400  1.094E-02    0   1.0000   age020_m42            0.0000     4.7086E-01    10.6292   2.6644    90.9655
  2      0.0000     0.0000E+00    0.0000E+00    3.160000E+06  0.00400  4.007E-02    0   0.9999   age045_m42            0.0000     4.2729E-01     9.7912   1.9586    96.3525
  3      0.0000     0.0000E+00    0.0000E+00    5.010000E+06  0.00400  2.539E-02    0   0.9488   age055_m42            0.0000     4.4080E-01    10.0818   2.2660    94.5310
  4      0.0000     0.0000E+00    0.0000E+00    6.610000E+06  0.00400  2.620E-02    0   0.9220   age061_m42            0.0000     4.2118E-01     9.7202   1.8782    96.8731
  5      0.0000     0.0000E+00    0.0000E+00    1.000000E+07  0.00400  1.322E-02    0   0.8862   age070_m42            0.0000     4.0933E-01    10.0074   1.5470   101.2026
  6      0.0000     0.0000E+00    0.0000E+00    1.445000E+07  0.00400  7.883E-03    0   0.8571   age078_m42            0.0000     4.1883E-01    10.1882   1.8722    98.7188
  7      0.0000     0.0000E+00    0.0000E+00    2.512000E+07  0.00400  5.251E-03    0   0.8174   age090_m42            0.0000     4.1301E-01    10.0857   1.4081   102.2002
  8      0.0000     0.0000E+00    0.0000E+00    4.000000E+07  0.00400  3.649E-03    0   0.7851   age104_m42            0.0000     4.0580E-01     9.9058   1.1876   102.7276
  9      0.0000     0.0000E+00    0.0000E+00    5.500000E+07  0.00400  3.098E-03    0   0.7629   age110_m42            0.0000     4.0448E-01     9.6616   1.3666   101.5309
 10      0.0000     0.0000E+00    0.0000E+00    1.015200E+08  0.00400  2.228E-03    0   0.7207   age116_m42            0.0000     4.0530E-01     9.5024   1.4050   100.8805
 11      0.0000     0.0000E+00    0.0000E+00    2.861200E+08  0.00400  1.093E-03    0   0.6648   age125_m42            0.0000     3.9554E-01     9.3652   0.8212   104.5534
 12      0.0000     0.0000E+00    0.0000E+00    5.088000E+08  0.00400  6.597E-04    0   0.6365   age130_m42            0.0000     3.8698E-01     9.0842   0.8390   104.1180
 13      0.0000     0.0000E+00    0.0000E+00    1.434000E+09  0.00400  2.132E-04    0   0.5798   age139_m42            0.0000     3.6892E-01     8.6850  -0.1148   105.3951
 14      0.0000     0.0000E+00    0.0000E+00    4.250000E+09  0.00400  5.895E-05    0   0.5377   age158_m42            0.0000     3.6364E-01     8.3596  -0.5317   100.3106
 15      0.0000     0.0000E+00    0.0000E+00    7.500000E+09  0.00400  3.510E-05    0   0.5212   age171_m42            0.0000     3.7413E-01     8.4678  -0.7063    99.0595
 16      0.0518     5.2003E-01    4.3591E-01    1.300000E+10  0.00400  2.005E-05    0   0.5034   age193_m42            0.0000     3.8856E-01     8.6840  -0.8584    97.9575
 17      0.0000     0.0000E+00    0.0000E+00    1.800000E+10  0.00400  1.525E-05    0   0.4967   age213_m42            0.0000     3.8501E-01     8.6402  -0.8859    97.7174
 18      0.0000     0.0000E+00    0.0000E+00    1.000000E+06  0.00800  1.238E-02    0   1.0000   age020_m52            0.0000     4.7106E-01    10.6249   2.6616    91.1066
 19      1.0475     6.8612E-03    1.1386E-02    3.160000E+06  0.00800  3.074E-02    0   0.9966   age045_m52            0.0000     4.6983E-01    10.5302   2.5876    91.8121
 20      0.0000     0.0000E+00    0.0000E+00    5.010000E+06  0.00800  2.668E-02    0   0.9443   age055_m52            0.0000     4.4644E-01    10.1972   2.3428    93.9294
 21      0.0066     6.2222E-05    9.5084E-05    6.610000E+06  0.00800  2.136E-02    0   0.9177   age061_m52            0.0000     3.8605E-01     9.7907   1.0518   102.1538
 22      0.0000     0.0000E+00    0.0000E+00    1.000000E+07  0.00800  1.215E-02    0   0.8827   age070_m52            0.0000     4.1481E-01    10.2512   1.7074   101.8497
 23      0.0000     0.0000E+00    0.0000E+00    1.445000E+07  0.00800  8.717E-03    0   0.8552   age078_m52            0.0000     4.1372E-01    10.1076   1.8375   100.0931
 24      0.0000     0.0000E+00    0.0000E+00    2.512000E+07  0.00800  5.592E-03    0   0.8162   age090_m52            0.0000     4.1106E-01    10.0531   1.4680   103.5890
 25      0.0000     0.0000E+00    0.0000E+00    4.000000E+07  0.00800  3.896E-03    0   0.7841   age104_m52            0.0000     4.0363E-01     9.8034   1.3931   103.7820
 26      0.0000     0.0000E+00    0.0000E+00    1.015200E+08  0.00800  2.148E-03    0   0.7226   age116_m52            0.0000     3.9549E-01     9.4479   1.3579   102.3743
 27      0.0000     0.0000E+00    0.0000E+00    2.861200E+08  0.00800  9.925E-04    0   0.6683   age125_m52            0.0000     3.8764E-01     9.0800   0.9016   105.1811
 28      0.0000     0.0000E+00    0.0000E+00    9.047900E+08  0.00800  3.141E-04    0   0.6138   age135_m52            0.0000     3.6338E-01     8.4061   0.1390   107.8233
 29     20.5128     2.4026E+01    2.3416E+01    1.434000E+09  0.00800  1.719E-04    0   0.5853   age139_m52            0.0000     3.5396E-01     8.2976  -0.4432   105.7478
 30      0.0000     0.0000E+00    0.0000E+00    2.500000E+09  0.00800  7.872E-05    0   0.5600   age150_m52            0.0000     3.7549E-01     8.4020  -0.6761   101.3569
 31      0.0000     0.0000E+00    0.0000E+00    4.250000E+09  0.00800  4.336E-05    0   0.5426   age158_m52            0.0000     3.7637E-01     8.4441  -0.6903   100.3699
 32      0.0000     0.0000E+00    0.0000E+00    6.250000E+09  0.00800  3.159E-05    0   0.5319   age166_m52            0.0000     4.0074E-01     8.7466  -0.8704    99.3992
 33      0.0000     0.0000E+00    0.0000E+00    1.300000E+10  0.00800  1.361E-05    0   0.5073   age193_m52            0.0000     5.6280E-01    10.6683  -1.0000    85.0859
 34      0.0000     0.0000E+00    0.0000E+00    1.800000E+10  0.00800  9.886E-06    0   0.4990   age213_m52            0.0000     6.6416E-01    11.7834  -1.0000    80.6529
 35      3.2503     4.2385E-02    7.0578E-02    1.000000E+06  0.02000  1.544E-02    0   1.0000   age020_m62            0.0000     4.7198E-01    10.6334   2.6579    91.3029
 36      0.0000     0.0000E+00    0.0000E+00    3.160000E+06  0.02000  3.762E-02    0   0.9858   age045_m62            0.0000     4.7348E-01    10.6098   2.5986    92.0346
 37      0.0000     0.0000E+00    0.0000E+00    5.010000E+06  0.02000  3.296E-02    0   0.9342   age055_m62            0.0000     4.3906E-01     9.9192   2.2350    95.2990
 38      0.0000     0.0000E+00    0.0000E+00    8.710000E+06  0.02000  1.154E-02    0   0.8861   age067_m62            0.0000     5.3582E-01    12.3858   1.0620   109.4939
 39      0.0000     0.0000E+00    0.0000E+00    1.445000E+07  0.02000  7.663E-03    0   0.8472   age078_m62            0.0000     4.2637E-01    10.6228   1.3223   105.6831
 40      0.0000     0.0000E+00    0.0000E+00    2.512000E+07  0.02000  4.532E-03    0   0.8099   age090_m62            0.0000     4.3982E-01    10.7292   1.3090   105.6693
 41      0.0000     0.0000E+00    0.0000E+00    5.500000E+07  0.02000  2.733E-03    0   0.7595   age110_m62            0.0000     3.9985E-01     9.7701   1.3748   103.0810
 42      0.0000     0.0000E+00    0.0000E+00    1.609000E+08  0.02000  1.369E-03    0   0.6985   age120_m62            0.0000     3.9651E-01     9.3250   1.2514   104.0751
 43      0.0000     0.0000E+00    0.0000E+00    2.861200E+08  0.02000  9.013E-04    0   0.6714   age125_m62            0.0000     3.9670E-01     9.1562   1.0208   106.0912
 44      0.0000     0.0000E+00    0.0000E+00    5.088000E+08  0.02000  5.028E-04    0   0.6449   age130_m62            0.0000     3.8685E-01     8.8144   0.6818   107.0415
 45     12.8118     1.0624E+01    1.0931E+01    9.047900E+08  0.02000  2.428E-04    0   0.6179   age135_m62            0.0000     3.6331E-01     8.2381   0.1078   105.8970
 46     17.1148     2.7283E+01    2.6841E+01    1.434000E+09  0.02000  1.263E-04    0   0.5908   age139_m62            0.0000     3.6657E-01     8.2368  -0.3313   104.1298
 47      0.0000     0.0000E+00    0.0000E+00    2.500000E+09  0.02000  5.985E-05    0   0.5673   age150_m62            0.0000     3.9650E-01     8.6137  -0.6676   101.3848
 48      0.0000     0.0000E+00    0.0000E+00    4.250000E+09  0.02000  3.271E-05    0   0.5468   age158_m62            0.0000     4.5343E-01     9.3246  -0.9385    99.0350
 49      0.0000     0.0000E+00    0.0000E+00    1.000000E+10  0.02000  1.360E-05    0   0.5167   age181_m62            0.0000     5.9658E-01    11.1814  -1.0000    87.0059
 50      0.0000     0.0000E+00    0.0000E+00    1.800000E+10  0.02000  7.124E-06    0   0.5013   age213_m62            0.0000     7.8574E-01    13.0770  -1.0000    78.5310
 51      0.0000     0.0000E+00    0.0000E+00    1.000000E+06  0.05000  2.592E-02    0   0.9998   age020_m72            0.0000     4.7495E-01    10.7055   2.6452    91.5006
 52      0.0000     0.0000E+00    0.0000E+00    3.160000E+06  0.05000  4.845E-02    0   0.9577   age045_m72            0.0000     4.6597E-01    10.3309   2.4894    92.9438
 53      2.1075     1.3813E-02    2.1038E-02    5.010000E+06  0.05000  3.072E-02    0   0.9147   age055_m72            0.0000     4.2078E-01    10.3942   1.9372   100.3311
 54     12.7220     1.7604E-01    2.6022E-01    6.610000E+06  0.05000  1.455E-02    0   0.8877   age061_m72            0.0000     7.4315E-01    14.4183   1.0637   112.7681
 55      6.1390     1.3622E-01    1.9335E-01    1.000000E+07  0.05000  9.074E-03    0   0.8524   age070_m72            0.0000     4.7017E-01    10.8560   2.1162   100.2558
 56      0.0000     0.0000E+00    0.0000E+00    2.512000E+07  0.05000  4.250E-03    0   0.7902   age090_m72            0.0000     4.3639E-01    10.3338   1.8189   101.9843
 57      0.0000     0.0000E+00    0.0000E+00    4.000000E+07  0.05000  3.087E-03    0   0.7618   age104_m72            0.0000     4.4107E-01    10.2980   1.5863   103.8883
 58      0.0000     0.0000E+00    0.0000E+00    1.015200E+08  0.05000  1.700E-03    0   0.7096   age116_m72            0.0000     4.0400E-01     9.5030   1.3748   104.5297
 59      0.0000     0.0000E+00    0.0000E+00    2.861200E+08  0.05000  7.384E-04    0   0.6633   age125_m72            0.0000     3.8765E-01     8.9257   0.9076   106.6429
 60      0.0000     0.0000E+00    0.0000E+00    5.088000E+08  0.05000  3.819E-04    0   0.6372   age130_m72            0.0000     3.7514E-01     8.4731   0.4457   106.9485
 61     30.9422     3.7171E+01    3.7819E+01    9.047900E+08  0.05000  1.676E-04    0   0.6110   age135_m72            0.0000     3.9919E-01     8.4644  -0.2114   103.3570
 62      0.0000     0.0000E+00    0.0000E+00    1.434000E+09  0.05000  8.837E-05    0   0.5874   age139_m72            0.0000     4.0676E-01     8.6888  -0.6664   102.7905
 63      0.0000     0.0000E+00    0.0000E+00    2.500000E+09  0.05000  4.233E-05    0   0.5598   age150_m72            0.0000     4.7059E-01     9.5357  -0.9299    99.4825
 64      0.0000     0.0000E+00    0.0000E+00    6.250000E+09  0.05000  1.435E-05    0   0.5249   age166_m72            0.0000     6.7789E-01    11.9942  -1.0000    82.9550
 65      0.0000     0.0000E+00    0.0000E+00    1.300000E+10  0.05000  6.513E-06    0   0.5036   age193_m72            0.0000     9.8177E-01    14.6692  -1.0000    73.6799
 66      0.0000     0.0000E+00    0.0000E+00    1.800000E+10  0.05000  4.527E-06    0   0.4945   age213_m72            0.0000     1.2026E+00    16.2857  -1.0000    68.2085


## Synthesis Results - Average & Chains ##

# j      x_j: min, <> & last-chain-values for 1 ...  7 chains
  1      0.0000      0.2765      0.0000      2.6738      0.0000      1.0208      0.6059      0.0000      1.5428
  2      0.0000      0.4977      1.0191      0.2747      2.0055      2.0023      0.3853      0.0000      1.1426
  3      0.0000      0.8972      2.0166      0.0000      0.0000      6.7444      0.0000      0.0000      2.5968
  4      0.0000      0.5526      0.0000      0.0000      0.0000      0.0000      0.0000      0.0000      0.0000
  5      0.0000      0.4478      1.2225      0.0000      0.5872      0.0000      2.2965      0.0000      0.0000
  6      0.0000      0.3402      0.2221      1.8382      0.0000      0.0000      0.0000      0.0000      0.0000
  7      0.0000      0.5533      0.5279      0.0000      0.0000      0.0000      0.0000      1.0160      0.0000
  8      0.0000      1.5023      0.0000      1.7641      0.0000      0.0000      0.0000      0.0000      0.0000
  9      0.0000      0.5375      0.0000      0.0000      0.0000      0.0000      0.0000      0.3485      0.0000
 10      0.0000      0.4632      0.0000      0.0000      0.0000      0.0000      0.0000      0.0000      0.0000
 11      0.0000      1.5107      9.7405      0.0000      0.0000      4.6123      0.0000      0.0000      0.0000
 12      0.0000      1.7306      0.0000      1.7551      0.8828      0.0000      0.0000      0.0000      0.0000
 13      0.0000      3.3951      0.0000      0.0000      0.0000      0.1772      0.0000      0.0000      0.0000
 14      0.0000      0.3975      1.6166      0.0000      2.3094      0.0000      4.0529      0.7384      0.0000
 15      0.0000      0.4211      0.0000      1.0272      0.0000      0.0000      2.1674      0.0000      0.0000
 16      0.0518      0.3256      0.0000      0.0000      0.0000      0.0000      1.9390      0.9438      0.5477
 17      0.0000      1.0095      0.0000      0.0000      2.3246      0.0000      0.0000      0.0000      0.0000
 18      0.0000      0.5743      0.0000      1.3553      0.0000      2.1139      0.9512      0.0000      0.0000
 19      1.0475      1.2300      3.6968      1.0141      0.1469      0.0000      3.4864      0.8706      1.4187
 20      0.0000      1.1174      0.0000      0.0000      5.1391      0.0000      0.0000      0.0000      0.0000
 21      0.0066      2.4357      3.3846      4.0365      0.0000      0.0000      4.4723      5.5559      3.7627
 22      0.0000      0.4335      0.0000      0.0000      0.0000      0.0000      0.0000      0.0000      0.0000
 23      0.0000      0.3031      0.0000      0.0000      0.0000      0.0986      0.4806      0.0000      0.4858
 24      0.0000      0.3992      0.2418      0.0000      0.0000      0.0000      0.0000      0.0000      0.0000
 25      0.0000      0.6259      0.0000      0.0000      0.0000      0.0000      0.5326      0.0000      0.0000
 26      0.0000      0.8869      0.0000      0.0000      0.0000      1.1847      0.3743      2.7168      0.0000
 27      0.0000      0.7148      0.0000      0.0000      0.0000      0.0000      1.3732      0.8835      0.0000
 28      0.0000      8.2295      8.5858     15.1447     10.8926      8.8913      5.0696     14.1609      0.0000
 29     20.5128     10.4903     13.1827      4.6570     10.4520     13.0705     12.8922      8.2250     10.9346
 30      0.0000      0.7152      0.0000      6.4220      0.0000      0.0000      0.0000      3.8686      1.6288
 31      0.0000      0.5713      0.0000      0.0000      2.4434      0.0000      0.0000      0.0000      0.0000
 32      0.0000      0.2886      0.0000      0.6094      0.6808      0.6646      0.8136      0.0000      0.0000
 33      0.0000      0.1064      0.0000      0.0000      0.0000      0.0000      0.0000      0.0000      0.0000
 34      0.0000      0.1105      0.0000      0.0000      0.0000      0.0000      0.0000      0.0000      0.0000
 35      3.2503      0.7720      0.7854      2.8136      3.6954      0.3951      0.0000      0.9655      0.0000
 36      0.0000      0.5284      0.0000      0.0000      0.8684      0.0000      3.0826      0.0000      0.0000
 37      0.0000      0.2545      0.1073      0.1170      0.0000      0.0000      0.0000      0.0000      1.3689
 38      0.0000      0.8498      0.0000      0.8565      0.0000      0.0000      0.0000      0.8152      0.5482
 39      0.0000      0.9372      0.0000      0.6875      0.0000      2.0174      2.0773      0.0000      0.0000
 40      0.0000      0.7014      0.0000      0.8219      0.0000      3.0686      0.0000      0.0000      0.0758
 41      0.0000      0.5963      0.0000      1.0437      6.4738      0.9542      0.0000      0.0000      0.0000
 42      0.0000      0.4122      0.0000      1.1151      0.0000      0.0000      0.0000      0.0000      3.2850
 43      0.0000      0.5363      0.0000      0.0000      0.0000      0.0000      0.0000      0.2703      0.0000
 44      0.0000      0.9723      0.0000      1.0139      0.0000      0.0000      0.0000      0.0000      0.0000
 45     12.8118     17.4660     26.6012     18.9206     28.1875     13.5995     16.9258     16.3397     11.8515
 46     17.1148      5.4588      8.1513      9.0417      0.0000     11.6819      0.0000     11.1128      9.7478
 47      0.0000      0.9724      0.0000      0.0000      0.0000      0.0000      0.0000      0.0000      0.0000
 48      0.0000      0.5566      0.0000      0.9038      0.0000      1.1392      1.5208      1.0044      0.0000
 49      0.0000      0.2178      0.0000      0.0000      0.0000      0.0000      0.0000      0.0033      0.0000
 50      0.0000      0.1088      0.0000      0.0000      0.0000      0.3304      0.0000      0.0163      0.0000
 51      0.0000      0.3006      0.0000      0.0000      1.0402      0.5666      0.6700      0.0000      0.0000
 52      0.0000      0.2417      0.0000      1.5028      0.0000      0.1888      0.0000      0.0000      1.1010
 53      2.1075      0.6745      0.0000      0.0000      3.4186      1.5083      0.5084      0.8250      1.8535
 54     12.7220      2.5650      3.4088      5.6916      3.1340      0.0000      4.9771      5.9708      4.5888
 55      6.1390      0.6968      2.6012      0.0000      0.8867      0.0000      2.2663      3.6951      2.0593
 56      0.0000      0.3351      0.0000      0.8099      0.0000      0.0000      0.0000      0.9786      0.0000
 57      0.0000      1.1744      0.0000      0.0000      0.0000      6.1093      0.9978      4.4807      3.7846
 58      0.0000      0.6795      0.0000      0.0000      0.0000      0.0000      1.7386      0.0000      2.9955
 59      0.0000      0.8374      0.0000      0.3712      0.0000      0.3054      2.1347      0.0000      0.0000
 60      0.0000      4.2136      0.0000      0.0000      0.0000      0.0000      3.2643      0.0000     12.7399
 61     30.9422     16.0241     17.8158     16.6087     16.8035     17.8958     19.8129     20.6868     17.5509
 62      0.0000      2.6032      0.0000      1.9205      4.4656      4.8896      4.4913      0.0000      6.8378
 63      0.0000      0.2661      0.3541      0.0000      0.0000      0.0000      0.0491      0.0000      1.6476
 64      0.0000      0.2949      0.7591      0.0000      0.0000      0.0000      0.0000      0.0000      0.5614
 65      0.0000      0.0764      0.0000      0.0000      0.0000      0.0000      0.0000      0.0000      0.0000
 66      0.0000      0.1299      0.2780      0.0000      0.2285      1.0309      0.0000      0.0000      0.0000

# j      m_j: min, <> & last-chain-values for 1 ...  7 chains
  1  0.0000E+00  6.8516E-03  0.0000E+00  8.0967E-02  0.0000E+00  2.2103E-02  1.5068E-02  0.0000E+00  4.4577E-02
  2  0.0000E+00  3.3665E-03  8.0220E-03  2.2710E-03  1.2934E-02  1.1836E-02  2.6155E-03  0.0000E+00  9.0125E-03
  3  0.0000E+00  9.0882E-03  2.3770E-02  0.0000E+00  0.0000E+00  5.9702E-02  0.0000E+00  0.0000E+00  3.0673E-02
  4  0.0000E+00  5.2711E-03  0.0000E+00  0.0000E+00  0.0000E+00  0.0000E+00  0.0000E+00  0.0000E+00  0.0000E+00
  5  0.0000E+00  8.1376E-03  2.5850E-02  0.0000E+00  1.0174E-02  0.0000E+00  4.1882E-02  0.0000E+00  0.0000E+00
  6  0.0000E+00  1.0027E-02  7.6184E-03  6.6213E-02  0.0000E+00  0.0000E+00  0.0000E+00  0.0000E+00  0.0000E+00
  7  0.0000E+00  2.3345E-02  2.5923E-02  0.0000E+00  0.0000E+00  0.0000E+00  0.0000E+00  5.1848E-02  0.0000E+00
  8  0.0000E+00  8.7616E-02  0.0000E+00  1.2574E-01  0.0000E+00  0.0000E+00  0.0000E+00  0.0000E+00  0.0000E+00
  9  0.0000E+00  3.5879E-02  0.0000E+00  0.0000E+00  0.0000E+00  0.0000E+00  0.0000E+00  2.8132E-02  0.0000E+00
 10  0.0000E+00  4.0614E-02  0.0000E+00  0.0000E+00  0.0000E+00  0.0000E+00  0.0000E+00  0.0000E+00  0.0000E+00
 11  0.0000E+00  2.4907E-01  1.8688E+00  0.0000E+00  0.0000E+00  6.6454E-01  0.0000E+00  0.0000E+00  0.0000E+00
 12  0.0000E+00  4.5261E-01  0.0000E+00  5.6100E-01  2.2013E-01  0.0000E+00  0.0000E+00  0.0000E+00  0.0000E+00
 13  0.0000E+00  2.5027E+00  0.0000E+00  0.0000E+00  0.0000E+00  1.1414E-01  0.0000E+00  0.0000E+00  0.0000E+00
 14  0.0000E+00  9.8280E-01  4.6513E+00  0.0000E+00  5.4440E+00  0.0000E+00  1.0057E+01  2.2079E+00  0.0000E+00
 15  0.0000E+00  1.6950E+00  0.0000E+00  5.0533E+00  0.0000E+00  0.0000E+00  8.7557E+00  0.0000E+00  0.0000E+00
 16  4.3591E-01  2.2158E+00  0.0000E+00  0.0000E+00  0.0000E+00  0.0000E+00  1.3244E+01  7.7679E+00  4.3463E+00
 17  0.0000E+00  8.9122E+00  0.0000E+00  0.0000E+00  1.9568E+01  0.0000E+00  0.0000E+00  0.0000E+00  0.0000E+00
 18  0.0000E+00  1.2574E-02  0.0000E+00  3.6268E-02  0.0000E+00  4.0448E-02  2.0902E-02  0.0000E+00  0.0000E+00
 19  1.1386E-02  1.0809E-02  3.7805E-02  1.0892E-02  1.2308E-03  0.0000E+00  3.0750E-02  9.2522E-03  1.4539E-02
 20  0.0000E+00  1.0720E-02  0.0000E+00  0.0000E+00  4.7009E-02  0.0000E+00  0.0000E+00  0.0000E+00  0.0000E+00
 21  9.5084E-05  2.8365E-02  4.5869E-02  5.7453E-02  0.0000E+00  0.0000E+00  5.2273E-02  7.8251E-02  5.1098E-02
 22  0.0000E+00  8.5370E-03  0.0000E+00  0.0000E+00  0.0000E+00  0.0000E+00  0.0000E+00  0.0000E+00  0.0000E+00
 23  0.0000E+00  8.0602E-03  0.0000E+00  0.0000E+00  0.0000E+00  2.2906E-03  1.2828E-02  0.0000E+00  1.5065E-02
 24  0.0000E+00  1.5796E-02  1.1131E-02  0.0000E+00  0.0000E+00  0.0000E+00  0.0000E+00  0.0000E+00  0.0000E+00
 25  0.0000E+00  3.4143E-02  0.0000E+00  0.0000E+00  0.0000E+00  0.0000E+00  2.9163E-02  0.0000E+00  0.0000E+00
 26  0.0000E+00  8.0877E-02  0.0000E+00  0.0000E+00  0.0000E+00  9.4411E-02  3.4256E-02  2.9961E-01  0.0000E+00
 27  0.0000E+00  1.3047E-01  0.0000E+00  0.0000E+00  0.0000E+00  0.0000E+00  2.5155E-01  1.9503E-01  0.0000E+00
 28  0.0000E+00  4.3592E+00  5.2923E+00  9.8045E+00  5.5012E+00  4.1159E+00  2.6952E+00  9.0716E+00  0.0000E+00
 29  2.3416E+01  9.6819E+00  1.4158E+01  5.2531E+00  9.1976E+00  1.0542E+01  1.1942E+01  9.1806E+00  1.1768E+01
 30  0.0000E+00  1.3792E+00  0.0000E+00  1.5135E+01  0.0000E+00  0.0000E+00  0.0000E+00  9.0218E+00  3.6624E+00
 31  0.0000E+00  1.9379E+00  0.0000E+00  0.0000E+00  7.9024E+00  0.0000E+00  0.0000E+00  0.0000E+00  0.0000E+00
 32  0.0000E+00  1.3170E+00  0.0000E+00  3.3991E+00  2.9624E+00  2.6508E+00  3.7269E+00  0.0000E+00  0.0000E+00
 33  0.0000E+00  1.0746E+00  0.0000E+00  0.0000E+00  0.0000E+00  0.0000E+00  0.0000E+00  0.0000E+00  0.0000E+00
 34  0.0000E+00  1.5124E+00  0.0000E+00  0.0000E+00  0.0000E+00  0.0000E+00  0.0000E+00  0.0000E+00  0.0000E+00
 35  7.0578E-02  1.3553E-02  1.6045E-02  6.0369E-02  6.1857E-02  6.0613E-03  0.0000E+00  2.0500E-02  0.0000E+00
 36  0.0000E+00  3.7532E-03  0.0000E+00  0.0000E+00  5.8813E-03  0.0000E+00  2.1976E-02  0.0000E+00  0.0000E+00
 37  0.0000E+00  1.9549E-03  9.5900E-04  1.0989E-03  0.0000E+00  0.0000E+00  0.0000E+00  0.0000E+00  1.2264E-02
 38  0.0000E+00  1.7687E-02  0.0000E+00  2.1789E-02  0.0000E+00  0.0000E+00  0.0000E+00  2.0520E-02  1.3304E-02
 39  0.0000E+00  2.8086E-02  0.0000E+00  2.5181E-02  0.0000E+00  5.2835E-02  6.2479E-02  0.0000E+00  0.0000E+00
 40  0.0000E+00  3.3975E-02  0.0000E+00  4.8659E-02  0.0000E+00  1.2990E-01  0.0000E+00  0.0000E+00  4.2818E-03
 41  0.0000E+00  4.4921E-02  0.0000E+00  9.6083E-02  4.6496E-01  6.2816E-02  0.0000E+00  0.0000E+00  0.0000E+00
 42  0.0000E+00  5.7013E-02  0.0000E+00  1.8849E-01  0.0000E+00  0.0000E+00  0.0000E+00  0.0000E+00  5.2979E-01
 43  0.0000E+00  1.0828E-01  0.0000E+00  0.0000E+00  0.0000E+00  0.0000E+00  0.0000E+00  6.6008E-02  0.0000E+00
 44  0.0000E+00  3.3804E-01  0.0000E+00  4.3082E-01  0.0000E+00  0.0000E+00  0.0000E+00  0.0000E+00  0.0000E+00
 45  1.0931E+01  1.2049E+01  2.1354E+01  1.5952E+01  1.8539E+01  8.1984E+00  1.1719E+01  1.3632E+01  9.5335E+00
 46  2.6841E+01  6.9215E+00  1.2027E+01  1.4012E+01  0.0000E+00  1.2945E+01  0.0000E+00  1.7041E+01  1.4413E+01
 47  0.0000E+00  2.4984E+00  0.0000E+00  0.0000E+00  0.0000E+00  0.0000E+00  0.0000E+00  0.0000E+00  0.0000E+00
 48  0.0000E+00  2.5223E+00  0.0000E+00  5.0052E+00  0.0000E+00  4.5112E+00  6.9161E+00  5.5043E+00  0.0000E+00
 49  0.0000E+00  2.2429E+00  0.0000E+00  0.0000E+00  0.0000E+00  0.0000E+00  0.0000E+00  4.1716E-02  0.0000E+00
 50  0.0000E+00  2.0746E+00  0.0000E+00  0.0000E+00  0.0000E+00  5.5078E+00  0.0000E+00  3.7684E-01  0.0000E+00
 51  0.0000E+00  3.1433E-03  0.0000E+00  0.0000E+00  1.0370E-02  5.1770E-03  7.0306E-03  0.0000E+00  0.0000E+00
 52  0.0000E+00  1.2951E-03  0.0000E+00  9.8414E-03  0.0000E+00  8.8406E-04  0.0000E+00  0.0000E+00  6.8792E-03
 53  2.1038E-02  5.4435E-03  0.0000E+00  0.0000E+00  2.6307E-02  1.0639E-02  4.1183E-03  8.0525E-03  1.7444E-02
 54  2.6022E-01  4.2418E-02  6.5600E-02  1.1504E-01  4.9416E-02  0.0000E+00  8.2610E-02  1.1942E-01  8.8492E-02
 55  1.9335E-01  1.7744E-02  7.7076E-02  0.0000E+00  2.1529E-02  0.0000E+00  5.7918E-02  1.1379E-01  6.1146E-02
 56  0.0000E+00  1.6888E-02  0.0000E+00  4.9885E-02  0.0000E+00  0.0000E+00  0.0000E+00  5.9646E-02  0.0000E+00
 57  0.0000E+00  7.8557E-02  0.0000E+00  0.0000E+00  0.0000E+00  3.5713E-01  6.6991E-02  3.6248E-01  2.9521E-01
 58  0.0000E+00  7.6881E-02  0.0000E+00  0.0000E+00  0.0000E+00  0.0000E+00  1.9743E-01  0.0000E+00  3.9522E-01
 59  0.0000E+00  2.0390E-01  0.0000E+00  1.1048E-01  0.0000E+00  6.4984E-02  5.2167E-01  0.0000E+00  0.0000E+00
 60  0.0000E+00  1.9057E+00  0.0000E+00  0.0000E+00  0.0000E+00  0.0000E+00  1.4817E+00  0.0000E+00  6.7189E+00
 61  3.7819E+01  1.5835E+01  2.0487E+01  2.0059E+01  1.5832E+01  1.5454E+01  1.9650E+01  2.4722E+01  2.0224E+01
 62  0.0000E+00  4.6904E+00  0.0000E+00  4.2291E+00  7.6715E+00  7.6991E+00  8.1219E+00  0.0000E+00  1.4366E+01
 63  0.0000E+00  9.5372E-01  1.4772E+00  0.0000E+00  0.0000E+00  0.0000E+00  1.7673E-01  0.0000E+00  6.8872E+00
 64  0.0000E+00  2.9238E+00  8.7586E+00  0.0000E+00  0.0000E+00  0.0000E+00  0.0000E+00  0.0000E+00  6.4910E+00
 65  0.0000E+00  1.6004E+00  0.0000E+00  0.0000E+00  0.0000E+00  0.0000E+00  0.0000E+00  0.0000E+00  0.0000E+00
 66  0.0000E+00  3.8467E+00  9.5793E+00  0.0000E+00  6.4498E+00  2.6676E+01  0.0000E+00  0.0000E+00  0.0000E+00

# AV, chi2 & Mass for <> & i_chain = 1 ...  7 solutions
AV       0.0139      0.1120      0.1124      0.1298      0.1139      0.0979      0.1013      0.1038      0.1310
chi2 3.4554E-01  3.4983E-01  3.4856E-01  3.4882E-01  3.4847E-01  3.4855E-01  3.4838E-01  3.4808E-01  3.4881E-01
Mass 1.1210E-13  1.5818E-13  1.3600E-13  1.3256E-13  1.6632E-13  1.7762E-13  1.5536E-13  1.2936E-13  1.3916E-13
 -43.68                                  [v0_min (km/s) before EX0s...]
 179.13                                  [vd_min (km/s) before EX0s...]


## Synthetic spectrum (Best Model) ##l_obs f_obs f_syn wei
 3478    [Nl_obs]
 3741.00    0.36610   0.71028    0.000
 3742.00    0.53513   0.70288    0.000
 3743.00    0.65096   0.68432    0.000
 3744.00    0.67682   0.65745    0.000
 3745.00    0.61350   0.62533    1.903
 3746.00    0.49699   0.59190    1.989
 3747.00    0.38126   0.56262    2.112
 3748.00    0.31049   0.54417    2.181
 3749.00    0.30626   0.54258    2.137
 3750.00    0.35577   0.56029    2.047
 3751.00    0.41885   0.59418    2.005
 3752.00    0.44253   0.63640    2.020
 3753.00    0.39548   0.67704    2.058
 3754.00    0.30863   0.70745    2.091
 3755.00    0.24609   0.72324    2.108
 3756.00    0.26129   0.72564    2.132
 3757.00    0.37509   0.72030    2.177
 3758.00    0.55899   0.71414    2.190
 3759.00    0.76201   0.71197    2.140
 3760.00    0.94176   0.71482    2.102
 3761.00    1.06728   0.72025    2.142
 3762.00    1.11829   0.72408    2.229
 3763.00    1.08082   0.72230    2.292
 3764.00    0.94551   0.71248    2.293
 3765.00    0.72998   0.69445    2.253
 3766.00    0.49349   0.67039    2.230
 3767.00    0.29592   0.64457    2.240
 3768.00    0.16610   0.62255    2.227
 3769.00    0.12056   0.60986    2.165
 3770.00    0.17524   0.61031    2.127
 3771.00    0.31750   0.62436    2.163
 3772.00    0.49204   0.64892    2.247
 3773.00    0.64057   0.67924    2.315
 3774.00    0.72945   0.71116    2.308
 3775.00    0.75604   0.74226    2.264
 3776.00    0.74942   0.77159    2.318
 3777.00    0.75724   0.79886    2.481
 3778.00    0.82902   0.82347    2.528
 3779.00    0.96912   0.84412    2.385
 3780.00    1.12460   0.85920    2.295
 3781.00    1.24319   0.86731    2.347
 3782.00    1.29811   0.86758    2.415
 3783.00    1.27000   0.85971    2.406
 3784.00    1.14717   0.84445    2.382
 3785.00    0.96139   0.82411    2.407
 3786.00    0.78183   0.80216    2.493
 3787.00    0.63605   0.78193    2.603
 3788.00    0.50750   0.76505    2.654
 3789.00    0.43459   0.75075    2.604
 3790.00    0.49521   0.73621    2.501
 3791.00    0.64073   0.71784    2.431
 3792.00    0.71705   0.69299    2.461
 3793.00    0.69553   0.66152    2.554
 3794.00    0.68065   0.62629    2.593
 3795.00    0.72739   0.59283    2.598
 3796.00    0.81145   0.56830    2.706
 3797.00    0.89293   0.55949    2.889
 3798.00    0.94616   0.57023    2.934
 3799.00    0.98782   0.59943    2.809
 3800.00    1.05052   0.64119    2.688
 3801.00    1.10958   0.68698    2.661
 3802.00    1.11083   0.72869    2.729
 3803.00    1.06256   0.76121    2.803
 3804.00    1.01522   0.78376    2.776
 3805.00    0.98433   0.79941    2.718
 3806.00    0.95649   0.81268    2.764
 3807.00    0.92773   0.82654    2.899
 3808.00    0.90121   0.84046    2.994
 3809.00    0.87203   0.85088    2.991
 3810.00    0.83570   0.85375    2.936
 3811.00    0.80468   0.84742    2.903
 3812.00    0.79241   0.83407    2.932
 3813.00    0.78785   0.81851    2.965
 3814.00    0.77689   0.80547    2.931
 3815.00    0.77475   0.79705    2.896
 3816.00    0.80368   0.79203    2.957
 3817.00    0.86048   0.78777    3.118
 3818.00    0.92994   0.78263    3.276
 3819.00    1.00452   0.77690    3.224
 3820.00    1.07614   0.77162    2.961
 3821.00    1.12526   0.76674    2.825
 3822.00    1.12781   0.76062    2.986
 3823.00    1.06442   0.75161    3.232
 3824.00    0.93130   0.73952    3.205
 3825.00    0.74956   0.72557    2.984
 3826.00    0.56263   0.71092    2.822
 3827.00    0.42873   0.69536    2.819
 3828.00    0.38084   0.67721    2.962
 3829.00    0.39944   0.65421    3.114
 3830.00    0.45428   0.62514    3.147
 3831.00    0.53453   0.59134    3.125
 3832.00    0.62226   0.55701    3.144
 3833.00    0.67780   0.52818    3.201
 3834.00    0.67814   0.51061    3.244
 3835.00    0.63943   0.50770    3.227
 3836.00    0.59296   0.51967    3.174
 3837.00    0.56662   0.54408    3.181
 3838.00    0.56845   0.57721    3.259
 3839.00    0.58288   0.61533    3.284
 3840.00    0.59824   0.65520    3.196
 3841.00    0.61829   0.69390    3.093
 3842.00    0.64552   0.72889    3.054
 3843.00    0.67317   0.75848    3.080
 3844.00    0.68816   0.78207    3.117
 3845.00    0.67925   0.80004    3.089
 3846.00    0.66370   0.81329    3.009
 3847.00    0.68398   0.82294    0.000
 3848.00    0.75158   0.83037    0.000
 3849.00    0.83715   0.83692    0.000
 3850.00    0.91681   0.84334    0.000
 3851.00    0.98262   0.84919    0.000
 3852.00    1.01890   0.85307    0.000
 3853.00    1.00374   0.85368    0.000
 3854.00    0.93897   0.85082    0.000
 3855.00    0.85050   0.84560    0.000
 3856.00    0.76194   0.83997    0.000
 3857.00    0.69268   0.83614    0.000
 3858.00    0.67379   0.83610    0.000
 3859.00    0.73074   0.84093    0.000
 3860.00    0.83144   0.85009    0.000
 3861.00    0.90717   0.86143    0.000
 3862.00    0.93031   0.87204    0.000
 3863.00    0.91219   0.87968    0.000
 3864.00    0.85895   0.88376    0.000
 3865.00    0.77509   0.88483    0.000
 3866.00    0.68908   0.88356    0.000
 3867.00    0.63779   0.87976    0.000
 3868.00    0.62834   0.87263    0.000
 3869.00    0.64116   0.86183    0.000
 3870.00    0.64820   0.84880    0.000
 3871.00    0.63253   0.83657    0.000
 3872.00    0.61269   0.82804    0.000
 3873.00    0.61530   0.82392    0.000
 3874.00    0.63019   0.82209    0.000
 3875.00    0.63443   0.81936    0.000
 3876.00    0.63358   0.81375    0.000
 3877.00    0.64573   0.80552    0.000
 3878.00    0.67358   0.79602    0.000
 3879.00    0.70364   0.78582    0.000
 3880.00    0.71096   0.77374    0.000
 3881.00    0.67891   0.75753    3.572
 3882.00    0.61928   0.73509    3.658
 3883.00    0.55719   0.70553    3.559
 3884.00    0.51274   0.66991    3.465
 3885.00    0.49812   0.63162    3.536
 3886.00    0.51632   0.59647    3.705
 3887.00    0.56076   0.57145    3.806
 3888.00    0.61649   0.56246    3.747
 3889.00    0.67241   0.57171    3.610
 3890.00    0.73045   0.59674    3.603
 3891.00    0.79648   0.63132    3.791
 3892.00    0.87166   0.66820    3.929
 3893.00    0.94512   0.70184    3.813
 3894.00    0.99310   0.72969    3.648
 3895.00    1.00623   0.75178    3.611
 3896.00    1.00274   0.76944    3.667
 3897.00    0.99277   0.78435    3.741
 3898.00    0.96097   0.79786    3.814
 3899.00    0.89966   0.81056    3.888
 3900.00    0.82556   0.82191    3.978
 3901.00    0.76108   0.83066    4.094
 3902.00    0.72224   0.83596    4.233
 3903.00    0.71272   0.83857    4.329
 3904.00    0.72483   0.84107    4.268
 3905.00    0.75652   0.84668    4.100
 3906.00    0.81567   0.85744    4.024
 3907.00    0.90303   0.87289    4.087
 3908.00    1.00203   0.89019    4.157
 3909.00    1.06957   0.90546    4.126
 3910.00    1.05483   0.91547    4.009
 3911.00    0.98022   0.91888    3.874
 3912.00    0.93597   0.91625    3.792
 3913.00    0.95750   0.90914    3.800
 3914.00    1.00272   0.89918    3.891
 3915.00    1.01930   0.88754    3.967
 3916.00    0.97750   0.87501    3.890
 3917.00    0.89854   0.86259    3.752
 3918.00    0.83609   0.85169    3.759
 3919.00    0.80350   0.84373    3.871
 3920.00    0.77312   0.83925    3.860
 3921.00    0.72668   0.83708    3.742
 3922.00    0.66646   0.83441    3.732
 3923.00    0.60943   0.82762    3.882
 3924.00    0.57506   0.81360    4.087
 3925.00    0.56259   0.79070    4.198
 3926.00    0.55505   0.75888    4.125
 3927.00    0.53805   0.71932    3.956
 3928.00    0.50548   0.67402    3.854
 3929.00    0.46261   0.62580    3.901
 3930.00    0.42306   0.57880    4.088
 3931.00    0.40203   0.53859    4.246
 3932.00    0.40574   0.51147    4.165
 3933.00    0.41742   0.50280    3.966
 3934.00    0.41756   0.51492    3.877
 3935.00    0.41686   0.54598    3.920
 3936.00    0.43623   0.59030    4.013
 3937.00    0.47222   0.64014    4.083
 3938.00    0.50905   0.68801    4.086
 3939.00    0.54038   0.72844    4.028
 3940.00    0.56363   0.75909    3.958
 3941.00    0.57027   0.78070    3.945
 3942.00    0.55611   0.79613    3.995
 3943.00    0.53328   0.80865    3.971
 3944.00    0.51949   0.82037    3.798
 3945.00    0.52511   0.83154    3.648
 3946.00    0.55201   0.84128    3.667
 3947.00    0.59434   0.84883    3.821
 3948.00    0.64323   0.85429    3.970
 3949.00    0.69104   0.85839    3.939
 3950.00    0.72965   0.86171    3.748
 3951.00    0.75074   0.86419    3.675
 3952.00    0.76255   0.86520    3.852
 3953.00    0.79724   0.86392    4.080
 3954.00    0.86482   0.85990    4.080
 3955.00    0.92617   0.85326    3.879
 3956.00    0.94978   0.84425    3.691
 3957.00    0.94673   0.83242    3.697
 3958.00    0.93232   0.81621    3.910
 3959.00    0.90317   0.79358    4.094
 3960.00    0.85748   0.76335    0.000
 3961.00    0.80561   0.72573    0.000
 3962.00    0.75697   0.68191    0.000
 3963.00    0.71431   0.63319    0.000
 3964.00    0.68443   0.58097    0.000
 3965.00    0.67881   0.52778    0.000
 3966.00    0.68991   0.47826    0.000
 3967.00    0.69068   0.43902    0.000
 3968.00    0.68266   0.41680    0.000
 3969.00    0.70086   0.41609    0.000
 3970.00    0.74493   0.43729    0.000
 3971.00    0.76939   0.47660    0.000
 3972.00    0.75601   0.52768    0.000
 3973.00    0.72835   0.58376    0.000
 3974.00    0.70254   0.63944    0.000
 3975.00    0.67590   0.69129    0.000
 3976.00    0.64867   0.73752    0.000
 3977.00    0.62991   0.77713    0.000
 3978.00    0.63251   0.80937    0.000
 3979.00    0.66591   0.83392    0.000
 3980.00    0.72097   0.85136    0.000
 3981.00    0.77284   0.86362    2.540
 3982.00    0.79982   0.87344    2.172
 3983.00    0.79154   0.88326    2.356
 3984.00    0.75604   0.89424    3.112
 3985.00    0.71552   0.90617    3.797
 3986.00    0.69286   0.91803    3.767
 3987.00    0.70244   0.92891    3.766
 3988.00    0.73816   0.93843    4.003
 3989.00    0.78208   0.94665    4.072
 3990.00    0.82560   0.95355    3.919
 3991.00    0.86622   0.95846    3.833
 3992.00    0.89425   0.96029    3.895
 3993.00    0.89944   0.95835    4.029
 3994.00    0.88542   0.95339    4.126
 3995.00    0.86365   0.94792    4.103
 3996.00    0.84038   0.94526    4.003
 3997.00    0.82115   0.94786    3.912
 3998.00    0.81947   0.95574    3.839
 3999.00    0.84472   0.96623    3.779
 4000.00    0.88482   0.97516    3.795
 4001.00    0.91787   0.97884    3.934
 4002.00    0.92993   0.97588    4.104
 4003.00    0.92141   0.96799    4.120
 4004.00    0.91068   0.95922    3.902
 4005.00    0.91628   0.95400    3.696
 4006.00    0.93813   0.95503    4.069
 4007.00    0.96952   0.96211    5.933
 4008.00    1.01037   0.97281   10.090
 4009.00    1.05947   0.98415   11.124
 4010.00    1.10753   0.99409    8.939
 4011.00    1.15200   1.00196    8.251
 4012.00    1.20753   1.00810    8.329
 4013.00    1.27885   1.01316    8.032
 4014.00    1.34162   1.01768    7.411
 4015.00    1.37203   1.02203    7.046
 4016.00    1.36886   1.02631    7.411
 4017.00    1.34114   1.03019    8.182
 4018.00    1.29779   1.03270    7.282
 4019.00    1.24404   1.03245    5.202
 4020.00    1.18096   1.02845    3.969
 4021.00    1.11398   1.02097    3.673
 4022.00    1.05631   1.01186    4.363
 4023.00    1.01785   1.00381    6.864
 4024.00    0.99821   0.99883   11.135
 4025.00    0.98444   0.99685   11.314
 4026.00    0.95369   0.99541   10.176
 4027.00    0.89066   0.99100   11.055
 4028.00    0.79754   0.98133   12.382
 4029.00    0.69881   0.96720   -1.000
 4030.00    0.63488   0.95250   -1.000
 4031.00    0.62721   0.94251   -1.000
 4032.00    0.66725   0.94150   10.574
 4033.00    0.73197   0.95095    5.193
 4034.00    0.79638   0.96912    3.903
 4035.00    0.85460   0.99174    3.874
 4036.00    0.91676   1.01352    4.083
 4037.00    0.97328   1.02975    4.103
 4038.00    1.00000   1.03767    4.100
 4039.00    1.01091   1.03677    4.105
 4040.00    1.04799   1.02823    3.938
 4041.00    1.10496   1.01401    3.725
 4042.00    1.13288   0.99663    3.741
 4043.00    1.11473   0.97955    3.978
 4044.00    1.06940   0.96712    4.176
 4045.00    1.01067   0.96315    4.233
 4046.00    0.94638   0.96881    4.274
 4047.00    0.90020   0.98151    4.306
 4048.00    0.89904   0.99607    4.229
 4049.00    0.93617   1.00714    4.110
 4050.00    0.97766   1.01143    4.090
 4051.00    0.99180   1.00859    4.156
 4052.00    0.96519   1.00059    4.207
 4053.00    0.92023   0.99056    4.204
 4054.00    0.89826   0.98151    4.187
 4055.00    0.92482   0.97544    4.197
 4056.00    0.99829   0.97302    4.248
 4057.00    1.08280   0.97347    4.292
 4058.00    1.13152   0.97478    4.259
 4059.00    1.12278   0.97442    4.134
 4060.00    1.06318   0.97061    3.990
 4061.00    0.98311   0.96356    3.969
 4062.00    0.91314   0.95570    4.154
 4063.00    0.85608   0.95035    4.392
 4064.00    0.80753   0.94972    4.434
 4065.00    0.78286   0.95367    4.318
 4066.00    0.79488   0.96000    4.221
 4067.00    0.82785   0.96573    4.197
 4068.00    0.86221   0.96849    4.232
 4069.00    0.90109   0.96734    4.310
 4070.00    0.94968   0.96278    4.390
 4071.00    0.99422   0.95591    4.388
 4072.00    1.01555   0.94734    4.287
 4073.00    1.00348   0.93688    4.213
 4074.00    0.96090   0.92466    4.279
 4075.00    0.90464   0.91257    4.497
 4076.00    0.85246   0.90439    4.772
 4077.00    0.81315   0.90394    4.863
 4078.00    0.78899   0.91240    4.682
 4079.00    0.77964   0.92710    4.490
 4080.00    0.79331   0.94273    4.463
 4081.00    0.84841   0.95440    4.557
 4082.00    0.93748   0.96006    4.675
 4083.00    1.01400   0.96122    4.759
 4084.00    1.04844   0.96129    4.768
 4085.00    1.05367   0.96318    4.682
 4086.00    1.04126   0.96762    4.522
 4087.00    1.00359   0.97299    4.352
 4088.00    0.94733   0.97652    4.264
 4089.00    0.90281   0.97579    4.351
 4090.00    0.88683   0.96953    4.577
 4091.00    0.88903   0.95750    4.705
 4092.00    0.88989   0.93982    0.000
 4093.00    0.87319   0.91661    0.000
 4094.00    0.84192   0.88796    0.000
 4095.00    0.81629   0.85421    0.000
 4096.00    0.80365   0.81613    0.000
 4097.00    0.79478   0.77518    0.000
 4098.00    0.79025   0.73414    0.000
 4099.00    0.80092   0.69761    0.000
 4100.00    0.82035   0.67166    0.000
 4101.00    0.82785   0.66198    0.000
 4102.00    0.82363   0.67112    0.000
 4103.00    0.82721   0.69698    0.000
 4104.00    0.84442   0.73325    0.000
 4105.00    0.86546   0.77209    0.000
 4106.00    0.88373   0.80709    0.000
 4107.00    0.89940   0.83515    0.000
 4108.00    0.91588   0.85652    0.000
 4109.00    0.93597   0.87362    0.000
 4110.00    0.95545   0.88925    0.000
 4111.00    0.96700   0.90517    0.000
 4112.00    0.97059   0.92142    0.000
 4113.00    0.97270   0.93647    4.634
 4114.00    0.98042   0.94803    4.594
 4115.00    0.99498   0.95420    4.589
 4116.00    1.00296   0.95445    4.643
 4117.00    0.98821   0.95010    4.756
 4118.00    0.95322   0.94384    4.831
 4119.00    0.91361   0.93872    4.767
 4120.00    0.88433   0.93686    4.621
 4121.00    0.87610   0.93881    4.527
 4122.00    0.89348   0.94354    4.555
 4123.00    0.93642   0.94889    4.699
 4124.00    1.00246   0.95247    4.831
 4125.00    1.08296   0.95255    4.810
 4126.00    1.15896   0.94869    4.678
 4127.00    1.21012   0.94180    4.563
 4128.00    1.22592   0.93358    4.532
 4129.00    1.21092   0.92593    4.599
 4130.00    1.18716   0.92072    4.727
 4131.00    1.17277   0.91975    4.866
 4132.00    1.16251   0.92444    4.990
 4133.00    1.14566   0.93524    5.048
 4134.00    1.12323   0.95096    4.943
 4135.00    1.09927   0.96893    4.720
 4136.00    1.07251   0.98565    4.626
 4137.00    1.03843   0.99766    4.779
 4138.00    0.99246   1.00220    5.009
 4139.00    0.93731   0.99796    5.088
 4140.00    0.88757   0.98586    4.999
 4141.00    0.86342   0.96944    4.851
 4142.00    0.88254   0.95407    4.732
 4143.00    0.93631   0.94473    4.687
 4144.00    0.98283   0.94363    4.712
 4145.00    0.99441   0.94926    4.788
 4146.00    0.98114   0.95760    4.881
 4147.00    0.96055   0.96454    4.917
 4148.00    0.94097   0.96779    4.807
 4149.00    0.92679   0.96717    4.628
 4150.00    0.92087   0.96370    4.587
 4151.00    0.92105   0.95869    4.740
 4152.00    0.91996   0.95337    4.929
 4153.00    0.91126   0.94900    5.005
 4154.00    0.89411   0.94699    4.965
 4155.00    0.87929   0.94847    4.841
 4156.00    0.88360   0.95381    4.664
 4157.00    0.90042   0.96227    4.558
 4158.00    0.90231   0.97236    4.684
 4159.00    0.88933   0.98246    5.005
 4160.00    0.89070   0.99134    5.211
 4161.00    0.91414   0.99831    5.113
 4162.00    0.93925   1.00297    4.869
 4163.00    0.94916   1.00502    4.703
 4164.00    0.94022   1.00431    4.739
 4165.00    0.92078   1.00097    4.906
 4166.00    0.90419   0.99523    4.988
 4167.00    0.89209   0.98703    4.977
 4168.00    0.87577   0.97593    5.048
 4169.00    0.85003   0.96170    5.193
 4170.00    0.81763   0.94520    5.237
 4171.00    0.79091   0.92882    5.137
 4172.00    0.78260   0.91564    5.008
 4173.00    0.78688   0.90790    4.981
 4174.00    0.79041   0.90598    5.105
 4175.00    0.80079   0.90861    5.230
 4176.00    0.83682   0.91404    5.123
 4177.00    0.90099   0.92099    4.856
 4178.00    0.97552   0.92868    4.647
 4179.00    1.02526   0.93648    4.569
 4180.00    1.02379   0.94367    4.615
 4181.00    0.99093   0.94959    4.785
 4182.00    0.96274   0.95393    5.037
 4183.00    0.94135   0.95665    5.177
 4184.00    0.91621   0.95797    5.047
 4185.00    0.90019   0.95846    4.859
 4186.00    0.90279   0.95923    4.844
 4187.00    0.89509   0.96163    4.946
 4188.00    0.86683   0.96660    4.986
 4189.00    0.88906   0.97401    4.883
 4190.00    1.00951   0.98240    4.675
 4191.00    1.14209   0.98938    4.463
 4192.00    1.18381   0.99228    4.337
 4193.00    1.13852   0.98920    4.356
 4194.00    1.06052   0.97982    4.518
 4195.00    0.98931   0.96583    4.713
 4196.00    0.93760   0.95032    4.838
 4197.00    0.88948   0.93666    4.960
 4198.00    0.83308   0.92719    5.124
 4199.00    0.78393   0.92271    5.166
 4200.00    0.75805   0.92278    5.011
 4201.00    0.75252   0.92652    4.877
 4202.00    0.76285   0.93317    4.900
 4203.00    0.79326   0.94221    4.979
 4204.00    0.83685   0.95298    5.017
 4205.00    0.86776   0.96451    5.059
 4206.00    0.87561   0.97550    5.114
 4207.00    0.88060   0.98478    5.066
 4208.00    0.89751   0.99167    4.890
 4209.00    0.91946   0.99588    4.732
 4210.00    0.94307   0.99722    4.709
 4211.00    0.97807   0.99549    4.854
 4212.00    1.02666   0.99089    5.084
 4213.00    1.07591   0.98476    5.190
 4214.00    1.11037   0.97959    5.123
 4215.00    1.11909   0.97808    5.083
 4216.00    1.09945   0.98147    5.100
 4217.00    1.05731   0.98851    4.992
 4218.00    1.00154   0.99566    4.822
 4219.00    0.94141   0.99854    4.871
 4220.00    0.88470   0.99355    5.167
 4221.00    0.83647   0.97914    5.402
 4222.00    0.79682   0.95648    5.352
 4223.00    0.76424   0.92956    5.131
 4224.00    0.74759   0.90467    4.950
 4225.00    0.76110   0.88854    4.939
 4226.00    0.79976   0.88585    5.036
 4227.00    0.84195   0.89691    5.064
 4228.00    0.87530   0.91725    5.043
 4229.00    0.90036   0.93942    5.146
 4230.00    0.92176   0.95645    5.332
 4231.00    0.94517   0.96468    5.373
 4232.00    0.97539   0.96460    5.230
 4233.00    1.01207   0.95954    5.067
 4234.00    1.04193   0.95356    5.008
 4235.00    1.04694   0.94968    5.094
 4236.00    1.02358   0.94943    5.280
 4237.00    0.98272   0.95312    5.449
 4238.00    0.94212   0.96033    5.481
 4239.00    0.91850   0.97016    5.338
 4240.00    0.91691   0.98120    5.140
 4241.00    0.93466   0.99152    5.015
 4242.00    0.97035   0.99892    4.957
 4243.00    1.01868   1.00158    4.914
 4244.00    1.06150   0.99869    4.905
 4245.00    1.07624   0.99092    4.957
 4246.00    1.04979   0.98027    4.998
 4247.00    0.98688   0.96932    4.973
 4248.00    0.91683   0.96032    5.002
 4249.00    0.87279   0.95463    5.160
 4250.00    0.86635   0.95251    5.192
 4251.00    0.89219   0.95341    4.930
 4252.00    0.93682   0.95641    4.750
 4253.00    0.98520   0.96049    4.948
 4254.00    1.02650   0.96451    5.347
 4255.00    1.05389   0.96723    5.554
 4256.00    1.06416   0.96760    5.449
 4257.00    1.06057   0.96564    5.207
 4258.00    1.05457   0.96298    5.034
 4259.00    1.05730   0.96251    5.013
 4260.00    1.07248   0.96691    5.093
 4261.00    1.09682   0.97690    5.196
 4262.00    1.12142   0.99041    5.298
 4263.00    1.13677   1.00339    5.356
 4264.00    1.13690   1.01147    5.289
 4265.00    1.12385   1.01164    5.114
 4266.00    1.10903   1.00309    4.993
 4267.00    1.10364   0.98702    5.004
 4268.00    1.11131   0.96618    5.081
 4269.00    1.12109   0.94411    5.158
 4270.00    1.11001   0.92472    5.243
 4271.00    1.07746   0.91149    5.341
 4272.00    1.05399   0.90676    5.410
 4273.00    1.05230   0.91105    5.393
 4274.00    1.05133   0.92293    5.259
 4275.00    1.03858   0.93933    5.052
 4276.00    1.02435   0.95632    4.866
 4277.00    1.01578   0.97017    4.767
 4278.00    1.00795   0.97846    4.780
 4279.00    0.99488   0.98064    4.911
 4280.00    0.97527   0.97791    5.134
 4281.00    0.95648   0.97222   -2.000
 4282.00    0.94979   0.96525   -2.000
 4283.00    0.95005   0.95757   -2.000
 4284.00    0.94212   0.94873   -2.000
 4285.00    0.94266   0.93797   -2.000
 4286.00    0.98995   0.92531   -2.000
 4287.00    1.07576   0.91225   -2.000
 4288.00    1.14870   0.90160   -2.000
 4289.00    1.17889   0.89617   -2.000
 4290.00    1.16953   0.89706   -2.000
 4291.00    1.13929   0.90285   -2.000
 4292.00    1.10897   0.90997   -2.000
 4293.00    1.08197   0.91437   -2.000
 4294.00    1.04761   0.91300   -2.000
 4295.00    0.99853   0.90463   -2.000
 4296.00    0.93639   0.88992   -2.000
 4297.00    0.87496   0.87110    5.118
 4298.00    0.83004   0.85147    5.078
 4299.00    0.80007   0.83455    4.992
 4300.00    0.77604   0.82297    4.961
 4301.00    0.76438   0.81760    4.982
 4302.00    0.77369   0.81733    5.008
 4303.00    0.78789   0.81973    5.039
 4304.00    0.78527   0.82239    5.096
 4305.00    0.77256   0.82413    5.141
 4306.00    0.76867   0.82555    5.138
 4307.00    0.77526   0.82854    5.157
 4308.00    0.78345   0.83499    5.262
 4309.00    0.78804   0.84559    5.355
 4310.00    0.78997   0.85966    5.320
 4311.00    0.79687   0.87594    5.255
 4312.00    0.81831   0.89364    5.301
 4313.00    0.86014   0.91265    5.444
 4314.00    0.92106   0.93284    5.584
 4315.00    0.99020   0.95299    5.629
 4316.00    1.05343   0.97066    5.572
 4317.00    1.10000   0.98292    5.529
 4318.00    1.12519   0.98758    5.547
 4319.00    1.13150   0.98387    5.475
 4320.00    1.12208   0.97240    5.276
 4321.00    1.09562   0.95492    5.196
 4322.00    1.04959   0.93426    5.353
 4323.00    0.98378   0.91434    5.497
 4324.00    0.90397   0.89954    5.429
 4325.00    0.82401   0.89318    5.351
 4326.00    0.76231   0.89594    5.389
 4327.00    0.73643   0.90536    5.347
 4328.00    0.74533   0.91695    5.155
 4329.00    0.76426   0.92624    5.061
 4330.00    0.78144   0.93025    0.000
 4331.00    0.81277   0.92743    0.000
 4332.00    0.86079   0.91679    0.000
 4333.00    0.89898   0.89719    0.000
 4334.00    0.91004   0.86758    0.000
 4335.00    0.90191   0.82833    0.000
 4336.00    0.88743   0.78254    0.000
 4337.00    0.87555   0.73632    0.000
 4338.00    0.87742   0.69765    0.000
 4339.00    0.90423   0.67390    0.000
 4340.00    0.94741   0.66942    0.000
 4341.00    0.98042   0.68412    0.000
 4342.00    0.99558   0.71392    0.000
 4343.00    1.00791   0.75247    0.000
 4344.00    1.01880   0.79314    0.000
 4345.00    1.01338   0.83041    0.000
 4346.00    0.99383   0.86044    0.000
 4347.00    0.98054   0.88111    0.000
 4348.00    0.98231   0.89224    0.000
 4349.00    0.99283   0.89588    0.000
 4350.00    1.00654   0.89597    0.000
 4351.00    1.01935   0.89723    5.231
 4352.00    1.01893   0.90315    5.438
 4353.00    0.99381   0.91467    5.471
 4354.00    0.96024   0.93004    5.383
 4355.00    0.94524   0.94613    5.394
 4356.00    0.93587   0.96033    5.390
 4357.00    0.90456   0.97182    5.106
 4358.00    0.88317   0.98153    4.715
 4359.00    0.92735   0.99107    4.502
 4360.00    1.02048   1.00141    4.447
 4361.00    1.09957   1.01204    4.440
 4362.00    1.13457   1.02121    4.565
 4363.00    1.12812   1.02674    4.977
 4364.00    1.09104   1.02710    5.549
 4365.00    1.03686   1.02226    5.834
 4366.00    0.97956   1.01372    5.691
 4367.00    0.93347   1.00381    5.417
 4368.00    0.91306   0.99450    5.275
 4369.00    0.92539   0.98656    5.355
 4370.00    0.96077   0.97956    5.538
 4371.00    1.00196   0.97282    5.640
 4372.00    1.03758   0.96660    5.674
 4373.00    1.06622   0.96246    5.706
 4374.00    1.09789   0.96237    5.633
 4375.00    1.13436   0.96709    5.411
 4376.00    1.15103   0.97497    5.258
 4377.00    1.13073   0.98207    5.290
 4378.00    1.09617   0.98366    5.282
 4379.00    1.07429   0.97629    5.098
 4380.00    1.06196   0.95954    5.041
 4381.00    1.04352   0.93655    5.319
 4382.00    1.00893   0.91312    5.688
 4383.00    0.95602   0.89540    5.806
 4384.00    0.89087   0.88757    5.793
 4385.00    0.82475   0.89032    5.838
 4386.00    0.77091   0.90112    5.830
 4387.00    0.73867   0.91588    5.697
 4388.00    0.72981   0.93081    5.620
 4389.00    0.74240   0.94353    5.695
 4390.00    0.77358   0.95320    5.791
 4391.00    0.82073   0.96007    5.799
 4392.00    0.88097   0.96503    5.787
 4393.00    0.94487   0.96915    5.830
 4394.00    0.99661   0.97317    5.914
 4395.00    1.03325   0.97703    5.980
 4396.00    1.06837   0.97988    5.957
 4397.00    1.10075   0.98064    5.853
 4398.00    1.10762   0.97879    5.763
 4399.00    1.08368   0.97470    5.749
 4400.00    1.05104   0.96924    5.803
 4401.00    1.02588   0.96326    5.871
 4402.00    1.00729   0.95746    5.884
 4403.00    0.99044   0.95257    5.861
 4404.00    0.97210   0.94958    5.901
 4405.00    0.95118   0.94961    6.000
 4406.00    0.93092   0.95352    6.036
 4407.00    0.92539   0.96130    5.981
 4408.00    0.95204   0.97176    5.919
 4409.00    1.00324   0.98250    5.864
 4410.00    1.05054   0.99049    5.763
 4411.00    1.08212   0.99310    5.641
 4412.00    1.10532   0.98950    5.586
 4413.00    1.12416   0.98136    5.647
 4414.00    1.13561   0.97240    5.812
 4415.00    1.13597   0.96680    5.987
 4416.00    1.12423   0.96721    6.036
 4417.00    1.10604   0.97354    5.945
 4418.00    1.08800   0.98322    5.809
 4419.00    1.06420   0.99275    5.694
 4420.00    1.02536   0.99951    5.624
 4421.00    0.98195   1.00271    5.633
 4422.00    0.95728   1.00316    5.740
 4423.00    0.96625   1.00232    5.900
 4424.00    1.00628   1.00131    6.016
 4425.00    1.04977   1.00048    6.010
 4426.00    1.06465   0.99953    5.897
 4427.00    1.04792   0.99791    5.851
 4428.00    1.01566   0.99518    5.982
 4429.00    0.98041   0.99113    6.066
 4430.00    0.94961   0.98588    5.849
 4431.00    0.92775   0.98001    5.577
 4432.00    0.91545   0.97483    5.542
 4433.00    0.90868   0.97223    5.673
 4434.00    0.90897   0.97391    5.734
 4435.00    0.93355   0.98033    5.594
 4436.00    0.98996   0.98978    5.333
 4437.00    1.04962   0.99887    5.196
 4438.00    1.08080   1.00389    5.285
 4439.00    1.08344   1.00281    5.371
 4440.00    1.06937   0.99650    5.211
 4441.00    1.04129   0.98841    4.924
 4442.00    1.00181   0.98286    4.714
 4443.00    0.96171   0.98274    4.649
 4444.00    0.92714   0.98831    4.729
 4445.00    0.89047   0.99738    4.908
 4446.00    0.84711   1.00675    5.130
 4447.00    0.80696   1.01350    5.344
 4448.00    0.77977   1.01596    5.491
 4449.00    0.76581   1.01365    5.505
 4450.00    0.76855   1.00693    5.395
 4451.00    0.79960   0.99653    5.263
 4452.00    0.85381   0.98356    5.194
 4453.00    0.89973   0.96967    5.206
 4454.00    0.91610   0.95674    5.291
 4455.00    0.90914   0.94632    5.424
 4456.00    0.88980   0.93915    5.551
 4457.00    0.86182   0.93523    5.596
 4458.00    0.82645   0.93412    5.554
 4459.00    0.78630   0.93540    5.512
 4460.00    0.75082   0.93897    5.512
 4461.00    0.73522   0.94457    0.000
 4462.00    0.74546   0.95137    0.000
 4463.00    0.77378   0.95793    0.000
 4464.00    0.80707   0.96271    0.000
 4465.00    0.83258   0.96476    0.000
 4466.00    0.84568   0.96440    0.000
 4467.00    0.85119   0.96329    0.000
 4468.00    0.85781   0.96378    0.000
 4469.00    0.87412   0.96801    0.000
 4470.00    0.90185   0.97702    0.000
 4471.00    0.93455   0.99034    0.000
 4472.00    0.95966   1.00604    0.000
 4473.00    0.96432   1.02131    0.000
 4474.00    0.94894   1.03321    0.000
 4475.00    0.92670   1.03927    0.000
 4476.00    0.91305   1.03813    0.000
 4477.00    0.91737   1.03006    0.000
 4478.00    0.93074   1.01725    0.000
 4479.00    0.93513   1.00362    0.000
 4480.00    0.92912   0.99363    0.000
 4481.00    0.92394   0.99054    0.000
 4482.00    0.92434   0.99483    6.122
 4483.00    0.92829   1.00404    6.278
 4484.00    0.93407   1.01394    6.271
 4485.00    0.94184   1.02051    6.068
 4486.00    0.95392   1.02171    5.847
 4487.00    0.97004   1.01811    5.793
 4488.00    0.98022   1.01204    5.889
 4489.00    0.97486   1.00617    6.017
 4490.00    0.96097   1.00221    6.118
 4491.00    0.95363   1.00049    6.186
 4492.00    0.96088   1.00054    6.225
 4493.00    0.98382   1.00203    6.246
 4494.00    1.01971   1.00496    6.276
 4495.00    1.06473   1.00949    6.319
 4496.00    1.11667   1.01559    6.298
 4497.00    1.17126   1.02297    6.175
 4498.00    1.21806   1.03120    6.053
 4499.00    1.24427   1.04005    6.021
 4500.00    1.23953   1.04958    6.011
 4501.00    1.20110   1.05971    5.952
 4502.00    1.13767   1.06966    5.905
 4503.00    1.06295   1.07809    5.945
 4504.00    0.98987   1.08374    6.060
 4505.00    0.93355   1.08604    6.193
 4506.00    0.91254   1.08540    6.277
 4507.00    0.93352   1.08286    6.282
 4508.00    0.98130   1.07935    6.238
 4509.00    1.03429   1.07516    6.187
 4510.00    1.07644   1.07006    6.146
 4511.00    1.09645   1.06380    6.103
 4512.00    1.08836   1.05651    6.032
 4513.00    1.06174   1.04894    5.955
 4514.00    1.04293   1.04226    5.950
 4515.00    1.04431   1.03741    6.044
 4516.00    1.05127   1.03465    6.158
 4517.00    1.05139   1.03341    6.208
 4518.00    1.04633   1.03259    6.182
 4519.00    1.02821   1.03100    6.162
 4520.00    0.97700   1.02742    6.283
 4521.00    0.90545   1.02112    6.511
 4522.00    0.86178   1.01195    6.582
 4523.00    0.84814   1.00028    6.427
 4524.00    0.81395   0.98700    6.289
 4525.00    0.77418   0.97349    6.299
 4526.00    0.81146   0.96134    6.383
 4527.00    0.90331   0.95199    6.420
 4528.00    0.92280   0.94611    6.332
 4529.00    0.86831   0.94353    6.201
 4530.00    0.87069   0.94373    6.184
 4531.00    0.95466   0.94628    6.217
 4532.00    1.02207   0.95130    6.083
 4533.00    1.03749   0.95917    5.885
 4534.00    1.04554   0.97004    5.916
 4535.00    1.06000   0.98322    6.126
 4536.00    1.05788   0.99693    6.179
 4537.00    1.04547   1.00901    6.054
 4538.00    1.05315   1.01773    6.021
 4539.00    1.08157   1.02231    6.117
 4540.00    1.10163   1.02325    6.182
 4541.00    1.08412   1.02181    6.204
 4542.00    1.02106   1.01903    6.274
 4543.00    0.95358   1.01522    6.323
 4544.00    0.93496   1.01014    6.217
 4545.00    0.95151   1.00378    6.088
 4546.00    0.95601   0.99662    6.136
 4547.00    0.95271   0.98930    6.284
 4548.00    0.97787   0.98259    6.308
 4549.00    1.04242   0.97708    6.212
 4550.00    1.12396   0.97302    0.000
 4551.00    1.17163   0.97064    0.000
 4552.00    1.14836   0.97042    0.000
 4553.00    1.08687   0.97296    0.000
 4554.00    1.04179   0.97878    0.000
 4555.00    1.01808   0.98800    0.000
 4556.00    1.00165   0.99980    0.000
 4557.00    1.00615   1.01239    0.000
 4558.00    1.04009   1.02333    0.000
 4559.00    1.06693   1.03043    0.000
 4560.00    1.05886   1.03280    0.000
 4561.00    1.05313   1.03112    0.000
 4562.00    1.08570   1.02740    0.000
 4563.00    1.12456   1.02414    0.000
 4564.00    1.12361   1.02323    0.000
 4565.00    1.07803   1.02524    0.000
 4566.00    1.01835   1.02907    0.000
 4567.00    0.99509   1.03287    0.000
 4568.00    1.02595   1.03540    0.000
 4569.00    1.06444   1.03634    0.000
 4570.00    1.08144   1.03610    0.000
 4571.00    1.11589   1.03570    0.000
 4572.00    1.18623   1.03595    0.000
 4573.00    1.23855   1.03672    0.000
 4574.00    1.23141   1.03691    0.000
 4575.00    1.18415   1.03505    0.000
 4576.00    1.12046   1.03023    0.000
 4577.00    1.03892   1.02249    0.000
 4578.00    0.94965   1.01267    0.000
 4579.00    0.88988   1.00223    0.000
 4580.00    0.89194   0.99292    0.000
 4581.00    0.96339   0.98623    0.000
 4582.00    1.07526   0.98304    0.000
 4583.00    1.17208   0.98364    0.000
 4584.00    1.23886   0.98756    0.000
 4585.00    1.31012   0.99365    0.000
 4586.00    1.38248   1.00025    0.000
 4587.00    1.39995   1.00568    0.000
 4588.00    1.33995   1.00885    0.000
 4589.00    1.23845   1.00951    0.000
 4590.00    1.15685   1.00808    0.000
 4591.00    1.14842   1.00547    0.000
 4592.00    1.19193   1.00289    0.000
 4593.00    1.20887   1.00129    0.000
 4594.00    1.18195   1.00108    0.000
 4595.00    1.15546   1.00198    0.000
 4596.00    1.13166   1.00328    0.000
 4597.00    1.06827   1.00447    0.000
 4598.00    0.95157   1.00542    0.000
 4599.00    0.81746   1.00613    0.000
 4600.00    0.75168   1.00688    0.000
 4601.00    0.83297   1.00813    0.000
 4602.00    1.00903   1.01052    0.000
 4603.00    1.14811   1.01466    0.000
 4604.00    1.20557   1.02085    0.000
 4605.00    1.21562   1.02876    0.000
 4606.00    1.20491   1.03731    0.000
 4607.00    1.18240   1.04519    0.000
 4608.00    1.15302   1.05120    0.000
 4609.00    1.12435   1.05452    0.000
 4610.00    1.11274   1.05525    0.000
 4611.00    1.12799   1.05398    0.000
 4612.00    1.14939   1.05146    0.000
 4613.00    1.15391   1.04858    0.000
 4614.00    1.16025   1.04572    0.000
 4615.00    1.18812   1.04289    0.000
 4616.00    1.19861   1.04065    0.000
 4617.00    1.15327   1.03958    0.000
 4618.00    1.09411   1.03984    0.000
 4619.00    1.07861   1.04154    0.000
 4620.00    1.09535   1.04432    0.000
 4621.00    1.10726   1.04724    0.000
 4622.00    1.10855   1.04942    0.000
 4623.00    1.11309   1.05030    0.000
 4624.00    1.13497   1.04938    0.000
 4625.00    1.17212   1.04669    0.000
 4626.00    1.19582   1.04331    0.000
 4627.00    1.18345   1.04034    0.000
 4628.00    1.14607   1.03793    0.000
 4629.00    1.10796   1.03571    0.000
 4630.00    1.08663   1.03346    0.000
 4631.00    1.08244   1.03091    0.000
 4632.00    1.07664   1.02771    0.000
 4633.00    1.06714   1.02369    0.000
 4634.00    1.08525   1.01916    0.000
 4635.00    1.13480   1.01481    0.000
 4636.00    1.16349   1.01131    0.000
 4637.00    1.14210   1.00929    0.000
 4638.00    1.10395   1.00881    0.000
 4639.00    1.08189   1.00918    0.000
 4640.00    1.07533   1.00946    0.000
 4641.00    1.07614   1.00833    0.000
 4642.00    1.08178   1.00456    0.000
 4643.00    1.08615   0.99809    0.000
 4644.00    1.07919   0.99014    0.000
 4645.00    1.06625   0.98270    0.000
 4646.00    1.07044   0.97784    0.000
 4647.00    1.10415   0.97686    0.000
 4648.00    1.15730   0.97995    0.000
 4649.00    1.20035   0.98601    0.000
 4650.00    1.19805   0.99285    0.000
 4651.00    1.15279   0.99856    0.000
 4652.00    1.10590   1.00236    0.000
 4653.00    1.08815   1.00484    0.000
 4654.00    1.10589   1.00762    0.000
 4655.00    1.15220   1.01216    0.000
 4656.00    1.21013   1.01866    0.000
 4657.00    1.25168   1.02598    0.000
 4658.00    1.24925   1.03210    0.000
 4659.00    1.20660   1.03496    0.000
 4660.00    1.15644   1.03322    0.000
 4661.00    1.13305   1.02638    0.000
 4662.00    1.15474   1.01446    0.000
 4663.00    1.20105   0.99859    0.000
 4664.00    1.22815   0.98146    0.000
 4665.00    1.21305   0.96631    0.000
 4666.00    1.16189   0.95581    0.000
 4667.00    1.10592   0.95161    0.000
 4668.00    1.08136   0.95386    0.000
 4669.00    1.09450   0.96128    0.000
 4670.00    1.12713   0.97193    0.000
 4671.00    1.15764   0.98380    0.000
 4672.00    1.17018   0.99509    0.000
 4673.00    1.16298   1.00429    0.000
 4674.00    1.14146   1.01021    0.000
 4675.00    1.10650   1.01251    0.000
 4676.00    1.06083   1.01169    0.000
 4677.00    1.01982   1.00868    0.000
 4678.00    1.00147   1.00474    0.000
 4679.00    1.01180   1.00142    0.000
 4680.00    1.04494   0.99982    0.000
 4681.00    1.08653   1.00016    0.000
 4682.00    1.12664   1.00213    0.000
 4683.00    1.17211   1.00499    0.000
 4684.00    1.22679   1.00782    0.000
 4685.00    1.27155   1.00995    0.000
 4686.00    1.28476   1.01101    0.000
 4687.00    1.26368   1.01093    0.000
 4688.00    1.21912   1.01025    0.000
 4689.00    1.16804   1.00980    0.000
 4690.00    1.12622   1.01014    0.000
 4691.00    1.10220   1.01148    0.000
 4692.00    1.09530   1.01357    0.000
 4693.00    1.09524   1.01534    0.000
 4694.00    1.08871   1.01532    0.000
 4695.00    1.06650   1.01264    0.000
 4696.00    1.03891   1.00753    0.000
 4697.00    1.03938   1.00065    0.000
 4698.00    1.08267   0.99261    0.000
 4699.00    1.14247   0.98437    0.000
 4700.00    1.17850   0.97738    0.000
 4701.00    1.15873   0.97277    0.000
 4702.00    1.08803   0.97048    0.000
 4703.00    1.01356   0.96960    0.000
 4704.00    0.97512   0.96938    0.000
 4705.00    0.98038   0.96959    0.000
 4706.00    1.01017   0.97048    0.000
 4707.00    1.03015   0.97256    0.000
 4708.00    1.02758   0.97589    0.000
 4709.00    1.01843   0.97977    0.000
 4710.00    1.01156   0.98346    0.000
 4711.00    1.00149   0.98693    0.000
 4712.00    0.99680   0.99081    0.000
 4713.00    1.02117   0.99572    0.000
 4714.00    1.07954   1.00181    0.000
 4715.00    1.15225   1.00908    0.000
 4716.00    1.21505   1.01740    0.000
 4717.00    1.24979   1.02592    0.000
 4718.00    1.25536   1.03353    0.000
 4719.00    1.24387   1.03939    0.000
 4720.00    1.22129   1.04329    0.000
 4721.00    1.18904   1.04512    0.000
 4722.00    1.16169   1.04441    0.000
 4723.00    1.15865   1.04040    0.000
 4724.00    1.17411   1.03282    0.000
 4725.00    1.18197   1.02256    0.000
 4726.00    1.16296   1.01116    0.000
 4727.00    1.11566   1.00015    0.000
 4728.00    1.06543   0.99119    0.000
 4729.00    1.04086   0.98578    0.000
 4730.00    1.02753   0.98431    0.000
 4731.00    0.99247   0.98616    0.000
 4732.00    0.94209   0.99003    0.000
 4733.00    0.90767   0.99437    0.000
 4734.00    0.90468   0.99868    0.000
 4735.00    0.92920   1.00304    0.000
 4736.00    0.96349   1.00697    0.000
 4737.00    0.98846   1.01012    0.000
 4738.00    0.99967   1.01286    0.000
 4739.00    1.00112   1.01570    0.000
 4740.00    0.99496   1.01868    0.000
 4741.00    0.99356   1.02143    0.000
 4742.00    1.03270   1.02399    0.000
 4743.00    1.12683   1.02666    0.000
 4744.00    1.22115   1.02919    0.000
 4745.00    1.25137   1.03120    0.000
 4746.00    1.21102   1.03273    0.000
 4747.00    1.12916   1.03351    0.000
 4748.00    1.04037   1.03288    0.000
 4749.00    0.97328   1.03049    0.000
 4750.00    0.94259   1.02653    0.000
 4751.00    0.94994   1.02150    0.000
 4752.00    0.98615   1.01613    0.000
 4753.00    1.03938   1.01121    0.000
 4754.00    1.09979   1.00754    0.000
 4755.00    1.14615   1.00537    0.000
 4756.00    1.14178   1.00423    0.000
 4757.00    1.07894   1.00300    0.000
 4758.00    1.00114   1.00006    0.000
 4759.00    0.94414   0.99457    0.000
 4760.00    0.90243   0.98701    0.000
 4761.00    0.86441   0.97836    7.025
 4762.00    0.83468   0.96982    6.946
 4763.00    0.83245   0.96317    6.805
 4764.00    0.88095   0.96004    6.809
 4765.00    0.96157   0.96102    6.959
 4766.00    1.00755   0.96558    6.992
 4767.00    0.98723   0.97231    6.847
 4768.00    0.93444   0.97947    6.805
 4769.00    0.90150   0.98632    6.964
 4770.00    0.92836   0.99304    7.120
 4771.00    1.00806   0.99964    7.130
 4772.00    1.08717   1.00563    7.068
 4773.00    1.12105   1.01077    7.028
 4774.00    1.09769   1.01523    7.047
 4775.00    1.04356   1.01846    7.134
 4776.00    1.00720   1.01964    7.276
 4777.00    1.00096   1.01888    7.388
 4778.00    0.99910   1.01656    7.359
 4779.00    0.99117   1.01252    7.272
 4780.00    0.99002   1.00707    7.325
 4781.00    1.00669   1.00154    7.486
 4782.00    1.04056   0.99644    7.520
 4783.00    1.07345   0.99139    7.410
 4784.00    1.07569   0.98720    7.349
 4785.00    1.02452   0.98459    7.442
 4786.00    0.92292   0.98335    7.645
 4787.00    0.82933   0.98393    7.748
 4788.00    0.81910   0.98686    7.550
 4789.00    0.89177   0.99203    7.259
 4790.00    0.98844   0.99925    7.194
 4791.00    1.06411   1.00782    7.294
 4792.00    1.09935   1.01621    7.316
 4793.00    1.09485   1.02265    7.282
 4794.00    1.06588   1.02599    7.349
 4795.00    1.03423   1.02587    7.442
 4796.00    1.01656   1.02289    7.399
 4797.00    1.00911   1.01861    7.313
 4798.00    1.00051   1.01470    7.348
 4799.00    0.99301   1.01192    7.432
 4800.00    0.99254   1.00997    7.407
 4801.00    0.99199   1.00801    7.309
 4802.00    0.98446   1.00558    7.246
 4803.00    0.98150   1.00301    7.222
 4804.00    0.99772   1.00013    7.194
 4805.00    1.03038   0.99705    7.157
 4806.00    1.06170   0.99461    7.135
 4807.00    1.06635   0.99331    7.157
 4808.00    1.03852   0.99323    7.221
 4809.00    1.01430   0.99438    7.268
 4810.00    1.02654   0.99677    7.260
 4811.00    1.06230   1.00017    7.254
 4812.00    1.08441   1.00423    7.295
 4813.00    1.05724   1.00877    7.329
 4814.00    0.97682   1.01349    7.311
 4815.00    0.88874   1.01782    7.292
 4816.00    0.84554   1.02112    7.319
 4817.00    0.87080   1.02259    7.370
 4818.00    0.94379   1.02154    7.409
 4819.00    1.00070   1.01732    7.438
 4820.00    1.00514   1.00977    7.455
 4821.00    0.98482   1.00095    7.441
 4822.00    0.96754   0.99365    7.395
 4823.00    0.94721   0.98873    7.355
 4824.00    0.92456   0.98580    7.348
 4825.00    0.92431   0.98436    7.362
 4826.00    0.95699   0.98410    7.354
 4827.00    1.00377   0.98460    7.278
 4828.00    1.04532   0.98485    7.180
 4829.00    1.07511   0.98439    7.189
 4830.00    1.09265   0.98383    7.310
 4831.00    1.09774   0.98365    7.387
 4832.00    1.08114   0.98363    7.381
 4833.00    1.02998   0.98353    7.428
 4834.00    0.96331   0.98329    7.519
 4835.00    0.92842   0.98219    7.465
 4836.00    0.93735   0.97957    7.301
 4837.00    0.95816   0.97595    7.276
 4838.00    0.96487   0.97228    7.411
 4839.00    0.95324   0.96877    7.480
 4840.00    0.93480   0.96545    7.407
 4841.00    0.92746   0.96309    7.320
 4842.00    0.93527   0.96189    7.279
 4843.00    0.94956   0.96088    7.252
 4844.00    0.96816   0.95875    7.253
 4845.00    0.99143   0.95484    7.326
 4846.00    1.00024   0.94971    7.415
 4847.00    0.97305   0.94421    7.402
 4848.00    0.93659   0.93800    0.000
 4849.00    0.93903   0.93030    0.000
 4850.00    0.96868   0.92047    0.000
 4851.00    0.97647   0.90743    0.000
 4852.00    0.95467   0.89054    0.000
 4853.00    0.92575   0.87081    0.000
 4854.00    0.89305   0.84898    0.000
 4855.00    0.85597   0.82429    0.000
 4856.00    0.84999   0.79617    0.000
 4857.00    0.91064   0.76554    0.000
 4858.00    1.00719   0.73568    0.000
 4859.00    1.08002   0.71252    0.000
 4860.00    1.11078   0.70068    0.000
 4861.00    1.11129   0.70065    0.000
 4862.00    1.09365   0.71138    0.000
 4863.00    1.06431   0.73127    0.000
 4864.00    1.02241   0.75704    0.000
 4865.00    0.96816   0.78452    0.000
 4866.00    0.91227   0.80990    0.000
 4867.00    0.86616   0.82963    0.000
 4868.00    0.83065   0.84210    0.000
 4869.00    0.80473   0.84972    0.000
 4870.00    0.79540   0.85616    0.000
 4871.00    0.81130   0.86305    0.000
 4872.00    0.85405   0.87085    0.000
 4873.00    0.90401   0.88013    0.000
 4874.00    0.91491   0.89100    0.000
 4875.00    0.87381   0.90297    7.320
 4876.00    0.84102   0.91555    7.487
 4877.00    0.85943   0.92702    7.320
 4878.00    0.89175   0.93504    7.157
 4879.00    0.90122   0.93927    7.256
 4880.00    0.90576   0.94062    7.452
 4881.00    0.92295   0.93929    7.510
 4882.00    0.93523   0.93546    7.402
 4883.00    0.92242   0.93024    7.245
 4884.00    0.88399   0.92498    7.180
 4885.00    0.84141   0.92055    7.211
 4886.00    0.83042   0.91724    7.180
 4887.00    0.85653   0.91473    7.061
 4888.00    0.88212   0.91353    7.038
 4889.00    0.88299   0.91619    7.160
 4890.00    0.87194   0.92443    7.239
 4891.00    0.87131   0.93726    7.171
 4892.00    0.89513   0.95272    7.063
 4893.00    0.93133   0.96871    6.991
 4894.00    0.94710   0.98313    6.928
 4895.00    0.93941   0.99424    6.863
 4896.00    0.94069   1.00057    6.818
 4897.00    0.96365   1.00172    6.783
 4898.00    0.99113   0.99947    6.708
 4899.00    1.01396   0.99583    6.588
 4900.00    1.03633   0.99166    6.472
 4901.00    1.05035   0.98829    6.430
 4902.00    1.04008   0.98721    6.509
 4903.00    1.01758   0.98810    6.629
 4904.00    1.01598   0.98920    6.634
 4905.00    1.04108   0.98885    6.568
 4906.00    1.07007   0.98608    6.613
 4907.00    1.08299   0.98115    6.746
 4908.00    1.07273   0.97592    6.795
 4909.00    1.04852   0.97234    6.801
 4910.00    1.02771   0.97087    6.944
 4911.00    1.01647   0.97107    7.152
 4912.00    1.00645   0.97237    7.197
 4913.00    0.97755   0.97311    7.197
 4914.00    0.91869   0.97061    7.428
 4915.00    0.86383   0.96286    7.736
 4916.00    0.85780   0.94972    7.717
 4917.00    0.88624   0.93339    7.502
 4918.00    0.90391   0.91767    7.480
 4919.00    0.90047   0.90613    7.670
 4920.00    0.89017   0.90014    7.864
 4921.00    0.88016   0.89966    7.933
 4922.00    0.87531   0.90537    7.888
 4923.00    0.89083   0.91762    7.844
 4924.00    0.93652   0.93423    7.881
 4925.00    0.99484   0.95191    7.894
 4926.00    1.03590   0.96836    7.780
 4927.00    1.04039   0.98163    7.665
 4928.00    1.01236   0.99039    7.698
 4929.00    0.98771   0.99403    7.819
 4930.00    0.99685   0.99183    7.901
 4931.00    1.02661   0.98472    7.925
 4932.00    1.04838   0.97613    7.941
 4933.00    1.04975   0.96804    8.004
 4934.00    1.03443   0.95995    8.119
 4935.00    1.01770   0.95206    8.213
 4936.00    1.00877   0.94630    8.198
 4937.00    0.99846   0.94503    8.061
 4938.00    0.97985   0.94921    7.887
 4939.00    0.96349   0.95712    7.833
 4940.00    0.96026   0.96651    0.000
 4941.00    0.96873   0.97655    0.000
 4942.00    0.98069   0.98631    0.000
 4943.00    0.98687   0.99466    0.000
 4944.00    0.98414   1.00148    0.000
 4945.00    0.97890   1.00680    0.000
 4946.00    0.98043   1.01045    0.000
 4947.00    0.99600   1.01276    0.000
 4948.00    1.02704   1.01382    0.000
 4949.00    1.06668   1.01299    0.000
 4950.00    1.09770   1.00962    0.000
 4951.00    1.09741   1.00353    0.000
 4952.00    1.06496   0.99475    0.000
 4953.00    1.02639   0.98311    0.000
 4954.00    0.99903   0.96902    0.000
 4955.00    0.98009   0.95544    0.000
 4956.00    0.96664   0.94715    0.000
 4957.00    0.96268   0.94564    0.000
 4958.00    0.97346   0.94857    0.000
 4959.00    0.99941   0.95365    0.000
 4960.00    1.02365   0.95969    0.000
 4961.00    1.02140   0.96538    0.000
 4962.00    1.00387   0.96895    0.000
 4963.00    1.00907   0.96907    0.000
 4964.00    1.03132   0.96629    0.000
 4965.00    1.02522   0.96257    0.000
 4966.00    0.97766   0.95962    0.000
 4967.00    0.91482   0.95843    0.000
 4968.00    0.86540   0.95943    0.000
 4969.00    0.84842   0.96277    0.000
 4970.00    0.86816   0.96792    0.000
 4971.00    0.91465   0.97360    0.000
 4972.00    0.96782   0.97843    0.000
 4973.00    1.00678   0.98112    0.000
 4974.00    1.02667   0.98063    0.000
 4975.00    1.03455   0.97633    0.000
 4976.00    1.03456   0.96814    0.000
 4977.00    1.02805   0.95687    0.000
 4978.00    1.01881   0.94328    0.000
 4979.00    1.00719   0.92785    0.000
 4980.00    0.97973   0.91254    0.000
 4981.00    0.93018   0.90071    0.000
 4982.00    0.89249   0.89453    0.000
 4983.00    0.90208   0.89435    0.000
 4984.00    0.93527   0.89951    0.000
 4985.00    0.94990   0.90830    0.000
 4986.00    0.94989   0.91831    0.000
 4987.00    0.96026   0.92767    0.000
 4988.00    0.98530   0.93517    0.000
 4989.00    1.00752   0.94054    0.000
 4990.00    0.99514   0.94414    0.000
 4991.00    0.93660   0.94591    0.000
 4992.00    0.87283   0.94664    0.000
 4993.00    0.84974   0.94737    0.000
 4994.00    0.86867   0.94754    0.000
 4995.00    0.90625   0.94615    0.000
 4996.00    0.93863   0.94237    0.000
 4997.00    0.95196   0.93574    0.000
 4998.00    0.94912   0.92728    0.000
 4999.00    0.94295   0.91843    0.000
 5000.00    0.94879   0.91011    0.000
 5001.00    0.97283   0.90288    0.000
 5002.00    1.00505   0.89639    0.000
 5003.00    1.02977   0.89074    0.000
 5004.00    1.03500   0.88759    0.000
 5005.00    1.02211   0.88831    0.000
 5006.00    1.00838   0.89156    0.000
 5007.00    1.00502   0.89451    0.000
 5008.00    1.00523   0.89538    0.000
 5009.00    0.99381   0.89373    0.000
 5010.00    0.95649   0.88969    0.000
 5011.00    0.89778   0.88404    0.000
 5012.00    0.84449   0.87777    0.000
 5013.00    0.81800   0.87230    0.000
 5014.00    0.82163   0.86829    0.000
 5015.00    0.84670   0.86551    0.000
 5016.00    0.87830   0.86494    0.000
 5017.00    0.90651   0.86798    0.000
 5018.00    0.92832   0.87371    0.000
 5019.00    0.93717   0.87995    0.000
 5020.00    0.92629   0.88609    0.000
 5021.00    0.91537   0.89302    0.000
 5022.00    0.94185   0.90070    0.000
 5023.00    1.00075   0.90764    0.000
 5024.00    1.04450   0.91265    0.000
 5025.00    1.04610   0.91611    0.000
 5026.00    1.01482   0.92008    0.000
 5027.00    0.98213   0.92520    0.000
 5028.00    0.98203   0.93011    0.000
 5029.00    1.01146   0.93461    8.580
 5030.00    1.03537   0.93896    8.632
 5031.00    1.02615   0.94206    8.603
 5032.00    0.97775   0.94172    8.572
 5033.00    0.91395   0.93667    8.581
 5034.00    0.87133   0.92852    8.614
 5035.00    0.85980   0.91933    8.612
 5036.00    0.86561   0.90872    8.540
 5037.00    0.87448   0.89666    8.490
 5038.00    0.87778   0.88533    8.563
 5039.00    0.87490   0.87853    8.647
 5040.00    0.87024   0.87951    8.569
 5041.00    0.86759   0.88701    8.466
 5042.00    0.87258   0.89751    8.536
 5043.00    0.89739   0.90913    8.610
 5044.00    0.94482   0.91996    8.442
 5045.00    0.98523   0.92737    8.247
 5046.00    0.98320   0.92997    8.307
 5047.00    0.93793   0.92850    8.453
 5048.00    0.87374   0.92508    8.401
 5049.00    0.82013   0.92163    8.282
 5050.00    0.80283   0.91997    8.306
 5051.00    0.83547   0.92172    8.326
 5052.00    0.91496   0.92686    8.145
 5053.00    1.01789   0.93406    7.895
 5054.00    1.10790   0.94209    7.777
 5055.00    1.14644   0.95037    7.824
 5056.00    1.12070   0.95810    7.971
 5057.00    1.06521   0.96403    8.105
 5058.00    1.01928   0.96766    8.114
 5059.00    0.98941   0.96892    7.966
 5060.00    0.97191   0.96729    7.777
 5061.00    0.97240   0.96212    7.776
 5062.00    0.99002   0.95368    7.997
 5063.00    1.00610   0.94444    8.093
 5064.00    0.99965   0.93668    7.884
 5065.00    0.96099   0.93001    7.735
 5066.00    0.90439   0.92423    7.861
 5067.00    0.86896   0.92072    8.015
 5068.00    0.87486   0.91977    7.968
 5069.00    0.90283   0.91952    7.831
 5070.00    0.93688   0.91881    7.735
 5071.00    0.98307   0.91831    7.666
 5072.00    1.03266   0.91770    7.631
 5073.00    1.05148   0.91578    7.714
 5074.00    1.02954   0.91253    7.911
 5075.00    0.99639   0.90818    8.084
 5076.00    0.97378   0.90193    8.149
 5077.00    0.95768   0.89362    8.178
 5078.00    0.93877   0.88611    8.249
 5079.00    0.91289   0.88212    8.374
 5080.00    0.88544   0.88130    8.514
 5081.00    0.87068   0.88257    8.601
 5082.00    0.88339   0.88664    8.626
 5083.00    0.92973   0.89403    8.656
 5084.00    0.98794   0.90300    8.766
 5085.00    1.01851   0.91148    8.989
 5086.00    1.01644   0.91921    9.201
 5087.00    1.00949   0.92650    9.180
 5088.00    1.00357   0.93271    8.993
 5089.00    0.98274   0.93745    8.922
 5090.00    0.95369   0.94102    8.992
 5091.00    0.94222   0.94303    9.014
 5092.00    0.95306   0.94240    8.940
 5093.00    0.97054   0.93849    8.869
 5094.00    0.98474   0.93173    8.814
 5095.00    0.99388   0.92311    8.738
 5096.00    0.99550   0.91379    8.715
 5097.00    0.98577   0.90567    8.854
 5098.00    0.96204   0.90118    9.086
 5099.00    0.92537   0.90059    9.216
 5100.00    0.88407   0.90204    9.190
 5101.00    0.85188   0.90409    9.088
 5102.00    0.84325   0.90617    8.982
 5103.00    0.86379   0.90783    8.899
 5104.00    0.89701   0.90789    8.809
 5105.00    0.91731   0.90573    8.702
 5106.00    0.91287   0.90298    8.673
 5107.00    0.88684   0.90114    8.793
 5108.00    0.85383   0.90070    8.913
 5109.00    0.83488   0.90287    8.851
 5110.00    0.85037   0.90757    8.696
 5111.00    0.90206   0.91370    8.600
 5112.00    0.95493   0.92061    8.510
 5113.00    0.97144   0.92739    8.353
 5114.00    0.95151   0.93361    8.227
 5115.00    0.91584   0.93853    8.206
 5116.00    0.88313   0.94045    8.161
 5117.00    0.86378   0.93874    8.015
 5118.00    0.85616   0.93378    7.955
 5119.00    0.85047   0.92611    8.123
 5120.00    0.83421   0.91632    8.369
 5121.00    0.80822   0.90491    8.504
 5122.00    0.79663   0.89382    8.583
 5123.00    0.81927   0.88509    8.683
 5124.00    0.87066   0.87892    8.703
 5125.00    0.93268   0.87492    8.569
 5126.00    0.98613   0.87299    8.392
 5127.00    1.01768   0.87352    8.298
 5128.00    1.02368   0.87673    8.335
 5129.00    1.00706   0.88162    8.446
 5130.00    0.97487   0.88648    8.475
 5131.00    0.93665   0.89067    8.387
 5132.00    0.90344   0.89467    8.349
 5133.00    0.88719   0.89833    8.402
 5134.00    0.89774   0.89940    8.365
 5135.00    0.92974   0.89711    8.173
 5136.00    0.95923   0.89305    7.991
 5137.00    0.95962   0.88863    7.960
 5138.00    0.91376   0.88552    8.107
 5139.00    0.83201   0.88269    8.326
 5140.00    0.75229   0.87864    8.413
 5141.00    0.70870   0.87614    8.359
 5142.00    0.71785   0.87648    8.397
 5143.00    0.77778   0.87724    8.580
 5144.00    0.86783   0.87683    8.721
 5145.00    0.94923   0.87585    8.730
 5146.00    0.97941   0.87587    8.705
 5147.00    0.95627   0.87685    8.677
 5148.00    0.91676   0.87673    8.590
 5149.00    0.88883   0.87553    8.483
 5150.00    0.88105   0.87519    8.448
 5151.00    0.89573   0.87613    8.418
 5152.00    0.92859   0.87845    8.249
 5153.00    0.95845   0.88290    8.070
 5154.00    0.95904   0.88942    8.137
 5155.00    0.93332   0.89714    8.418
 5156.00    0.90726   0.90439    8.644
 5157.00    0.89726   0.90980    8.722
 5158.00    0.90518   0.91283    8.773
 5159.00    0.92368   0.91168    8.880
 5160.00    0.93996   0.90477    9.045
 5161.00    0.94078   0.89314    9.234
 5162.00    0.91852   0.87737    9.379
 5163.00    0.87981   0.85705    9.384
 5164.00    0.84294   0.83272    9.222
 5165.00    0.83001   0.80711    9.049
 5166.00    0.85130   0.78531    9.031
 5167.00    0.88447   0.77081    9.114
 5168.00    0.89709   0.76269    9.129
 5169.00    0.88303   0.75771    8.973
 5170.00    0.85643   0.75612    8.690
 5171.00    0.83590   0.76293    8.471
 5172.00    0.83382   0.77918    8.459
 5173.00    0.84622   0.79867    8.592
 5174.00    0.86076   0.81588    8.748
 5175.00    0.86774   0.83049    8.930
 5176.00    0.86371   0.84293    9.158
 5177.00    0.85351   0.85077    9.318
 5178.00    0.84519   0.85159    9.316
 5179.00    0.84433   0.84562    9.256
 5180.00    0.85133   0.83430    9.279
 5181.00    0.86038   0.82027    9.388
 5182.00    0.86844   0.81011    9.485
 5183.00    0.88133   0.80865    9.427
 5184.00    0.89735   0.81311    9.203
 5185.00    0.89736   0.81948    9.016
 5186.00    0.87493   0.82678    8.979
 5187.00    0.85485   0.83644    8.972
 5188.00    0.85697   0.84642    8.874
 5189.00    0.87261   0.85060    8.710
 5190.00    0.88376   0.84950    0.000
 5191.00    0.87830   0.84886    0.000
 5192.00    0.85964   0.85017    0.000
 5193.00    0.84760   0.85136    0.000
 5194.00    0.85283   0.85297    0.000
 5195.00    0.86612   0.85701    0.000
 5196.00    0.88006   0.86351    0.000
 5197.00    0.89786   0.87012    0.000
 5198.00    0.91898   0.87411    0.000
 5199.00    0.93481   0.87514    0.000
 5200.00    0.94153   0.87330    0.000
 5201.00    0.94225   0.86817    0.000
 5202.00    0.93125   0.85915    0.000
 5203.00    0.89373   0.84748    0.000
 5204.00    0.83048   0.83718    0.000
 5205.00    0.76352   0.83038    0.000
 5206.00    0.72029   0.82635    0.000
 5207.00    0.72140   0.82629    0.000
 5208.00    0.76018   0.83166    0.000
 5209.00    0.80648   0.84139    0.000
 5210.00    0.83918   0.85342    0.000
 5211.00    0.85563   0.86517    8.803
 5212.00    0.86823   0.87507    8.743
 5213.00    0.89433   0.88218    8.787
 5214.00    0.93286   0.88734    8.930
 5215.00    0.96666   0.89250    8.980
 5216.00    0.98368   0.89791    8.894
 5217.00    0.98248   0.90248    8.800
 5218.00    0.97199   0.90535    8.832
 5219.00    0.96541   0.90639    9.038
 5220.00    0.96766   0.90487    9.220
 5221.00    0.97199   0.89971    9.109
 5222.00    0.95960   0.89073    8.866
 5223.00    0.91553   0.87880    8.822
 5224.00    0.85665   0.86578    8.958
 5225.00    0.81596   0.85551    9.049
 5226.00    0.80723   0.85197    9.018
 5227.00    0.82431   0.85376    8.938
 5228.00    0.85033   0.85771    8.884
 5229.00    0.86816   0.86319    8.889
 5230.00    0.87332   0.86917    8.917
 5231.00    0.87027   0.87490    8.916
 5232.00    0.86481   0.88020    8.887
 5233.00    0.86440   0.88537    8.860
 5234.00    0.87925   0.89151    8.851
 5235.00    0.91420   0.89803    8.839
 5236.00    0.95943   0.90449    8.768
 5237.00    0.99728   0.91134    8.645
 5238.00    1.01162   0.91804    8.624
 5239.00    0.99562   0.92357    8.779
 5240.00    0.95798   0.92640    8.898
 5241.00    0.91517   0.92681    8.799
 5242.00    0.88308   0.92642    8.676
 5243.00    0.87558   0.92459    8.714
 5244.00    0.90235   0.91952    8.789
 5245.00    0.95652   0.91229    8.741
 5246.00    1.00753   0.90622    8.619
 5247.00    1.02631   0.90137    8.523
 5248.00    1.00490   0.89590    8.479
 5249.00    0.95257   0.89146    8.471
 5250.00    0.89051   0.89070    8.477
 5251.00    0.84002   0.89297    8.499
 5252.00    0.81437   0.89555    8.576
 5253.00    0.81557   0.89818    8.676
 5254.00    0.83396   0.90312    8.660
 5255.00    0.85541   0.90913    8.484
 5256.00    0.86746   0.91239    8.283
 5257.00    0.86915   0.91108    8.146
 5258.00    0.87229   0.90512    8.030
 5259.00    0.88261   0.89470    7.838
 5260.00    0.89310   0.87991    7.496
 5261.00    0.89764   0.86203    7.101
 5262.00    0.89531   0.84280    6.854
 5263.00    0.88030   0.82403    6.795
 5264.00    0.84486   0.80878    6.805
 5265.00    0.80747   0.79983    6.763
 5266.00    0.80552   0.79496    6.625
 5267.00    0.82824   0.79064    6.469
 5268.00    0.81905   0.78990    6.434
 5269.00    0.76820   0.79699    6.522
 5270.00    0.72359   0.80895    6.615
 5271.00    0.72235   0.82037    6.712
 5272.00    0.76837   0.83083    6.931
 5273.00    0.83336   0.84261    7.200
 5274.00    0.87413   0.85649    7.268
 5275.00    0.87666   0.87058    7.184
 5276.00    0.85886   0.88170    7.246
 5277.00    0.84592   0.88864    7.480
 5278.00    0.85610   0.89243    7.651
 5279.00    0.88347   0.89509    7.672
 5280.00    0.90805   0.89728    7.654
 5281.00    0.92612   0.89807    7.699
 5282.00    0.94561   0.89925    7.834
 5283.00    0.96373   0.90448    7.985
 5284.00    0.97063   0.91346    8.042
 5285.00    0.96475   0.92293    8.037
 5286.00    0.95192   0.93125    8.064
 5287.00    0.93834   0.93912    8.067
 5288.00    0.92588   0.94646    7.959
 5289.00    0.90693   0.95064    7.844
 5290.00    0.87507   0.94982    7.872
 5291.00    0.84175   0.94513    7.999
 5292.00    0.82990   0.93882    8.079
 5293.00    0.86040   0.93126    8.043
 5294.00    0.93501   0.92133    7.917
 5295.00    1.01876   0.90969    7.795
 5296.00    1.06829   0.90007    7.761
 5297.00    1.06912   0.89571    7.826
 5298.00    1.03625   0.89535    7.934
 5299.00    1.00699   0.89639    7.962
 5300.00    1.00439   0.89958    7.879
 5301.00    1.00394   0.90672    7.883
 5302.00    0.98062   0.91665    8.078
 5303.00    0.95426   0.92575    8.186
 5304.00    0.95000   0.93216    8.015
 5305.00    0.96054   0.93702    7.907
 5306.00    0.96567   0.94163    8.098
 5307.00    0.95237   0.94561    8.285
 5308.00    0.92144   0.94762    8.193
 5309.00    0.88988   0.94734    8.087
 5310.00    0.87915   0.94549    8.180
 5311.00    0.90356   0.94281    8.269
 5312.00    0.95146   0.93964    8.192
 5313.00    0.98070   0.93548    8.124
 5314.00    0.96925   0.93000    8.186
 5315.00    0.94102   0.92506    8.253
 5316.00    0.92417   0.92218    8.238
 5317.00    0.92693   0.92003    8.242
 5318.00    0.94639   0.91702    8.329
 5319.00    0.97449   0.91340    8.423
 5320.00    1.00010   0.90920    8.477
 5321.00    1.01159   0.90234    8.544
 5322.00    1.00434   0.89185    8.645
 5323.00    0.98406   0.88100    8.719
 5324.00    0.96528   0.87149    8.689
 5325.00    0.96433   0.86095    8.526
 5326.00    0.97456   0.84991    8.344
 5327.00    0.96763   0.84494    8.330
 5328.00    0.93581   0.84903    8.484
 5329.00    0.90000   0.85721    8.606
 5330.00    0.88039   0.86518    8.626
 5331.00    0.88417   0.87420    8.666
 5332.00    0.90115   0.88584    8.750
 5333.00    0.91186   0.89633    8.774
 5334.00    0.91505   0.90142    8.730
 5335.00    0.92588   0.90230    8.714
 5336.00    0.94779   0.90196    8.736
 5337.00    0.96995   0.90032    8.737
 5338.00    0.98160   0.89648    8.744
 5339.00    0.97736   0.89309    8.836
 5340.00    0.96029   0.89307    8.946
 5341.00    0.93932   0.89509    8.930
 5342.00    0.92176   0.89662    8.848
 5343.00    0.91155   0.89735    8.868
 5344.00    0.90926   0.89909    8.941
 5345.00    0.91442   0.90219    8.911
 5346.00    0.92985   0.90445    8.839
 5347.00    0.95707   0.90565    8.871
 5348.00    0.98711   0.90865    8.904
 5349.00    1.00613   0.91498    8.771
 5350.00    1.00761   0.92271    8.624
 5351.00    0.99342   0.92999    8.652
 5352.00    0.97209   0.93783    8.647
 5353.00    0.95344   0.94661    8.435
 5354.00    0.94162   0.95399    8.502
 5355.00    0.93985   0.95829    9.336
 5356.00    0.95728   0.95994   10.372
 5357.00    0.99686   0.95960   10.327
 5358.00    1.04062   0.95665    9.622
 5359.00    1.06678   0.95055    9.277
 5360.00    1.07109   0.94231    9.334
 5361.00    1.06042   0.93361    9.497
 5362.00    1.04258   0.92489    9.590
 5363.00    1.01870   0.91575    9.697
 5364.00    0.97881   0.90669   10.232
 5365.00    0.92488   0.89847   11.213
 5366.00    0.88838   0.89164   -2.000
 5367.00    0.88932   0.88584   -2.000
 5368.00    0.90512   0.88060   -2.000
 5369.00    0.92079   0.87760   -2.000
 5370.00    0.96437   0.87926   -2.000
 5371.00    1.05023   0.88565   -2.000
 5372.00    1.14025   0.89418   -2.000
 5373.00    1.18627   0.90310   -2.000
 5374.00    1.16346   0.91195   -2.000
 5375.00    1.07989   0.92000   -2.000
 5376.00    0.97685   0.92604   -2.000
 5377.00    0.89956   0.92882   -2.000
 5378.00    0.87567   0.92854   -2.000
 5379.00    0.89627   0.92684   -2.000
 5380.00    0.91651   0.92504   -2.000
 5381.00    0.91135   0.92327    8.267
 5382.00    0.89737   0.92204    8.564
 5383.00    0.89490   0.92172    8.642
 5384.00    0.91028   0.92150    8.588
 5385.00    0.94250   0.92050    8.557
 5386.00    0.98486   0.91851    8.666
 5387.00    1.01803   0.91533    8.868
 5388.00    1.01626   0.91084    8.956
 5389.00    0.98190   0.90545    8.884
 5390.00    0.94788   0.89931    8.826
 5391.00    0.93869   0.89268    8.855
 5392.00    0.95601   0.88688    8.892
 5393.00    0.98007   0.88246    8.879
 5394.00    0.98246   0.87787    8.829
 5395.00    0.96247   0.87329    8.768
 5396.00    0.94525   0.87168    8.720
 5397.00    0.94436   0.87269    8.725
 5398.00    0.95305   0.87255    8.815
 5399.00    0.95101   0.87061    8.935
 5400.00    0.92083   0.86907    8.977
 5401.00    0.88235   0.86724    8.964
 5402.00    0.87595   0.86242    9.001
 5403.00    0.90600   0.85542    9.065
 5404.00    0.94301   0.85002    9.050
 5405.00    0.95671   0.84833    8.975
 5406.00    0.93238   0.84894    8.946
 5407.00    0.88754   0.85020    8.995
 5408.00    0.85453   0.85322    9.072
 5409.00    0.84302   0.86016    9.078
 5410.00    0.84221   0.87004    8.964
 5411.00    0.83693   0.87936    8.864
 5412.00    0.82142   0.88670    8.907
 5413.00    0.81535   0.89368    8.942
 5414.00    0.84200   0.90131    8.781
 5415.00    0.89353   0.90782    8.620
 5416.00    0.94425   0.91151    8.699
 5417.00    0.97579   0.91257    8.869
 5418.00    0.97927   0.91215    8.876
 5419.00    0.95403   0.91135    8.822
 5420.00    0.90902   0.91049    8.903
 5421.00    0.86364   0.90849    9.029
 5422.00    0.83471   0.90485    9.037
 5423.00    0.82305   0.90144    8.977
 5424.00    0.82513   0.90008    8.971
 5425.00    0.84557   0.89939    9.046
 5426.00    0.88872   0.89602    9.145
 5427.00    0.94914   0.88972    9.167
 5428.00    1.00935   0.88425    9.104
 5429.00    1.04079   0.88156    9.121
 5430.00    1.02337   0.87886    9.283
 5431.00    0.96080   0.87490    9.356
 5432.00    0.87312   0.87296    9.219
 5433.00    0.78888   0.87558    9.151
 5434.00    0.73557   0.88148    9.329
 5435.00    0.73125   0.88877    9.548
 5436.00    0.77124   0.89750    9.613
 5437.00    0.82421   0.90728    9.633
 5438.00    0.86068   0.91622    9.714
 5439.00    0.87118   0.92232    9.772
 5440.00    0.86631   0.92464    9.721
 5441.00    0.87062   0.92337    9.578
 5442.00    0.89275   0.91898    9.407
 5443.00    0.91468   0.91170    9.268
 5444.00    0.91763   0.90249    9.221
 5445.00    0.89582   0.89430    9.315
 5446.00    0.85804   0.88986    9.489
 5447.00    0.82407   0.88834    9.563
 5448.00    0.80749   0.88729    9.475
 5449.00    0.80990   0.88623    9.342
 5450.00    0.82705   0.88615    9.234
 5451.00    0.85144   0.88639    9.122
 5452.00    0.87203   0.88479    8.987
 5453.00    0.87661   0.88113    8.849
 5454.00    0.85986   0.87854    8.713
 5455.00    0.82662   0.87928    8.582
 5456.00    0.79302   0.88146    8.515
 5457.00    0.77914   0.88277    8.584
 5458.00    0.78754   0.88409    8.703
 5459.00    0.80353   0.88623    8.686
 5460.00    0.81339   0.88726    8.598
 5461.00    0.81301   0.88634    8.675
 5462.00    0.81591   0.88590    8.903
 5463.00    0.84057   0.88692    9.053
 5464.00    0.87705   0.88771    9.058
 5465.00    0.89823   0.88824    9.038
 5466.00    0.90052   0.88979    9.061
 5467.00    0.89721   0.89107    9.102
 5468.00    0.88783   0.89023    9.075
 5469.00    0.86443   0.88782    8.938
 5470.00    0.83472   0.88403    8.857
 5471.00    0.81581   0.87818    8.985
 5472.00    0.81568   0.87180    9.085
 5473.00    0.83122   0.86636    8.838
 5474.00    0.85079   0.86043    8.510
 5475.00    0.86206   0.85462    8.491
 5476.00    0.86301   0.85281    8.731
 5477.00    0.85879   0.85510   -2.000
 5478.00    0.85434   0.85770   -2.000
 5479.00    0.84276   0.86014   -2.000
 5480.00    0.79567   0.86494   -2.000
 5481.00    0.72159   0.87143   -2.000
 5482.00    0.72999   0.87702   -2.000
 5483.00    0.93126   0.88130   -2.000
 5484.00    1.31991   0.88457   -2.000
 5485.00    1.82263   0.88655   -2.000
 5486.00    2.35757   0.88778   -2.000
 5487.00    2.79223   0.88890   -2.000
 5488.00    2.91564   0.88937   -2.000
 5489.00    2.62396   0.88941   -2.000
 5490.00    2.07228   0.88978   -2.000
 5491.00    1.49914   0.88982   -2.000
 5492.00    1.06450   0.88941   -2.000
 5493.00    0.83099   0.88965   -2.000
 5494.00    0.76546   0.88963   -2.000
 5495.00    0.79212   0.88762   -2.000
 5496.00    0.83638   0.88533   -2.000
 5497.00    0.85611   0.88478   -2.000
 5498.00    0.85570   0.88396   -2.000
 5499.00    0.85071   0.88077   -2.000
 5500.00    0.84635   0.87706   11.722
 5501.00    0.84791   0.87501   11.665
 5502.00    0.86426   0.87378   11.606
 5503.00    0.89046   0.87160   11.271
 5504.00    0.90409   0.86876   11.048
 5505.00    0.89630   0.86716   11.143
 5506.00    0.88222   0.86719   11.340
 5507.00    0.87475   0.86696   11.437
 5508.00    0.87352   0.86582   11.446
 5509.00    0.87290   0.86504   11.454
 5510.00    0.86566   0.86499   11.553
 5511.00    0.84282   0.86538   11.866
 5512.00    0.79733   0.86696   12.542
 5513.00    0.73800   0.87011   13.004
 5514.00    0.68908   0.87425   13.004
 5515.00    0.67082   0.87921   13.004
 5516.00    0.69032   0.88516   13.004
 5517.00    0.73520   0.89100   13.004
 5518.00    0.78058   0.89521   12.811
 5519.00    0.81504   0.89749   12.269
 5520.00    0.84171   0.89816   11.880
 5521.00    0.85926   0.89690   11.638
 5522.00    0.86375   0.89331   11.577
 5523.00    0.86677   0.88823   11.537
 5524.00    0.88530   0.88292   11.296
 5525.00    0.90717   0.87776   11.023
 5526.00    0.90330   0.87303   11.071
 5527.00    0.87246   0.87032   11.462
 5528.00    0.83572   0.87039   11.966
 5529.00    0.80423   0.87159   12.434
 5530.00    0.77649   0.87297   12.879
 5531.00    0.74638   0.87526   13.004
 5532.00    0.71347   0.87791   13.004
 5533.00    0.69722   0.87978   13.004
 5534.00    0.71778   0.88179   13.004
 5535.00    0.76104   0.88464   13.004
 5536.00    0.79241   0.88721   12.606
 5537.00    0.78726   0.88934   12.697
 5538.00    0.74569   0.89199   13.004
 5539.00    0.70463   0.89466   13.004
 5540.00    0.70569   0.89581   13.004
 5541.00    0.75115   0.89564   13.004
 5542.00    0.81656   0.89574   12.566
 5543.00    0.87426   0.89643   11.477
 5544.00    0.90561   0.89693   10.005
 5545.00    0.91131   0.89771    8.973
 5546.00    0.90324   0.89976    8.695
 5547.00    0.89408   0.90222    8.803
 5548.00    0.89153   0.90374    8.856
 5549.00    0.89434   0.90449    8.774
 5550.00    0.90004   0.90477    8.677
 5551.00    0.91161   0.90387    8.648
 5552.00    0.92996   0.90171    8.685
 5553.00    0.94745   0.89942    8.686
 5554.00    0.95301   0.89761    8.605
 5555.00    0.93736   0.89573    8.565
 5556.00    0.89859   0.89357    8.674
 5557.00    0.84541   0.89174    8.921
 5558.00    0.79205   0.89021    9.202
 5559.00    0.75345   0.88815    9.355
 5560.00    0.73822   0.88523    9.334
 5561.00    0.74494   0.88209    9.297
 5562.00    0.76680   0.87937    9.356
 5563.00    0.79494   0.87662    9.460
 5564.00    0.82116   0.87352    9.524
 5565.00    0.83954   0.87130    9.516
 5566.00    0.84800   0.87022    9.488
 5567.00    0.84816   0.86886    9.551
 5568.00    0.84164   0.86787    9.668
 5569.00    0.82965   0.86869    9.628
 5570.00    0.81936   0.86959    9.402
 5571.00    0.82351   0.86963    9.210
 5572.00    0.84717   0.87128    9.165
 5573.00    0.88278   0.87448    9.201
 5574.00    0.91322   0.87662    9.216
 5575.00    0.92033   0.87836    9.138
 5576.00    0.90976   0.88091    8.957
 5577.00    0.90728   0.88280    8.733
 5578.00    0.91803   0.88326    8.573
 5579.00    0.92302   0.88256    8.562
 5580.00    0.91058   0.88005    8.595
 5581.00    0.88277   0.87574    8.465
 5582.00    0.84506   0.87023    8.275
 5583.00    0.80717   0.86326    8.304
 5584.00    0.79292   0.85495    8.475
 5585.00    0.82645   0.84679    8.443
 5586.00    0.89360   0.84015    8.199
 5587.00    0.95301   0.83546    8.002
 5588.00    0.98269   0.83295    7.890
 5589.00    0.98520   0.83301    7.734
 5590.00    0.97549   0.83558    7.472
 5591.00    0.97196   0.83946    7.146
 5592.00    0.98432   0.84304    6.863
 5593.00    1.01100   0.84634    6.709
 5594.00    1.03898   0.84998    6.678
 5595.00    1.05167   0.85215    6.696
 5596.00    1.04181   0.85116    6.684
 5597.00    1.01011   0.84944    6.616
 5598.00    0.95986   0.84924    6.619
 5599.00    0.89976   0.84925    6.788
 5600.00    0.84870   0.84900    6.921
 5601.00    0.82534   0.85102    6.893
 5602.00    0.83338   0.85651    7.261
 5603.00    0.86698   0.86376    8.735
 5604.00    0.91961   0.87116   10.757
 5605.00    0.97819   0.87847   10.875
 5606.00    1.01656   0.88535    9.851
 5607.00    1.01520   0.89059    9.643
 5608.00    0.98235   0.89306   10.181
 5609.00    0.93803   0.89237   10.799
 5610.00    0.89553   0.88920   11.157
 5611.00    0.86134   0.88474   11.396
 5612.00    0.83664   0.87880   11.991
 5613.00    0.81701   0.87099   12.871
 5614.00    0.79365   0.86390   12.412
 5615.00    0.76742   0.86016   10.474
 5616.00    0.75679   0.85833    9.171
 5617.00    0.77001   0.85659    9.000
 5618.00    0.78744   0.85609    9.204
 5619.00    0.79282   0.85737    9.114
 5620.00    0.79382   0.85886    8.888
 5621.00    0.80397   0.85921    8.821
 5622.00    0.82926   0.85836    8.906
 5623.00    0.86610   0.85787    9.022
 5624.00    0.90208   0.85928    9.038
 5625.00    0.92593   0.86172    8.909
 5626.00    0.93301   0.86409    8.708
 5627.00    0.92420   0.86741    8.549
 5628.00    0.90470   0.87185    8.521
 5629.00    0.88127   0.87549    8.584
 5630.00    0.85966   0.87735    8.576
 5631.00    0.83928   0.87766    8.497
 5632.00    0.81530   0.87646    8.553
 5633.00    0.79783   0.87404    8.778
 5634.00    0.81032   0.87080    8.943
 5635.00    0.85207   0.86675    8.907
 5636.00    0.89354   0.86279    8.767
 5637.00    0.91425   0.86022    8.698
 5638.00    0.91622   0.85858    8.825
 5639.00    0.92084   0.85703    9.021
 5640.00    0.95213   0.85667    8.986
 5641.00    0.99055   0.85815    8.816
 5642.00    0.98389   0.86013    8.911
 5643.00    0.92049   0.86192    9.278
 5644.00    0.83726   0.86421    9.522
 5645.00    0.78182   0.86688    9.521
 5646.00    0.78584   0.86918    9.516
 5647.00    0.82702   0.87080    9.577
 5648.00    0.85091   0.87160    9.583
 5649.00    0.84249   0.87156    9.512
 5650.00    0.82484   0.87093    9.452
 5651.00    0.81951   0.86941    9.463
 5652.00    0.83424   0.86573    9.547
 5653.00    0.85693   0.86015    9.616
 5654.00    0.86597   0.85517    9.568
 5655.00    0.85156   0.85073    9.449
 5656.00    0.81695   0.84438    9.361
 5657.00    0.77341   0.83829    9.291
 5658.00    0.73473   0.83655    9.192
 5659.00    0.70985   0.83708    9.138
 5660.00    0.70377   0.83661    9.200
 5661.00    0.72048   0.83745    9.242
 5662.00    0.76081   0.84141    9.094
 5663.00    0.81890   0.84570    8.833
 5664.00    0.88259   0.84850    8.637
 5665.00    0.93519   0.85103    8.564
 5666.00    0.96426   0.85422    8.578
 5667.00    0.97126   0.85770    8.576
 5668.00    0.96474   0.86110    8.481
 5669.00    0.95140   0.86435    8.348
 5670.00    0.93672   0.86795    8.247
 5671.00    0.92657   0.87232    8.159
 5672.00    0.92571   0.87636    8.006
 5673.00    0.93589   0.87871    7.700
 5674.00    0.95147   0.88008    7.284
 5675.00    0.95736   0.88126    6.941
 5676.00    0.94387   0.88081    6.775
 5677.00    0.91794   0.87797    6.737
 5678.00    0.88988   0.87465    6.800
 5679.00    0.86273   0.87168    7.052
 5680.00    0.83525   0.86764    7.516
 5681.00    0.80552   0.86279    7.965
 5682.00    0.77704   0.85915    8.214
 5683.00    0.76079   0.85697    8.449
 5684.00    0.76349   0.85524    8.805
 5685.00    0.78121   0.85418    9.037
 5686.00    0.80717   0.85471    8.994
 5687.00    0.83685   0.85698    8.928
 5688.00    0.86986   0.86014    8.980
 5689.00    0.90805   0.86336    8.985
 5690.00    0.94206   0.86689    8.856
 5691.00    0.95060   0.87063    8.725
 5692.00    0.92876   0.87317    8.613
 5693.00    0.89681   0.87385    8.362
 5694.00    0.87935   0.87372    7.888
 5695.00    0.89113   0.87255    7.292
 5696.00    0.91899   0.86944    6.807
 5697.00    0.92676   0.86552    6.649
 5698.00    0.89973   0.86215    6.824
 5699.00    0.85512   0.85852    7.160
 5700.00    0.81919   0.85414    7.467
 5701.00    0.81273   0.85042    7.633
 5702.00    0.83225   0.84758    7.726
 5703.00    0.85363   0.84404    7.922
 5704.00    0.86081   0.83969    8.196
 5705.00    0.85238   0.83605    8.316
 5706.00    0.83530   0.83297    8.239
 5707.00    0.81893   0.82991    8.163
 5708.00    0.80517   0.82859    8.216
 5709.00    0.79130   0.82973    8.395
 5710.00    0.78271   0.83224    8.534
 5711.00    0.78625   0.83668    8.444
 5712.00    0.78965   0.84336    8.284
 5713.00    0.77407   0.85024    8.343
 5714.00    0.74817   0.85693    8.539
 5715.00    0.73997   0.86396    8.580
 5716.00    0.76759   0.87009    8.516
 5717.00    0.83005   0.87503    8.584
 5718.00    0.90202   0.87942    8.711
 5719.00    0.94888   0.88293    8.691
 5720.00    0.95293   0.88542    8.632
 5721.00    0.91945   0.88707    8.760
 5722.00    0.87777   0.88751    9.017
 5723.00    0.85609   0.88716    9.173
 5724.00    0.84732   0.88643    9.132
 5725.00    0.83125   0.88464    8.965
 5726.00    0.80954   0.88222    8.822
 5727.00    0.79684   0.88076    8.804
 5728.00    0.80377   0.88005    8.861
 5729.00    0.83097   0.87891    8.885
 5730.00    0.86553   0.87826    8.831
 5731.00    0.89298   0.87909    8.727
 5732.00    0.90987   0.88032    8.644
 5733.00    0.91795   0.88092    8.625
 5734.00    0.91703   0.88149    8.620
 5735.00    0.90503   0.88233    8.570
 5736.00    0.87947   0.88274    8.487
 5737.00    0.84562   0.88251    8.417
 5738.00    0.82111   0.88193    8.399
 5739.00    0.81666   0.88157    8.419
 5740.00    0.82305   0.88144    0.000
 5741.00    0.83196   0.88115    0.000
 5742.00    0.84972   0.88057    0.000
 5743.00    0.87889   0.88019    0.000
 5744.00    0.90636   0.88005    0.000
 5745.00    0.91368   0.87929    0.000
 5746.00    0.88711   0.87764    0.000
 5747.00    0.83487   0.87582    0.000
 5748.00    0.79031   0.87412    0.000
 5749.00    0.77359   0.87194    0.000
 5750.00    0.77513   0.86961    0.000
 5751.00    0.78253   0.86790    0.000
 5752.00    0.79359   0.86686    0.000
 5753.00    0.80929   0.86658    0.000
 5754.00    0.82911   0.86702    0.000
 5755.00    0.84695   0.86764    0.000
 5756.00    0.85324   0.86809    0.000
 5757.00    0.85051   0.86821    0.000
 5758.00    0.85410   0.86774    0.000
 5759.00    0.86998   0.86703    0.000
 5760.00    0.88817   0.86624    0.000
 5761.00    0.89044   0.86564    0.000
 5762.00    0.86188   0.86646    0.000
 5763.00    0.81798   0.86883    0.000
 5764.00    0.79671   0.87137    0.000
 5765.00    0.80788   0.87394    0.000
 5766.00    0.82920   0.87684    0.000
 5767.00    0.83982   0.87883    0.000
 5768.00    0.83197   0.87950    0.000
 5769.00    0.81490   0.87926    0.000
 5770.00    0.80455   0.87827    0.000
 5771.00    0.79672   0.87690    0.000
 5772.00    0.77332   0.87535    0.000
 5773.00    0.73100   0.87334    0.000
 5774.00    0.68493   0.87109    0.000
 5775.00    0.66212   0.86848    0.000
 5776.00    0.68389   0.86472    0.000
 5777.00    0.73598   0.86028    0.000
 5778.00    0.78537   0.85563    0.000
 5779.00    0.82062   0.85001    0.000
 5780.00    0.84557   0.84418    0.000
 5781.00    0.85694   0.84028    0.000
 5782.00    0.84984   0.83803    0.000
 5783.00    0.83216   0.83642    0.000
 5784.00    0.81771   0.83691    0.000
 5785.00    0.81330   0.83988    0.000
 5786.00    0.81872   0.84338    0.000
 5787.00    0.82957   0.84706    0.000
 5788.00    0.84092   0.85147    0.000
 5789.00    0.85160   0.85564    0.000
 5790.00    0.86726   0.85928   -2.000
 5791.00    0.90235   0.86291   -2.000
 5792.00    0.96770   0.86566   -2.000
 5793.00    1.05635   0.86783   -2.000
 5794.00    1.13836   0.87069   -2.000
 5795.00    1.16174   0.87311   -2.000
 5796.00    1.10207   0.87452   -2.000
 5797.00    1.00338   0.87648   -2.000
 5798.00    0.92207   0.87885   -2.000
 5799.00    0.87596   0.87995   -2.000
 5800.00    0.85891   0.88045   -2.000
 5801.00    0.85717   0.88124   -2.000
 5802.00    0.85813   0.88113   -2.000
 5803.00    0.85659   0.87982   -2.000
 5804.00    0.85829   0.87869   -2.000
 5805.00    0.87822   0.87792   -2.000
 5806.00    0.91504   0.87709   -2.000
 5807.00    0.93971   0.87649   -2.000
 5808.00    0.93087   0.87633   -2.000
 5809.00    0.89472   0.87635    0.000
 5810.00    0.85116   0.87593    0.000
 5811.00    0.82199   0.87495    0.000
 5812.00    0.81509   0.87417    0.000
 5813.00    0.82005   0.87370    0.000
 5814.00    0.82747   0.87297    0.000
 5815.00    0.83680   0.87269    0.000
 5816.00    0.84776   0.87375    0.000
 5817.00    0.85623   0.87533    0.000
 5818.00    0.85480   0.87673    0.000
 5819.00    0.83500   0.87861    0.000
 5820.00    0.79497   0.88081    0.000
 5821.00    0.74450   0.88224    0.000
 5822.00    0.71162   0.88308    0.000
 5823.00    0.73068   0.88397    0.000
 5824.00    0.79589   0.88476    0.000
 5825.00    0.86296   0.88508    0.000
 5826.00    0.90322   0.88520    0.000
 5827.00    0.91546   0.88547    0.000
 5828.00    0.90898   0.88560    0.000
 5829.00    0.89477   0.88508    0.000
 5830.00    0.87591   0.88422    0.000
 5831.00    0.85037   0.88374    0.000
 5832.00    0.82412   0.88304    0.000
 5833.00    0.80891   0.88168    0.000
 5834.00    0.80942   0.88091    0.000
 5835.00    0.82158   0.88108    0.000
 5836.00    0.83551   0.88103    0.000
 5837.00    0.84124   0.88095    0.000
 5838.00    0.83844   0.88182    0.000
 5839.00    0.83778   0.88278    0.000
 5840.00    0.85910   0.88288    0.000
 5841.00    0.91383   0.88259    0.000
 5842.00    0.97686   0.88184    0.000
 5843.00    1.00855   0.88013    0.000
 5844.00    0.99693   0.87755    0.000
 5845.00    0.95551   0.87432    0.000
 5846.00    0.90904   0.87058    0.000
 5847.00    0.87944   0.86647    0.000
 5848.00    0.86995   0.86195    0.000
 5849.00    0.87241   0.85731    0.000
 5850.00    0.87957   0.85293    0.000
 5851.00    0.88733   0.84819    0.000
 5852.00    0.89510   0.84310    0.000
 5853.00    0.90027   0.83909    0.000
 5854.00    0.89306   0.83616    0.000
 5855.00    0.86719   0.83323    0.000
 5856.00    0.83116   0.83141    0.000
 5857.00    0.80202   0.83164    0.000
 5858.00    0.79704   0.83283    0.000
 5859.00    0.82100   0.83451    0.000
 5860.00    0.85713   0.83713    0.000
 5861.00    0.88285   0.84003    0.000
 5862.00    0.88448   0.84288    0.000
 5863.00    0.86352   0.84605    0.000
 5864.00    0.83810   0.84856    0.000
 5865.00    0.82291   0.85041    0.000
 5866.00    0.81580   0.85263    0.000
 5867.00    0.80720   0.85474    0.000
 5868.00    0.78863   0.85593    0.000
 5869.00    0.76205   0.85673    0.000
 5870.00    0.74264   0.85735    0.000
 5871.00    0.74197   0.85697    0.000
 5872.00    0.75987   0.85585    0.000
 5873.00    0.79466   0.85452    0.000
 5874.00    0.84621   0.85245    0.000
 5875.00    0.90190   0.84974    0.000
 5876.00    0.93588   0.84733    0.000
 5877.00    0.93814   0.84507    0.000
 5878.00    0.92356   0.84204    0.000
 5879.00    0.91112   0.83870    0.000
 5880.00    0.91168   0.83548    0.000
 5881.00    0.91765   0.83091    0.000
 5882.00    0.90683   0.82416    0.000
 5883.00    0.87155   0.81581    0.000
 5884.00    0.82573   0.80468    0.000
 5885.00    0.79088   0.79038    0.000
 5886.00    0.78428   0.77570    0.000
 5887.00    0.79822   0.76073    0.000
 5888.00    0.80431   0.74485    0.000
 5889.00    0.78524   0.73263    0.000
 5890.00    0.74153   0.72540    0.000
 5891.00    0.68285   0.71942    0.000
 5892.00    0.62398   0.71743    0.000
 5893.00    0.58088   0.72155    0.000
 5894.00    0.56761   0.72640    0.000
 5895.00    0.59132   0.73290    0.000
 5896.00    0.64853   0.74471    0.000
 5897.00    0.72003   0.75679    0.000
 5898.00    0.77916   0.76796    0.000
 5899.00    0.81083   0.78198    0.000
 5900.00    0.81643   0.79562    0.000
 5901.00    0.81490   0.80564    8.525
 5902.00    0.82723   0.81426    8.448
 5903.00    0.85000   0.82174    8.419
 5904.00    0.86845   0.82651    8.387
 5905.00    0.88478   0.82966    8.280
 5906.00    0.90995   0.83233    8.066
 5907.00    0.94419   0.83388    7.834
 5908.00    0.97742   0.83412    7.702
 5909.00    0.99432   0.83384    7.718
 5910.00    0.98041   0.83338    7.881
 5911.00    0.92968   0.83216    8.148
 5912.00    0.85337   0.83039    8.430
 5913.00    0.78747   0.82912    8.609
 5914.00    0.76456   0.82861    8.617
 5915.00    0.78211   0.82848    8.527
 5916.00    0.81915   0.82905    8.482
 5917.00    0.85798   0.83038    8.594
 5918.00    0.88894   0.83204    8.841
 5919.00    0.91192   0.83403    8.948
 5920.00    0.92523   0.83561    8.784
 5921.00    0.91728   0.83661    8.698
 5922.00    0.88563   0.83759    8.913
 5923.00    0.85111   0.83804    9.095
 5924.00    0.83329   0.83768    8.976
 5925.00    0.83176   0.83703    8.883
 5926.00    0.83963   0.83619    9.056
 5927.00    0.85399   0.83526    9.215
 5928.00    0.87172   0.83429    9.122
 5929.00    0.88717   0.83332    8.981
 5930.00    0.89897   0.83314    8.972
 5931.00    0.91290   0.83369    9.010
 5932.00    0.93209   0.83405    8.985
 5933.00    0.95110   0.83463    8.904
 5934.00    0.95644   0.83610    8.822
 5935.00    0.93136   0.83747    8.781
 5936.00    0.87809   0.83780    8.757
 5937.00    0.82309   0.83820    8.673
 5938.00    0.78797   0.83913    8.572
 5939.00    0.77632   0.83912    8.614
 5940.00    0.77913   0.83851    8.781
 5941.00    0.78126   0.83862    8.817
 5942.00    0.77642   0.83862    8.662
 5943.00    0.77024   0.83789    8.547
 5944.00    0.76864   0.83722    8.609
 5945.00    0.77247   0.83673    8.809
 5946.00    0.77554   0.83588    9.009
 5947.00    0.76772   0.83432    9.054
 5948.00    0.74732   0.83268    9.003
 5949.00    0.72431   0.83182    9.060
 5950.00    0.71735   0.83101    9.147
 5951.00    0.74362   0.82963    8.976
 5952.00    0.79394   0.82916    8.641
 5953.00    0.83772   0.82991    8.482
 5954.00    0.85391   0.83026    8.505
 5955.00    0.83885   0.83047    8.506
 5956.00    0.80462   0.83202    8.584
 5957.00    0.77242   0.83414    9.004
 5958.00    0.75886   0.83587    9.588
 5959.00    0.77117   0.83793    9.756
 5960.00    0.80418   0.84027    9.506
 5961.00    0.84516   0.84213    9.322
 5962.00    0.88434   0.84370    9.312
 5963.00    0.91424   0.84519    9.322
 5964.00    0.92502   0.84606    9.306
 5965.00    0.91059   0.84676    9.289
 5966.00    0.87968   0.84790    9.220
 5967.00    0.84783   0.84857    9.058
 5968.00    0.82226   0.84879    8.917
 5969.00    0.80399   0.84915    8.916
 5970.00    0.79431   0.84881    8.976
 5971.00    0.79477   0.84736    8.962
 5972.00    0.80576   0.84554    8.901
 5973.00    0.82491   0.84330    8.893
 5974.00    0.84564   0.84041    8.961
 5975.00    0.86082   0.83770    9.068
 5976.00    0.86735   0.83547    9.157
 5977.00    0.86605   0.83342    9.189
 5978.00    0.86070   0.83176    9.193
 5979.00    0.85497   0.83040    9.213
 5980.00    0.84954   0.82902    9.271
 5981.00    0.84332   0.82801    9.360
 5982.00    0.83514   0.82700    9.452
 5983.00    0.82570   0.82581    9.514
 5984.00    0.81852   0.82584    9.525
 5985.00    0.81358   0.82667    9.506
 5986.00    0.80395   0.82720    9.535
 5987.00    0.79052   0.82873    9.655
 5988.00    0.79020   0.83141    9.807
 5989.00    0.81306   0.83346    9.875
 5990.00    0.84785   0.83488    9.756
 5991.00    0.87636   0.83664    9.527
 5992.00    0.88456   0.83807    9.455
 5993.00    0.86786   0.83822    9.621
 5994.00    0.83309   0.83789    9.790
 5995.00    0.79295   0.83746    9.774
 5996.00    0.76178   0.83639    9.657
 5997.00    0.75054   0.83493    9.490
 5998.00    0.76289   0.83340    9.195
 5999.00    0.78922   0.83192    8.857
 6000.00    0.80835   0.83058    8.720
 6001.00    0.80817   0.82896    8.819
 6002.00    0.79276   0.82745    8.939
 6003.00    0.77236   0.82624    8.960
 6004.00    0.75819   0.82454    8.963
 6005.00    0.75995   0.82311    8.976
 6006.00    0.78231   0.82242    8.918
 6007.00    0.81616   0.82159    8.782
 6008.00    0.84249   0.82129    8.669
 6009.00    0.85546   0.82160    8.654
 6010.00    0.86369   0.82159    8.737
 6011.00    0.86965   0.82156    8.805
 6012.00    0.86845   0.82150    8.703
 6013.00    0.86278   0.82141    8.539
 6014.00    0.86225   0.82100    8.564
 6015.00    0.86995   0.81963    8.732
 6016.00    0.88022   0.81874    8.781
 6017.00    0.88260   0.81877    8.737
 6018.00    0.87035   0.81802    8.855
 6019.00    0.85684   0.81728    9.140
 6020.00    0.86140   0.81816    9.371
 6021.00    0.87226   0.81958    9.464
 6022.00    0.86238   0.82073    9.505
 6023.00    0.83590   0.82278    9.578
 6024.00    0.81809   0.82615    9.692
 6025.00    0.81989   0.82923    9.736
 6026.00    0.83486   0.83179    9.613
 6027.00    0.84604   0.83527    9.472
 6028.00    0.84045   0.83857    9.485
 6029.00    0.82920   0.84076    9.497
 6030.00    0.83131   0.84299    9.304
 6031.00    0.84591   0.84519    9.113
 6032.00    0.86145   0.84657    9.173
 6033.00    0.87386   0.84738    9.301
 6034.00    0.88568   0.84802    9.197
 6035.00    0.90133   0.84829    8.953
 6036.00    0.92099   0.84818    8.788
 6037.00    0.93475   0.84788    8.700
 6038.00    0.93181   0.84750    8.629
 6039.00    0.91157   0.84744    8.619
 6040.00    0.88443   0.84760    8.709
 6041.00    0.86969   0.84776    8.812
 6042.00    0.87684   0.84858    8.839
 6043.00    0.89021   0.84968    8.834
 6044.00    0.89123   0.85036    8.860
 6045.00    0.87881   0.85122    8.896
 6046.00    0.86060   0.85207    8.904
 6047.00    0.84370   0.85200    8.897
 6048.00    0.82976   0.85129    8.940
 6049.00    0.81328   0.85045    9.132
 6050.00    0.79417   0.84904    9.444
 6051.00    0.78420   0.84691    9.605
 6052.00    0.78839   0.84488    9.451
 6053.00    0.79472   0.84326    9.181
 6054.00    0.79085   0.84164    8.993
 6055.00    0.77532   0.84027    8.910
 6056.00    0.75913   0.83973    8.875
 6057.00    0.76209   0.83932    8.822
 6058.00    0.79005   0.83869    8.721
 6059.00    0.82626   0.83828    8.602
 6060.00    0.85023   0.83748    8.495
 6061.00    0.84958   0.83624    8.410
 6062.00    0.82898   0.83565    8.379
 6063.00    0.80829   0.83547    8.451
 6064.00    0.79772   0.83537    8.615
 6065.00    0.79081   0.83691    8.796
 6066.00    0.78017   0.83982    8.982
 6067.00    0.76543   0.84237    9.230
 6068.00    0.75799   0.84549    9.411
 6069.00    0.77433   0.84903    9.232
 6070.00    0.80816   0.85128    8.816
 6071.00    0.83176   0.85236    8.589
 6072.00    0.83057   0.85264    8.670
 6073.00    0.81095   0.85166    8.904
 6074.00    0.78937   0.84937    9.124
 6075.00    0.78126   0.84653    9.250
 6076.00    0.78054   0.84342    9.357
 6077.00    0.76640   0.83952    9.593
 6078.00    0.73423   0.83596    9.903
 6079.00    0.69881   0.83350   10.065
 6080.00    0.68247   0.83085   10.062
 6081.00    0.70170   0.82860   10.062
 6082.00    0.74534   0.82790   10.080
 6083.00    0.78514   0.82743   10.014
 6084.00    0.80669   0.82676    9.873
 6085.00    0.81045   0.82673    9.733
 6086.00    0.80170   0.82698    9.595
 6087.00    0.78862   0.82716    9.443
 6088.00    0.78203   0.82725    9.373
 6089.00    0.79043   0.82737    9.446
 6090.00    0.81218   0.82822    9.450
 6091.00    0.83846   0.82922    9.179
 6092.00    0.85970   0.82976    8.895
 6093.00    0.86874   0.83091    8.891
 6094.00    0.86377   0.83214    9.009
 6095.00    0.84861   0.83200    8.975
 6096.00    0.83208   0.83137    8.909
 6097.00    0.82114   0.83027    9.045
 6098.00    0.81329   0.82745    9.340
 6099.00    0.80561   0.82447    9.567
 6100.00    0.80471   0.82216    9.519
 6101.00    0.81343   0.81917    9.227
 6102.00    0.81706   0.81759    9.021
 6103.00    0.79981   0.81848    9.096
 6104.00    0.76243   0.81930    9.236
 6105.00    0.72288   0.82109    9.253
 6106.00    0.71220   0.82460    9.396
 6107.00    0.74325   0.82745    9.819
 6108.00    0.78889   0.83000   10.083
 6109.00    0.81914   0.83241    9.857
 6110.00    0.83042   0.83375    9.600
 6111.00    0.83195   0.83471    9.631
 6112.00    0.83349   0.83509    9.659
 6113.00    0.84148   0.83454    9.429
 6114.00    0.85660   0.83327    9.133
 6115.00    0.87277   0.83094    9.025
 6116.00    0.87885   0.82831    9.205
 6117.00    0.87222   0.82510    9.517
 6118.00    0.86327   0.82074    9.499
 6119.00    0.85527   0.81752    9.070
 6120.00    0.83749   0.81517    8.720
 6121.00    0.80722   0.81241    8.674
 6122.00    0.77852   0.81199    8.761
 6123.00    0.76807   0.81323    8.851
 6124.00    0.78486   0.81373    9.005
 6125.00    0.81659   0.81566    9.265
 6126.00    0.83243   0.81856    9.569
 6127.00    0.81766   0.81981    9.841
 6128.00    0.78301   0.82060   10.042
 6129.00    0.74507   0.82108   10.167
 6130.00    0.71846   0.81958   10.192
 6131.00    0.71574   0.81666    9.926
 6132.00    0.74416   0.81284    9.184
 6133.00    0.79533   0.80778    8.263
 6134.00    0.84684   0.80282    7.582
 6135.00    0.87701   0.79870    7.211
 6136.00    0.87285   0.79529    7.063
 6137.00    0.83847   0.79419    7.121
 6138.00    0.79179   0.79563    7.412
 6139.00    0.74966   0.79812    7.822
 6140.00    0.72129   0.80157    8.094
 6141.00    0.70264   0.80627    8.219
 6142.00    0.68568   0.81099    8.413
 6143.00    0.68129   0.81417    8.660
 6144.00    0.70809   0.81632    8.757
 6145.00    0.75895   0.81817    8.736
 6146.00    0.80770   0.81858    8.806
 6147.00    0.83536   0.81767    9.019
 6148.00    0.83649   0.81679    9.273
 6149.00    0.82053   0.81586    9.459
 6150.00    0.80142   0.81431    9.544
 6151.00    0.78047   0.81273    9.652
 6152.00    0.75442   0.81124    9.852
 6153.00    0.73193   0.80856    9.792
 6154.00    0.72921   0.80478    9.163
 6155.00    0.75931   0.80064    8.370
 6156.00    0.81842   0.79477    7.824
 6157.00    0.87164   0.78732    7.489
 6158.00    0.88303   0.78021    7.289
 6159.00    0.85413   0.77312    7.388
 6160.00    0.80961   0.76610    7.936
 6161.00    0.77425   0.76091    8.677
 6162.00    0.75979   0.75790    9.088
 6163.00    0.75530   0.75669    9.070
 6164.00    0.74695   0.75690    8.913
 6165.00    0.73770   0.75803    8.839
 6166.00    0.73602   0.76058    8.909
 6167.00    0.74356   0.76366    9.021
 6168.00    0.75469   0.76568    9.110
 6169.00    0.75877   0.76840    9.309
 6170.00    0.75502   0.77244    9.661
 6171.00    0.76061   0.77547    9.860
 6172.00    0.78101   0.77817    9.681
 6173.00    0.79161   0.78217    9.369
 6174.00    0.77202   0.78590    9.189
 6175.00    0.72919   0.78843    9.165
 6176.00    0.68521   0.79114    9.234
 6177.00    0.66449   0.79424    9.329
 6178.00    0.67109   0.79627    9.432
 6179.00    0.68187   0.79731    9.595
 6180.00    0.68389   0.79863    9.832
 6181.00    0.69074   0.79905   10.043
 6182.00    0.71489   0.79773   10.056
 6183.00    0.75365   0.79602    9.721
 6184.00    0.79495   0.79358    9.106
 6185.00    0.82290   0.78993    8.462
 6186.00    0.82885   0.78613    7.983
 6187.00    0.81558   0.78220    7.780
 6188.00    0.79375   0.77899    7.904
 6189.00    0.77611   0.77705    8.386
 6190.00    0.76190   0.77542    9.158
 6191.00    0.73831   0.77565    9.938
 6192.00    0.70694   0.77783   10.408
 6193.00    0.68762   0.77970   10.389
 6194.00    0.69816   0.78218   -2.000
 6195.00    0.74476   0.78533   -2.000
 6196.00    0.81419   0.78759   -2.000
 6197.00    0.87901   0.78945   -2.000
 6198.00    0.91874   0.79114   -2.000
 6199.00    0.92318   0.79257   -2.000
 6200.00    0.88489   0.79418   -2.000
 6201.00    0.80645   0.79574   -2.000
 6202.00    0.72235   0.79724   -2.000
 6203.00    0.68120   0.79870   -2.000
 6204.00    0.69346   0.79970   -2.000
 6205.00    0.73337   0.80000   -2.000
 6206.00    0.76907   0.79918    7.028
 6207.00    0.77812   0.79742    7.035
 6208.00    0.76408   0.79475    7.438
 6209.00    0.74681   0.79061    8.294
 6210.00    0.73870   0.78594    9.432
 6211.00    0.74233   0.78122   10.319
 6212.00    0.75406   0.77589   10.630
 6213.00    0.76814   0.77135   10.601
 6214.00    0.78196   0.76794   10.629
 6215.00    0.79332   0.76485   10.866
 6216.00    0.79558   0.76323   10.855
 6217.00    0.78221   0.76284   10.214
 6218.00    0.75398   0.76268    9.551
 6219.00    0.71972   0.76338    9.380
 6220.00    0.69513   0.76453    9.429
 6221.00    0.69017   0.76555    9.335
 6222.00    0.69546   0.76641    9.356
 6223.00    0.69688   0.76659    9.713
 6224.00    0.69305   0.76648    9.790
 6225.00    0.69073   0.76563    9.039
 6226.00    0.69761   0.76348    8.079
 6227.00    0.71378   0.76167    7.472
 6228.00    0.72600   0.76009    7.242
 6229.00    0.72360   0.75793    7.304
 6230.00    0.71181   0.75730    7.606
 6231.00    0.69911   0.75808    8.142
 6232.00    0.68745   0.75847    8.962
 6233.00    0.68452   0.75968    9.988
 6234.00    0.70998   0.76143   10.707
 6235.00    0.76702   0.76176   10.710
 6236.00    0.82592   0.76115   10.426
 6237.00    0.85452   0.76047   10.302
 6238.00    0.84029   0.75862   10.319
 6239.00    0.79509   0.75563   10.377
 6240.00    0.75160   0.75373   10.490
 6241.00    0.73081   0.75210   10.634
 6242.00    0.72649   0.74977   10.682
 6243.00    0.72462   0.74945   10.569
 6244.00    0.71590   0.75016   10.364
 6245.00    0.70328   0.75001   10.107
 6246.00    0.70028   0.75115    9.784
 6247.00    0.70758   0.75270    9.520
 6248.00    0.70959   0.75257    9.539
 6249.00    0.70645   0.75231    9.770
 6250.00    0.71965   0.75174    9.777
 6251.00    0.75891   0.74959    9.340
 6252.00    0.81213   0.74740    8.686
 6253.00    0.85845   0.74573    8.108
 6254.00    0.87842   0.74386    7.792
 6255.00    0.87055   0.74310    7.815
 6256.00    0.85053   0.74405    8.177
 6257.00    0.83135   0.74539    8.666
 6258.00    0.81865   0.74802    8.803
 6259.00    0.81648   0.75233    8.391
 6260.00    0.82480   0.75611    7.735
 6261.00    0.82876   0.75985    7.216
 6262.00    0.80821   0.76433    7.068
 6263.00    0.76863   0.76754    7.354
 6264.00    0.73623   0.76956    8.061
 6265.00    0.72800   0.77186    9.066
 6266.00    0.74479   0.77356   10.020
 6267.00    0.77232   0.77426   10.583
 6268.00    0.79141   0.77524   10.724
 6269.00    0.79762   0.77641   10.669
 6270.00    0.79843   0.77696   10.680
 6271.00    0.80058   0.77763   10.826
 6272.00    0.80548   0.77836   10.996
 6273.00    0.80605   0.77830   10.954
 6274.00    0.79372   0.77819   10.573
 6275.00    0.77060   0.77790   10.129
 6276.00    0.74598   0.77684    9.923
 6277.00    0.72818   0.77621    9.914
 6278.00    0.72090   0.77583    9.899
 6279.00    0.72029   0.77534    9.764
 6280.00    0.72091   0.77603    0.000
 6281.00    0.72373   0.77723    0.000
 6282.00    0.73146   0.77869    0.000
 6283.00    0.74187   0.78101    0.000
 6284.00    0.74984   0.78314    0.000
 6285.00    0.75106   0.78507    0.000
 6286.00    0.74750   0.78671    0.000
 6287.00    0.75135   0.78749    0.000
 6288.00    0.76928   0.78768    0.000
 6289.00    0.78814   0.78691    0.000
 6290.00    0.79071   0.78549    0.000
 6291.00    0.77151   0.78376    0.000
 6292.00    0.73966   0.78120    0.000
 6293.00    0.71768   0.77861    0.000
 6294.00    0.72080   0.77614    0.000
 6295.00    0.74203   0.77339    0.000
 6296.00    0.76341   0.77110    0.000
 6297.00    0.76718   0.76925    0.000
 6298.00    0.75080   0.76776    0.000
 6299.00    0.73296   0.76730    0.000
 6300.00    0.72908   0.76756    0.000
 6301.00    0.73732   0.76836    0.000
 6302.00    0.75007   0.77029    0.000
 6303.00    0.76144   0.77287    0.000
 6304.00    0.76762   0.77520    0.000
 6305.00    0.76732   0.77768    0.000
 6306.00    0.76366   0.78011    0.000
 6307.00    0.76268   0.78125    0.000
 6308.00    0.76246   0.78144    0.000
 6309.00    0.75201   0.78128    0.000
 6310.00    0.72903   0.77974    0.000
 6311.00    0.70383   0.77710    0.000
 6312.00    0.68305   0.77498    0.000
 6313.00    0.66579   0.77241    0.000
 6314.00    0.65465   0.76917    0.000
 6315.00    0.65702   0.76762    0.000
 6316.00    0.67485   0.76694    0.000
 6317.00    0.70170   0.76610    0.000
 6318.00    0.72542   0.76708    0.000
 6319.00    0.73334   0.76948    0.000
 6320.00    0.72465   0.77180    0.000
 6321.00    0.70922   0.77478   11.034
 6322.00    0.69415   0.77846   11.423
 6323.00    0.68264   0.78154   11.554
 6324.00    0.68105   0.78417   11.333
 6325.00    0.69544   0.78668   10.934
 6326.00    0.71923   0.78809   10.663
 6327.00    0.73816   0.78884   10.733
 6328.00    0.74757   0.78914   10.950
 6329.00    0.75237   0.78829   10.908
 6330.00    0.75856   0.78704   10.651
 6331.00    0.76924   0.78521   10.511
 6332.00    0.78074   0.78275   10.545
 6333.00    0.78592   0.78070   10.629
 6334.00    0.78159   0.77855   10.719
 6335.00    0.77015   0.77651   10.827
 6336.00    0.75977   0.77577   10.896
 6337.00    0.75830   0.77537   10.868
 6338.00    0.76407   0.77500   10.819
 6339.00    0.76822   0.77543   10.859
 6340.00    0.76042   0.77574   10.965
 6341.00    0.73738   0.77586   11.064
 6342.00    0.71211   0.77612   11.175
 6343.00    0.70221   0.77610   11.345
 6344.00    0.71389   0.77667   11.545
 6345.00    0.74294   0.77757   11.667
 6346.00    0.77836   0.77827   11.564
 6347.00    0.80611   0.77960   11.237
 6348.00    0.81368   0.78086   10.937
 6349.00    0.80041   0.78143   10.833
 6350.00    0.78519   0.78149   10.797
 6351.00    0.78482   0.78059   10.681
 6352.00    0.79462   0.77896   10.561
 6353.00    0.80102   0.77650   10.512
 6354.00    0.79466   0.77293   10.440
 6355.00    0.77644   0.76935   10.283
 6356.00    0.76003   0.76589   10.140
 6357.00    0.75937   0.76199    9.982
 6358.00    0.77899   0.75880    9.540
 6359.00    0.81307   0.75687    8.795
 6360.00    0.84676   0.75555    8.089
 6361.00    0.86593   0.75535    7.701
 6362.00    0.86456   0.75666    7.761
 6363.00    0.85051   0.75881    8.185
 6364.00    0.84424   0.76180    8.549
 6365.00    0.85343   0.76540    8.574
 6366.00    0.86323   0.76905    8.553
 6367.00    0.86052   0.77274    8.735
 6368.00    0.84593   0.77632    9.057
 6369.00    0.82819   0.77947    9.425
 6370.00    0.81814   0.78217    9.856
 6371.00    0.81594   0.78449   10.321
 6372.00    0.81002   0.78645   10.658
 6373.00    0.79584   0.78774   10.752
 6374.00    0.78119   0.78821   10.655
 6375.00    0.77521   0.78842   10.514
 6376.00    0.78299   0.78819   10.481
 6377.00    0.80263   0.78711   10.566
 6378.00    0.82503   0.78626   10.658
 6379.00    0.83705   0.78571   10.730
 6380.00    0.82681   0.78471   10.858
 6381.00    0.79610   0.78434   11.030
 6382.00    0.75977   0.78462   11.132
 6383.00    0.73280   0.78455   11.100
 6384.00    0.72501   0.78471   10.976
 6385.00    0.73732   0.78509   10.882
 6386.00    0.76204   0.78476   10.935
 6387.00    0.78633   0.78416   11.083
 6388.00    0.79921   0.78337   11.137
 6389.00    0.80510   0.78160   10.976
 6390.00    0.81803   0.77996   10.575
 6391.00    0.84302   0.77888    9.928
 6392.00    0.87291   0.77709    9.100
 6393.00    0.89055   0.77585    8.273
 6394.00    0.87895   0.77600    7.653
 6395.00    0.83870   0.77552    7.440
 6396.00    0.78776   0.77492    7.768
 6397.00    0.75469   0.77610    8.504
 6398.00    0.75908   0.77702    9.223
 6399.00    0.78405   0.77714    9.536
 6400.00    0.79707   0.77888    9.428
 6401.00    0.78659   0.78050    9.302
 6402.00    0.76241   0.78125    9.510
 6403.00    0.74741   0.78243    9.935
 6404.00    0.75620   0.78267   10.246
 6405.00    0.77133   0.78265   10.421
 6406.00    0.76922   0.78243   10.604
 6407.00    0.75296   0.78074   10.747
 6408.00    0.73801   0.77986   10.720
 6409.00    0.73222   0.77949   10.524
 6410.00    0.73364   0.77794   10.309
 6411.00    0.73162   0.77735   10.326
 6412.00    0.71989   0.77751   10.700
 6413.00    0.70758   0.77668   11.216
 6414.00    0.70526   0.77630   11.466
 6415.00    0.71233   0.77629   11.191
 6416.00    0.72131   0.77558   10.590
 6417.00    0.72332   0.77520   10.192
 6418.00    0.71660   0.77558   10.228
 6419.00    0.71101   0.77627   10.455
 6420.00    0.71503   0.77724   10.633
 6421.00    0.72730   0.77897   10.840
 6422.00    0.74377   0.78134   11.119
 6423.00    0.76335   0.78316   11.197
 6424.00    0.79064   0.78458   10.737
 6425.00    0.83332   0.78578    9.712
 6426.00    0.87866   0.78559    8.618
 6427.00    0.88910   0.78452    7.990
 6428.00    0.85062   0.78363    7.846
 6429.00    0.79117   0.78203    7.877
 6430.00    0.74156   0.78045    8.018
 6431.00    0.71640   0.77980    8.601
 6432.00    0.71896   0.77923    9.716
 6433.00    0.74391   0.77928   10.636
 6434.00    0.77751   0.77957   10.702
 6435.00    0.80178   0.77965   10.377
 6436.00    0.81018   0.78093   10.073
 6437.00    0.80988   0.78218    9.739
 6438.00    0.80780   0.78303    9.438
 6439.00    0.80578   0.78528    9.387
 6440.00    0.80276   0.78750    9.653
 6441.00    0.79524   0.78902   10.130
 6442.00    0.77609   0.79042   10.675
 6443.00    0.74099   0.79082   11.078
 6444.00    0.70712   0.79013   10.912
 6445.00    0.70605   0.78783    9.943
 6446.00    0.75004   0.78456    8.792
 6447.00    0.82473   0.78175    8.062
 6448.00    0.89536   0.77809    7.698
 6449.00    0.92210   0.77477    7.481
 6450.00    0.89138   0.77359    7.582
 6451.00    0.81983   0.77248    8.369
 6452.00    0.74588   0.77200    9.737
 6453.00    0.70894   0.77331   10.665
 6454.00    0.71268   0.77448   10.594
 6455.00    0.73522   0.77524   10.190
 6456.00    0.76172   0.77668    9.911
 6457.00    0.78472   0.77783    9.823
 6458.00    0.79424   0.77758    9.880
 6459.00    0.78279   0.77759   10.005
 6460.00    0.75604   0.77827   10.158
 6461.00    0.73042   0.77773   10.285
 6462.00    0.72612   0.77772   10.249
 6463.00    0.75214   0.77929   10.017
 6464.00    0.78884   0.78026    9.874
 6465.00    0.81409   0.78130   10.080
 6466.00    0.83867   0.78316   10.488
 6467.00    0.88224   0.78418   10.664
 6468.00    0.93962   0.78459   10.246
 6469.00    0.98475   0.78537    9.365
 6470.00    0.98239   0.78528    8.590
 6471.00    0.91925   0.78460    8.202
 6472.00    0.83181   0.78467    8.059
 6473.00    0.76876   0.78436    8.055
 6474.00    0.75170   0.78335    8.399
 6475.00    0.77554   0.78269    9.235
 6476.00    0.81423   0.78195   10.082
 6477.00    0.83984   0.78028   10.310
 6478.00    0.83894   0.77833   10.309
 6479.00    0.81574   0.77674   10.609
 6480.00    0.79087   0.77491   11.020
 6481.00    0.77983   0.77300   11.182
 6482.00    0.77894   0.77177   11.142
 6483.00    0.77838   0.77088   11.111
 6484.00    0.77232   0.76978   11.209
 6485.00    0.76350   0.76841   11.428
 6486.00    0.76308   0.76626   11.621
 6487.00    0.77515   0.76281   11.561
 6488.00    0.78918   0.75818   11.096
 6489.00    0.78941   0.75200   10.483
 6490.00    0.76408   0.74427   10.220
 6491.00    0.72405   0.73668   10.405
 6492.00    0.70334   0.72942   10.666
 6493.00    0.71803   0.72259   10.685
 6494.00    0.75182   0.71859   10.479
 6495.00    0.77881   0.71690   10.136
 6496.00    0.77882   0.71758    9.708
 6497.00    0.75601   0.72163    9.311
 6498.00    0.73729   0.72695    9.096
 6499.00    0.73927   0.73375    9.114
 6500.00    0.75921   0.74169    9.318
 6501.00    0.78841   0.74886    9.659
 6502.00    0.81813   0.75568   10.095
 6503.00    0.84268   0.76160   10.548
 6504.00    0.86088   0.76594   10.896
 6505.00    0.87716   0.76940   11.056
 6506.00    0.89615   0.77182   11.052
 6507.00    0.90772   0.77299   11.045
 6508.00    0.89356   0.77341   11.224
 6509.00    0.85447   0.77337   11.529
 6510.00    0.81017   0.77271   11.707
 6511.00    0.78159   0.77131   11.720
 6512.00    0.78005   0.76975   11.731
 6513.00    0.79381   0.76839   11.768
 6514.00    0.80000   0.76667   11.753
 6515.00    0.79445   0.76528   11.707
 6516.00    0.78735   0.76499   11.704
 6517.00    0.78315   0.76493   11.687
 6518.00    0.78089   0.76533   11.522
 6519.00    0.78161   0.76665   11.172
 6520.00    0.78751   0.76802   10.741
 6521.00    0.79828   0.76932   10.443
 6522.00    0.81000   0.77038   10.415
 6523.00    0.81452   0.77104   10.499
 6524.00    0.80576   0.77157   10.430
 6525.00    0.78829   0.77149   10.161
 6526.00    0.77257   0.77101    9.840
 6527.00    0.76688   0.77071    9.674
 6528.00    0.77415   0.77022    0.000
 6529.00    0.78955   0.76976    0.000
 6530.00    0.80425   0.76948    0.000
 6531.00    0.81013   0.76931    0.000
 6532.00    0.80373   0.76942    0.000
 6533.00    0.78958   0.76956    0.000
 6534.00    0.77816   0.76989    0.000
 6535.00    0.78237   0.77029    0.000
 6536.00    0.80574   0.77014    0.000
 6537.00    0.83353   0.76960    0.000
 6538.00    0.84768   0.76870    0.000
 6539.00    0.84063   0.76687    0.000
 6540.00    0.81702   0.76437    0.000
 6541.00    0.79281   0.76122    0.000
 6542.00    0.78503   0.75727    0.000
 6543.00    0.80369   0.75351    0.000
 6544.00    0.84971   0.74968    0.000
 6545.00    0.91340   0.74543    0.000
 6546.00    0.97309   0.74182    0.000
 6547.00    0.99907   0.73837    0.000
 6548.00    0.98306   0.73455    0.000
 6549.00    0.94981   0.73055    0.000
 6550.00    0.92301   0.72572    0.000
 6551.00    0.90716   0.72004    0.000
 6552.00    0.89596   0.71344    0.000
 6553.00    0.87942   0.70520    0.000
 6554.00    0.85463   0.69545    0.000
 6555.00    0.83094   0.68416    0.000
 6556.00    0.83022   0.67147    0.000
 6557.00    0.88292   0.65805    0.000
 6558.00    1.01224   0.64358    0.000
 6559.00    1.22194   0.63024    0.000
 6560.00    1.47656   0.62099    0.000
 6561.00    1.70502   0.61364    0.000
 6562.00    1.84006   0.61025    0.000
 6563.00    1.83878   0.61473    0.000
 6564.00    1.70131   0.62277    0.000
 6565.00    1.47166   0.63278    0.000
 6566.00    1.22117   0.64600    0.000
 6567.00    1.02346   0.65949    0.000
 6568.00    0.90098   0.67164    0.000
 6569.00    0.82878   0.68283    0.000
 6570.00    0.78471   0.69234    0.000
 6571.00    0.76019   0.69989    0.000
 6572.00    0.75242   0.70647    0.000
 6573.00    0.75879   0.71211    0.000
 6574.00    0.76903   0.71694    0.000
 6575.00    0.77266   0.72176    0.000
 6576.00    0.77792   0.72612    0.000
 6577.00    0.80669   0.72981    0.000
 6578.00    0.87639   0.73336    0.000
 6579.00    0.99099   0.73640    0.000
 6580.00    1.13186   0.73867    0.000
 6581.00    1.26764   0.74091    0.000
 6582.00    1.37359   0.74274    0.000
 6583.00    1.43239   0.74398    0.000
 6584.00    1.43069   0.74516    0.000
 6585.00    1.36465   0.74553    0.000
 6586.00    1.24849   0.74547    0.000
 6587.00    1.11142   0.74514    0.000
 6588.00    0.99057   0.74374    0.000
 6589.00    0.91275   0.74193    0.000
 6590.00    0.87374   0.74036    0.000
 6591.00    0.85265   0.73865    0.000
 6592.00    0.83232   0.73695    0.000
 6593.00    0.80650   0.73664    0.000
 6594.00    0.78425   0.73738    0.000
 6595.00    0.77691   0.73843    0.000
 6596.00    0.78471   0.74035    0.000
 6597.00    0.79879   0.74247    0.000
 6598.00    0.80554   0.74453    0.000
 6599.00    0.79812   0.74660    0.000
 6600.00    0.78486   0.74788    0.000
 6601.00    0.77664   0.74839    0.000
 6602.00    0.77610   0.74844    0.000
 6603.00    0.77891   0.74777    0.000
 6604.00    0.77664   0.74674    0.000
 6605.00    0.76601   0.74572    0.000
 6606.00    0.75377   0.74503    0.000
 6607.00    0.74601   0.74482    0.000
 6608.00    0.74231   0.74483    0.000
 6609.00    0.74447   0.74569    9.966
 6610.00    0.76014   0.74734    9.259
 6611.00    0.79115   0.74911    8.944
 6612.00    0.82808   0.75086    8.711
 6613.00    0.85811   0.75258    8.581
 6614.00    0.87083   0.75444    9.033
 6615.00    0.86536   0.75583   10.207
 6616.00    0.85139   0.75652   11.237
 6617.00    0.83882   0.75688   11.309
 6618.00    0.83260   0.75676   11.065
 6619.00    0.83176   0.75611   11.071
 6620.00    0.83075   0.75497   11.209
 6621.00    0.82534   0.75340   11.303
 6622.00    0.81489   0.75184   11.332
 6623.00    0.80157   0.75000   11.342
 6624.00    0.78956   0.74800   11.393
 6625.00    0.78331   0.74657   11.507
 6626.00    0.78446   0.74502   11.664
 6627.00    0.78446   0.74339   11.812
 6628.00    0.76971   0.74205   11.907
 6629.00    0.74289   0.74059   11.995
 6630.00    0.72247   0.73932   12.123
 6631.00    0.72467   0.73848   12.031
 6632.00    0.75457   0.73774   11.428
 6633.00    0.79752   0.73738   10.763
 6634.00    0.82679   0.73781   10.634
 6635.00    0.82607   0.73847   10.920
 6636.00    0.79630   0.73917   11.066
 6637.00    0.75796   0.74009   10.954
 6638.00    0.73626   0.74071   10.876
 6639.00    0.73148   0.74094   10.929
 6640.00    0.72858   0.74136   11.035
 6641.00    0.72567   0.74160   11.178
 6642.00    0.73011   0.74119   11.378
 6643.00    0.74258   0.74102   11.577
 6644.00    0.75699   0.74127   11.694
 6645.00    0.76497   0.74138   11.781
 6646.00    0.76060   0.74132   11.925
 6647.00    0.74616   0.74124   12.053
 6648.00    0.72817   0.74130   12.055
 6649.00    0.71112   0.74121   12.013
 6650.00    0.70146   0.74075   12.032
 6651.00    0.71277   0.74033   12.013
 6652.00    0.74942   0.73986   11.826
 6653.00    0.78829   0.73918   11.555
 6654.00    0.80399   0.73851   11.372
 6655.00    0.79820   0.73754   11.383
 6656.00    0.78533   0.73637   11.520
 6657.00    0.77443   0.73516   11.445
 6658.00    0.76825   0.73366   11.059
 6659.00    0.76475   0.73194   10.871
 6660.00    0.76353   0.73042   11.164
 6661.00    0.77011   0.72927   11.449
 6662.00    0.78262   0.72801   11.302
 6663.00    0.78357   0.72757   11.184
 6664.00    0.76593   0.72813   11.469
 6665.00    0.75005   0.72879   11.795
 6666.00    0.75296   0.72999   11.792
 6667.00    0.76715   0.73153   11.731
 6668.00    0.77473   0.73294   11.879
 6669.00    0.76008   0.73426   12.101
 6670.00    0.72310   0.73494   12.204
 6671.00    0.68306   0.73477   12.200
 6672.00    0.65507   0.73400   12.208
 6673.00    0.63886   0.73240   12.340
 6674.00    0.63474   0.73025   12.444
 6675.00    0.64928   0.72824   12.112
 6676.00    0.67820   0.72595   11.490
 6677.00    0.70261   0.72381   11.227
 6678.00    0.71234   0.72317   11.421
 6679.00    0.71417   0.72342   11.519
 6680.00    0.71865   0.72383   11.305
 6681.00    0.73265   0.72500   11.180
 6682.00    0.75366   0.72658   11.289
 6683.00    0.77159   0.72829   11.368
 6684.00    0.78308   0.72988   11.308
 6685.00    0.79366   0.73108   11.288
 6686.00    0.80670   0.73205   11.433
 6687.00    0.81972   0.73259   11.708
 6688.00    0.82577   0.73282   11.948
 6689.00    0.81759   0.73267   11.952
 6690.00    0.79814   0.73214   11.811
 6691.00    0.77814   0.73140   11.828
 6692.00    0.76082   0.73038   12.054
 6693.00    0.74318   0.72948   12.287
 6694.00    0.72990   0.72858   12.340
 6695.00    0.72895   0.72754   12.173
 6696.00    0.73315   0.72714    0.000
 6697.00    0.72629   0.72702    0.000
 6698.00    0.70622   0.72690    0.000
 6699.00    0.68497   0.72718    0.000
 6700.00    0.67811   0.72734    0.000
 6701.00    0.69565   0.72749    0.000
 6702.00    0.72980   0.72757    0.000
 6703.00    0.76450   0.72738    0.000
 6704.00    0.79595   0.72717    0.000
 6705.00    0.82663   0.72697    0.000
 6706.00    0.84988   0.72633    0.000
 6707.00    0.85662   0.72532    0.000
 6708.00    0.84906   0.72418    0.000
 6709.00    0.83511   0.72237    0.000
 6710.00    0.81807   0.72033    0.000
 6711.00    0.80473   0.71803    0.000
 6712.00    0.81647   0.71526    0.000
 6713.00    0.86988   0.71273    0.000
 6714.00    0.95243   0.71046    0.000
 6715.00    1.03551   0.70874    0.000
 6716.00    1.09339   0.70753    0.000
 6717.00    1.11004   0.70703    0.000
 6718.00    1.08418   0.70786    0.000
 6719.00    1.02812   0.70901    0.000
 6720.00    0.96507   0.71030    0.000
 6721.00    0.91885   0.71190    0.000
 6722.00    0.90361   0.71361    0.000
 6723.00    0.91474   0.71538    0.000
 6724.00    0.92534   0.71671    0.000
 6725.00    0.91621   0.71773    0.000
 6726.00    0.89787   0.71883    0.000
 6727.00    0.89351   0.71981    0.000
 6728.00    0.92227   0.72051    0.000
 6729.00    0.98024   0.72101    0.000
 6730.00    1.03321   0.72140    0.000
 6731.00    1.05165   0.72151    0.000
 6732.00    1.03162   0.72133    0.000
 6733.00    0.98190   0.72093    0.000
 6734.00    0.91528   0.72031    0.000
 6735.00    0.84727   0.71960    0.000
 6736.00    0.79354   0.71866    0.000
 6737.00    0.75912   0.71751    0.000
 6738.00    0.73577   0.71640    0.000
 6739.00    0.71516   0.71542    0.000
 6740.00    0.69582   0.71457    0.000
 6741.00    0.68435   0.71358    0.000
 6742.00    0.69225   0.71243    0.000
 6743.00    0.72136   0.71162    0.000
 6744.00    0.76111   0.71079    0.000
 6745.00    0.80119   0.70987    0.000
 6746.00    0.83712   0.70901    0.000
 6747.00    0.87235   0.70823    0.000
 6748.00    0.91351   0.70784    0.000
 6749.00    0.95359   0.70761    0.000
 6750.00    0.97296   0.70803    0.000
 6751.00    0.95944   0.70883    0.000
 6752.00    0.91467   0.70968    0.000
 6753.00    0.85394   0.71139    5.596
 6754.00    0.79989   0.71323    5.363
 6755.00    0.76706   0.71506    5.419
 6756.00    0.75924   0.71701    5.788
 6757.00    0.77352   0.71876    6.421
 6758.00    0.79922   0.72021    7.078
 6759.00    0.81363   0.72127    7.439
 6760.00    0.79212   0.72182    7.385
 6761.00    0.73081   0.72168    7.223
 6762.00    0.64899   0.72135    7.335
 6763.00    0.58378   0.72064    7.727
 6764.00    0.56961   0.71966    8.143
 6765.00    0.60460   0.71872    8.451
 6766.00    0.66280   0.71767    8.663
 6767.00    0.72476   0.71715    8.695
 6768.00    0.77834   0.71736    8.491
 6769.00    0.81204   0.71779    8.275
 6770.00    0.81952   0.71852    8.294
 6771.00    0.80708   0.71974    8.532
 6772.00    0.78626   0.72127    8.869
 6773.00    0.76284   0.72285    9.323
 6774.00    0.74066   0.72405    9.861
 6775.00    0.72758   0.72483   10.016
 6776.00    0.72666   0.72497    9.429
 6777.00    0.72603   0.72438    8.600
 6778.00    0.71287   0.72328    8.064
 6779.00    0.68938   0.72151    7.947
 6780.00    0.66757   0.71920    8.190
 6781.00    0.66128   0.71681    8.580
 6782.00    0.67451   0.71444    8.909
 6783.00    0.69331   0.71243    9.242
 6784.00    0.70550   0.71106    9.630
 6785.00    0.71649   0.71019    9.750
 6786.00    0.73054   0.70987    9.381
 6787.00    0.73660   0.71011    8.830
 6788.00    0.72677   0.71043    8.371
 6789.00    0.70994   0.71083    7.990
 6790.00    0.70267   0.71139    7.696
 6791.00    0.71962   0.71196    7.635
 6792.00    0.75763   0.71226    7.920
 6793.00    0.79121   0.71251    8.572
 6794.00    0.80676   0.71302    9.479
 6795.00    0.81723   0.71346   10.265
 6796.00    0.82361   0.71409   10.551
 6797.00    0.80148   0.71471   10.388
 6798.00    0.74916   0.71516    9.893
 6799.00    0.70393   0.71587    9.076
 6800.00    0.69417   0.71631    8.221
 6801.00    0.71709   0.71656    7.712
 6802.00    0.74878   0.71677    7.657
 6803.00    0.75699   0.71650    7.993
 6804.00    0.73286   0.71643    8.672
 6805.00    0.69712   0.71623    9.644
 6806.00    0.67199   0.71568   10.636
 6807.00    0.66939   0.71554   10.979
 6808.00    0.69003   0.71518   10.151
 6809.00    0.72512   0.71465    8.566
 6810.00    0.76273   0.71455    7.179
 6811.00    0.78958   0.71440    6.445
 6812.00    0.78993   0.71436    6.245
 6813.00    0.75252   0.71440    6.372
 6814.00    0.69112   0.71426    6.834
 6815.00    0.63825   0.71470    7.847
 6816.00    0.61286   0.71539    9.430
 6817.00    0.61321   0.71587   10.873
 6818.00    0.62184   0.71649   11.479
 6819.00    0.62047   0.71695   11.598
 6820.00    0.61997   0.71770   11.687
 6821.00    0.64756   0.71845   11.850
 6822.00    0.70502   0.71874   11.996
 6823.00    0.77058   0.71898   11.886
 6824.00    0.82090   0.71892   11.240
 6825.00    0.84135   0.71894   10.089
 6826.00    0.83585   0.71873    8.917
 6827.00    0.81473   0.71816    8.099
 6828.00    0.77181   0.71801    7.704
 6829.00    0.70342   0.71793    7.724
 6830.00    0.64308   0.71781    8.199
 6831.00    0.63312   0.71743    9.114
 6832.00    0.67505   0.71673    9.973
 6833.00    0.73604   0.71596    9.893
 6834.00    0.77009   0.71493    8.921
 6835.00    0.75269   0.71332    7.788
 6836.00    0.71786   0.71141    6.891
 6837.00    0.70901   0.70949    6.345
 6838.00    0.71724   0.70769    6.206
 6839.00    0.71236   0.70636    6.524
 6840.00    0.68572   0.70537    7.349
 6841.00    0.65578   0.70508    8.684
 6842.00    0.66442   0.70564   10.214
 6843.00    0.72629   0.70675   11.209
 6844.00    0.78787   0.70819   11.399
 6845.00    0.80108   0.70959   11.196
 6846.00    0.78653   0.71078   11.041
 6847.00    0.77807   0.71182   11.075
 6848.00    0.77511   0.71229   11.086
 6849.00    0.76838   0.71201   10.920
 6850.00    0.76111   0.71141   10.754
 6851.00    0.75585   0.71035   10.747
 6852.00    0.74553   0.70911   10.833
 6853.00    0.72471   0.70767   10.846
 6854.00    0.69704   0.70592   10.628
 6855.00    0.67154   0.70472   10.158
 6856.00    0.65876   0.70396    9.579
 6857.00    0.66346   0.70336    9.088
 6858.00    0.68169   0.70332    8.855
 6859.00    0.70720   0.70344    8.974
 6860.00    0.73508   0.70355    9.466
 6861.00    0.76175   0.70400   10.114
 6862.00    0.78414   0.70469   10.303
 6863.00    0.79657   0.70540    9.720
 6864.00    0.79019   0.70575    8.793
 6865.00    0.75704   0.70580    7.994
 6866.00    0.69564   0.70565    7.550
 6867.00    0.62556   0.70552    7.509
 6868.00    0.58324   0.70574    7.866
 6869.00    0.58544   0.70589    8.578
 6870.00    0.61986   0.70604    9.484
 6871.00    0.66074   0.70624   10.307
 6872.00    0.68257   0.70679   10.757
 6873.00    0.68466   0.70765   10.829
 6874.00    0.68736   0.70832   10.820
 6875.00    0.69798   0.70886   10.936
 6876.00    0.70786   0.70936   11.188
 6877.00    0.71266   0.70972   11.430
 6878.00    0.71419   0.70992   11.467
 6879.00    0.71046   0.70997   11.379
 6880.00    0.69737   0.70976   11.433
 6881.00    0.67839   0.70981   11.686
 6882.00    0.66361   0.71006   11.980
 6883.00    0.66250   0.71081   12.104
 6884.00    0.67863   0.71190   11.951
 6885.00    0.70298   0.71283   11.703
 6886.00    0.72152   0.71426   11.579
 6887.00    0.73167   0.71584   11.401
 6888.00    0.73856   0.71720   10.912
 6889.00    0.74284   0.71849   10.335
 6890.00    0.73880   0.71938    9.979
 6891.00    0.71545   0.71999    9.779
 6892.00    0.66943   0.72044    9.635
 6893.00    0.62299   0.72069    9.812
 6894.00    0.60470   0.72061   10.505
 6895.00    0.61886   0.72057   10.973
 6896.00    0.65099   0.72071   10.298
 6897.00    0.68129   0.72094    9.304
 6898.00    0.69435   0.72114    8.879
 6899.00    0.68888   0.72132    8.963
 6900.00    0.67546   0.72187    9.287
 6901.00    0.67175   0.72263    9.783
 6902.00    0.68909   0.72333   10.471
 6903.00    0.71998   0.72381   11.272
 6904.00    0.74789   0.72432   12.001
 6905.00    0.75926   0.72464   12.474
 6906.00    0.75227   0.72490   12.597
 6907.00    0.74176   0.72470   12.424
 6908.00    0.73832   0.72399   12.144
 6909.00    0.73254   0.72333   11.987
 6910.00    0.71607   0.72220   11.996
 6911.00    0.69734   0.72108   11.930
 6912.00    0.68550   0.72004   11.665
 6913.00    0.67915   0.71883   11.431
 6914.00    0.67677   0.71826   11.398
 6915.00    0.68310   0.71797   11.476
 6916.00    0.69978   0.71772   11.514
 6917.00    0.72009   0.71782   11.436
 6918.00    0.73490   0.71783   11.314
 6919.00    0.73652   0.71789   11.346
 6920.00    0.71910   0.71800   11.616
 6921.00    0.68086   0.71792   12.001
 6922.00    0.63485   0.71772   12.355
 6923.00    0.60787   0.71729   12.605
 6924.00    0.60987   0.71702   12.658
 6925.00    0.62623   0.71697   12.389
 6926.00    0.64881   0.71726   11.854
 6927.00    0.68404   0.71750   11.281
 6928.00    0.72803   0.71775   10.845
 6929.00    0.76224   0.71827   10.606
 6930.00    0.77656   0.71872   10.450
 6931.00    0.77647   0.71929   10.151
 6932.00    0.77594   0.71962    9.615
 6933.00    0.78885   0.72013    8.970
 6934.00    0.81054   0.72083    8.518
 6935.00    0.82011   0.72130    8.516
 6936.00    0.80561   0.72161    8.822
 6937.00    0.76891   0.72176    9.002
 6938.00    0.71727   0.72186    9.142
 6939.00    0.66223   0.72169    9.810
 6940.00    0.62306   0.72149   10.971
 6941.00    0.61802   0.72099   11.679
 6942.00    0.64217   0.72036   11.674
 6943.00    0.67507   0.71990   11.762
 6944.00    0.70986   0.71928   12.065
 6945.00    0.74788   0.71904   12.083
 6946.00    0.77446   0.71911   11.808
 6947.00    0.76947   0.71906   11.609
 6948.00    0.73697   0.71908   11.506
 6949.00    0.69840   0.71917   11.323
 6950.00    0.66976   0.71914   11.098
 6951.00    0.65915   0.71949   10.958
 6952.00    0.66933   0.71988   10.844
 6953.00    0.69685   0.72032   10.639
 6954.00    0.73018   0.72105   10.392
 6955.00    0.75396   0.72194   10.232
 6956.00    0.75603   0.72304   10.238
 6957.00    0.73600   0.72407   10.424
 6958.00    0.71413   0.72518   10.735
 6959.00    0.71156   0.72613   11.031
 6960.00    0.72507   0.72704   11.105
 6961.00    0.73825   0.72794   10.930
 6962.00    0.73858   0.72860   10.870
 6963.00    0.72495   0.72919   11.164
 6964.00    0.71226   0.72951   11.438
 6965.00    0.71537   0.72952   11.287
 6966.00    0.73335   0.72963   11.032
 6967.00    0.75908   0.72963   11.017
 6968.00    0.78884   0.72895   11.035
 6969.00    0.81485   0.72788   10.870
 6970.00    0.82016   0.72619   10.742
 6971.00    0.79637   0.72429   10.786
 6972.00    0.75578   0.72217   10.717
 6973.00    0.71001   0.71943   10.372
 6974.00    0.65609   0.71695   10.041
 6975.00    0.59903   0.71473    9.963
 6976.00    0.56455   0.71310   10.097
 6977.00    0.57340   0.71222   10.335
 6978.00    0.62385   0.71206   10.601
 6979.00    0.69266   0.71344   10.829
 6980.00    0.74265   0.71548   10.959
 6981.00    0.75881   0.71775   11.041
 6982.00    0.76149   0.72025   11.239
 6983.00    0.76788   0.72236   11.595
 6984.00    0.77456   0.72451   11.915
 6985.00    0.77442   0.72621   12.068
 6986.00    0.76604   0.72724   12.146
 6987.00    0.75587   0.72789   12.212
 6988.00    0.75523   0.72791   12.202
 6989.00    0.76449   0.72798   12.107
 6990.00    0.77153   0.72805   12.007
 6991.00    0.77153   0.72798   11.888
 6992.00    0.77079   0.72770   11.651
 6993.00    0.77205   0.72698   11.324
 6994.00    0.77113   0.72628   11.067
 6995.00    0.76454   0.72567   10.980
 6996.00    0.75311   0.72488   11.057
 6997.00    0.74500   0.72382   11.155
 6998.00    0.74941   0.72241   11.089
 6999.00    0.75678   0.72118   10.998
 7000.00    0.74782   0.72045   11.211
 7001.00    0.73189   0.71998   -2.000
 7002.00    0.73791   0.71952   -2.000
 7003.00    0.76702   0.71906   -2.000
 7004.00    0.79486   0.71895   -2.000
 7005.00    0.80422   0.71922   -2.000
 7006.00    0.79357   0.71974   -2.000
 7007.00    0.77779   0.72016   -2.000
 7008.00    0.77695   0.72033   -2.000
 7009.00    0.79405   0.72022   -2.000
 7010.00    0.81713   0.71963   -2.000
 7011.00    0.83143   0.71913   -2.000
 7012.00    0.82645   0.71869   -2.000
 7013.00    0.80376   0.71807   -2.000
 7014.00    0.77433   0.71729   -2.000
 7015.00    0.75173   0.71646   -2.000
 7016.00    0.74382   0.71629   -2.000
 7017.00    0.74294   0.71685   -2.000
 7018.00    0.74097   0.71740   -2.000
 7019.00    0.75004   0.71778   -2.000
 7020.00    0.77706   0.71817   -2.000
 7021.00    0.79063   0.71854   -2.000
 7022.00    0.76090   0.71894   -2.000
 7023.00    0.70877   0.71942   -2.000
 7024.00    0.66912   0.72001   -2.000
 7025.00    0.64573   0.72092   -2.000
 7026.00    0.63125   0.72177   -2.000
 7027.00    0.63176   0.72258   -2.000
 7028.00    0.65557   0.72364   -2.000
 7029.00    0.70035   0.72463   -2.000
 7030.00    0.75330   0.72566   -2.000
 7031.00    0.79420   0.72628   -2.000
 7032.00    0.81085   0.72658   -2.000
 7033.00    0.81026   0.72707   -2.000
 7034.00    0.80475   0.72773   -2.000
 7035.00    0.80036   0.72868   -2.000
 7036.00    0.79500   0.72974   -2.000
 7037.00    0.78144   0.73071   -2.000
 7038.00    0.77227   0.73233   -2.000
 7039.00    0.80530   0.73463   -2.000
 7040.00    0.87248   0.73700   -2.000
 7041.00    0.89559   0.73904   -2.000
 7042.00    0.84542   0.74062   -2.000
 7043.00    0.79022   0.74173   -2.000
 7044.00    0.77700   0.74232   -2.000
 7045.00    0.78025   0.74233   -2.000
 7046.00    0.77563   0.74131   -2.000
 7047.00    0.77182   0.73934   -2.000
 7048.00    0.77898   0.73638   -2.000
 7049.00    0.79409   0.73246   -2.000
 7050.00    0.80480   0.72812   -2.000
 7051.00    0.79528   0.72318   -2.000
 7052.00    0.76152   0.71793   -2.000
 7053.00    0.71468   0.71292   -2.000
 7054.00    0.67058   0.70815   -2.000
 7055.00    0.64389   0.70432   -2.000
 7056.00    0.64225   0.70106   -2.000
 7057.00    0.66313   0.69826   -2.000
 7058.00    0.69091   0.69608   -2.000
 7059.00    0.70423   0.69428   -2.000
 7060.00    0.69977   0.69316   -2.000
 7061.00    0.69170   0.69247   -2.000
 7062.00    0.69089   0.69181   -2.000
 7063.00    0.69910   0.69137   -2.000
 7064.00    0.70947   0.69123   -2.000
 7065.00    0.71116   0.69104   -2.000
 7066.00    0.69966   0.69122   -2.000
 7067.00    0.68016   0.69164   -2.000
 7068.00    0.66901   0.69251   -2.000
 7069.00    0.68105   0.69400   -2.000
 7070.00    0.70427   0.69545   -2.000
 7071.00    0.71168   0.69689   -2.000
 7072.00    0.69295   0.69834   -2.000
 7073.00    0.65849   0.69968   -2.000
 7074.00    0.63480   0.70079   -2.000
 7075.00    0.64593   0.70141   -2.000
 7076.00    0.68548   0.70135   -2.000
 7077.00    0.72794   0.70070   -2.000
 7078.00    0.75278   0.69933   -2.000
 7079.00    0.74997   0.69722   -2.000
 7080.00    0.72251   0.69459   -2.000
 7081.00    0.68370   0.69112   -2.000
 7082.00    0.65288   0.68706   -2.000
 7083.00    0.64914   0.68275   -2.000
 7084.00    0.68330   0.67842   -2.000
 7085.00    0.74387   0.67466   -2.000
 7086.00    0.78575   0.67106   -2.000
 7087.00    0.77193   0.66758   -2.000
 7088.00    0.71638   0.66502   -2.000
 7089.00    0.65822   0.66303   -2.000
 7090.00    0.63047   0.66183   -2.000
 7091.00    0.64268   0.66144   -2.000
 7092.00    0.67097   0.66107   -2.000
 7093.00    0.68833   0.66155   -2.000
 7094.00    0.69029   0.66225   -2.000
 7095.00    0.68610   0.66323   -2.000
 7096.00    0.68878   0.66456   -2.000
 7097.00    0.70435   0.66578   -2.000
 7098.00    0.72538   0.66727   -2.000
 7099.00    0.73906   0.66850   -2.000
 7100.00    0.73442   0.66952   -2.000
 7101.00    0.71171   0.67034   -2.000
 7102.00    0.68560   0.67094   -2.000
 7103.00    0.67062   0.67150   -2.000
 7104.00    0.67103   0.67172   -2.000
 7105.00    0.67425   0.67160   -2.000
 7106.00    0.65590   0.67121   -2.000
 7107.00    0.62176   0.67084   -2.000
 7108.00    0.61357   0.67058   -2.000
 7109.00    0.63469   0.67020   -2.000
 7110.00    0.63585   0.66986   -2.000
 7111.00    0.60892   0.66976   -2.000
 7112.00    0.60466   0.67000   -2.000
 7113.00    0.63367   0.67045   -2.000
 7114.00    0.64824   0.67072   -2.000
 7115.00    0.62962   0.67113   -2.000
 7116.00    0.60526   0.67136   -2.000
 7117.00    0.59017   0.67143   -2.000
 7118.00    0.57260   0.67126   -2.000
 7119.00    0.53738   0.67053   -2.000
 7120.00    0.48826   0.66963   -2.000
 7121.00    0.48892   0.66821   -2.000
 7122.00    0.62244   0.66660   -2.000
 7123.00    0.84782   0.66490   -2.000
 7124.00    1.02201   0.66266   -2.000
 7125.00    1.06114   0.66044   -2.000
 7126.00    0.97030   0.65854   -2.000
 7127.00    0.80963   0.65702   -2.000
 7128.00    0.65683   0.65592   -2.000
 7129.00    0.54480   0.65502   -2.000
 7130.00    0.47075   0.65464   -2.000
 7131.00    0.44371   0.65520   -2.000
 7132.00    0.47529   0.65619   -2.000
 7133.00    0.54386   0.65743   -2.000
 7134.00    0.61536   0.65879   -2.000
 7135.00    0.69116   0.66001   -2.000
 7136.00    0.78041   0.66140   -2.000
 7137.00    0.84237   0.66243   -2.000
 7138.00    0.82749   0.66309   -2.000
 7139.00    0.75342   0.66341   -2.000
 7140.00    0.67565   0.66352   -2.000
 7141.00    0.62844   0.66330   -2.000
 7142.00    0.61843   0.66267   -2.000
 7143.00    0.62876   0.66208   -2.000
 7144.00    0.64044   0.66144   -2.000
 7145.00    0.65661   0.66100   -2.000
 7146.00    0.68267   0.66083   -2.000
 7147.00    0.70155   0.66068   -2.000
 7148.00    0.69408   0.66143   -2.000
 7149.00    0.66315   0.66281   -2.000
 7150.00    0.62698   0.66429   -2.000
 7151.00    0.60852   0.66615   -2.000
 7152.00    0.62228   0.66778   -2.000
 7153.00    0.66428   0.66934   -2.000
 7154.00    0.72506   0.67056   -2.000
 7155.00    0.80409   0.67124   -2.000
 7156.00    0.92903   0.67175   -2.000
 7157.00    1.15283   0.67135   -2.000
 7158.00    1.41604   0.67048   -2.000
 7159.00    1.48609   0.66934   -2.000
 7160.00    1.26863   0.66825   -2.000
 7161.00    0.97934   0.66741   -2.000
 7162.00    0.80589   0.66660   -2.000
 7163.00    0.71216   0.66598   -2.000
 7164.00    0.64376   0.66601   -2.000
 7165.00    0.63810   0.66701   -2.000
 7166.00    0.69754   0.66861   -2.000
 7167.00    0.73650   0.67039   -2.000
 7168.00    0.69767   0.67202   -2.000
 7169.00    0.60445   0.67360   -2.000
 7170.00    0.50835   0.67518   -2.000
 7171.00    0.45565   0.67647   -2.000
 7172.00    0.46076   0.67715   -2.000
 7173.00    0.50147   0.67719   -2.000
 7174.00    0.54792   0.67670   -2.000
 7175.00    0.58306   0.67591   -2.000
 7176.00    0.63138   0.67502   -2.000
 7177.00    0.73858   0.67422   -2.000
 7178.00    0.86243   0.67308   -2.000
 7179.00    0.89010   0.67170   -2.000
 7180.00    0.82384   0.67049   -2.000
 7181.00    0.77876   0.66952   -2.000
 7182.00    0.78431   0.66899   -2.000
 7183.00    0.77614   0.66824   -2.000
 7184.00    0.75091   0.66723   -2.000
 7185.00    0.76434   0.66636   -2.000
 7186.00    0.80692   0.66538   -2.000
 7187.00    0.81382   0.66501   -2.000
 7188.00    0.77130   0.66495   -2.000
 7189.00    0.71220   0.66504   -2.000
 7190.00    0.64561   0.66556   -2.000
 7191.00    0.56747   0.66596   -2.000
 7192.00    0.51635   0.66663   -2.000
 7193.00    0.53878   0.66742   -2.000
 7194.00    0.60086   0.66828   -2.000
 7195.00    0.64092   0.66903   -2.000
 7196.00    0.69351   0.66938   -2.000
 7197.00    0.81624   0.66974   -2.000
 7198.00    0.93255   0.66999   -2.000
 7199.00    0.91833   0.66982   -2.000
 7200.00    0.77743   0.66949   -2.000
 7201.00    0.59802   0.66880   -2.000
 7202.00    0.44768   0.66831   -2.000
 7203.00    0.36502   0.66792   -2.000
 7204.00    0.36855   0.66729   -2.000
 7205.00    0.45098   0.66672   -2.000
 7206.00    0.57210   0.66604   -2.000
 7207.00    0.68423   0.66613   -2.000
 7208.00    0.76318   0.66678   -2.000
 7209.00    0.80912   0.66766   -2.000
 7210.00    0.84054   0.66888   -2.000
 7211.00    0.85966   0.66987   -2.000
 7212.00    0.82419   0.67096   -2.000
 7213.00    0.71726   0.67211   -2.000
 7214.00    0.60745   0.67329   -2.000
 7215.00    0.55819   0.67443   -2.000
 7216.00    0.55125   0.67543   -2.000
 7217.00    0.56488   0.67635   -2.000
 7218.00    0.63624   0.67704   -2.000
