###################################################################
## OUTPUT of StarlightChains_v04.for    [Cid@UFSC - 01/Apr/2007] ##
###################################################################

## Some input info
2011ho.txt                               [arq_obs]
Base.CB07.vall.4m                        [arq_base]
Masks.EmLines.NEW.gm                     [arq_masks]
StCv04.C11.config                        [arq_config]
   66                                    [N_base]
    0                                    [N_YAV_components = # of components with extra extinction!]
    0                                    [i_FitPowerLaw (1/0 = Yes/No)]
-9.99                                    [alpha_PowerLaw]
CCM                                      [red_law_option]
 1.458241                                [q_norm = A(l_norm)/A(V)]

## (Re)Sampling Parameters
 3741.00                                 [l_ini (A)]
 7218.00                                 [l_fin (A)]
    1.00                                 [dl    (A)]     (OBS: dl_cushion =    50.00 A)

## Normalization info
 4020.00                                 [l_norm (A) - for base]
 4010.00                                 [llow_norm (A) - window for f_obs]
 4060.00                                 [lupp_norm (A) - window for f_obs]
9.353262E-18                             [fobs_norm (in input units)]

## S/N
 3691.00                                 [llow_SN (A) - window for S/N]
 7268.00                                 [lupp_SN (A) - window for S/N]
   5.464                                 [S/N in S/N window]
   4.770                                 [S/N in norm. window]
   8.666                                 [S/N_err in S/N window]
   7.564                                 [S/N_err in norm. window]
  1.0000                                 [fscale_chi2]

## etc...
    -2007378                             [idum_orig]
  2305                                   [NOl_eff]
  2304                                   [Nl_eff]
     1    NSIGMA                         [Ntot_cliped & clip_method]
  1536850                                [Nglobal_steps]
   7                                     [N_chains]
  25                                     [NEX0s_base = N_base in EX0s-fits]
 0   0   1        4   2.0   1.248E+01    [Clip-Bug, RC-Crash & Burn-In warning-flags, n_censored_weights, wei_nsig_threshold & wei_limit]
    14     13.513     13.010      0.503  [idt_all, wdt_TotTime, wdt_UsrTime & wdt_SysTime (sec)]

## Synthesis Results - Best model ##

 4.45709E-01                             [chi2/Nl_eff]
     7.63377                             [adev (%)]

   105.27879                             [sum-of-x (%)]
 8.71002E-18                             [Flux_tot (units of input spectrum!)]
 6.01419E-13                             [Mini_tot (???)]
 3.03976E-13                             [Mcor_tot (???)]

  15.26                                  [v0_min  (km/s)]
 296.44                                  [vd_min  (km/s)]
-0.0914                                  [AV_min  (mag)]
 0.0000                                  [YAV_min (mag)]

# j     x_j(%)      Mini_j(%)     Mcor_j(%)     age_j(yr)     Z_j      (L/M)_j    YAV?  Mstars   component_j        a/Fe...       SSP_chi2r SSP_adev(%)   SSP_AV   SSP_x(%)
  1      0.0000     0.0000E+00    0.0000E+00    1.000000E+06  0.00400  1.094E-02    0   1.0000   age020_m42            0.0000     8.4979E-01    11.3735   3.4811    90.7957
  2      5.2863     1.8148E-03    3.5903E-03    3.160000E+06  0.00400  4.007E-02    0   0.9999   age045_m42            0.0000     7.9260E-01    10.7222   2.7589    96.9875
  3      0.7462     4.0430E-04    7.5895E-04    5.010000E+06  0.00400  2.539E-02    0   0.9488   age055_m42            0.0000     8.1060E-01    11.0358   3.0729    94.8376
  4      0.0000     0.0000E+00    0.0000E+00    6.610000E+06  0.00400  2.620E-02    0   0.9220   age061_m42            0.0000     7.8558E-01    10.7751   2.6771    97.6065
  5      1.7877     1.8603E-03    3.2617E-03    1.000000E+07  0.00400  1.322E-02    0   0.8862   age070_m42            0.0000     8.0366E-01    11.4865   2.3355   102.5813
  6      0.0000     0.0000E+00    0.0000E+00    1.445000E+07  0.00400  7.883E-03    0   0.8571   age078_m42            0.0000     8.2192E-01    11.5965   2.6689    99.6497
  7      0.0000     0.0000E+00    0.0000E+00    2.512000E+07  0.00400  5.251E-03    0   0.8174   age090_m42            0.0000     8.1924E-01    11.6376   2.1943   103.7259
  8      0.0000     0.0000E+00    0.0000E+00    4.000000E+07  0.00400  3.649E-03    0   0.7851   age104_m42            0.0000     7.9488E-01    11.3740   1.9733   104.2917
  9      0.0000     0.0000E+00    0.0000E+00    5.500000E+07  0.00400  3.098E-03    0   0.7629   age110_m42            0.0000     7.7696E-01    10.9541   2.1545   102.9361
 10      0.0000     0.0000E+00    0.0000E+00    1.015200E+08  0.00400  2.228E-03    0   0.7207   age116_m42            0.0000     7.6163E-01    10.7071   2.1921   102.3184
 11      0.0000     0.0000E+00    0.0000E+00    2.861200E+08  0.00400  1.093E-03    0   0.6648   age125_m42            0.0000     7.6200E-01    10.7797   1.6069   106.4090
 12      0.0000     0.0000E+00    0.0000E+00    5.088000E+08  0.00400  6.597E-04    0   0.6365   age130_m42            0.0000     7.0828E-01    10.2117   1.6238   105.9533
 13     11.1331     7.1834E-01    8.2403E-01    1.434000E+09  0.00400  2.132E-04    0   0.5798   age139_m42            0.0000     5.6158E-01     9.0283   0.6642   107.5520
 14      0.0019     4.3635E-04    4.6421E-04    4.250000E+09  0.00400  5.895E-05    0   0.5377   age158_m42            0.0000     4.9933E-01     8.2740   0.2616   101.5619
 15      0.0000     0.0000E+00    0.0000E+00    7.500000E+09  0.00400  3.510E-05    0   0.5212   age171_m42            0.0000     4.8510E-01     8.0289   0.0905   100.1557
 16      0.0000     0.0000E+00    0.0000E+00    1.300000E+10  0.00400  2.005E-05    0   0.5034   age193_m42            0.0000     4.8137E-01     7.8768  -0.0584    98.9260
 17      0.5211     4.7002E-01    4.6190E-01    1.800000E+10  0.00400  1.525E-05    0   0.4967   age213_m42            0.0000     4.7928E-01     7.9195  -0.0847    98.6407
 18      0.0000     0.0000E+00    0.0000E+00    1.000000E+06  0.00800  1.238E-02    0   1.0000   age020_m52            0.0000     8.4844E-01    11.3708   3.4774    90.9713
 19      0.0000     0.0000E+00    0.0000E+00    3.160000E+06  0.00800  3.074E-02    0   0.9966   age045_m52            0.0000     8.4163E-01    11.3161   3.4021    91.7299
 20      0.0000     0.0000E+00    0.0000E+00    5.010000E+06  0.00800  2.668E-02    0   0.9443   age055_m52            0.0000     8.0985E-01    11.1288   3.1533    94.0717
 21      0.0000     0.0000E+00    0.0000E+00    6.610000E+06  0.00800  2.136E-02    0   0.9177   age061_m52            0.0000     7.2072E-01    10.9889   1.8375   103.6221
 22      2.1992     2.4900E-03    4.3485E-03    1.000000E+07  0.00800  1.215E-02    0   0.8827   age070_m52            0.0000     8.2517E-01    11.8198   2.5004   103.1132
 23      0.0000     0.0000E+00    0.0000E+00    1.445000E+07  0.00800  8.717E-03    0   0.8552   age078_m52            0.0000     8.0330E-01    11.5101   2.6328   101.1239
 24      0.0000     0.0000E+00    0.0000E+00    2.512000E+07  0.00800  5.592E-03    0   0.8162   age090_m52            0.0000     8.0589E-01    11.5871   2.2578   105.0487
 25      0.0000     0.0000E+00    0.0000E+00    4.000000E+07  0.00800  3.896E-03    0   0.7841   age104_m52            0.0000     7.8957E-01    11.2897   2.1833   105.2312
 26      0.0000     0.0000E+00    0.0000E+00    1.015200E+08  0.00800  2.148E-03    0   0.7226   age116_m52            0.0000     7.5555E-01    10.8116   2.1478   103.7578
 27      0.0000     0.0000E+00    0.0000E+00    2.861200E+08  0.00800  9.925E-04    0   0.6683   age125_m52            0.0000     6.9557E-01    10.1697   1.6859   107.0664
 28      8.6268     3.7782E-01    4.5883E-01    9.047900E+08  0.00800  3.141E-04    0   0.6138   age135_m52            0.0000     5.7168E-01     8.7396   0.9285   109.5637
 29      0.0000     0.0000E+00    0.0000E+00    1.434000E+09  0.00800  1.719E-04    0   0.5853   age139_m52            0.0000     5.0803E-01     8.3737   0.3539   107.1594
 30      0.0000     0.0000E+00    0.0000E+00    2.500000E+09  0.00800  7.872E-05    0   0.5600   age150_m52            0.0000     4.7201E-01     7.8341   0.1214   102.4773
 31      0.0000     0.0000E+00    0.0000E+00    4.250000E+09  0.00800  4.336E-05    0   0.5426   age158_m52            0.0000     4.7749E-01     7.8487   0.1081   101.4034
 32      0.0000     0.0000E+00    0.0000E+00    6.250000E+09  0.00800  3.159E-05    0   0.5319   age166_m52            0.0000     4.7486E-01     7.6718  -0.0702   100.3449
 33      0.0013     1.2750E-03    1.2797E-03    1.300000E+10  0.00800  1.361E-05    0   0.5073   age193_m52            0.0000     4.8263E-01     7.6330  -0.5087    98.4129
 34      0.0000     0.0000E+00    0.0000E+00    1.800000E+10  0.00800  9.886E-06    0   0.4990   age213_m52            0.0000     5.0986E-01     7.8557  -0.5888    96.7393
 35      0.0000     0.0000E+00    0.0000E+00    1.000000E+06  0.02000  1.544E-02    0   1.0000   age020_m62            0.0000     8.4979E-01    11.3920   3.4738    91.1709
 36      1.6869     6.1685E-04    1.2031E-03    3.160000E+06  0.02000  3.762E-02    0   0.9858   age045_m62            0.0000     8.4961E-01    11.3944   3.4139    91.9394
 37      0.0000     0.0000E+00    0.0000E+00    5.010000E+06  0.02000  3.296E-02    0   0.9342   age055_m62            0.0000     7.9499E-01    10.8592   3.0404    95.6926
 38      5.0161     5.9794E-03    1.0483E-02    8.710000E+06  0.02000  1.154E-02    0   0.8861   age067_m62            0.0000     1.1118E+00    14.6311   1.8449   111.8159
 39      0.0000     0.0000E+00    0.0000E+00    1.445000E+07  0.02000  7.663E-03    0   0.8472   age078_m62            0.0000     8.6995E-01    12.3845   2.1167   107.1598
 40      1.4382     4.3655E-03    6.9952E-03    2.512000E+07  0.02000  4.532E-03    0   0.8099   age090_m62            0.0000     8.9798E-01    12.5651   2.1043   107.1639
 41      0.0072     3.5994E-05    5.4088E-05    5.500000E+07  0.02000  2.733E-03    0   0.7595   age110_m62            0.0000     7.7225E-01    11.2831   2.1641   104.5575
 42      0.0227     2.2826E-04    3.1546E-04    1.609000E+08  0.02000  1.369E-03    0   0.6985   age120_m62            0.0000     7.3483E-01    10.6359   2.0349   105.8560
 43      0.0000     0.0000E+00    0.0000E+00    2.861200E+08  0.02000  9.013E-04    0   0.6714   age125_m62            0.0000     7.0424E-01    10.2304   1.7983   108.2051
 44      0.0000     0.0000E+00    0.0000E+00    5.088000E+08  0.02000  5.028E-04    0   0.6449   age130_m62            0.0000     6.4345E-01     9.3508   1.4634   108.9488
 45      0.0000     0.0000E+00    0.0000E+00    9.047900E+08  0.02000  2.428E-04    0   0.6179   age135_m62            0.0000     5.3216E-01     8.3394   0.8983   107.3719
 46      0.0027     2.9822E-04    3.4859E-04    1.434000E+09  0.02000  1.263E-04    0   0.5908   age139_m62            0.0000     4.8685E-01     8.0157   0.4621   105.4212
 47      0.0000     0.0000E+00    0.0000E+00    2.500000E+09  0.02000  5.985E-05    0   0.5673   age150_m62            0.0000     4.7943E-01     7.7320   0.1290   102.4384
 48      0.2718     1.1430E-01    1.2366E-01    4.250000E+09  0.02000  3.271E-05    0   0.5468   age158_m62            0.0000     4.8818E-01     7.6756  -0.1401    99.9814
 49      0.0000     0.0000E+00    0.0000E+00    1.000000E+10  0.02000  1.360E-05    0   0.5167   age181_m62            0.0000     5.3499E-01     8.1213  -0.4466    97.7944
 50      9.9785     1.9268E+01    1.9111E+01    1.800000E+10  0.02000  7.124E-06    0   0.5013   age213_m62            0.0000     5.9379E-01     8.6886  -0.6180    95.4193
 51      3.2163     1.7070E-03    3.3766E-03    1.000000E+06  0.05000  2.592E-02    0   0.9998   age020_m72            0.0000     8.5538E-01    11.4802   3.4619    91.3338
 52      0.0000     0.0000E+00    0.0000E+00    3.160000E+06  0.05000  4.845E-02    0   0.9577   age045_m72            0.0000     8.3273E-01    11.1749   3.3038    92.8911
 53      0.0000     0.0000E+00    0.0000E+00    5.010000E+06  0.05000  3.072E-02    0   0.9147   age055_m72            0.0000     8.4186E-01    11.8947   2.7539   100.7046
 54      0.0000     0.0000E+00    0.0000E+00    6.610000E+06  0.05000  1.455E-02    0   0.8877   age061_m72            0.0000     1.5518E+00    16.8191   1.8832   114.3049
 55      0.0000     0.0000E+00    0.0000E+00    1.000000E+07  0.05000  9.074E-03    0   0.8524   age070_m72            0.0000     9.1305E-01    12.1067   2.9622    99.7121
 56      0.0000     0.0000E+00    0.0000E+00    2.512000E+07  0.05000  4.250E-03    0   0.7902   age090_m72            0.0000     8.7746E-01    11.9169   2.6401   102.3462
 57      0.0000     0.0000E+00    0.0000E+00    4.000000E+07  0.05000  3.087E-03    0   0.7618   age104_m72            0.0000     8.9058E-01    12.0258   2.4013   104.6367
 58      0.0000     0.0000E+00    0.0000E+00    1.015200E+08  0.05000  1.700E-03    0   0.7096   age116_m72            0.0000     7.7227E-01    11.0004   2.1633   106.1991
 59      0.0000     0.0000E+00    0.0000E+00    2.861200E+08  0.05000  7.384E-04    0   0.6633   age125_m72            0.0000     6.6398E-01     9.7510   1.6868   108.6754
 60      1.8388     6.6235E-02    8.3503E-02    5.088000E+08  0.05000  3.819E-04    0   0.6372   age130_m72            0.0000     5.6860E-01     8.6992   1.2291   108.7026
 61      0.0000     0.0000E+00    0.0000E+00    9.047900E+08  0.05000  1.676E-04    0   0.6110   age135_m72            0.0000     5.0850E-01     7.9659   0.5829   104.4298
 62      0.0039     6.1012E-04    7.0907E-04    1.434000E+09  0.05000  8.837E-05    0   0.5874   age139_m72            0.0000     4.7242E-01     7.7121   0.1346   103.7040
 63     19.5742     6.3612E+00    7.0454E+00    2.500000E+09  0.05000  4.233E-05    0   0.5598   age150_m72            0.0000     4.9904E-01     7.7740  -0.1283   100.2959
 64      6.4113     6.1460E+00    6.3827E+00    6.250000E+09  0.05000  1.435E-05    0   0.5249   age166_m72            0.0000     5.5213E-01     8.2750  -0.5295    96.8197
 65     11.9276     2.5193E+01    2.5101E+01    1.300000E+10  0.05000  6.513E-06    0   0.5036   age193_m72            0.0000     6.3731E-01     9.0761  -0.7616    95.7289
 66     13.5791     4.1263E+01    4.0371E+01    1.800000E+10  0.05000  4.527E-06    0   0.4945   age213_m72            0.0000     7.0354E-01     9.6736  -0.8916    94.2724


## Synthesis Results - Average & Chains ##

# j      x_j: min, <> & last-chain-values for 1 ...  7 chains
  1      0.0000      0.2226      0.3356      1.5557      0.0000      0.0000      0.0966      0.5558      0.0000
  2      5.2863      0.4344      2.0000      1.5401      0.2703      0.0000      0.0000      0.0000      0.7730
  3      0.7462      0.2778      1.4943      0.0000      0.2097      0.0000      0.0000      0.0000      1.9005
  4      0.0000      0.3982      0.0000      0.0000      0.0000      0.0000      0.0000      2.9812      0.0000
  5      1.7877      0.3824      0.9514      0.3291      1.0980      0.2749      0.0000      0.4742      1.5463
  6      0.0000      0.5176      0.0000      0.0000      0.0000      0.0000      4.8468      2.3805      0.0000
  7      0.0000      0.5400      0.2718      0.0000      0.9565      0.0000      0.8387      0.0000      0.0000
  8      0.0000      0.3800      0.0000      0.0000      0.0000      0.0000      0.0000      0.0000      0.0000
  9      0.0000      0.4535      0.0000      0.0000      1.6308      1.4279      3.7647      0.0000      0.9327
 10      0.0000      0.2029      0.0000      0.8129      0.0000      0.1050      0.0000      0.0000      0.0000
 11      0.0000      0.2890      0.5487      0.0000      1.7521      0.2047      0.0000      1.4315      0.0000
 12      0.0000      0.4449      0.0000      0.0000      0.0000      0.0000      0.0000      0.0000      0.0000
 13     11.1331      3.2723      8.4281      9.3052      0.0000      4.9792      1.5946      9.4071      3.1439
 14      0.0019      2.8053      6.0731      0.8397      0.0000      0.0000      2.4667      2.6416      4.1556
 15      0.0000      2.0635      0.0000      0.0000      0.0000      0.0000      0.0000      0.0000      0.0000
 16      0.0000      1.6290      0.0000      0.6075      1.2650      2.5651      0.0000      3.0583      0.2971
 17      0.5211      1.9415      2.3461      0.0000      0.0000      0.0000      2.3064      0.0000      0.0000
 18      0.0000      0.3640      0.0602      0.0000      1.1315      0.0000      0.0000      0.0000      0.2519
 19      0.0000      0.1029      0.0000      0.0000      0.0000      0.0000      0.0000      0.7013      0.0000
 20      0.0000      0.2006      0.0000      0.0000      0.1789      0.0000      0.0000      0.0000      0.0000
 21      0.0000      0.8516      0.1201      2.3443      2.3398      1.6079      0.0000      0.0000      0.0000
 22      2.1992      0.5458      2.9808      0.0000      0.0000      0.0000      0.0000      0.0000      0.7274
 23      0.0000      0.2348      0.0000      0.8802      0.0000      1.0157      0.0000      0.0000      0.0000
 24      0.0000      0.2013      0.0000      0.0000      0.0000      0.0000      0.0000      0.4574      1.8238
 25      0.0000      0.7503      0.0000      0.0000      0.2684      5.3118      0.0000      0.0000      1.1486
 26      0.0000      0.3766      0.0000      0.0000      0.0000      1.7289      0.0000      0.0000      0.0000
 27      0.0000      0.7361      0.0000      1.7819      0.0000      0.0000      0.0000      0.0000      0.0472
 28      8.6268      1.2135      1.7240      0.2781      1.2824      2.6768      0.3737      0.0000      0.0000
 29      0.0000      3.8769      0.0000      1.5589      3.8254      6.2171      0.7665      2.7934      1.3291
 30      0.0000      3.5793      0.0000      0.0369      0.0000      0.0000      0.0000      3.6064      6.1722
 31      0.0000      2.9688      0.0000      0.0000      5.0168      0.0000      0.0000      0.0000      1.8418
 32      0.0000      2.7614      0.0000      0.0000      2.8285      0.0000      0.0000      0.0000      1.5479
 33      0.0013      0.6112      3.1447      2.0763      0.0000      3.2214      0.3261      0.0000      0.0000
 34      0.0000      0.4022      0.0000      0.5783      0.0000      0.0000      0.5947      0.0000      0.0000
 35      0.0000      0.3914      0.0000      0.0000      0.0000      1.9219      0.0000      0.0000      0.0000
 36      1.6869      0.3209      1.0363      0.0000      0.0000      0.0000      1.2473      0.0000      0.0000
 37      0.0000      0.2734      0.0000      0.0000      0.0000      0.0000      3.0010      0.1638      0.0000
 38      5.0161      1.1333      2.1336      1.9464      0.3589      1.7031      0.2892      1.8150      0.7296
 39      0.0000      0.4018      0.0000      1.2941      2.3620      0.0000      0.0000      0.0000      0.0000
 40      1.4382      0.2967      1.9437      0.0000      1.6926      0.0000      0.0000      0.0000      0.0000
 41      0.0072      0.7815      1.3597      0.0000      3.2114      3.8634      0.0000      0.0000      1.1184
 42      0.0227      0.5486      2.1741      0.9242      0.0000      0.0000      0.0000      0.0000      0.0000
 43      0.0000      0.3470      0.0000      0.0000      0.0000      0.0000      0.0672      0.0000      2.0916
 44      0.0000      0.5110      0.0000      0.0000      1.3668      0.1767      0.2284      2.5783      0.0000
 45      0.0000      2.8943      0.7111      0.0000      1.9528      2.1147      8.4761      3.9731      9.6359
 46      0.0027      3.7669      6.4140      0.0000      7.7744      2.5116      4.4876      1.7521      4.0906
 47      0.0000      3.1894      0.0000      0.0000      0.0000      2.8190      0.4606      3.0334      0.0000
 48      0.2718      5.8943      5.5584      7.2235      4.6801      0.0000      1.1361      5.3168      2.5437
 49      0.0000      6.2952      0.0000      8.1929      7.6505      7.5206      9.3526     11.0489      6.9495
 50      9.9785      4.7584      8.6916      6.5262      3.7640      8.5987      9.9724      4.4912      5.5012
 51      3.2163      0.3353      1.2816      2.3871      0.0000      1.7062      0.0000      0.0000      0.0000
 52      0.0000      0.1672      0.0000      0.0000      0.2051      0.0000      0.0000      0.0000      0.0000
 53      0.0000      0.2329      0.0000      0.0000      0.0000      0.0000      0.7403      1.2127      0.0000
 54      0.0000      0.9176      0.0000      2.4020      0.0000      0.0000      3.0981      0.0509      2.9613
 55      0.0000      0.2534      0.0000      0.0000      0.0000      0.9122      1.6626      1.2627      1.5873
 56      0.0000      0.3138      0.0000      0.0000      0.1074      0.0000      0.0000      2.2036      1.0754
 57      0.0000      0.2884      0.0000      0.0000      0.7166      0.0000      0.0000      0.9730      0.0000
 58      0.0000      0.2545      0.0000      0.0000      0.3349      0.0000      0.0000      0.0000      1.2808
 59      0.0000      1.2606      0.0000      5.0929      0.8666      0.0000      1.0302      2.7324      0.8004
 60      1.8388      0.6122      1.3943      4.1665      3.3283      0.0000      0.6089      0.0000      0.0000
 61      0.0000      1.7515      1.6999      0.5966      0.0000      1.5260      5.3253      0.0000      0.0000
 62      0.0039      7.7451      9.8380      6.6469      7.6314     11.4331      8.5463      5.5509      2.5874
 63     19.5742     10.1895      7.1538     18.1708     18.0333     12.2478      9.8382      8.8760     18.3180
 64      6.4113      1.8775      6.7865      4.7899      2.1516      0.0000      3.1016      3.7558      2.0717
 65     11.9276      5.1829      6.2645      4.8824      7.0292      6.7272      8.4201      5.0742      4.6071
 66     13.5791      5.3459      9.0220      5.0493      5.5284      7.6097      5.5691      8.4365      9.6136

# j      m_j: min, <> & last-chain-values for 1 ...  7 chains
  1  0.0000E+00  8.7821E-04  1.0573E-03  5.7866E-03  0.0000E+00  0.0000E+00  3.0924E-04  1.9191E-03  0.0000E+00
  2  3.5903E-03  4.6786E-04  1.7203E-03  1.5638E-03  2.8581E-04  0.0000E+00  0.0000E+00  0.0000E+00  7.3200E-04
  3  7.5895E-04  4.4800E-04  1.9247E-03  0.0000E+00  3.3207E-04  0.0000E+00  0.0000E+00  0.0000E+00  2.6951E-03
  4  0.0000E+00  6.0477E-04  0.0000E+00  0.0000E+00  0.0000E+00  0.0000E+00  0.0000E+00  3.9632E-03  0.0000E+00
  5  3.2617E-03  1.1063E-03  2.1982E-03  8.9773E-04  3.1189E-03  6.6807E-04  0.0000E+00  1.2009E-03  3.9336E-03
  6  0.0000E+00  2.4290E-03  0.0000E+00  0.0000E+00  0.0000E+00  0.0000E+00  1.8465E-02  9.7779E-03  0.0000E+00
  7  0.0000E+00  3.6282E-03  1.4582E-03  0.0000E+00  6.3090E-03  0.0000E+00  4.5745E-03  0.0000E+00  0.0000E+00
  8  0.0000E+00  3.5291E-03  0.0000E+00  0.0000E+00  0.0000E+00  0.0000E+00  0.0000E+00  0.0000E+00  0.0000E+00
  9  0.0000E+00  4.8203E-03  0.0000E+00  0.0000E+00  1.7017E-02  1.2749E-02  3.2484E-02  0.0000E+00  8.7163E-03
 10  0.0000E+00  2.8334E-03  0.0000E+00  1.0700E-02  0.0000E+00  1.2320E-03  0.0000E+00  0.0000E+00  0.0000E+00
 11  0.0000E+00  7.5859E-03  1.1503E-02  0.0000E+00  4.5156E-02  4.5140E-03  0.0000E+00  3.2894E-02  0.0000E+00
 12  0.0000E+00  1.8527E-02  0.0000E+00  0.0000E+00  0.0000E+00  0.0000E+00  0.0000E+00  0.0000E+00  0.0000E+00
 13  8.2403E-01  3.8408E-01  7.9003E-01  1.0297E+00  0.0000E+00  4.9096E-01  1.5194E-01  9.6645E-01  3.2446E-01
 14  4.6421E-04  1.1044E+00  1.9094E+00  3.1165E-01  0.0000E+00  0.0000E+00  7.8833E-01  9.1026E-01  1.4385E+00
 15  0.0000E+00  1.3224E+00  0.0000E+00  0.0000E+00  0.0000E+00  0.0000E+00  0.0000E+00  0.0000E+00  0.0000E+00
 16  0.0000E+00  1.7652E+00  0.0000E+00  6.2064E-01  1.3459E+00  2.3351E+00  0.0000E+00  2.9008E+00  2.8307E-01
 17  4.6190E-01  2.7292E+00  2.6339E+00  0.0000E+00  0.0000E+00  0.0000E+00  2.6321E+00  0.0000E+00  0.0000E+00
 18  0.0000E+00  1.2688E-03  1.6762E-04  0.0000E+00  3.8728E-03  0.0000E+00  0.0000E+00  0.0000E+00  7.7231E-04
 19  0.0000E+00  1.4400E-04  0.0000E+00  0.0000E+00  0.0000E+00  0.0000E+00  0.0000E+00  8.5898E-04  0.0000E+00
 20  0.0000E+00  3.0648E-04  0.0000E+00  0.0000E+00  2.6833E-04  0.0000E+00  0.0000E+00  0.0000E+00  0.0000E+00
 21  0.0000E+00  1.5792E-03  1.7789E-04  4.0985E-03  4.2597E-03  2.5046E-03  0.0000E+00  0.0000E+00  0.0000E+00
 22  4.3485E-03  1.7114E-03  7.4643E-03  0.0000E+00  0.0000E+00  0.0000E+00  0.0000E+00  0.0000E+00  2.0054E-03
 23  0.0000E+00  9.9427E-04  0.0000E+00  3.5137E-03  0.0000E+00  3.6128E-03  0.0000E+00  0.0000E+00  0.0000E+00
 24  0.0000E+00  1.2679E-03  0.0000E+00  0.0000E+00  0.0000E+00  0.0000E+00  0.0000E+00  2.5221E-03  1.0102E-02
 25  0.0000E+00  6.5172E-03  0.0000E+00  0.0000E+00  2.2893E-03  3.8761E-02  0.0000E+00  0.0000E+00  8.7727E-03
 26  0.0000E+00  5.4678E-03  0.0000E+00  0.0000E+00  0.0000E+00  2.1087E-02  0.0000E+00  0.0000E+00  0.0000E+00
 27  0.0000E+00  2.1393E-02  0.0000E+00  4.8824E-02  0.0000E+00  0.0000E+00  0.0000E+00  0.0000E+00  1.2068E-03
 28  4.5883E-01  1.0235E-01  1.1613E-01  2.2112E-02  1.0619E-01  1.8966E-01  2.5587E-02  0.0000E+00  0.0000E+00
 29  0.0000E+00  5.6973E-01  0.0000E+00  2.1599E-01  5.5192E-01  7.6751E-01  9.1448E-02  3.5932E-01  1.7174E-01
 30  0.0000E+00  1.0990E+00  0.0000E+00  1.0691E-02  0.0000E+00  0.0000E+00  0.0000E+00  9.6919E-01  1.6663E+00
 31  0.0000E+00  1.6035E+00  0.0000E+00  0.0000E+00  2.6602E+00  0.0000E+00  0.0000E+00  0.0000E+00  8.7466E-01
 32  0.0000E+00  2.0068E+00  0.0000E+00  0.0000E+00  2.0181E+00  0.0000E+00  0.0000E+00  0.0000E+00  9.8909E-01
 33  1.2797E-03  9.8326E-01  4.0403E+00  3.1492E+00  0.0000E+00  4.3536E+00  4.2585E-01  0.0000E+00  0.0000E+00
 34  0.0000E+00  8.7614E-01  0.0000E+00  1.1878E+00  0.0000E+00  0.0000E+00  1.0518E+00  0.0000E+00  0.0000E+00
 35  0.0000E+00  1.0942E-03  0.0000E+00  0.0000E+00  0.0000E+00  4.5132E-03  0.0000E+00  0.0000E+00  0.0000E+00
 36  1.2031E-03  3.6297E-04  9.3601E-04  0.0000E+00  0.0000E+00  0.0000E+00  1.1452E-03  0.0000E+00  0.0000E+00
 37  0.0000E+00  3.3440E-04  0.0000E+00  0.0000E+00  0.0000E+00  0.0000E+00  2.9803E-03  1.7538E-04  0.0000E+00
 38  1.0483E-02  3.7558E-03  5.6469E-03  6.0817E-03  1.1679E-03  4.7415E-03  7.7803E-04  5.2648E-03  2.1260E-03
 39  0.0000E+00  1.9174E-03  0.0000E+00  5.8220E-03  1.1065E-02  0.0000E+00  0.0000E+00  0.0000E+00  0.0000E+00
 40  6.9952E-03  2.2886E-03  1.1973E-02  0.0000E+00  1.2817E-02  0.0000E+00  0.0000E+00  0.0000E+00  0.0000E+00
 41  5.4088E-05  9.3735E-03  1.3025E-02  0.0000E+00  3.7816E-02  3.8928E-02  0.0000E+00  0.0000E+00  1.1795E-02
 42  3.1546E-04  1.2082E-02  3.8236E-02  1.9189E-02  0.0000E+00  0.0000E+00  0.0000E+00  0.0000E+00  0.0000E+00
 43  0.0000E+00  1.1157E-02  0.0000E+00  0.0000E+00  0.0000E+00  0.0000E+00  1.7533E-03  0.0000E+00  5.9128E-02
 44  0.0000E+00  2.8289E-02  0.0000E+00  0.0000E+00  7.4285E-02  8.2154E-03  1.0264E-02  1.2493E-01  0.0000E+00
 45  0.0000E+00  3.1791E-01  6.2378E-02  0.0000E+00  2.1059E-01  1.9512E-01  7.5581E-01  3.8198E-01  9.3060E-01
 46  3.4859E-04  7.6051E-01  1.0342E+00  0.0000E+00  1.5410E+00  4.2598E-01  7.3553E-01  3.0962E-01  7.2616E-01
 47  0.0000E+00  1.3048E+00  0.0000E+00  0.0000E+00  0.0000E+00  9.6883E-01  1.5299E-01  1.0862E+00  0.0000E+00
 48  1.2366E-01  4.2527E+00  3.2027E+00  4.9137E+00  3.3151E+00  0.0000E+00  6.6545E-01  3.3576E+00  1.6137E+00
 49  0.0000E+00  1.0323E+01  0.0000E+00  1.2666E+01  1.2316E+01  1.0360E+01  1.2450E+01  1.5858E+01  1.0020E+01
 50  1.9111E+01  1.4452E+01  2.1081E+01  1.8687E+01  1.1223E+01  2.1938E+01  2.4588E+01  1.1939E+01  1.4690E+01
 51  3.3766E-03  5.5826E-04  1.7039E-03  3.7469E-03  0.0000E+00  2.3862E-03  0.0000E+00  0.0000E+00  0.0000E+00
 52  0.0000E+00  1.4263E-04  0.0000E+00  0.0000E+00  1.7180E-04  0.0000E+00  0.0000E+00  0.0000E+00  0.0000E+00
 53  0.0000E+00  2.9933E-04  0.0000E+00  0.0000E+00  0.0000E+00  0.0000E+00  7.7239E-04  1.3641E-03  0.0000E+00
 54  0.0000E+00  2.4161E-03  0.0000E+00  5.9633E-03  0.0000E+00  0.0000E+00  6.6229E-03  1.1734E-04  6.8564E-03
 55  0.0000E+00  1.0276E-03  0.0000E+00  0.0000E+00  0.0000E+00  3.1070E-03  5.4723E-03  4.4811E-03  5.6587E-03
 56  0.0000E+00  2.5183E-03  0.0000E+00  0.0000E+00  8.4584E-04  0.0000E+00  0.0000E+00  1.5478E-02  7.5877E-03
 57  0.0000E+00  3.0716E-03  0.0000E+00  0.0000E+00  7.4934E-03  0.0000E+00  0.0000E+00  9.0714E-03  0.0000E+00
 58  0.0000E+00  4.5857E-03  0.0000E+00  0.0000E+00  5.9240E-03  0.0000E+00  0.0000E+00  0.0000E+00  2.0288E-02
 59  0.0000E+00  4.8875E-02  0.0000E+00  1.8616E-01  3.2985E-02  0.0000E+00  3.2424E-02  9.2727E-02  2.7285E-02
 60  8.3503E-02  4.4088E-02  8.0188E-02  2.8288E-01  2.3531E-01  0.0000E+00  3.5596E-02  0.0000E+00  0.0000E+00
 61  0.0000E+00  2.7559E-01  2.1361E-01  8.8506E-02  0.0000E+00  2.0170E-01  6.8023E-01  0.0000E+00  0.0000E+00
 62  7.0907E-04  2.2220E+00  2.2540E+00  1.7979E+00  2.1494E+00  2.7554E+00  1.9905E+00  1.3939E+00  6.5267E-01
 63  7.0454E+00  5.8159E+00  3.2609E+00  9.7784E+00  1.0105E+01  5.8727E+00  4.5588E+00  4.4344E+00  9.1932E+00
 64  6.3827E+00  2.9641E+00  8.5565E+00  7.1295E+00  3.3349E+00  0.0000E+00  3.9752E+00  5.1900E+00  2.8757E+00
 65  2.5101E+01  1.7297E+01  1.6696E+01  1.5362E+01  2.3031E+01  1.8860E+01  2.2812E+01  1.4822E+01  1.3519E+01
 66  4.0371E+01  2.5204E+01  3.3969E+01  2.2444E+01  2.5589E+01  3.0138E+01  2.1315E+01  3.4814E+01  3.9852E+01

# AV, chi2 & Mass for <> & i_chain = 1 ...  7 solutions
AV      -0.0914      0.0515      0.0050      0.0415      0.0492      0.0334      0.0265      0.0353      0.0313
chi2 4.4571E-01  4.5354E-01  4.5030E-01  4.5050E-01  4.5208E-01  4.5126E-01  4.5099E-01  4.5113E-01  4.5083E-01
Mass 3.0398E-13  2.3223E-13  2.7319E-13  2.4304E-13  2.3581E-13  2.6980E-13  2.7660E-13  2.5962E-13  2.5706E-13
  15.26                                  [v0_min (km/s) before EX0s...]
 296.44                                  [vd_min (km/s) before EX0s...]


## Synthetic spectrum (Best Model) ##l_obs f_obs f_syn wei
 3478    [Nl_obs]
 3741.00    0.65519   0.54971    0.000
 3742.00    0.70923   0.55049    0.000
 3743.00    0.75183   0.54571    0.000
 3744.00    0.75419   0.53719    0.000
 3745.00    0.70866   0.52429    3.399
 3746.00    0.64085   0.51177    3.505
 3747.00    0.59971   0.50365    3.678
 3748.00    0.63660   0.49902    3.705
 3749.00    0.72902   0.50053    3.553
 3750.00    0.76769   0.51035    3.493
 3751.00    0.69845   0.52518    3.614
 3752.00    0.57259   0.54277    3.737
 3753.00    0.46241   0.56208    3.720
 3754.00    0.41665   0.57978    3.627
 3755.00    0.43613   0.59351    3.545
 3756.00    0.48002   0.60284    3.510
 3757.00    0.51167   0.60726    3.527
 3758.00    0.52162   0.60844    3.573
 3759.00    0.54720   0.60783    3.609
 3760.00    0.63188   0.60485    3.610
 3761.00    0.72239   0.60212    3.615
 3762.00    0.72776   0.60048    3.682
 3763.00    0.68379   0.59707    3.755
 3764.00    0.68870   0.59430    3.727
 3765.00    0.73431   0.59361    3.637
 3766.00    0.75563   0.59142    3.593
 3767.00    0.75036   0.59047    3.615
 3768.00    0.75309   0.59402    3.668
 3769.00    0.77743   0.59858    3.708
 3770.00    0.82017   0.60497    3.703
 3771.00    0.87424   0.61630    3.647
 3772.00    0.92201   0.62972    3.570
 3773.00    0.93192   0.64393    3.521
 3774.00    0.90400   0.66016    3.512
 3775.00    0.89758   0.67693    3.486
 3776.00    0.93155   0.69338    3.429
 3777.00    0.92692   0.70908    3.424
 3778.00    0.84826   0.72299    3.514
 3779.00    0.77703   0.73510    3.616
 3780.00    0.77217   0.74425    3.643
 3781.00    0.80054   0.74922    3.595
 3782.00    0.80939   0.74957    3.529
 3783.00    0.77480   0.74516    3.507
 3784.00    0.74164   0.73661    3.526
 3785.00    0.79488   0.72322    3.521
 3786.00    0.89517   0.70645    3.479
 3787.00    0.89243   0.68929    3.453
 3788.00    0.76662   0.67087    3.467
 3789.00    0.63628   0.65169    3.500
 3790.00    0.56171   0.63429    3.523
 3791.00    0.52384   0.61741    3.522
 3792.00    0.51081   0.60011    3.509
 3793.00    0.52831   0.58430    3.514
 3794.00    0.57588   0.56963    3.567
 3795.00    0.64142   0.55663    3.666
 3796.00    0.70142   0.54807    3.713
 3797.00    0.73652   0.54417    3.641
 3798.00    0.75477   0.54560    3.619
 3799.00    0.77605   0.55415    3.818
 3800.00    0.80555   0.56810    4.076
 3801.00    0.82788   0.58540    4.097
 3802.00    0.80804   0.60576    3.978
 3803.00    0.73357   0.62639    3.954
 3804.00    0.65230   0.64489    4.036
 3805.00    0.61332   0.66161    4.141
 3806.00    0.61329   0.67482    4.204
 3807.00    0.62126   0.68412    4.174
 3808.00    0.60550   0.69089    4.044
 3809.00    0.55988   0.69343    4.041
 3810.00    0.50929   0.69199    4.637
 3811.00    0.44168   0.68825    5.310
 3812.00    0.29432   0.68039    3.713
 3813.00    0.09188   0.66932    2.236
 3814.00   -0.02001   0.65774    0.000
 3815.00    0.05362   0.64440    1.852
 3816.00    0.29818   0.63038    1.975
 3817.00    0.66649   0.61806    1.835
 3818.00    1.08461   0.60627    1.554
 3819.00    1.37062   0.59505    1.446
 3820.00    1.31565   0.58527    1.778
 3821.00    0.98552   0.57613    3.008
 3822.00    0.65887   0.56726    4.696
 3823.00    0.45812   0.55838    4.379
 3824.00    0.33786   0.54943    4.029
 3825.00    0.26346   0.54023    4.322
 3826.00    0.23505   0.53026    4.560
 3827.00    0.25712   0.52007    4.488
 3828.00    0.32191   0.50914    4.430
 3829.00    0.39387   0.49734    4.447
 3830.00    0.43493   0.48591    4.433
 3831.00    0.44207   0.47399    4.422
 3832.00    0.42675   0.46266    4.489
 3833.00    0.38546   0.45413    4.596
 3834.00    0.32629   0.44742    4.652
 3835.00    0.29589   0.44441    4.636
 3836.00    0.32757   0.44703    4.598
 3837.00    0.39547   0.45319    4.634
 3838.00    0.45754   0.46431    4.760
 3839.00    0.49296   0.48088    4.842
 3840.00    0.49747   0.49940    4.830
 3841.00    0.47907   0.52070    4.902
 3842.00    0.46372   0.54380    5.125
 3843.00    0.48813   0.56488    5.260
 3844.00    0.54364   0.58495    5.187
 3845.00    0.56886   0.60299    5.126
 3846.00    0.55234   0.61641    5.175
 3847.00    0.55390   0.62704    0.000
 3848.00    0.59904   0.63534    0.000
 3849.00    0.65229   0.63976    0.000
 3850.00    0.67454   0.64188    0.000
 3851.00    0.65205   0.64327    0.000
 3852.00    0.61916   0.64211    0.000
 3853.00    0.62982   0.63907    0.000
 3854.00    0.67027   0.63643    0.000
 3855.00    0.67975   0.63236    0.000
 3856.00    0.64584   0.62774    0.000
 3857.00    0.60355   0.62524    0.000
 3858.00    0.59099   0.62355    0.000
 3859.00    0.62475   0.62352    0.000
 3860.00    0.67592   0.62644    0.000
 3861.00    0.70344   0.63058    0.000
 3862.00    0.70670   0.63566    0.000
 3863.00    0.70709   0.64121    0.000
 3864.00    0.71556   0.64538    0.000
 3865.00    0.73639   0.64788    0.000
 3866.00    0.77484   0.64855    0.000
 3867.00    0.82862   0.64691    0.000
 3868.00    0.87898   0.64401    0.000
 3869.00    0.89166   0.64026    0.000
 3870.00    0.82721   0.63632    0.000
 3871.00    0.70784   0.63340    0.000
 3872.00    0.64439   0.63064    0.000
 3873.00    0.70227   0.62881    0.000
 3874.00    0.82861   0.62772    0.000
 3875.00    0.92884   0.62506    0.000
 3876.00    0.92428   0.62211    0.000
 3877.00    0.81042   0.61855    0.000
 3878.00    0.66319   0.61244    0.000
 3879.00    0.55545   0.60540    0.000
 3880.00    0.51941   0.59797    0.000
 3881.00    0.54017   0.58959    4.819
 3882.00    0.56904   0.58024    4.684
 3883.00    0.56897   0.57095    4.660
 3884.00    0.53261   0.56308    4.693
 3885.00    0.49058   0.55562    4.698
 3886.00    0.48586   0.55052    4.629
 3887.00    0.51201   0.55004    4.558
 3888.00    0.52513   0.55304    4.588
 3889.00    0.49639   0.56078    4.681
 3890.00    0.43043   0.57374    4.727
 3891.00    0.37583   0.58957    4.746
 3892.00    0.38168   0.60707    4.805
 3893.00    0.43354   0.62569    4.831
 3894.00    0.50045   0.64346    4.735
 3895.00    0.60347   0.65897    4.616
 3896.00    0.75642   0.67240    4.565
 3897.00    0.89576   0.68350    4.486
 3898.00    0.95374   0.69297    4.341
 3899.00    0.93487   0.69997    4.321
 3900.00    0.88692   0.70524    4.492
 3901.00    0.86346   0.71150    4.545
 3902.00    0.87386   0.71591    4.329
 3903.00    0.86315   0.72054    4.216
 3904.00    0.81236   0.72775    4.374
 3905.00    0.78449   0.73457    4.524
 3906.00    0.80747   0.74383    4.455
 3907.00    0.82434   0.75481    4.360
 3908.00    0.78308   0.76545    4.396
 3909.00    0.68328   0.77754    4.518
 3910.00    0.57793   0.78760    4.600
 3911.00    0.54573   0.79521    4.528
 3912.00    0.59360   0.80109    4.398
 3913.00    0.65481   0.80199    4.413
 3914.00    0.69511   0.79953    4.537
 3915.00    0.72742   0.79408    4.517
 3916.00    0.75752   0.78437    4.303
 3917.00    0.78141   0.77281    4.050
 3918.00    0.81450   0.75976    3.795
 3919.00    0.87416   0.74522    3.522
 3920.00    0.93160   0.73061    3.314
 3921.00    0.93435   0.71633    3.249
 3922.00    0.86375   0.70135    3.301
 3923.00    0.74569   0.68582    3.409
 3924.00    0.64714   0.66979    3.594
 3925.00    0.61254   0.65106    3.910
 3926.00    0.58701   0.63047    4.333
 3927.00    0.51066   0.60830    4.724
 3928.00    0.43204   0.58403    4.910
 3929.00    0.41826   0.56014    4.865
 3930.00    0.45624   0.53774    4.797
 3931.00    0.50218   0.51831    4.844
 3932.00    0.53332   0.50429    4.891
 3933.00    0.54488   0.49664    4.828
 3934.00    0.54166   0.49597    4.756
 3935.00    0.51928   0.50235    4.759
 3936.00    0.45936   0.51545    4.788
 3937.00    0.37286   0.53343    4.781
 3938.00    0.31226   0.55415    4.733
 3939.00    0.30454   0.57731    4.677
 3940.00    0.32982   0.60050    4.660
 3941.00    0.37860   0.62174    4.679
 3942.00    0.46623   0.64287    4.682
 3943.00    0.59060   0.66286    4.656
 3944.00    0.71982   0.68058    4.641
 3945.00    0.80659   0.69806    4.661
 3946.00    0.81523   0.71453    4.708
 3947.00    0.78067   0.72989    4.731
 3948.00    0.77882   0.74490    4.677
 3949.00    0.81627   0.75651    4.574
 3950.00    0.84299   0.76585    4.494
 3951.00    0.83607   0.77460    4.450
 3952.00    0.80689   0.77829    4.413
 3953.00    0.77978   0.77792    4.372
 3954.00    0.76635   0.77535    4.346
 3955.00    0.73439   0.76761    4.386
 3956.00    0.65322   0.75608    4.528
 3957.00    0.55907   0.74021    4.718
 3958.00    0.50568   0.71826    4.858
 3959.00    0.49662   0.69366    4.911
 3960.00    0.50835   0.66544    0.000
 3961.00    0.52176   0.63236    0.000
 3962.00    0.51571   0.59820    0.000
 3963.00    0.46375   0.56318    0.000
 3964.00    0.37857   0.52828    0.000
 3965.00    0.33185   0.49655    0.000
 3966.00    0.34414   0.46853    0.000
 3967.00    0.33235   0.44682    0.000
 3968.00    0.25853   0.43391    0.000
 3969.00    0.19555   0.42986    0.000
 3970.00    0.19126   0.43539    0.000
 3971.00    0.21547   0.45118    0.000
 3972.00    0.25040   0.47619    0.000
 3973.00    0.31659   0.50791    0.000
 3974.00    0.40968   0.54513    0.000
 3975.00    0.49732   0.58551    0.000
 3976.00    0.59224   0.62615    0.000
 3977.00    0.74340   0.66627    0.000
 3978.00    0.93924   0.70285    0.000
 3979.00    1.10442   0.73536    0.000
 3980.00    1.16449   0.76467    0.000
 3981.00    1.08634   0.78877    4.552
 3982.00    0.92629   0.80994    4.759
 3983.00    0.79062   0.82770    4.782
 3984.00    0.74225   0.84220    4.696
 3985.00    0.78724   0.85725    4.716
 3986.00    0.88378   0.86901    4.808
 3987.00    0.96962   0.87912    4.836
 3988.00    0.99980   0.89024    4.848
 3989.00    0.96337   0.89832    4.950
 3990.00    0.89451   0.90591    5.089
 3991.00    0.83746   0.91197    5.157
 3992.00    0.80808   0.91555    5.151
 3993.00    0.80053   0.92007    5.124
 3994.00    0.80027   0.92266    5.094
 3995.00    0.80976   0.92430    5.046
 3996.00    0.85953   0.92846    4.955
 3997.00    0.94187   0.93239    4.856
 3998.00    0.98165   0.93555    4.857
 3999.00    0.95179   0.93982    4.957
 4000.00    0.92244   0.94412    4.979
 4001.00    0.93387   0.94675    4.888
 4002.00    0.94806   0.94700    4.887
 4003.00    0.94947   0.94681    5.025
 4004.00    0.97491   0.94740    5.099
 4005.00    1.03982   0.94718    5.008
 4006.00    1.11964   0.94713    4.870
 4007.00    1.19106   0.94937    4.767
 4008.00    1.23744   0.95421    4.708
 4009.00    1.22172   0.96071    4.731
 4010.00    1.11664   0.96814    4.880
 4011.00    1.00000   0.97604    5.052
 4012.00    0.99834   0.98538    5.047
 4013.00    1.10940   0.99433    4.900
 4014.00    1.22839   0.99987    4.804
 4015.00    1.27768   1.00556    4.807
 4016.00    1.23434   1.01113    4.861
 4017.00    1.13149   1.01328    4.947
 4018.00    1.03207   1.01449    5.047
 4019.00    0.98857   1.01469    5.078
 4020.00    1.01032   1.01371    4.998
 4021.00    1.03465   1.01162    4.937
 4022.00    0.99211   1.00776    4.992
 4023.00    0.88144   1.00398    5.035
 4024.00    0.75876   0.99964    4.944
 4025.00    0.71015   0.99444    4.838
 4026.00    0.76890   0.98777    4.832
 4027.00    0.86228   0.97803    4.862
 4028.00    0.92056   0.96901    4.835
 4029.00    0.94907   0.95995    4.744
 4030.00    0.95698   0.94921    4.671
 4031.00    0.92440   0.94208    4.735
 4032.00    0.88783   0.93773    4.887
 4033.00    0.95206   0.93716    4.844
 4034.00    1.11904   0.94253    4.599
 4035.00    1.25461   0.94913    4.478
 4036.00    1.29196   0.95830    4.538
 4037.00    1.28056   0.96863    4.557
 4038.00    1.25360   0.97560    4.477
 4039.00    1.19713   0.98065    4.462
 4040.00    1.10671   0.98053    4.547
 4041.00    0.99885   0.97439    4.628
 4042.00    0.89297   0.96527    4.718
 4043.00    0.81469   0.95440    4.917
 4044.00    0.81314   0.94631    5.119
 4045.00    0.92203   0.93977    5.078
 4046.00    1.07775   0.93507    4.875
 4047.00    1.17249   0.93748    4.765
 4048.00    1.17323   0.94324    4.818
 4049.00    1.11627   0.94969    4.974
 4050.00    1.06467   0.95728    5.106
 4051.00    1.06102   0.96278    5.130
 4052.00    1.07827   0.96667    5.158
 4053.00    1.06939   0.96886    5.250
 4054.00    1.02963   0.96509    5.148
 4055.00    0.97963   0.95869    4.915
 4056.00    0.94065   0.95292    5.356
 4057.00    0.92169   0.94513    7.533
 4058.00    0.91245   0.93738   11.526
 4059.00    0.90083   0.92942   12.321
 4060.00    0.88570   0.91997   11.076
 4061.00    0.87126   0.91394   11.245
 4062.00    0.86509   0.91097   11.539
 4063.00    0.89114   0.90634   10.911
 4064.00    0.98129   0.90355   10.536
 4065.00    1.09899   0.90511    9.981
 4066.00    1.13739   0.90832    7.788
 4067.00    1.06923   0.91213    5.797
 4068.00    0.97505   0.91351    5.139
 4069.00    0.90890   0.91535    5.376
 4070.00    0.86763   0.92071    5.732
 4071.00    0.85537   0.92212    5.723
 4072.00    0.88647   0.92037    5.544
 4073.00    0.93626   0.91909    5.414
 4074.00    0.95248   0.91758    5.378
 4075.00    0.91461   0.91859    5.411
 4076.00    0.84202   0.91992    5.455
 4077.00    0.77967   0.92237    5.435
 4078.00    0.76965   0.92988    5.327
 4079.00    0.80749   0.93803    5.246
 4080.00    0.85424   0.94681    5.307
 4081.00    0.86902   0.95781    5.437
 4082.00    0.83835   0.96795    5.485
 4083.00    0.80494   0.97827    5.441
 4084.00    0.81584   0.98830    5.378
 4085.00    0.86031   0.99639    5.329
 4086.00    0.90088   1.00308    5.310
 4087.00    0.91362   1.00712    5.345
 4088.00    0.90131   1.00877    5.411
 4089.00    0.89713   1.00715    5.382
 4090.00    0.92764   1.00219    5.215
 4091.00    0.98416   0.99399    5.054
 4092.00    1.02635   0.97936    0.000
 4093.00    0.99871   0.96141    0.000
 4094.00    0.90389   0.94111    0.000
 4095.00    0.82117   0.91717    0.000
 4096.00    0.78481   0.89314    0.000
 4097.00    0.74987   0.86814    0.000
 4098.00    0.71764   0.84399    0.000
 4099.00    0.75530   0.82590    0.000
 4100.00    0.85880   0.81253    0.000
 4101.00    0.93952   0.80364    0.000
 4102.00    0.95396   0.80236    0.000
 4103.00    0.92946   0.80775    0.000
 4104.00    0.91175   0.81798    0.000
 4105.00    0.93218   0.83288    0.000
 4106.00    0.96832   0.84914    0.000
 4107.00    0.97433   0.86584    0.000
 4108.00    0.96373   0.88351    0.000
 4109.00    0.98577   0.89869    0.000
 4110.00    1.05005   0.91218    0.000
 4111.00    1.13019   0.92445    0.000
 4112.00    1.19256   0.93407    0.000
 4113.00    1.20774   0.94293    4.945
 4114.00    1.16113   0.95034    4.967
 4115.00    1.06865   0.95502    5.109
 4116.00    0.98978   0.95855    5.264
 4117.00    0.97753   0.96171    5.289
 4118.00    1.02657   0.96295    5.193
 4119.00    1.09443   0.96324    5.066
 4120.00    1.13117   0.96315    4.977
 4121.00    1.12395   0.96307    4.960
 4122.00    1.11929   0.96423    5.020
 4123.00    1.14074   0.96351    5.134
 4124.00    1.14439   0.96181    5.240
 4125.00    1.10416   0.96031    5.288
 4126.00    1.05438   0.95726    5.282
 4127.00    1.03270   0.95309    5.284
 4128.00    1.05058   0.94738    5.373
 4129.00    1.10282   0.94051    5.484
 4130.00    1.17117   0.93594    5.412
 4131.00    1.21952   0.93236    5.211
 4132.00    1.20439   0.93039    5.160
 4133.00    1.11530   0.93249    5.294
 4134.00    0.98386   0.93433    5.416
 4135.00    0.86880   0.93914    5.453
 4136.00    0.82557   0.94521    5.508
 4137.00    0.84429   0.94864    5.609
 4138.00    0.87163   0.95187    5.697
 4139.00    0.89178   0.95050    5.750
 4140.00    0.91928   0.94598    5.795
 4141.00    0.95144   0.94143    5.849
 4142.00    0.96960   0.93546    5.888
 4143.00    0.95708   0.92907    5.832
 4144.00    0.91635   0.92352    5.664
 4145.00    0.88640   0.92004    5.562
 4146.00    0.90495   0.91860    5.655
 4147.00    0.96076   0.91912    5.789
 4148.00    1.02140   0.92029    5.765
 4149.00    1.06812   0.92074    5.671
 4150.00    1.08307   0.92235    5.675
 4151.00    1.03905   0.92312    5.805
 4152.00    0.94392   0.92359    5.983
 4153.00    0.86865   0.92535    6.058
 4154.00    0.87902   0.92695    5.966
 4155.00    0.98346   0.93129    5.837
 4156.00    1.12367   0.93667    5.777
 4157.00    1.19200   0.94335    5.778
 4158.00    1.14341   0.95144    5.819
 4159.00    1.03867   0.95952    5.901
 4160.00    0.96314   0.96821    5.980
 4161.00    0.97300   0.97439    5.958
 4162.00    1.04219   0.97891    5.843
 4163.00    1.07685   0.98132    5.757
 4164.00    1.03623   0.98011    5.786
 4165.00    0.95553   0.97748    5.943
 4166.00    0.88459   0.97248    6.147
 4167.00    0.86143   0.96503    6.252
 4168.00    0.89505   0.95698    6.226
 4169.00    0.96591   0.94683    6.152
 4170.00    1.03770   0.93717    6.065
 4171.00    1.07220   0.92947    5.971
 4172.00    1.05247   0.92101    5.939
 4173.00    0.98909   0.91424    6.036
 4174.00    0.92132   0.90922    6.194
 4175.00    0.88802   0.90641    6.264
 4176.00    0.88590   0.90724    6.191
 4177.00    0.88289   0.90902    6.045
 4178.00    0.84590   0.91179    5.970
 4179.00    0.77912   0.91583    6.032
 4180.00    0.75458   0.92124    6.084
 4181.00    0.82434   0.92708    5.967
 4182.00    0.94069   0.93248    5.723
 4183.00    1.03209   0.93685    5.496
 4184.00    1.07203   0.93979    5.400
 4185.00    1.06661   0.94437    5.431
 4186.00    1.03851   0.94820    5.442
 4187.00    1.00711   0.95053    5.380
 4188.00    0.97736   0.95259    5.395
 4189.00    0.94618   0.95366    5.550
 4190.00    0.90860   0.95573    5.713
 4191.00    0.86793   0.95598    5.787
 4192.00    0.83644   0.95355    5.837
 4193.00    0.81786   0.94941    5.921
 4194.00    0.80528   0.94385    6.009
 4195.00    0.79927   0.93740    5.995
 4196.00    0.80910   0.92919    5.798
 4197.00    0.83584   0.92153    5.597
 4198.00    0.87437   0.91501    5.635
 4199.00    0.93263   0.91087    5.776
 4200.00    1.01822   0.91100    5.654
 4201.00    1.09698   0.91355    5.412
 4202.00    1.11510   0.91956    5.424
 4203.00    1.06231   0.92893    5.622
 4204.00    0.97092   0.93908    5.703
 4205.00    0.89052   0.95128    5.706
 4206.00    0.86387   0.96294    5.822
 4207.00    0.89763   0.97213    5.879
 4208.00    0.96341   0.98099    5.661
 4209.00    1.00870   0.98724    5.446
 4210.00    1.00737   0.99032    5.459
 4211.00    1.00734   0.99210    5.437
 4212.00    1.03825   0.99185    5.210
 4213.00    1.02871   0.99205    5.181
 4214.00    0.94281   0.99389    5.570
 4215.00    0.88320   0.99418    5.843
 4216.00    0.91360   0.99493   -2.000
 4217.00    0.94303   0.99553   -2.000
 4218.00    0.89555   0.99475   -2.000
 4219.00    0.81134   0.99222   -2.000
 4220.00    0.75107   0.98487   -2.000
 4221.00    0.74500   0.97285   -2.000
 4222.00    0.83054   0.95708   -2.000
 4223.00    1.04512   0.93974   -2.000
 4224.00    1.31388   0.92210   -2.000
 4225.00    1.45706   0.90770   -2.000
 4226.00    1.39332   0.89771   -2.000
 4227.00    1.18619   0.89210   -2.000
 4228.00    0.94460   0.89359   -2.000
 4229.00    0.77057   0.90019   -2.000
 4230.00    0.70943   0.91100   -2.000
 4231.00    0.74163   0.92450   -2.000
 4232.00    0.79853   0.93646    5.252
 4233.00    0.81162   0.94680    5.439
 4234.00    0.80209   0.95676    5.748
 4235.00    0.83326   0.96458    5.797
 4236.00    0.89434   0.97248    5.638
 4237.00    0.93184   0.98079    5.575
 4238.00    0.93092   0.98838    5.633
 4239.00    0.91585   0.99806    5.679
 4240.00    0.93027   1.00753    5.651
 4241.00    0.99512   1.01723    5.584
 4242.00    1.06778   1.02541    5.584
 4243.00    1.10641   1.03057    5.688
 4244.00    1.13448   1.03322    5.754
 4245.00    1.17989   1.03092    5.692
 4246.00    1.22033   1.02645    5.672
 4247.00    1.22808   1.01836    5.809
 4248.00    1.20577   1.00748    5.965
 4249.00    1.16700   0.99701    6.020
 4250.00    1.12253   0.98562    6.077
 4251.00    1.08665   0.97680    6.195
 4252.00    1.07691   0.97050    6.250
 4253.00    1.09200   0.96627    6.178
 4254.00    1.10691   0.96577    6.088
 4255.00    1.10141   0.96528    6.058
 4256.00    1.07020   0.96617    6.072
 4257.00    1.01196   0.97017    6.114
 4258.00    0.93302   0.97580    6.181
 4259.00    0.87286   0.98384    6.233
 4260.00    0.88458   0.99092    6.208
 4261.00    0.95783   0.99773    6.119
 4262.00    1.03161   1.00562    6.037
 4263.00    1.07982   1.01287    5.991
 4264.00    1.10712   1.01803    5.977
 4265.00    1.09517   1.01860    6.003
 4266.00    1.02211   1.01337    6.085
 4267.00    0.91829   1.00329    6.203
 4268.00    0.84005   0.99028    6.293
 4269.00    0.81173   0.97420    6.254
 4270.00    0.82913   0.95850    6.066
 4271.00    0.87710   0.94430    5.907
 4272.00    0.92572   0.93337    5.921
 4273.00    0.92711   0.92897    6.029
 4274.00    0.86832   0.92920    6.094
 4275.00    0.81774   0.93539    6.122
 4276.00    0.82641   0.94529    6.156
 4277.00    0.84501   0.95529    6.152
 4278.00    0.82700   0.96767    6.110
 4279.00    0.80720   0.97836    6.151
 4280.00    0.82942   0.98500    6.273
 4281.00    0.89365   0.98922    6.243
 4282.00    0.96875   0.98779    6.067
 4283.00    1.00951   0.98505    6.115
 4284.00    0.99447   0.98011    6.339
 4285.00    0.93958   0.97150    6.146
 4286.00    0.87063   0.96268    5.891
 4287.00    0.80933   0.95249    6.876
 4288.00    0.77087   0.94414   10.481
 4289.00    0.76505   0.93654   12.476
 4290.00    0.80279   0.93013   12.476
 4291.00    0.88897   0.92380   10.816
 4292.00    0.99591   0.91784    9.869
 4293.00    1.06969   0.91379    9.536
 4294.00    1.06622   0.90697    9.493
 4295.00    0.97726   0.89897    9.917
 4296.00    0.86355   0.88703   11.299
 4297.00    0.80428   0.87286   12.476
 4298.00    0.79068   0.85968   12.476
 4299.00    0.77020   0.84411    8.982
 4300.00    0.75047   0.82878    6.462
 4301.00    0.76307   0.81459    6.029
 4302.00    0.78970   0.80169    6.439
 4303.00    0.80071   0.79301    6.569
 4304.00    0.81235   0.78672    6.376
 4305.00    0.83958   0.78244    6.349
 4306.00    0.84306   0.78366    6.459
 4307.00    0.79080   0.78835    6.509
 4308.00    0.71736   0.79829    6.508
 4309.00    0.68519   0.81380    6.544
 4310.00    0.74167   0.83422    6.631
 4311.00    0.87133   0.86218    6.706
 4312.00    0.98161   0.89398    6.652
 4313.00    1.01634   0.92866    6.463
 4314.00    1.01045   0.96307    6.295
 4315.00    0.99547   0.99521    6.277
 4316.00    0.95992   1.02368    6.452
 4317.00    0.91424   1.04615    6.759
 4318.00    0.90436   1.06129    7.003
 4319.00    0.93959   1.06712    6.999
 4320.00    0.98033   1.06341    6.735
 4321.00    0.99963   1.05337    6.429
 4322.00    0.99996   1.04171    6.330
 4323.00    0.99561   1.02826    6.437
 4324.00    1.00185   1.01784    6.566
 4325.00    1.02191   1.00915    6.643
 4326.00    1.04744   1.00490    6.711
 4327.00    1.06768   1.00753    6.705
 4328.00    1.07764   1.01426    6.549
 4329.00    1.08907   1.02628    6.409
 4330.00    1.11603   1.03742    0.000
 4331.00    1.14768   1.04480    0.000
 4332.00    1.15991   1.04621    0.000
 4333.00    1.13971   1.04216    0.000
 4334.00    1.09133   1.03359    0.000
 4335.00    1.03836   1.01869    0.000
 4336.00    1.00924   1.00040    0.000
 4337.00    1.01937   0.98032    0.000
 4338.00    1.05781   0.96124    0.000
 4339.00    1.08155   0.94471    0.000
 4340.00    1.06381   0.93440    0.000
 4341.00    1.02985   0.93216    0.000
 4342.00    1.01162   0.93647    0.000
 4343.00    1.01381   0.94762    0.000
 4344.00    1.02660   0.96424    0.000
 4345.00    1.03910   0.98224    0.000
 4346.00    1.06021   0.99801    0.000
 4347.00    1.11606   1.01320    0.000
 4348.00    1.18384   1.02627    0.000
 4349.00    1.18740   1.03584    0.000
 4350.00    1.11178   1.04313    0.000
 4351.00    1.02371   1.04859    6.570
 4352.00    0.96962   1.05279    6.583
 4353.00    0.94749   1.05568    6.642
 4354.00    0.93880   1.06009    6.720
 4355.00    0.93000   1.06894    6.735
 4356.00    0.94047   1.07991    6.631
 4357.00    1.00173   1.09083    6.425
 4358.00    1.09340   1.10212    6.203
 4359.00    1.16137   1.11432    6.063
 4360.00    1.18456   1.12595    6.046
 4361.00    1.17482   1.13551    6.146
 4362.00    1.15201   1.14391    6.291
 4363.00    1.13585   1.15040    6.377
 4364.00    1.13994   1.15428    6.330
 4365.00    1.16459   1.15389    6.154
 4366.00    1.19047   1.15125    5.937
 4367.00    1.20355   1.14668    5.792
 4368.00    1.22139   1.13850    5.809
 4369.00    1.25679   1.12808    5.958
 4370.00    1.28209   1.11677    5.989
 4371.00    1.26555   1.10723    5.780
 4372.00    1.20500   1.09820    5.611
 4373.00    1.11926   1.08913    5.644
 4374.00    1.03730   1.08078    5.688
 4375.00    0.98264   1.07189    5.614
 4376.00    0.96458   1.06293    5.577
 4377.00    0.98417   1.05317    5.650
 4378.00    1.03730   1.04168    5.686
 4379.00    1.11056   1.02968    5.627
 4380.00    1.18125   1.01600    5.613
 4381.00    1.22649   1.00189    5.688
 4382.00    1.22934   0.98752    5.738
 4383.00    1.18602   0.97515    5.733
 4384.00    1.10994   0.96676    5.774
 4385.00    1.03518   0.96127    5.917
 4386.00    1.00511   0.96263    6.119
 4387.00    1.03829   0.97067    6.248
 4388.00    1.11770   0.98300    6.183
 4389.00    1.18967   0.99629    6.055
 4390.00    1.19838   1.00949    6.075
 4391.00    1.15552   1.02500    6.179
 4392.00    1.11878   1.04056    6.156
 4393.00    1.12627   1.05461    6.046
 4394.00    1.17762   1.06742    6.004
 4395.00    1.22645   1.07652    5.995
 4396.00    1.22522   1.08284    5.927
 4397.00    1.18518   1.08698    5.863
 4398.00    1.14333   1.08768    5.888
 4399.00    1.11424   1.08458    5.941
 4400.00    1.09498   1.07707    5.958
 4401.00    1.07716   1.06860    6.018
 4402.00    1.06087   1.05895    6.156
 4403.00    1.06242   1.04937    6.188
 4404.00    1.08502   1.04414    6.059
 4405.00    1.10038   1.04137    6.050
 4406.00    1.08587   1.04028    6.302
 4407.00    1.04863   1.04396    6.554
 4408.00    1.01245   1.05349    6.592
 4409.00    1.00487   1.06399    6.582
 4410.00    1.03627   1.07346    6.609
 4411.00    1.09295   1.08485    6.514
 4412.00    1.15322   1.09611    6.314
 4413.00    1.19832   1.10492    6.244
 4414.00    1.22485   1.11181    6.358
 4415.00    1.24192   1.11722    6.494
 4416.00    1.24646   1.12077    6.533
 4417.00    1.22539   1.12217    6.495
 4418.00    1.18512   1.12630    6.470
 4419.00    1.15128   1.13134    6.526
 4420.00    1.14618   1.13434    6.591
 4421.00    1.17576   1.13703    6.543
 4422.00    1.21557   1.13774    6.490
 4423.00    1.23375   1.13745    6.606
 4424.00    1.23783   1.13614    6.750
 4425.00    1.24890   1.13386    6.670
 4426.00    1.24806   1.13355    6.529
 4427.00    1.20391   1.13187    6.603
 4428.00    1.12250   1.12902    6.847
 4429.00    1.03617   1.12594    7.018
 4430.00    0.98024   1.12230    6.942
 4431.00    0.97546   1.12035    6.670
 4432.00    1.01364   1.11783    6.480
 4433.00    1.07080   1.11727    6.522
 4434.00    1.12273   1.11947    6.648
 4435.00    1.16254   1.12072    6.662
 4436.00    1.20844   1.12293    6.561
 4437.00    1.26495   1.12637    6.462
 4438.00    1.30194   1.13178    6.495
 4439.00    1.29580   1.13918    6.659
 4440.00    1.25376   1.14587    6.761
 4441.00    1.20271   1.15247    6.690
 4442.00    1.17634   1.15706    6.562
 4443.00    1.18762   1.16123    6.504
 4444.00    1.22176   1.16604    6.553
 4445.00    1.25821   1.17049    6.649
 4446.00    1.28198   1.17555    6.669
 4447.00    1.29052   1.17897    6.611
 4448.00    1.29095   1.17939    6.602
 4449.00    1.28525   1.17502    6.721
 4450.00    1.26870   1.16771    6.946
 4451.00    1.23743   1.15922    7.111
 4452.00    1.19120   1.14634    7.037
 4453.00    1.13482   1.13265    6.901
 4454.00    1.07696   1.11850    6.976
 4455.00    1.02732   1.10382    7.096
 4456.00    0.99385   1.09054    6.936
 4457.00    0.97931   1.07891    6.705
 4458.00    0.98256   1.07334    6.735
 4459.00    1.00080   1.07074    6.926
 4460.00    1.02274   1.07069    7.017
 4461.00    1.02168   1.07366    0.000
 4462.00    0.98196   1.07942    0.000
 4463.00    0.92686   1.08758    0.000
 4464.00    0.89827   1.09562    0.000
 4465.00    0.93114   1.10746    0.000
 4466.00    1.02341   1.11914    0.000
 4467.00    1.12124   1.12932    0.000
 4468.00    1.18147   1.14056    0.000
 4469.00    1.21166   1.15182    0.000
 4470.00    1.22942   1.16381    0.000
 4471.00    1.23735   1.17485    0.000
 4472.00    1.23553   1.18691    0.000
 4473.00    1.22924   1.19841    0.000
 4474.00    1.22953   1.20775    0.000
 4475.00    1.24725   1.21512    0.000
 4476.00    1.26902   1.22006    0.000
 4477.00    1.26407   1.22176    0.000
 4478.00    1.24125   1.22211    0.000
 4479.00    1.24143   1.22199    0.000
 4480.00    1.25372   1.22044    0.000
 4481.00    1.22528   1.21801    0.000
 4482.00    1.15405   1.21520    7.077
 4483.00    1.08662   1.21407    7.172
 4484.00    1.05608   1.21384    7.237
 4485.00    1.07242   1.21514    7.196
 4486.00    1.13251   1.21641    7.143
 4487.00    1.22250   1.21557    7.184
 4488.00    1.31827   1.21365    7.175
 4489.00    1.38333   1.20960    6.962
 4490.00    1.36852   1.20488    6.783
 4491.00    1.25650   1.20051    6.887
 4492.00    1.11401   1.19756    7.138
 4493.00    1.02525   1.19755    7.266
 4494.00    1.01115   1.19863    7.270
 4495.00    1.04657   1.20219    7.269
 4496.00    1.08954   1.20639    7.264
 4497.00    1.11652   1.21412    7.223
 4498.00    1.14502   1.22553    7.165
 4499.00    1.19267   1.23814    7.119
 4500.00    1.24875   1.25257    7.084
 4501.00    1.29735   1.26607    7.083
 4502.00    1.33185   1.27916    7.169
 4503.00    1.34440   1.29008    7.291
 4504.00    1.32515   1.29958    7.273
 4505.00    1.28839   1.30863    7.131
 4506.00    1.27399   1.31380    7.107
 4507.00    1.29995   1.31536    7.221
 4508.00    1.34804   1.31416    7.222
 4509.00    1.38602   1.31054    7.079
 4510.00    1.38405   1.30546    7.013
 4511.00    1.33810   1.29939    7.031
 4512.00    1.27138   1.29290    6.955
 4513.00    1.21764   1.28600    6.810
 4514.00    1.20483   1.27918    6.769
 4515.00    1.22881   1.27276    6.804
 4516.00    1.25941   1.26748    6.777
 4517.00    1.26595   1.26280    6.744
 4518.00    1.23752   1.25832    6.847
 4519.00    1.20680   1.25329    7.016
 4520.00    1.21261   1.24554    7.068
 4521.00    1.23890   1.23762    6.974
 4522.00    1.25107   1.22676    6.847
 4523.00    1.25444   1.21429    6.815
 4524.00    1.26585   1.19937    6.895
 4525.00    1.27438   1.18310    6.889
 4526.00    1.26927   1.16826    6.710
 4527.00    1.26809   1.15394    6.672
 4528.00    1.27569   1.14163    6.972
 4529.00    1.25414   1.13254    7.314
 4530.00    1.19134   1.12803    7.347
 4531.00    1.14239   1.12686    7.208
 4532.00    1.14063   1.13096    7.108
 4533.00    1.14865   1.13661    7.033
 4534.00    1.13199   1.14602    6.963
 4535.00    1.09877   1.15633    6.957
 4536.00    1.07318   1.16682    7.036
 4537.00    1.07656   1.17803    7.138
 4538.00    1.10932   1.18820    7.188
 4539.00    1.14777   1.19919    7.162
 4540.00    1.16111   1.20622    7.149
 4541.00    1.12993   1.21082    7.286
 4542.00    1.08243   1.21278    7.483
 4543.00    1.07589   1.21309    7.459
 4544.00    1.11392   1.21289    7.248
 4545.00    1.15343   1.21137    7.141
 4546.00    1.17783   1.20902    7.215
 4547.00    1.19697   1.20532    7.364
 4548.00    1.20908   1.20336    7.476
 4549.00    1.20524   1.20157    7.503
 4550.00    1.19208   1.20129    0.000
 4551.00    1.18642   1.20179    0.000
 4552.00    1.19965   1.20432    0.000
 4553.00    1.22644   1.20990    0.000
 4554.00    1.23532   1.21573    0.000
 4555.00    1.20640   1.22348    0.000
 4556.00    1.17370   1.23152    0.000
 4557.00    1.17748   1.24000    0.000
 4558.00    1.21233   1.24823    0.000
 4559.00    1.25353   1.25617    0.000
 4560.00    1.28621   1.26218    0.000
 4561.00    1.30978   1.26625    0.000
 4562.00    1.33569   1.26863    0.000
 4563.00    1.36031   1.26965    0.000
 4564.00    1.35499   1.27009    0.000
 4565.00    1.31831   1.26969    0.000
 4566.00    1.29445   1.26979    0.000
 4567.00    1.30475   1.27045    0.000
 4568.00    1.32476   1.27167    0.000
 4569.00    1.34396   1.27378    0.000
 4570.00    1.37846   1.27537    0.000
 4571.00    1.41477   1.27571    0.000
 4572.00    1.40841   1.27546    0.000
 4573.00    1.35284   1.27333    0.000
 4574.00    1.28605   1.27027    0.000
 4575.00    1.24168   1.26778    0.000
 4576.00    1.23651   1.26294    0.000
 4577.00    1.27611   1.25669    0.000
 4578.00    1.34916   1.25034    0.000
 4579.00    1.41323   1.24331    0.000
 4580.00    1.42060   1.23740    0.000
 4581.00    1.37097   1.23197    0.000
 4582.00    1.30028   1.22849    0.000
 4583.00    1.24556   1.22681    0.000
 4584.00    1.22549   1.22741    0.000
 4585.00    1.22348   1.22927    0.000
 4586.00    1.21843   1.23142    0.000
 4587.00    1.22254   1.23442    0.000
 4588.00    1.24799   1.23615    0.000
 4589.00    1.27050   1.23805    0.000
 4590.00    1.27049   1.23858    0.000
 4591.00    1.26917   1.23770    0.000
 4592.00    1.27972   1.23557    0.000
 4593.00    1.27254   1.23192    0.000
 4594.00    1.23029   1.22820    0.000
 4595.00    1.18181   1.22503    0.000
 4596.00    1.15880   1.22248    0.000
 4597.00    1.16881   1.22095    0.000
 4598.00    1.20209   1.22040    0.000
 4599.00    1.23906   1.22197    0.000
 4600.00    1.26448   1.22415    0.000
 4601.00    1.27473   1.22898    0.000
 4602.00    1.28046   1.23425    0.000
 4603.00    1.29988   1.24087    0.000
 4604.00    1.33319   1.24958    0.000
 4605.00    1.36110   1.25823    0.000
 4606.00    1.36711   1.26844    0.000
 4607.00    1.34798   1.27779    0.000
 4608.00    1.32245   1.28767    0.000
 4609.00    1.31594   1.29633    0.000
 4610.00    1.32306   1.30438    0.000
 4611.00    1.31991   1.31075    0.000
 4612.00    1.30347   1.31533    0.000
 4613.00    1.28631   1.31841    0.000
 4614.00    1.27497   1.32081    0.000
 4615.00    1.27254   1.32247    0.000
 4616.00    1.28695   1.32360    0.000
 4617.00    1.32060   1.32539    0.000
 4618.00    1.35734   1.32574    0.000
 4619.00    1.38067   1.32662    0.000
 4620.00    1.39382   1.32683    0.000
 4621.00    1.40190   1.32635    0.000
 4622.00    1.39493   1.32578    0.000
 4623.00    1.36755   1.32518    0.000
 4624.00    1.33457   1.32361    0.000
 4625.00    1.31436   1.32184    0.000
 4626.00    1.31501   1.31958    0.000
 4627.00    1.32922   1.31653    0.000
 4628.00    1.33597   1.31299    0.000
 4629.00    1.32444   1.30905    0.000
 4630.00    1.30261   1.30420    0.000
 4631.00    1.27563   1.29837    0.000
 4632.00    1.24030   1.29190    0.000
 4633.00    1.20578   1.28487    0.000
 4634.00    1.19326   1.27715    0.000
 4635.00    1.20445   1.26853    0.000
 4636.00    1.22025   1.26019    0.000
 4637.00    1.23138   1.25148    0.000
 4638.00    1.24179   1.24334    0.000
 4639.00    1.25215   1.23540    0.000
 4640.00    1.25758   1.22759    0.000
 4641.00    1.25315   1.22074    0.000
 4642.00    1.23771   1.21365    0.000
 4643.00    1.21841   1.20810    0.000
 4644.00    1.20369   1.20302    0.000
 4645.00    1.19033   1.19888    0.000
 4646.00    1.17359   1.19615    0.000
 4647.00    1.16473   1.19513    0.000
 4648.00    1.17601   1.19576    0.000
 4649.00    1.19858   1.19894    0.000
 4650.00    1.21230   1.20417    0.000
 4651.00    1.20085   1.21125    0.000
 4652.00    1.16062   1.21943    0.000
 4653.00    1.10691   1.22842    0.000
 4654.00    1.06515   1.23681    0.000
 4655.00    1.06092   1.24541    0.000
 4656.00    1.10524   1.25209    0.000
 4657.00    1.18546   1.25759    0.000
 4658.00    1.27494   1.26091    0.000
 4659.00    1.34397   1.26153    0.000
 4660.00    1.38297   1.26011    0.000
 4661.00    1.40576   1.25512    0.000
 4662.00    1.40278   1.24772    0.000
 4663.00    1.33536   1.23746    0.000
 4664.00    1.20819   1.22609    0.000
 4665.00    1.08162   1.21457    0.000
 4666.00    1.00193   1.20466    0.000
 4667.00    0.98124   1.19753    0.000
 4668.00    1.01757   1.19311    0.000
 4669.00    1.09867   1.19212    0.000
 4670.00    1.19453   1.19409    0.000
 4671.00    1.26973   1.19895    0.000
 4672.00    1.31659   1.20533    0.000
 4673.00    1.34725   1.21253    0.000
 4674.00    1.36170   1.21902    0.000
 4675.00    1.35524   1.22394    0.000
 4676.00    1.34224   1.22757    0.000
 4677.00    1.33842   1.22931    0.000
 4678.00    1.32864   1.23031    0.000
 4679.00    1.29273   1.23007    0.000
 4680.00    1.24470   1.22933    0.000
 4681.00    1.20807   1.22848    0.000
 4682.00    1.18253   1.22751    0.000
 4683.00    1.16076   1.22727    0.000
 4684.00    1.14816   1.22748    0.000
 4685.00    1.15215   1.22838    0.000
 4686.00    1.17184   1.22947    0.000
 4687.00    1.20424   1.23068    0.000
 4688.00    1.24832   1.23198    0.000
 4689.00    1.29570   1.23278    0.000
 4690.00    1.32758   1.23363    0.000
 4691.00    1.33440   1.23429    0.000
 4692.00    1.32424   1.23442    0.000
 4693.00    1.30623   1.23402    0.000
 4694.00    1.28312   1.23273    0.000
 4695.00    1.25725   1.23054    0.000
 4696.00    1.23405   1.22710    0.000
 4697.00    1.22476   1.22311    0.000
 4698.00    1.24034   1.21795    0.000
 4699.00    1.26923   1.21252    0.000
 4700.00    1.28325   1.20695    0.000
 4701.00    1.27411   1.20164    0.000
 4702.00    1.25326   1.19767    0.000
 4703.00    1.22599   1.19435    0.000
 4704.00    1.19027   1.19341    0.000
 4705.00    1.14790   1.19294    0.000
 4706.00    1.10578   1.19452    0.000
 4707.00    1.07349   1.19680    0.000
 4708.00    1.06120   1.20079    0.000
 4709.00    1.07646   1.20561    0.000
 4710.00    1.11498   1.21130    0.000
 4711.00    1.15046   1.21808    0.000
 4712.00    1.15928   1.22565    0.000
 4713.00    1.15013   1.23492    0.000
 4714.00    1.14313   1.24432    0.000
 4715.00    1.14600   1.25501    0.000
 4716.00    1.16942   1.26515    0.000
 4717.00    1.23833   1.27513    0.000
 4718.00    1.35204   1.28428    0.000
 4719.00    1.45804   1.29209    0.000
 4720.00    1.49683   1.29798    0.000
 4721.00    1.43896   1.30125    0.000
 4722.00    1.31127   1.30108    0.000
 4723.00    1.19577   1.29816    0.000
 4724.00    1.14885   1.29249    0.000
 4725.00    1.16608   1.28439    0.000
 4726.00    1.21681   1.27519    0.000
 4727.00    1.26717   1.26534    0.000
 4728.00    1.30379   1.25657    0.000
 4729.00    1.33348   1.24870    0.000
 4730.00    1.35208   1.24292    0.000
 4731.00    1.34396   1.23931    0.000
 4732.00    1.31122   1.23834    0.000
 4733.00    1.27580   1.24033    0.000
 4734.00    1.26243   1.24408    0.000
 4735.00    1.28353   1.24951    0.000
 4736.00    1.31750   1.25550    0.000
 4737.00    1.32416   1.26232    0.000
 4738.00    1.28325   1.26864    0.000
 4739.00    1.20754   1.27520    0.000
 4740.00    1.14950   1.28134    0.000
 4741.00    1.15488   1.28669    0.000
 4742.00    1.19862   1.29244    0.000
 4743.00    1.22664   1.29728    0.000
 4744.00    1.21881   1.30113    0.000
 4745.00    1.19273   1.30406    0.000
 4746.00    1.19511   1.30649    0.000
 4747.00    1.25356   1.30763    0.000
 4748.00    1.33694   1.30765    0.000
 4749.00    1.39593   1.30606    0.000
 4750.00    1.40266   1.30352    0.000
 4751.00    1.37538   1.30027    0.000
 4752.00    1.37902   1.29541    0.000
 4753.00    1.43232   1.29059    0.000
 4754.00    1.46964   1.28493    0.000
 4755.00    1.44611   1.27968    0.000
 4756.00    1.38334   1.27351    0.000
 4757.00    1.31053   1.26795    0.000
 4758.00    1.23976   1.26190    0.000
 4759.00    1.18253   1.25599    0.000
 4760.00    1.15360   1.24995    0.000
 4761.00    1.15947   1.24398    8.251
 4762.00    1.19413   1.23851    8.153
 4763.00    1.23900   1.23387    8.295
 4764.00    1.27129   1.23058    8.190
 4765.00    1.28504   1.22902    7.952
 4766.00    1.29137   1.22916    8.062
 4767.00    1.30622   1.23204    8.413
 4768.00    1.33856   1.23695    8.480
 4769.00    1.37421   1.24352    8.273
 4770.00    1.38895   1.25146    8.173
 4771.00    1.37586   1.26026    8.238
 4772.00    1.34525   1.26941    8.330
 4773.00    1.31684   1.27767    8.407
 4774.00    1.30300   1.28519    8.501
 4775.00    1.29118   1.29071    8.640
 4776.00    1.27141   1.29453    8.780
 4777.00    1.26543   1.29669    8.771
 4778.00    1.28734   1.29680    8.588
 4779.00    1.30810   1.29511    8.495
 4780.00    1.30539   1.29135    8.637
 4781.00    1.30187   1.28679    8.786
 4782.00    1.31731   1.28160    8.767
 4783.00    1.33599   1.27627    8.777
 4784.00    1.33774   1.27163    8.903
 4785.00    1.31854   1.26832    8.895
 4786.00    1.28670   1.26651    8.697
 4787.00    1.25807   1.26665    8.624
 4788.00    1.24620   1.26883    8.801
 4789.00    1.25634   1.27321    9.019
 4790.00    1.28051   1.27868    9.097
 4791.00    1.30153   1.28528    9.044
 4792.00    1.31386   1.29258    8.926
 4793.00    1.32487   1.29930    8.799
 4794.00    1.33551   1.30534    8.708
 4795.00    1.34025   1.31033    8.687
 4796.00    1.34288   1.31358    8.723
 4797.00    1.35177   1.31561    8.794
 4798.00    1.35923   1.31604    8.936
 4799.00    1.35028   1.31539    9.158
 4800.00    1.32910   1.31360    9.222
 4801.00    1.31190   1.31125    8.919
 4802.00    1.30533   1.30861    8.627
 4803.00    1.30650   1.30565    8.744
 4804.00    1.30899   1.30319    9.049
 4805.00    1.31078   1.30058    9.084
 4806.00    1.32212   1.29902    8.912
 4807.00    1.34984   1.29735    8.816
 4808.00    1.37966   1.29708    8.817
 4809.00    1.39015   1.29708    8.808
 4810.00    1.36952   1.29883    8.729
 4811.00    1.32459   1.30116    8.619
 4812.00    1.28399   1.30472    8.613
 4813.00    1.27301   1.30874    8.754
 4814.00    1.29456   1.31312    8.873
 4815.00    1.33149   1.31710    8.830
 4816.00    1.35366   1.32047    8.682
 4817.00    1.34454   1.32268    8.519
 4818.00    1.31265   1.32351    8.372
 4819.00    1.27323   1.32289    8.290
 4820.00    1.23637   1.32076    8.338
 4821.00    1.19721   1.31736    8.430
 4822.00    1.14066   1.31296    8.356
 4823.00    1.07237   1.30788    8.203
 4824.00    1.02235   1.30273    8.279
 4825.00    1.01907   1.29748    8.472
 4826.00    1.07313   1.29297    8.332
 4827.00    1.15725   1.28869    8.000
 4828.00    1.22401   1.28540    7.937
 4829.00    1.25972   1.28272    7.973
 4830.00    1.27759   1.28066    7.677
 4831.00    1.27755   1.27919    7.384
 4832.00    1.25925   1.27784    7.604
 4833.00    1.25841   1.27667    8.062
 4834.00    1.30954   1.27531    8.062
 4835.00    1.38131   1.27411    7.790
 4836.00    1.41833   1.27238    7.780
 4837.00    1.40946   1.27086    7.943
 4838.00    1.37204   1.26870    8.000
 4839.00    1.32255   1.26692    8.080
 4840.00    1.27388   1.26502    8.356
 4841.00    1.23568   1.26332    8.575
 4842.00    1.21179   1.26171    8.465
 4843.00    1.19927   1.26027    8.236
 4844.00    1.19930   1.25889    8.150
 4845.00    1.22213   1.25707    8.227
 4846.00    1.26286   1.25472    8.349
 4847.00    1.29101   1.25134    8.344
 4848.00    1.28713   1.24660    0.000
 4849.00    1.26142   1.23988    0.000
 4850.00    1.23510   1.23121    0.000
 4851.00    1.22724   1.22040    0.000
 4852.00    1.24195   1.20732    0.000
 4853.00    1.26725   1.19192    0.000
 4854.00    1.29202   1.17488    0.000
 4855.00    1.30854   1.15653    0.000
 4856.00    1.29994   1.13805    0.000
 4857.00    1.24888   1.11984    0.000
 4858.00    1.17284   1.10293    0.000
 4859.00    1.11169   1.08864    0.000
 4860.00    1.07326   1.07755    0.000
 4861.00    1.04231   1.07043    0.000
 4862.00    1.02721   1.06744    0.000
 4863.00    1.04611   1.06897    0.000
 4864.00    1.08403   1.07341    0.000
 4865.00    1.11158   1.08092    0.000
 4866.00    1.12675   1.08964    0.000
 4867.00    1.14584   1.09988    0.000
 4868.00    1.18090   1.10995    0.000
 4869.00    1.22850   1.12059    0.000
 4870.00    1.26175   1.13021    0.000
 4871.00    1.25188   1.14004    0.000
 4872.00    1.19281   1.14964    0.000
 4873.00    1.11030   1.15965    0.000
 4874.00    1.06102   1.16970    0.000
 4875.00    1.07378   1.18017    8.877
 4876.00    1.11208   1.19008    8.536
 4877.00    1.14385   1.19944    8.607
 4878.00    1.18365   1.20720    8.929
 4879.00    1.24157   1.21361    9.127
 4880.00    1.29465   1.21730    8.952
 4881.00    1.30876   1.21901    8.674
 4882.00    1.25994   1.21814    8.900
 4883.00    1.17325   1.21582    9.649
 4884.00    1.11708   1.21215   10.016
 4885.00    1.11474   1.20842    9.656
 4886.00    1.13172   1.20535    9.370
 4887.00    1.15127   1.20363    9.431
 4888.00    1.18440   1.20454    9.493
 4889.00    1.22243   1.20798    9.401
 4890.00    1.23860   1.21492    9.306
 4891.00    1.22774   1.22426    9.309
 4892.00    1.20475   1.23658    9.403
 4893.00    1.17903   1.24990    9.525
 4894.00    1.15235   1.26437    9.605
 4895.00    1.12609   1.27792    9.653
 4896.00    1.10672   1.29039    9.727
 4897.00    1.11139   1.30039    9.837
 4898.00    1.15159   1.30796    9.906
 4899.00    1.20962   1.31284    9.761
 4900.00    1.25594   1.31518    9.408
 4901.00    1.27498   1.31557    9.228
 4902.00    1.26886   1.31403    9.421
 4903.00    1.25641   1.31136    9.559
 4904.00    1.25650   1.30780    9.296
 4905.00    1.27293   1.30371    9.091
 4906.00    1.29959   1.29933    9.290
 4907.00    1.32619   1.29469    9.576
 4908.00    1.34059   1.28989    9.591
 4909.00    1.33170   1.28495    9.473
 4910.00    1.29801   1.27975    9.421
 4911.00    1.25113   1.27411    9.413
 4912.00    1.20650   1.26778    9.370
 4913.00    1.17655   1.26087    9.259
 4914.00    1.16322   1.25280    9.192
 4915.00    1.15851   1.24406    9.368
 4916.00    1.15989   1.23448    9.711
 4917.00    1.17346   1.22514    9.823
 4918.00    1.20283   1.21645    9.607
 4919.00    1.24381   1.20963    9.371
 4920.00    1.28105   1.20542    9.261
 4921.00    1.29619   1.20448    9.222
 4922.00    1.29090   1.20735    9.223
 4923.00    1.28257   1.21369    9.268
 4924.00    1.28113   1.22331    9.305
 4925.00    1.28602   1.23491    9.255
 4926.00    1.29127   1.24771    9.121
 4927.00    1.29255   1.26014    8.971
 4928.00    1.29646   1.27126    8.867
 4929.00    1.30705   1.28004    8.843
 4930.00    1.30527   1.28582    8.880
 4931.00    1.27189   1.28855    8.945
 4932.00    1.21928   1.28818    9.027
 4933.00    1.17750   1.28568    9.106
 4934.00    1.17270   1.28145    9.103
 4935.00    1.21117   1.27706    8.979
 4936.00    1.26834   1.27295    8.811
 4937.00    1.31029   1.27067    8.708
 4938.00    1.31482   1.27015    8.737
 4939.00    1.28601   1.27254    8.829
 4940.00    1.25763   1.27704    0.000
 4941.00    1.25367   1.28415    0.000
 4942.00    1.26653   1.29253    0.000
 4943.00    1.27932   1.30221    0.000
 4944.00    1.28162   1.31158    0.000
 4945.00    1.28126   1.32069    0.000
 4946.00    1.30038   1.32795    0.000
 4947.00    1.33742   1.33353    0.000
 4948.00    1.36324   1.33628    0.000
 4949.00    1.36455   1.33661    0.000
 4950.00    1.35298   1.33388    0.000
 4951.00    1.34338   1.32869    0.000
 4952.00    1.34344   1.32113    0.000
 4953.00    1.34545   1.31192    0.000
 4954.00    1.33374   1.30189    0.000
 4955.00    1.30639   1.29171    0.000
 4956.00    1.27110   1.28248    0.000
 4957.00    1.22717   1.27460    0.000
 4958.00    1.17650   1.26869    0.000
 4959.00    1.14770   1.26480    0.000
 4960.00    1.16660   1.26270    0.000
 4961.00    1.20780   1.26228    0.000
 4962.00    1.22680   1.26261    0.000
 4963.00    1.21145   1.26389    0.000
 4964.00    1.17605   1.26504    0.000
 4965.00    1.14547   1.26671    0.000
 4966.00    1.13648   1.26805    0.000
 4967.00    1.14280   1.26993    0.000
 4968.00    1.15281   1.27165    0.000
 4969.00    1.16527   1.27383    0.000
 4970.00    1.18219   1.27574    0.000
 4971.00    1.20208   1.27743    0.000
 4972.00    1.21844   1.27809    0.000
 4973.00    1.22185   1.27741    0.000
 4974.00    1.21650   1.27478    0.000
 4975.00    1.22203   1.27002    0.000
 4976.00    1.23700   1.26296    0.000
 4977.00    1.23254   1.25400    0.000
 4978.00    1.20356   1.24347    0.000
 4979.00    1.17882   1.23242    0.000
 4980.00    1.17536   1.22145    0.000
 4981.00    1.18667   1.21186    0.000
 4982.00    1.20104   1.20411    0.000
 4983.00    1.20962   1.19913    0.000
 4984.00    1.21112   1.19694    0.000
 4985.00    1.20743   1.19771    0.000
 4986.00    1.19075   1.20092    0.000
 4987.00    1.15291   1.20605    0.000
 4988.00    1.11026   1.21236    0.000
 4989.00    1.08976   1.21895    0.000
 4990.00    1.09537   1.22524    0.000
 4991.00    1.11452   1.23037    0.000
 4992.00    1.13803   1.23411    0.000
 4993.00    1.16432   1.23588    0.000
 4994.00    1.19992   1.23573    0.000
 4995.00    1.24662   1.23344    0.000
 4996.00    1.28735   1.22925    0.000
 4997.00    1.29871   1.22327    0.000
 4998.00    1.26701   1.21587    0.000
 4999.00    1.20120   1.20746    0.000
 5000.00    1.13887   1.19849    0.000
 5001.00    1.11091   1.18951    0.000
 5002.00    1.11564   1.18090    0.000
 5003.00    1.13452   1.17314    0.000
 5004.00    1.14768   1.16629    0.000
 5005.00    1.15418   1.16071    0.000
 5006.00    1.17541   1.15596    0.000
 5007.00    1.21362   1.15226    0.000
 5008.00    1.23932   1.14885    0.000
 5009.00    1.23079   1.14608    0.000
 5010.00    1.19063   1.14305    0.000
 5011.00    1.13912   1.14047    0.000
 5012.00    1.10331   1.13765    0.000
 5013.00    1.09132   1.13554    0.000
 5014.00    1.09159   1.13367    0.000
 5015.00    1.09521   1.13302    0.000
 5016.00    1.10197   1.13322    0.000
 5017.00    1.11848   1.13493    0.000
 5018.00    1.14831   1.13778    0.000
 5019.00    1.17332   1.14198    0.000
 5020.00    1.16955   1.14726    0.000
 5021.00    1.14309   1.15343    0.000
 5022.00    1.11429   1.16044    0.000
 5023.00    1.08292   1.16786    0.000
 5024.00    1.04326   1.17582    0.000
 5025.00    1.01197   1.18377    0.000
 5026.00    1.01531   1.19184    0.000
 5027.00    1.06744   1.19948    0.000
 5028.00    1.15336   1.20649    0.000
 5029.00    1.21911   1.21246    8.447
 5030.00    1.22763   1.21679    8.902
 5031.00    1.20485   1.21937    9.432
 5032.00    1.18558   1.21948    9.341
 5033.00    1.17084   1.21748    9.070
 5034.00    1.15837   1.21304    9.045
 5035.00    1.16216   1.20700    8.981
 5036.00    1.18786   1.19965    8.634
 5037.00    1.22128   1.19219    8.191
 5038.00    1.25106   1.18533    7.886
 5039.00    1.27827   1.18004    7.838
 5040.00    1.30383   1.17691    8.034
 5041.00    1.32369   1.17629    8.343
 5042.00    1.33371   1.17813    8.651
 5043.00    1.33096   1.18211    8.923
 5044.00    1.31139   1.18748    9.200
 5045.00    1.27309   1.19380    9.538
 5046.00    1.22811   1.20012    9.817
 5047.00    1.19787   1.20639    9.821
 5048.00    1.19277   1.21195    9.690
 5049.00    1.20883   1.21734    9.751
 5050.00    1.23236   1.22231    9.932
 5051.00    1.24570   1.22764    9.929
 5052.00    1.23608   1.23313    9.804
 5053.00    1.20151   1.23933    9.819
 5054.00    1.15697   1.24574    9.972
 5055.00    1.12676   1.25244   10.081
 5056.00    1.13138   1.25864   10.010
 5057.00    1.17608   1.26409    9.779
 5058.00    1.24004   1.26801    9.591
 5059.00    1.28984   1.27018    9.577
 5060.00    1.29725   1.27021    9.594
 5061.00    1.25641   1.26809    9.523
 5062.00    1.19524   1.26407    9.522
 5063.00    1.14801   1.25839    9.703
 5064.00    1.13124   1.25177    9.892
 5065.00    1.14115   1.24447    9.935
 5066.00    1.15624   1.23738    9.947
 5067.00    1.15768   1.23052   10.033
 5068.00    1.14272   1.22452   10.115
 5069.00    1.12723   1.21909   10.033
 5070.00    1.13930   1.21447    9.691
 5071.00    1.18511   1.21009    9.318
 5072.00    1.23883   1.20602    9.305
 5073.00    1.26773   1.20160    9.611
 5074.00    1.25046   1.19709    9.724
 5075.00    1.20251   1.19194    9.474
 5076.00    1.16644   1.18687    9.203
 5077.00    1.15672   1.18152    9.092
 5078.00    1.15747   1.17700    9.090
 5079.00    1.16161   1.17316    9.118
 5080.00    1.17411   1.17106    9.123
 5081.00    1.19541   1.17060    9.108
 5082.00    1.21721   1.17235    9.096
 5083.00    1.22277   1.17611    9.082
 5084.00    1.20088   1.18177    9.053
 5085.00    1.16864   1.18895    9.052
 5086.00    1.15583   1.19699    9.125
 5087.00    1.17575   1.20540    9.218
 5088.00    1.21953   1.21337    9.239
 5089.00    1.25632   1.22041    9.157
 5090.00    1.25953   1.22591    8.987
 5091.00    1.23476   1.22953    8.750
 5092.00    1.20345   1.23114    8.519
 5093.00    1.18333   1.23055    8.440
 5094.00    1.18220   1.22825    8.572
 5095.00    1.19482   1.22420    8.784
 5096.00    1.20781   1.21936    8.927
 5097.00    1.20580   1.21367    9.004
 5098.00    1.18577   1.20826    9.115
 5099.00    1.16295   1.20289    9.374
 5100.00    1.15297   1.19845    9.752
 5101.00    1.16057   1.19452    9.996
 5102.00    1.17579   1.19159    9.985
 5103.00    1.17895   1.18927    9.906
 5104.00    1.16779   1.18775    9.912
 5105.00    1.16053   1.18693    9.990
 5106.00    1.16567   1.18680   10.019
 5107.00    1.17510   1.18765    9.867
 5108.00    1.17804   1.18935    9.650
 5109.00    1.16803   1.19226    9.607
 5110.00    1.14894   1.19611    9.692
 5111.00    1.13143   1.20094    9.661
 5112.00    1.12116   1.20629    9.516
 5113.00    1.12033   1.21177    9.450
 5114.00    1.13628   1.21677    9.532
 5115.00    1.17571   1.22066    9.704
 5116.00    1.23175   1.22296    9.860
 5117.00    1.28584   1.22308    9.920
 5118.00    1.31537   1.22101    9.939
 5119.00    1.31175   1.21652   10.013
 5120.00    1.30030   1.21016   10.127
 5121.00    1.30748   1.20215   10.225
 5122.00    1.32234   1.19342   10.316
 5123.00    1.32058   1.18455   10.407
 5124.00    1.29320   1.17635   10.429
 5125.00    1.24632   1.16950   10.347
 5126.00    1.19724   1.16431   10.252
 5127.00    1.16115   1.16129   10.214
 5128.00    1.14215   1.16004   10.190
 5129.00    1.13962   1.16080   10.131
 5130.00    1.15140   1.16266   10.043
 5131.00    1.16546   1.16554    9.983
 5132.00    1.16124   1.16850   10.015
 5133.00    1.14004   1.17124   10.084
 5134.00    1.13079   1.17322    9.997
 5135.00    1.14864   1.17408    9.713
 5136.00    1.18162   1.17389    9.414
 5137.00    1.20916   1.17237    9.308
 5138.00    1.21335   1.17002    9.511
 5139.00    1.19087   1.16679    9.794
 5140.00    1.15273   1.16319    9.687
 5141.00    1.11293   1.15941    9.352
 5142.00    1.08301   1.15571    9.321
 5143.00    1.06711   1.15243    9.542
 5144.00    1.06350   1.14949    9.565
 5145.00    1.06997   1.14738    9.357
 5146.00    1.08504   1.14576    9.194
 5147.00    1.10775   1.14522    9.094
 5148.00    1.13363   1.14531    8.951
 5149.00    1.14912   1.14666    8.823
 5150.00    1.14447   1.14875    8.834
 5151.00    1.13144   1.15206    9.007
 5152.00    1.13030   1.15599    9.246
 5153.00    1.15097   1.16061    9.319
 5154.00    1.18423   1.16518    9.117
 5155.00    1.19836   1.16926    8.910
 5156.00    1.17207   1.17201    8.951
 5157.00    1.12209   1.17268    9.224
 5158.00    1.08158   1.17047    9.521
 5159.00    1.07803   1.16466    9.510
 5160.00    1.11009   1.15496    9.179
 5161.00    1.13987   1.14105    8.970
 5162.00    1.13592   1.12360    9.141
 5163.00    1.09812   1.10280    9.590
 5164.00    1.05087   1.08031   10.017
 5165.00    1.02921   1.05672   10.054
 5166.00    1.03723   1.03423    9.727
 5167.00    1.04214   1.01349    9.462
 5168.00    1.02265   0.99645    9.483
 5169.00    0.98511   0.98349    9.738
 5170.00    0.95263   0.97559   10.042
 5171.00    0.95078   0.97255   10.152
 5172.00    0.97850   0.97412   10.020
 5173.00    1.00981   0.97936    9.830
 5174.00    1.01915   0.98731    9.795
 5175.00    0.99374   0.99667   10.061
 5176.00    0.94548   1.00622   10.576
 5177.00    0.90147   1.01496   11.096
 5178.00    0.88141   1.02212   11.347
 5179.00    0.88622   1.02771   11.274
 5180.00    0.88857   1.03172   11.250
 5181.00    0.86468   1.03496   11.597
 5182.00    0.83830   1.03776   11.935
 5183.00    0.84571   1.04155   11.727
 5184.00    0.88724   1.04632   11.271
 5185.00    0.94645   1.05289   10.800
 5186.00    1.01554   1.06088    9.809
 5187.00    1.08247   1.07031    8.479
 5188.00    1.12046   1.08060    7.735
 5189.00    1.12019   1.09113    7.768
 5190.00    1.11066   1.10161    0.000
 5191.00    1.11705   1.11140    0.000
 5192.00    1.13312   1.12055    0.000
 5193.00    1.14247   1.12876    0.000
 5194.00    1.13379   1.13597    0.000
 5195.00    1.10619   1.14225    0.000
 5196.00    1.06976   1.14711    0.000
 5197.00    1.03731   1.15082    0.000
 5198.00    1.01944   1.15247    0.000
 5199.00    1.02090   1.15265    0.000
 5200.00    1.03796   1.15026    0.000
 5201.00    1.05483   1.14646    0.000
 5202.00    1.05180   1.14062    0.000
 5203.00    1.03225   1.13426    0.000
 5204.00    1.01903   1.12739    0.000
 5205.00    1.02492   1.12154    0.000
 5206.00    1.04933   1.11713    0.000
 5207.00    1.08846   1.11501    0.000
 5208.00    1.13507   1.11587    0.000
 5209.00    1.17404   1.11941    0.000
 5210.00    1.19349   1.12616    0.000
 5211.00    1.20338   1.13473    8.376
 5212.00    1.21998   1.14537    8.375
 5213.00    1.23958   1.15640    8.308
 5214.00    1.24783   1.16771    8.222
 5215.00    1.23688   1.17799    8.182
 5216.00    1.21107   1.18676    8.224
 5217.00    1.18942   1.19356    8.329
 5218.00    1.18919   1.19779    8.445
 5219.00    1.21056   1.19965    8.525
 5220.00    1.24232   1.19916    8.595
 5221.00    1.26908   1.19662    8.791
 5222.00    1.28068   1.19249    9.097
 5223.00    1.27787   1.18742    9.183
 5224.00    1.26677   1.18225    8.996
 5225.00    1.25456   1.17752    9.008
 5226.00    1.24657   1.17435    9.319
 5227.00    1.24476   1.17285    9.381
 5228.00    1.24800   1.17382    9.108
 5229.00    1.25252   1.17690    9.147
 5230.00    1.25362   1.18239    9.645
 5231.00    1.24720   1.18950   10.011
 5232.00    1.23310   1.19832    9.929
 5233.00    1.21748   1.20788    9.755
 5234.00    1.21623   1.21813    9.701
 5235.00    1.24597   1.22821    9.699
 5236.00    1.29844   1.23796    9.681
 5237.00    1.34652   1.24678    9.641
 5238.00    1.37327   1.25425    9.601
 5239.00    1.37538   1.26014    9.608
 5240.00    1.35619   1.26404    9.727
 5241.00    1.32220   1.26589    9.942
 5242.00    1.27971   1.26569    9.963
 5243.00    1.23808   1.26362    9.610
 5244.00    1.21457   1.25977    9.341
 5245.00    1.22263   1.25473    9.520
 5246.00    1.25612   1.24901    9.685
 5247.00    1.29482   1.24301    9.336
 5248.00    1.31414   1.23752    8.976
 5249.00    1.29967   1.23264    9.040
 5250.00    1.25921   1.22933    9.173
 5251.00    1.21211   1.22707    9.002
 5252.00    1.17764   1.22624    8.821
 5253.00    1.16414   1.22586    8.876
 5254.00    1.16370   1.22583    8.945
 5255.00    1.16733   1.22508    8.834
 5256.00    1.17376   1.22287    8.680
 5257.00    1.18242   1.21877    8.660
 5258.00    1.18929   1.21170    8.830
 5259.00    1.18766   1.20229    9.107
 5260.00    1.17139   1.18942    9.278
 5261.00    1.14612   1.17505    9.260
 5262.00    1.12782   1.15846    9.191
 5263.00    1.12051   1.14135    9.171
 5264.00    1.11586   1.12454    9.187
 5265.00    1.11709   1.11019    9.188
 5266.00    1.13542   1.09864    9.135
 5267.00    1.15998   1.09049    9.069
 5268.00    1.16636   1.08693    9.071
 5269.00    1.15534   1.08744    9.139
 5270.00    1.14506   1.09277    9.202
 5271.00    1.13653   1.10211    9.224
 5272.00    1.11960   1.11479    9.231
 5273.00    1.09598   1.12979    9.320
 5274.00    1.07776   1.14606    9.529
 5275.00    1.07824   1.16304    9.633
 5276.00    1.10188   1.17949    9.451
 5277.00    1.13428   1.19538    9.296
 5278.00    1.15867   1.20959    9.455
 5279.00    1.17573   1.22320    9.675
 5280.00    1.19215   1.23518    9.638
 5281.00    1.20753   1.24634    9.552
 5282.00    1.22139   1.25631    9.650
 5283.00    1.23884   1.26599    9.760
 5284.00    1.25868   1.27522    9.717
 5285.00    1.26766   1.28396   -2.000
 5286.00    1.26606   1.29202   -2.000
 5287.00    1.27875   1.29882   -2.000
 5288.00    1.31852   1.30441   -2.000
 5289.00    1.36754   1.30789   -2.000
 5290.00    1.39506   1.30918   -2.000
 5291.00    1.37440   1.30785   -2.000
 5292.00    1.31423   1.30432   -2.000
 5293.00    1.25920   1.29931   -2.000
 5294.00    1.24240   1.29295   -2.000
 5295.00    1.26630   1.28622   -2.000
 5296.00    1.30177   1.27986   -2.000
 5297.00    1.30844   1.27488   -2.000
 5298.00    1.28998   1.27192   -2.000
 5299.00    1.28246   1.27136   -2.000
 5300.00    1.28893   1.27352    8.981
 5301.00    1.28610   1.27791    8.984
 5302.00    1.27175   1.28474    8.863
 5303.00    1.26262   1.29301    8.940
 5304.00    1.27150   1.30245    9.137
 5305.00    1.29886   1.31196    9.156
 5306.00    1.32719   1.32112    9.002
 5307.00    1.33640   1.32906    8.882
 5308.00    1.32549   1.33560    8.919
 5309.00    1.30619   1.34028    9.108
 5310.00    1.29140   1.34299    9.275
 5311.00    1.28881   1.34372    9.238
 5312.00    1.29608   1.34267    9.032
 5313.00    1.30446   1.33971    8.798
 5314.00    1.30344   1.33544    8.651
 5315.00    1.28916   1.32949    8.681
 5316.00    1.26979   1.32242    8.961
 5317.00    1.25824   1.31397    9.390
 5318.00    1.26458   1.30423    9.569
 5319.00    1.28306   1.29376    9.341
 5320.00    1.28992   1.28189    9.090
 5321.00    1.27097   1.26986    9.072
 5322.00    1.23193   1.25660    9.222
 5323.00    1.17973   1.24436    9.383
 5324.00    1.11665   1.23192    9.447
 5325.00    1.05126   1.22213    9.532
 5326.00    1.00094   1.21405    9.897
 5327.00    0.98502   1.20883   10.350
 5328.00    1.01628   1.20651   10.262
 5329.00    1.08399   1.20696    9.846
 5330.00    1.15943   1.21081    9.847
 5331.00    1.22193   1.21644   10.222
 5332.00    1.26362   1.22429   10.348
 5333.00    1.28493   1.23227   10.176
 5334.00    1.29071   1.24075   10.129
 5335.00    1.28477   1.24817   10.262
 5336.00    1.27105   1.25466   10.386
 5337.00    1.25673   1.25964   10.475
 5338.00    1.24699   1.26381   10.599
 5339.00    1.23728   1.26636   10.714
 5340.00    1.21972   1.26810   10.721
 5341.00    1.19230   1.26927   10.596
 5342.00    1.16018   1.27012   10.435
 5343.00    1.13486   1.27173   10.430
 5344.00    1.12391   1.27359   10.605
 5345.00    1.12304   1.27666   10.619
 5346.00    1.12967   1.28079   10.299
 5347.00    1.15235   1.28652   10.017
 5348.00    1.19528   1.29332    9.995
 5349.00    1.24818   1.30120   10.016
 5350.00    1.29533   1.31006    9.920
 5351.00    1.32344   1.31967    9.836
 5352.00    1.33115   1.32920    9.795
 5353.00    1.33039   1.33853    9.619
 5354.00    1.33023   1.34678    9.357
 5355.00    1.33119   1.35378    9.301
 5356.00    1.33377   1.35866    9.486
 5357.00    1.34458   1.36131    9.633
 5358.00    1.38489   1.36131    9.533
 5359.00    1.47503   1.35883    9.228
 5360.00    1.58149   1.35414    8.917
 5361.00    1.63329   1.34665    8.786
 5362.00    1.60392   1.33816    8.827
 5363.00    1.51838   1.32768    8.932
 5364.00    1.41935   1.31706    9.136
 5365.00    1.34352   1.30583    9.519
 5366.00    1.29249   1.29513    9.857
 5367.00    1.25141   1.28582    9.810
 5368.00    1.22846   1.27840    9.573
 5369.00    1.23743   1.27433    9.483
 5370.00    1.26410   1.27162    9.388
 5371.00    1.28345   1.27233    9.094
 5372.00    1.28763   1.27440    8.908
 5373.00    1.28584   1.27895    9.101
 5374.00    1.29843   1.28476    9.450
 5375.00    1.33670   1.29160    9.636
 5376.00    1.38618   1.29850    9.774
 5377.00    1.42638   1.30469   10.034
 5378.00    1.44790   1.31050   10.244
 5379.00    1.44731   1.31441   10.241
 5380.00    1.42348   1.31754   10.179
 5381.00    1.38398   1.31894   10.232
 5382.00    1.34629   1.31877   10.418
 5383.00    1.32130   1.31701   10.662
 5384.00    1.30712   1.31383   10.838
 5385.00    1.30294   1.30940   10.818
 5386.00    1.31246   1.30357   10.558
 5387.00    1.32994   1.29718   10.214
 5388.00    1.33904   1.28973   10.023
 5389.00    1.32951   1.28209    9.984
 5390.00    1.30137   1.27382    9.906
 5391.00    1.25895   1.26573    9.757
 5392.00    1.20982   1.25761    9.661
 5393.00    1.16721   1.24910    9.619
 5394.00    1.14539   1.24253   -2.000
 5395.00    1.14802   1.23640   -2.000
 5396.00    1.16759   1.23103   -2.000
 5397.00    1.18997   1.22584   -2.000
 5398.00    1.19704   1.22195   -2.000
 5399.00    1.17018   1.21785   -2.000
 5400.00    1.10507   1.21367   -2.000
 5401.00    1.03004   1.20977   -2.000
 5402.00    0.96436   1.20634   -2.000
 5403.00    0.86740   1.20447   -2.000
 5404.00    0.72856   1.20292   -2.000
 5405.00    0.66292   1.20255   -2.000
 5406.00    0.76120   1.20287   -2.000
 5407.00    0.94602   1.20614   -2.000
 5408.00    1.11008   1.21089   -2.000
 5409.00    1.23799   1.21769   -2.000
 5410.00    1.33514   1.22574   -2.000
 5411.00    1.37485   1.23502   -2.000
 5412.00    1.35027   1.24556   -2.000
 5413.00    1.30145   1.25630   -2.000
 5414.00    1.26295   1.26673   -2.000
 5415.00    1.23736   1.27609   -2.000
 5416.00    1.21733   1.28426   -2.000
 5417.00    1.19965   1.29095    9.247
 5418.00    1.19483   1.29636    9.764
 5419.00    1.22131   1.29971   10.024
 5420.00    1.27091   1.30069    9.896
 5421.00    1.31027   1.30087    9.818
 5422.00    1.32595   1.29965    9.958
 5423.00    1.32969   1.29743   10.126
 5424.00    1.33290   1.29378   10.158
 5425.00    1.33842   1.28840   10.058
 5426.00    1.33894   1.28295    9.994
 5427.00    1.32369   1.27827   10.123
 5428.00    1.29267   1.27285   10.272
 5429.00    1.25459   1.26819   10.147
 5430.00    1.21788   1.26391    9.897
 5431.00    1.19184   1.26115    9.797
 5432.00    1.19012   1.26016    9.728
 5433.00    1.21860   1.26081    9.501
 5434.00    1.25964   1.26392    9.318
 5435.00    1.28660   1.26792    9.436
 5436.00    1.28381   1.27384    9.831
 5437.00    1.25194   1.27992   10.288
 5438.00    1.21004   1.28642   10.502
 5439.00    1.18390   1.29222   10.324
 5440.00    1.19355   1.29678    9.969
 5441.00    1.23829   1.29973    9.621
 5442.00    1.28997   1.30062    9.243
 5443.00    1.32088   1.29963    8.948
 5444.00    1.32379   1.29798    9.060
 5445.00    1.31548   1.29475    9.507
 5446.00    1.32887   1.29136    9.547
 5447.00    1.36701   1.28680    9.043
 5448.00    1.39327   1.28260    8.794
 5449.00    1.39032   1.27797    8.963
 5450.00    1.37515   1.27396    8.979
 5451.00    1.35634   1.26984    8.771
 5452.00    1.32533   1.26675    8.868
 5453.00    1.28250   1.26506    9.177
 5454.00    1.24168   1.26367    8.983
 5455.00    1.21777   1.26366    8.392
 5456.00    1.21795   1.26318    8.077
 5457.00    1.22997   1.26380    8.094
 5458.00    1.23281   1.26416    8.143
 5459.00    1.22473   1.26467    8.165
 5460.00    1.21805   1.26577    8.245
 5461.00    1.21848   1.26673    8.231
 5462.00    1.22373   1.26764    8.023
 5463.00    1.22760   1.26834    8.092
 5464.00    1.22296   1.26880    8.918
 5465.00    1.20544   1.26854   10.078
 5466.00    1.17979   1.26776   10.446
 5467.00    1.16540   1.26622   10.270
 5468.00    1.17951   1.26409   10.378
 5469.00    1.21954   1.26067   10.557
 5470.00    1.26953   1.25693   10.385
 5471.00    1.30898   1.25265   10.120
 5472.00    1.32412   1.24747   10.097
 5473.00    1.31552   1.24263   10.293
 5474.00    1.29232   1.23858   10.462
 5475.00    1.26625   1.23498   10.300
 5476.00    1.24263   1.23263    9.974
 5477.00    1.21725   1.23063   10.104
 5478.00    1.18799   1.23041   10.711
 5479.00    1.15974   1.23089   10.849
 5480.00    1.13854   1.23331   10.260
 5481.00    1.12938   1.23679    9.862
 5482.00    1.13854   1.24076    9.910
 5483.00    1.17206   1.24507    9.939
 5484.00    1.22745   1.24934    9.747
 5485.00    1.29131   1.25406    9.556
 5486.00    1.34069   1.25771    9.493
 5487.00    1.35408   1.26230    9.492
 5488.00    1.33661   1.26565    9.356
 5489.00    1.31163   1.26845    8.975
 5490.00    1.28878   1.27060    8.666
 5491.00    1.26671   1.27226    8.775
 5492.00    1.25128   1.27367    9.117
 5493.00    1.25131   1.27407    9.208
 5494.00    1.26611   1.27463    8.979
 5495.00    1.28884   1.27435    8.726
 5496.00    1.31445   1.27375    8.700
 5497.00    1.34267   1.27262    8.935
 5498.00    1.37907   1.27113    9.083
 5499.00    1.41950   1.26912    8.871
 5500.00    1.43643   1.26662    8.667
 5501.00    1.41197   1.26441    8.825
 5502.00    1.36681   1.26106    9.203
 5503.00    1.33045   1.25831    9.443
 5504.00    1.31495   1.25544    9.305
 5505.00    1.31702   1.25277    8.863
 5506.00    1.32363   1.25047    8.444
 5507.00    1.32877   1.24828    8.227
 5508.00    1.33973   1.24638    8.180
 5509.00    1.35560   1.24519    8.206
 5510.00    1.35922   1.24429    8.206
 5511.00    1.33486   1.24467    8.154
 5512.00    1.27944   1.24631    8.100
 5513.00    1.21271   1.24864    8.069
 5514.00    1.16974   1.25240    8.047
 5515.00    1.16219   1.25626    8.097
 5516.00    1.17418   1.26116    8.333
 5517.00    1.19115   1.26602    8.710
 5518.00    1.20898   1.27069    8.989
 5519.00    1.23357   1.27456    9.009
 5520.00    1.27263   1.27795    8.843
 5521.00    1.31801   1.28020    8.797
 5522.00    1.35169   1.28137    9.111
 5523.00    1.36504   1.28157    9.472
 5524.00    1.35890   1.28031    9.333
 5525.00    1.33732   1.27895    8.990
 5526.00    1.30615   1.27691    8.981
 5527.00    1.27270   1.27535    9.180
 5528.00    1.24537   1.27414    9.230
 5529.00    1.23305   1.27294    9.202
 5530.00    1.24086   1.27250    9.292
 5531.00    1.26576   1.27231    9.382
 5532.00    1.29993   1.27355    9.320
 5533.00    1.33475   1.27484    9.223
 5534.00    1.36383   1.27712    9.224
 5535.00    1.38464   1.27997    9.258
 5536.00    1.39252   1.28292    9.198
 5537.00    1.37847   1.28659    8.995
 5538.00    1.34338   1.29003    8.829
 5539.00    1.30418   1.29371    9.058
 5540.00    1.27677   1.29685    9.682
 5541.00    1.26687   1.29983   10.041
 5542.00    1.27320   1.30268    9.874
 5543.00    1.29046   1.30573    9.839
 5544.00    1.31446   1.30858   10.097
 5545.00    1.34216   1.31109   10.083
 5546.00    1.36459   1.31389    9.744
 5547.00    1.36945   1.31583    9.642
 5548.00    1.35677   1.31737    9.902
 5549.00    1.33850   1.31826   10.204
 5550.00    1.32465   1.31839   10.357
 5551.00    1.32094   1.31793   10.405
 5552.00    1.33240   1.31682   10.340
 5553.00    1.36155   1.31525   10.145
 5554.00    1.40299   1.31316   10.015
 5555.00    1.44469   1.31064   10.134
 5556.00    1.47241   1.30723   10.283
 5557.00    1.47375   1.30394   10.172
 5558.00    1.44366   1.29999   10.074
 5559.00    1.39038   1.29572   10.303
 5560.00    1.34090   1.29159   10.487
 5561.00    1.32292   1.28712   10.145
 5562.00    1.34278   1.28334    9.577
 5563.00    1.37825   1.27947    9.244
 5564.00    1.37939   1.27599    9.274
 5565.00    1.32052   1.27296    9.579
 5566.00    1.23934   1.27055    9.866
 5567.00    1.18894   1.26898    9.865
 5568.00    1.19731   1.26738    9.614
 5569.00    1.25655   1.26729    9.280
 5570.00    1.32461   1.26729    8.979
 5571.00    1.36552   1.26770    8.810
 5572.00    1.37047   1.26925    8.860
 5573.00    1.34713   1.27084    9.119
 5574.00    1.31180   1.27210    9.439
 5575.00    1.28139   1.27332    9.634
 5576.00    1.26732   1.27424    9.610
 5577.00    1.26619   1.27391    9.535
 5578.00    1.26322   1.27317    9.697
 5579.00    1.25370   1.27102    9.970
 5580.00    1.24473   1.26721    9.889
 5581.00    1.24096   1.26290    9.587
 5582.00    1.24125   1.25715    9.592
 5583.00    1.24104   1.25026    9.924
 5584.00    1.23604   1.24320   10.207
 5585.00    1.22855   1.23556   10.279
 5586.00    1.22646   1.22905   10.204
 5587.00    1.23870   1.22350    9.917
 5588.00    1.26878   1.21911    9.397
 5589.00    1.30654   1.21625    8.930
 5590.00    1.33456   1.21418    8.732
 5591.00    1.33902   1.21405    8.671
 5592.00    1.31565   1.21470    8.596
 5593.00    1.27437   1.21681    8.658
 5594.00    1.23097   1.21971    9.014
 5595.00    1.19774   1.22293    9.489
 5596.00    1.18119   1.22604    9.772
 5597.00    1.18107   1.22953    9.775
 5598.00    1.19225   1.23395    9.640
 5599.00    1.20733   1.23755    9.590
 5600.00    1.22286   1.24252    9.662
 5601.00    1.24186   1.24725    9.624
 5602.00    1.26376   1.25352    9.373
 5603.00    1.28018   1.26000    9.111
 5604.00    1.28401   1.26615    8.987
 5605.00    1.27447   1.27201    8.983
 5606.00    1.25814   1.27697    9.013
 5607.00    1.24719   1.28189    8.965
 5608.00    1.25170   1.28496    8.736
 5609.00    1.27541   1.28734    8.301
 5610.00    1.31178   1.28778    7.804
 5611.00    1.34519   1.28639    7.453
 5612.00    1.35807   1.28360    7.386
 5613.00    1.34009   1.27854    7.663
 5614.00    1.30456   1.27379    8.136
 5615.00    1.27594   1.26944    8.473
 5616.00    1.25546   1.26456    8.619
 5617.00    1.23002   1.26012    8.810
 5618.00    1.20183   1.25610    9.142
 5619.00    1.18571   1.25357    9.526
 5620.00    1.19522   1.25140    9.763
 5621.00    1.23092   1.24995    9.741
 5622.00    1.26893   1.24881    9.682
 5623.00    1.28402   1.24912    9.785
 5624.00    1.27825   1.25186    9.822
 5625.00    1.26652   1.25462    9.617
 5626.00    1.25758   1.25741    9.540
 5627.00    1.25104   1.26071    9.863
 5628.00    1.23811   1.26399   10.250
 5629.00    1.21676   1.26700   10.288
 5630.00    1.20113   1.26907   10.112
 5631.00    1.20222   1.27051    9.970
 5632.00    1.21546   1.27115    9.877
 5633.00    1.23054   1.27156    9.796
 5634.00    1.23965   1.27127    9.728
 5635.00    1.24663   1.26985    9.654
 5636.00    1.26669   1.26855    9.515
 5637.00    1.30500   1.26683    9.270
 5638.00    1.34990   1.26517    8.971
 5639.00    1.38580   1.26304    8.899
 5640.00    1.40108   1.26175    9.338
 5641.00    1.39684   1.26139    9.568
 5642.00    1.38913   1.26104    8.545
 5643.00    1.40660   1.26184    8.125
 5644.00    1.48007   1.26247   10.528
 5645.00    1.61845   1.26390   -1.000
 5646.00    1.79284   1.26521    4.931
 5647.00    1.91828   1.26609    2.831
 5648.00    1.90708   1.26658    2.491
 5649.00    1.77428   1.26700    2.723
 5650.00    1.60329   1.26711    2.857
 5651.00    1.45570   1.26579    3.065
 5652.00    1.35739   1.26377    4.304
 5653.00    1.30167   1.26085    7.901
 5654.00    1.26854   1.25797   10.567
 5655.00    1.24785   1.25478    9.014
 5656.00    1.23645   1.25011    8.764
 5657.00    1.23206   1.24666    9.655
 5658.00    1.23431   1.24509    9.919
 5659.00    1.24561   1.24354    9.526
 5660.00    1.26532   1.24226    9.312
 5661.00    1.28589   1.24214    9.411
 5662.00    1.30000   1.24387    9.630
 5663.00    1.30627   1.24651    9.695
 5664.00    1.31075   1.25005    9.511
 5665.00    1.32464   1.25300    9.283
 5666.00    1.34811   1.25744    9.210
 5667.00    1.36606   1.26331    9.341
 5668.00    1.36893   1.26886    9.486
 5669.00    1.35996   1.27395    9.283
 5670.00    1.34373   1.27935    8.834
 5671.00    1.32238   1.28493    8.613
 5672.00    1.29925   1.28938    8.735
 5673.00    1.28038   1.29273    8.963
 5674.00    1.27501   1.29534    9.043
 5675.00    1.28869   1.29751    8.877
 5676.00    1.30614   1.29828    8.623
 5677.00    1.30333   1.29814    8.517
 5678.00    1.28416   1.29692    8.568
 5679.00    1.27375   1.29545    8.612
 5680.00    1.28859   1.29252    8.498
 5681.00    1.32505   1.28964    8.187
 5682.00    1.35183   1.28692    7.799
 5683.00    1.33712   1.28447    7.474
 5684.00    1.28911   1.28232    7.247
 5685.00    1.23941   1.27999    7.122
 5686.00    1.21361   1.27916    7.155
 5687.00    1.22322   1.27868    7.351
 5688.00    1.26155   1.27999    7.552
 5689.00    1.31018   1.28062    7.653
 5690.00    1.34699   1.28206    7.866
 5691.00    1.35673   1.28350    8.356
 5692.00    1.33917   1.28411    8.851
 5693.00    1.30730   1.28449    9.020
 5694.00    1.28291   1.28349    9.001
 5695.00    1.28038   1.28258    9.021
 5696.00    1.29769   1.27947    9.100
 5697.00    1.32416   1.27619    9.199
 5698.00    1.34600   1.27193    9.321
 5699.00    1.35047   1.26628    9.480
 5700.00    1.33080   1.26066    9.656
 5701.00    1.29802   1.25466    9.639
 5702.00    1.27509   1.24930   -2.000
 5703.00    1.25911   1.24359   -2.000
 5704.00    1.22296   1.23800   -2.000
 5705.00    1.16269   1.23312   -2.000
 5706.00    1.10351   1.22957   -2.000
 5707.00    1.07444   1.22689   -2.000
 5708.00    1.09421   1.22662   -2.000
 5709.00    1.15556   1.22778   -2.000
 5710.00    1.22942   1.23007   -2.000
 5711.00    1.28135   1.23529   -2.000
 5712.00    1.28916   1.24127   -2.000
 5713.00    1.26628   1.24809   -2.000
 5714.00    1.24197   1.25605   -2.000
 5715.00    1.22595   1.26485   -2.000
 5716.00    1.21953   1.27343   -2.000
 5717.00    1.23576   1.28256   -2.000
 5718.00    1.27796   1.29142   -2.000
 5719.00    1.31537   1.29907   -2.000
 5720.00    1.31946   1.30611   -2.000
 5721.00    1.30027   1.31203    8.476
 5722.00    1.28081   1.31615    8.320
 5723.00    1.27179   1.31916    8.264
 5724.00    1.27277   1.32133    8.402
 5725.00    1.27663   1.32164    8.629
 5726.00    1.28355   1.32238    8.826
 5727.00    1.30586   1.32291    8.979
 5728.00    1.34428   1.32259    9.027
 5729.00    1.37906   1.32135    8.818
 5730.00    1.39569   1.32039    8.414
 5731.00    1.39522   1.32050    8.083
 5732.00    1.38232   1.32003    7.921
 5733.00    1.35977   1.32011    7.866
 5734.00    1.32865   1.32000    8.007
 5735.00    1.29009   1.32002    8.554
 5736.00    1.25045   1.32032    9.252
 5737.00    1.22191   1.32030    9.266
 5738.00    1.21923   1.32044    8.718
 5739.00    1.25346   1.32030    8.436
 5740.00    1.31955   1.32033    0.000
 5741.00    1.39794   1.31967    0.000
 5742.00    1.46444   1.31906    0.000
 5743.00    1.49884   1.31844    0.000
 5744.00    1.49619   1.31720    0.000
 5745.00    1.46231   1.31546    0.000
 5746.00    1.40415   1.31289    0.000
 5747.00    1.33515   1.31149    0.000
 5748.00    1.28319   1.31012    0.000
 5749.00    1.27086   1.30844    0.000
 5750.00    1.29204   1.30594    0.000
 5751.00    1.32480   1.30329    0.000
 5752.00    1.34844   1.30098    0.000
 5753.00    1.35300   1.29968    0.000
 5754.00    1.34433   1.29954    0.000
 5755.00    1.32741   1.29914    0.000
 5756.00    1.29662   1.29931    0.000
 5757.00    1.26118   1.29905    0.000
 5758.00    1.25528   1.29884    0.000
 5759.00    1.29171   1.29875    0.000
 5760.00    1.34149   1.29961    0.000
 5761.00    1.37290   1.30108    0.000
 5762.00    1.37453   1.30425    0.000
 5763.00    1.36387   1.30720    0.000
 5764.00    1.37679   1.30944    0.000
 5765.00    1.41566   1.31159    0.000
 5766.00    1.44516   1.31342    0.000
 5767.00    1.44473   1.31510    0.000
 5768.00    1.42042   1.31612    0.000
 5769.00    1.38741   1.31741    0.000
 5770.00    1.36028   1.31691    0.000
 5771.00    1.34259   1.31611    0.000
 5772.00    1.32741   1.31373    0.000
 5773.00    1.30425   1.31008    0.000
 5774.00    1.26777   1.30610    0.000
 5775.00    1.23011   1.30094    0.000
 5776.00    1.21200   1.29506    0.000
 5777.00    1.22447   1.28829    0.000
 5778.00    1.26471   1.28134    0.000
 5779.00    1.31528   1.27336    0.000
 5780.00    1.35581   1.26704    0.000
 5781.00    1.37733   1.26198    0.000
 5782.00    1.38135   1.25754    0.000
 5783.00    1.37622   1.25360    0.000
 5784.00    1.36786   1.25188    0.000
 5785.00    1.35264   1.25276    0.000
 5786.00    1.32665   1.25371    0.000
 5787.00    1.29334   1.25709    0.000
 5788.00    1.26145   1.26102    0.000
 5789.00    1.24214   1.26529    0.000
 5790.00    1.24326   1.27178    0.000
 5791.00    1.26616   1.27851    0.000
 5792.00    1.30719   1.28568    0.000
 5793.00    1.35831   1.29262    0.000
 5794.00    1.40589   1.29891    0.000
 5795.00    1.43322   1.30379    0.000
 5796.00    1.43177   1.30759    0.000
 5797.00    1.40506   1.31309    0.000
 5798.00    1.36616   1.31790    0.000
 5799.00    1.33358   1.32129    0.000
 5800.00    1.32237   1.32445    0.000
 5801.00    1.33546   1.32628    0.000
 5802.00    1.34976   1.32664    0.000
 5803.00    1.33420   1.32693    0.000
 5804.00    1.29629   1.32768    0.000
 5805.00    1.27200   1.32830    0.000
 5806.00    1.28631   1.32838    0.000
 5807.00    1.34152   1.32810    0.000
 5808.00    1.41200   1.32785    0.000
 5809.00    1.46450   1.32749    0.000
 5810.00    1.48793   1.32710    0.000
 5811.00    1.48599   1.32725    0.000
 5812.00    1.46301   1.32746    0.000
 5813.00    1.42924   1.32768    0.000
 5814.00    1.40649   1.32794    0.000
 5815.00    1.40780   1.32903    0.000
 5816.00    1.41941   1.33148    0.000
 5817.00    1.41874   1.33325    0.000
 5818.00    1.39182   1.33538    0.000
 5819.00    1.34224   1.33735    0.000
 5820.00    1.29325   1.33915    0.000
 5821.00    1.26642   1.34107    0.000
 5822.00    1.26854   1.34289    0.000
 5823.00    1.29461   1.34558    0.000
 5824.00    1.33172   1.34720    0.000
 5825.00    1.36765   1.34850    0.000
 5826.00    1.39600   1.34919    0.000
 5827.00    1.42012   1.34977    0.000
 5828.00    1.44879   1.35013    0.000
 5829.00    1.47655   1.34956    0.000
 5830.00    1.48423   1.34944    0.000
 5831.00    1.46192   1.34903    0.000
 5832.00    1.41576   1.34820    0.000
 5833.00    1.36631   1.34716    0.000
 5834.00    1.33791   1.34694    0.000
 5835.00    1.33650   1.34666    0.000
 5836.00    1.35196   1.34532    0.000
 5837.00    1.37304   1.34467    0.000
 5838.00    1.38901   1.34431    0.000
 5839.00    1.38781   1.34368    0.000
 5840.00    1.36469   1.34266    0.000
 5841.00    1.33448   1.34163    0.000
 5842.00    1.31638   1.33993    0.000
 5843.00    1.31260   1.33699    0.000
 5844.00    1.31495   1.33366    0.000
 5845.00    1.31552   1.32985    0.000
 5846.00    1.30991   1.32573    0.000
 5847.00    1.29905   1.32112    0.000
 5848.00    1.28664   1.31566    0.000
 5849.00    1.27676   1.30973    0.000
 5850.00    1.27345   1.30342    0.000
 5851.00    1.27928   1.29669    0.000
 5852.00    1.28766   1.29113    0.000
 5853.00    1.28169   1.28609    0.000
 5854.00    1.25494   1.28147    0.000
 5855.00    1.22093   1.27655    0.000
 5856.00    1.20152   1.27269    0.000
 5857.00    1.21589   1.27076    0.000
 5858.00    1.26055   1.26895    0.000
 5859.00    1.30862   1.26959    0.000
 5860.00    1.33752   1.26999    0.000
 5861.00    1.33877   1.27132    0.000
 5862.00    1.31599   1.27317    0.000
 5863.00    1.28219   1.27556    0.000
 5864.00    1.25445   1.27858    0.000
 5865.00    1.24858   1.28121    0.000
 5866.00    1.27054   1.28538    0.000
 5867.00    1.31377   1.28827    0.000
 5868.00    1.35849   1.29094    0.000
 5869.00    1.38099   1.29301    0.000
 5870.00    1.36994   1.29432    0.000
 5871.00    1.33083   1.29430    0.000
 5872.00    1.28705   1.29381    0.000
 5873.00    1.26457   1.29347    0.000
 5874.00    1.27134   1.29104    0.000
 5875.00    1.29695   1.28757    0.000
 5876.00    1.31694   1.28276    0.000
 5877.00    1.31103   1.27667    0.000
 5878.00    1.28022   1.26859    0.000
 5879.00    1.23882   1.25935    0.000
 5880.00    1.20444   1.24860    0.000
 5881.00    1.18500   1.23488    0.000
 5882.00    1.17172   1.22042    0.000
 5883.00    1.15504   1.20508    0.000
 5884.00    1.13500   1.18866    0.000
 5885.00    1.11715   1.17082    0.000
 5886.00    1.10815   1.15082    0.000
 5887.00    1.10741   1.12943    0.000
 5888.00    1.10596   1.10894    0.000
 5889.00    1.09947   1.09426    0.000
 5890.00    1.09183   1.08320    0.000
 5891.00    1.08739   1.07387    0.000
 5892.00    1.08830   1.06803    0.000
 5893.00    1.09565   1.06239    0.000
 5894.00    1.10792   1.05925    0.000
 5895.00    1.11590   1.06432    0.000
 5896.00    1.10810   1.07601    0.000
 5897.00    1.08704   1.09050    0.000
 5898.00    1.06644   1.10568    0.000
 5899.00    1.05719   1.12224    0.000
 5900.00    1.06333   1.13811    0.000
 5901.00    1.08085   1.15337   10.072
 5902.00    1.10471   1.17194   10.238
 5903.00    1.13949   1.18994   10.180
 5904.00    1.19138   1.20477    9.758
 5905.00    1.25505   1.21775    9.345
 5906.00    1.31672   1.22914    9.253
 5907.00    1.36046   1.23783    9.329
 5908.00    1.37666   1.24478    9.334
 5909.00    1.36893   1.25104    9.323
 5910.00    1.34467   1.25560    9.397
 5911.00    1.30708   1.25842    9.457
 5912.00    1.26531   1.25967    9.443
 5913.00    1.24016   1.26143    9.491
 5914.00    1.24422   1.26213    9.623
 5915.00    1.26950   1.26318    9.584
 5916.00    1.29729   1.26464    9.347
 5917.00    1.30733   1.26556    9.261
 5918.00    1.29185   1.26691    9.414
 5919.00    1.25912   1.26733    9.484
 5920.00    1.21771   1.26836    9.356
 5921.00    1.17298   1.26958    9.292
 5922.00    1.14104   1.27132    9.376
 5923.00    1.14485   1.27289    9.433
 5924.00    1.18361   1.27427    9.404
 5925.00    1.23354   1.27502    9.402
 5926.00    1.27994   1.27507    9.449
 5927.00    1.32149   1.27500    9.456
 5928.00    1.35740   1.27435    9.382
 5929.00    1.38371   1.27548    9.267
 5930.00    1.39280   1.27611    9.213
 5931.00    1.37873   1.27641    9.289
 5932.00    1.34706   1.27598    9.376
 5933.00    1.31117   1.27499    9.321
 5934.00    1.28303   1.27570    9.239
 5935.00    1.26869   1.27574    9.299
 5936.00    1.26440   1.27687    9.381
 5937.00    1.26123   1.27853    9.325
 5938.00    1.25161   1.27874    9.279
 5939.00    1.23262   1.27801    9.408
 5940.00    1.20831   1.27759    9.583
 5941.00    1.18621   1.27855    9.650
 5942.00    1.17359   1.27921    9.728
 5943.00    1.17456   1.27937    9.890
 5944.00    1.18827   1.27955    9.909
 5945.00    1.21077   1.27899    9.732
 5946.00    1.23713   1.27715    9.713
 5947.00    1.26571   1.27575    9.949
 5948.00    1.29918   1.27568   10.006
 5949.00    1.33644   1.27554    9.675
 5950.00    1.36938   1.27459    9.320
 5951.00    1.38794   1.27339    9.253
 5952.00    1.38408   1.27329    9.544
 5953.00    1.35737   1.27333    9.938
 5954.00    1.31518   1.27301    9.905
 5955.00    1.26576   1.27402    9.563
 5956.00    1.21761   1.27566    9.541
 5957.00    1.18434   1.27718    9.820
 5958.00    1.17997   1.27899    9.842
 5959.00    1.20337   1.28181    9.587
 5960.00    1.24065   1.28531    9.471
 5961.00    1.27954   1.28750    9.441
 5962.00    1.31307   1.29005    9.185
 5963.00    1.34009   1.29271    8.792
 5964.00    1.36125   1.29490    8.548
 5965.00    1.37260   1.29790    8.541
 5966.00    1.37132   1.29974    8.693
 5967.00    1.36504   1.30121    8.786
 5968.00    1.36316   1.30184    8.681
 5969.00    1.36475   1.30186    8.588
 5970.00    1.36358   1.30152    8.703
 5971.00    1.35540   1.30034    8.845
 5972.00    1.33887   1.29940    8.840
 5973.00    1.31574   1.29756    8.935
 5974.00    1.29116   1.29454    9.366
 5975.00    1.27302   1.29144    9.972
 5976.00    1.26589   1.28849   10.332
 5977.00    1.26713   1.28528   10.095
 5978.00    1.27075   1.28293    9.456
 5979.00    1.27109   1.28053    9.000
 5980.00    1.26883   1.27793    8.979
 5981.00    1.27167   1.27541    9.284
 5982.00    1.28231   1.27267    9.664
 5983.00    1.29480   1.27201    9.821
 5984.00    1.30346   1.27217    9.759
 5985.00    1.30589   1.27246    9.788
 5986.00    1.30028   1.27350    9.910
 5987.00    1.28563   1.27414    9.809
 5988.00    1.26533   1.27524    9.532
 5989.00    1.24762   1.27563    9.431
 5990.00    1.24356   1.27666    9.578
 5991.00    1.26400   1.27925    9.757
 5992.00    1.31396   1.28058    9.698
 5993.00    1.38439   1.28134    9.316
 5994.00    1.43996   1.28143    8.945
 5995.00    1.44302   1.28073    8.920
 5996.00    1.39774   1.27963    9.113
 5997.00    1.33684   1.27874    9.216
 5998.00    1.28977   1.27810    9.260
 5999.00    1.26970   1.27682    9.402
 6000.00    1.26435   1.27450    9.523
 6001.00    1.25475   1.27134    9.492
 6002.00    1.23708   1.26964    9.527
 6003.00    1.21553   1.26794    9.834
 6004.00    1.19287   1.26606   10.224
 6005.00    1.16997   1.26428   10.422
 6006.00    1.14650   1.26116   10.454
 6007.00    1.12450   1.25979   10.427
 6008.00    1.11065   1.25898   10.300
 6009.00    1.11394   1.25826   10.065
 6010.00    1.14236   1.25755    9.829
 6011.00    1.19346   1.25541    9.635
 6012.00    1.25133   1.25455    9.447
 6013.00    1.29761   1.25389    9.382
 6014.00    1.31866   1.25355    9.692
 6015.00    1.31190   1.25417   10.198
 6016.00    1.28474   1.25458   10.174
 6017.00    1.24121   1.25434    9.668
 6018.00    1.18225   1.25437    9.477
 6019.00    1.12197   1.25582    9.712
 6020.00    1.08554   1.25790    9.858
 6021.00    1.08941   1.26070    9.610
 6022.00    1.13339   1.26284    9.170
 6023.00    1.19599   1.26676    9.003
 6024.00    1.24959   1.27078    9.425
 6025.00    1.29246   1.27409   10.000
 6026.00    1.33713   1.27929    9.840
 6027.00    1.37853   1.28383    9.261
 6028.00    1.40127   1.28889    9.022
 6029.00    1.39956   1.29316    9.038
 6030.00    1.38014   1.29738    8.966
 6031.00    1.36094   1.30204    8.924
 6032.00    1.35533   1.30518    9.174
 6033.00    1.35538   1.30848    9.709
 6034.00    1.34768   1.31149   10.315
 6035.00    1.33080   1.31368   10.682
 6036.00    1.31021   1.31588   10.685
 6037.00    1.29227   1.31750   10.591
 6038.00    1.28282   1.31882   10.381
 6039.00    1.28580   1.32023    9.524
 6040.00    1.29837   1.32079    8.307
 6041.00    1.31123   1.32211    7.581
 6042.00    1.32823   1.32304    7.395
 6043.00    1.37019   1.32382    7.223
 6044.00    1.43632   1.32458    6.946
 6045.00    1.49383   1.32457    6.986
 6046.00    1.51849   1.32485    7.441
 6047.00    1.50873   1.32426    7.868
 6048.00    1.46974   1.32421    7.927
 6049.00    1.40881   1.32344    7.814
 6050.00    1.34088   1.32203    7.839
 6051.00    1.28597   1.32020    8.188
 6052.00    1.25719   1.31819    8.735
 6053.00    1.25563   1.31642    9.067
 6054.00    1.26712   1.31371    9.163
 6055.00    1.27154   1.31172    9.390
 6056.00    1.26381   1.30933    9.762
 6057.00    1.25182   1.30750   10.016
 6058.00    1.24466   1.30548   10.197
 6059.00    1.25135   1.30394   10.441
 6060.00    1.28179   1.30373   10.317
 6061.00    1.33784   1.30283    9.439
 6062.00    1.40183   1.30307    8.328
 6063.00    1.44956   1.30272    7.520
 6064.00    1.46808   1.30388    7.134
 6065.00    1.45846   1.30662    7.141
 6066.00    1.43489   1.30846    7.472
 6067.00    1.40644   1.31108    8.043
 6068.00    1.36349   1.31278    8.742
 6069.00    1.30103   1.31473    9.319
 6070.00    1.23540   1.31674    9.392
 6071.00    1.18476   1.31779    8.987
 6072.00    1.15551   1.31921    8.657
 6073.00    1.14801   1.31946    8.701
 6074.00    1.16039   1.31806    9.016
 6075.00    1.18831   1.31598    9.364
 6076.00    1.22506   1.31306    9.512
 6077.00    1.26263   1.31024    9.484
 6078.00    1.29217   1.30727    9.559
 6079.00    1.30391   1.30316    9.775
 6080.00    1.29028   1.29904    9.846
 6081.00    1.25598   1.29546    9.661
 6082.00    1.21648   1.29212    9.415
 6083.00    1.18371   1.28859    9.364
 6084.00    1.16315   1.28576    9.674
 6085.00    1.15738   1.28394   10.151
 6086.00    1.16538   1.28255   10.358
 6087.00    1.17941   1.28115   10.389
 6088.00    1.18872   1.27997   10.587
 6089.00    1.18803   1.27959   10.510
 6090.00    1.17999   1.27915    9.636
 6091.00    1.17603   1.27881    8.648
 6092.00    1.18706   1.27931    8.155
 6093.00    1.21057   1.28005    7.978
 6094.00    1.23822   1.28006    7.909
 6095.00    1.26695   1.27851    8.230
 6096.00    1.29465   1.27712    9.217
 6097.00    1.31509   1.27800   10.223
 6098.00    1.32957   1.27833   10.262
 6099.00    1.35496   1.27796    9.970
 6100.00    1.39614   1.27595   -2.000
 6101.00    1.42663   1.27360   -2.000
 6102.00    1.41571   1.27471   -2.000
 6103.00    1.34996   1.27545   -2.000
 6104.00    1.23891   1.27655   -2.000
 6105.00    1.11729   1.27733   -2.000
 6106.00    1.04209   1.27747   -2.000
 6107.00    1.07234   1.27951   -2.000
 6108.00    1.18668   1.28110   -2.000
 6109.00    1.27826   1.28316   -2.000
 6110.00    1.28580   1.28521   -2.000
 6111.00    1.23169   1.28642   -2.000
 6112.00    1.16712   1.28704    7.399
 6113.00    1.14106   1.28668    7.099
 6114.00    1.16913   1.28595    7.486
 6115.00    1.23330   1.28429    8.401
 6116.00    1.30533   1.28291    9.504
 6117.00    1.35842   1.28100   10.305
 6118.00    1.37881   1.27840   10.639
 6119.00    1.36845   1.27561   10.806
 6120.00    1.34440   1.27134   10.913
 6121.00    1.32878   1.26896   10.836
 6122.00    1.33215   1.26753   10.515
 6123.00    1.35292   1.26622   10.022
 6124.00    1.38096   1.26546    9.510
 6125.00    1.40256   1.26283    9.073
 6126.00    1.40643   1.26179    8.683
 6127.00    1.38941   1.26121    8.420
 6128.00    1.36113   1.26072    8.621
 6129.00    1.33631   1.26027    9.400
 6130.00    1.32552   1.25713    9.927
 6131.00    1.32370   1.25580    9.330
 6132.00    1.30551   1.25476    8.310
 6133.00    1.25823   1.25320    7.625
 6134.00    1.20176   1.25097    7.415
 6135.00    1.16008   1.24686    7.609
 6136.00    1.14204   1.24644    8.025
 6137.00    1.14111   1.24743    8.588
 6138.00    1.14100   1.24845    9.472
 6139.00    1.13934   1.24934   10.670
 6140.00    1.15271   1.24917   11.517
 6141.00    1.19053   1.25184   11.500
 6142.00    1.24607   1.25484   11.062
 6143.00    1.30380   1.25845   10.709
 6144.00    1.34625   1.26247   10.616
 6145.00    1.36590   1.26428   10.736
 6146.00    1.36675   1.26587   10.876
 6147.00    1.35858   1.26587   10.810
 6148.00    1.35110   1.26593   10.439
 6149.00    1.34474   1.26633    9.985
 6150.00    1.33314   1.26421    9.711
 6151.00    1.31252   1.26111    9.545
 6152.00    1.28250   1.25648    9.306
 6153.00    1.24448   1.25109    9.067
 6154.00    1.20350   1.24461    9.024
 6155.00    1.17131   1.23682    9.289
 6156.00    1.15990   1.22974    9.733
 6157.00    1.17269   1.22252    9.705
 6158.00    1.20596   1.21482    8.901
 6159.00    1.25188   1.20567    8.139
 6160.00    1.29963   1.19746    7.957
 6161.00    1.33636   1.19103    8.217
 6162.00    1.34837   1.18510    8.575
 6163.00    1.32357   1.18094    8.656
 6164.00    1.26279   1.17773    8.233
 6165.00    1.18566   1.17642    7.449
 6166.00    1.11356   1.17578    6.704
 6167.00    1.05973   1.17558    6.352
 6168.00    1.03826   1.17786    6.495
 6169.00    1.06379   1.18169    7.091
 6170.00    1.12357   1.18645    8.083
 6171.00    1.17550   1.19111    9.313
 6172.00    1.19730   1.19573   10.372
 6173.00    1.19965   1.20057   10.747
 6174.00    1.19544   1.20584   10.576
 6175.00    1.19079   1.21113   10.542
 6176.00    1.19394   1.21623   10.813
 6177.00    1.21291   1.22097   10.979
 6178.00    1.24130   1.22403   10.652
 6179.00    1.26112   1.22595    9.901
 6180.00    1.25881   1.22764    9.328
 6181.00    1.23214   1.22893    9.397
 6182.00    1.19557   1.22974    9.841
 6183.00    1.16941   1.22916    9.996
 6184.00    1.15899   1.22616    9.873
 6185.00    1.15896   1.22385    9.883
 6186.00    1.16581   1.22208    9.908
 6187.00    1.17773   1.21981    9.669
 6188.00    1.19186   1.21807    9.368
 6189.00    1.20385   1.21438    9.316
 6190.00    1.20834   1.21263    9.552
 6191.00    1.20491   1.21256    9.984
 6192.00    1.20307   1.21167   10.494
 6193.00    1.21093   1.21275   10.905
 6194.00    1.22573   1.21333   11.005
 6195.00    1.24102   1.21521   10.838
 6196.00    1.25365   1.21815   10.791
 6197.00    1.26854   1.21972   10.974
 6198.00    1.29755   1.22250   10.969
 6199.00    1.33601   1.22537   10.654
 6200.00    1.35576   1.22801   10.517
 6201.00    1.33902   1.23048   10.732
 6202.00    1.29414   1.23167   10.931
 6203.00    1.24652   1.23231   10.848
 6204.00    1.22556   1.23265   10.599
 6205.00    1.23347   1.23238   10.259
 6206.00    1.24436   1.23093    9.830
 6207.00    1.24046   1.22849    9.577
 6208.00    1.22263   1.22477    9.832
 6209.00    1.20504   1.22044   10.370
 6210.00    1.20361   1.21658   10.472
 6211.00    1.21254   1.21140   10.179
 6212.00    1.21380   1.20556   10.136
 6213.00    1.20860   1.19972   10.399
 6214.00    1.21008   1.19391   10.624
 6215.00    1.21747   1.19017   10.748
 6216.00    1.21905   1.18636   10.922
 6217.00    1.20494   1.18187   11.097
 6218.00    1.17761   1.17852   11.132
 6219.00    1.16150   1.17560   11.080
 6220.00    1.17678   1.17467   11.049
 6221.00    1.20804   1.17457   11.005
 6222.00    1.22693   1.17324   10.888
 6223.00    1.22017   1.17219   10.749
 6224.00    1.19418   1.17133   10.656
 6225.00    1.17351   1.17134   10.606
 6226.00    1.17429   1.17196   10.550
 6227.00    1.18636   1.17207   10.427
 6228.00    1.19731   1.17115   10.212
 6229.00    1.20795   1.17062    9.955
 6230.00    1.21862   1.17079    9.804
 6231.00    1.22227   1.17063    9.948
 6232.00    1.21434   1.17166   10.277
 6233.00    1.19742   1.17102   10.293
 6234.00    1.17728   1.17087    9.999
 6235.00    1.16035   1.17127   10.018
 6236.00    1.15108   1.16994   10.539
 6237.00    1.14975   1.17054   11.150
 6238.00    1.14870   1.16931   11.448
 6239.00    1.13694   1.16838   11.410
 6240.00    1.11684   1.16806   11.243
 6241.00    1.10272   1.16563   11.169
 6242.00    1.10495   1.16514   11.240
 6243.00    1.12425   1.16372   11.376
 6244.00    1.14874   1.16208   11.511
 6245.00    1.16254   1.16136   11.617
 6246.00    1.16275   1.15935   11.699
 6247.00    1.15843   1.15826   11.693
 6248.00    1.16272   1.15742   11.352
 6249.00    1.17967   1.15543   10.683
 6250.00    1.18926   1.15371   10.298
 6251.00    1.17469   1.15181   10.546
 6252.00    1.15607   1.14998   10.822
 6253.00    1.15900   1.14962   10.455
 6254.00    1.17788   1.14829    9.966
 6255.00    1.19425   1.14754    9.895
 6256.00    1.19794   1.14759   10.024
 6257.00    1.18979   1.14792   10.022
 6258.00    1.18046   1.15053    9.934
 6259.00    1.17537   1.15272    9.919
 6260.00    1.16702   1.15625   10.020
 6261.00    1.15419   1.16047   10.085
 6262.00    1.15048   1.16423    9.810
 6263.00    1.16395   1.16921    9.244
 6264.00    1.18805   1.17362    8.794
 6265.00    1.21183   1.17884    8.630
 6266.00    1.22542   1.18402    8.663
 6267.00    1.22179   1.18780    8.781
 6268.00    1.19917   1.19141    8.898
 6269.00    1.16709   1.19450    8.924
 6270.00    1.14360   1.19772    8.812
 6271.00    1.14080   1.20097    8.709
 6272.00    1.15851   1.20294    8.866
 6273.00    1.17987   1.20412    9.376
 6274.00    1.18290   1.20557   10.097
 6275.00    1.16786   1.20670   10.522
 6276.00    1.14932   1.20841   10.181
 6277.00    1.12922   1.20993    9.646
 6278.00    1.10422   1.20989    9.645
 6279.00    1.08658   1.21120   10.047
 6280.00    1.09458   1.21223    0.000
 6281.00    1.13308   1.21362    0.000
 6282.00    1.19099   1.21634    0.000
 6283.00    1.24312   1.21653    0.000
 6284.00    1.26764   1.21797    0.000
 6285.00    1.26440   1.21939    0.000
 6286.00    1.24539   1.21990    0.000
 6287.00    1.22305   1.22227    0.000
 6288.00    1.20623   1.22187    0.000
 6289.00    1.19752   1.22112    0.000
 6290.00    1.19343   1.22063    0.000
 6291.00    1.18640   1.21849    0.000
 6292.00    1.17641   1.21809    0.000
 6293.00    1.17548   1.21627    0.000
 6294.00    1.19212   1.21297    0.000
 6295.00    1.22194   1.21052    0.000
 6296.00    1.24613   1.20751    0.000
 6297.00    1.23925   1.20632    0.000
 6298.00    1.20298   1.20533    0.000
 6299.00    1.16949   1.20300    0.000
 6300.00    1.16304   1.20185    0.000
 6301.00    1.18669   1.20143    0.000
 6302.00    1.22572   1.20241    0.000
 6303.00    1.25672   1.20348    0.000
 6304.00    1.26803   1.20350    0.000
 6305.00    1.26106   1.20414    0.000
 6306.00    1.24046   1.20534    0.000
 6307.00    1.21424   1.20677    0.000
 6308.00    1.19854   1.20701    0.000
 6309.00    1.20545   1.20664    0.000
 6310.00    1.22148   1.20619    0.000
 6311.00    1.22252   1.20573    0.000
 6312.00    1.20205   1.20536    0.000
 6313.00    1.17136   1.20341    0.000
 6314.00    1.15295   1.20248    0.000
 6315.00    1.16316   1.20165    0.000
 6316.00    1.19450   1.20066    0.000
 6317.00    1.22762   1.20115    0.000
 6318.00    1.24622   1.20078    0.000
 6319.00    1.24555   1.20247    0.000
 6320.00    1.23639   1.20421    0.000
 6321.00    1.22771   1.20558    9.850
 6322.00    1.21543   1.20891    9.846
 6323.00    1.19709   1.21113    9.744
 6324.00    1.18068   1.21478    9.877
 6325.00    1.17705   1.21720   10.354
 6326.00    1.19365   1.21910   10.655
 6327.00    1.22752   1.22239   10.100
 6328.00    1.26380   1.22305    8.733
 6329.00    1.28407   1.22433    7.500
 6330.00    1.27223   1.22438    7.052
 6331.00    1.22259   1.22396    7.194
 6332.00    1.14433   1.22453    7.338
 6333.00    1.06582   1.22246    7.532
 6334.00    1.02628   1.22062    8.514
 6335.00    1.04968   1.21948   10.369
 6336.00    1.13148   1.21839   11.373
 6337.00    1.22631   1.21731   10.831
 6338.00    1.27448   1.21585   10.365
 6339.00    1.26140   1.21448   10.308
 6340.00    1.21183   1.21444   10.129
 6341.00    1.15643   1.21517    9.720
 6342.00    1.11781   1.21446    9.367
 6343.00    1.09925   1.21494    9.387
 6344.00    1.09462   1.21568    9.958
 6345.00    1.10428   1.21615   10.846
 6346.00    1.13482   1.21740   11.212
 6347.00    1.19436   1.21667   10.124
 6348.00    1.26998   1.21630    8.305
 6349.00    1.31098   1.21636    7.157
 6350.00    1.28496   1.21496    6.845
 6351.00    1.22308   1.21344    6.822
 6352.00    1.16722   1.21049    6.797
 6353.00    1.12862   1.20685    7.167
 6354.00    1.10804   1.20400    8.312
 6355.00    1.11043   1.20058    9.858
 6356.00    1.13927   1.19661   10.496
 6357.00    1.19081   1.19252    9.547
 6358.00    1.24500   1.18900    8.209
 6359.00    1.26992   1.18684    7.632
 6360.00    1.26057   1.18553    7.866
 6361.00    1.24427   1.18468    8.421
 6362.00    1.23594   1.18466    8.916
 6363.00    1.22839   1.18655    9.356
 6364.00    1.21821   1.18951    9.752
 6365.00    1.20913   1.19310    9.994
 6366.00    1.19657   1.19786   10.128
 6367.00    1.17215   1.20290   10.349
 6368.00    1.14550   1.20849   10.690
 6369.00    1.13786   1.21408   10.892
 6370.00    1.15694   1.21943   10.413
 6371.00    1.19223   1.22503    9.193
 6372.00    1.21749   1.22988    8.106
 6373.00    1.21312   1.23353    7.642
 6374.00    1.19902   1.23660    7.518
 6375.00    1.20532   1.23978    7.430
 6376.00    1.22591   1.24208    7.671
 6377.00    1.23835   1.24343    8.653
 6378.00    1.23550   1.24398   10.041
 6379.00    1.22163   1.24403   10.736
 6380.00    1.20443   1.24503   10.650
 6381.00    1.19512   1.24506   10.521
 6382.00    1.20750   1.24420   10.600
 6383.00    1.24308   1.24347   10.818
 6384.00    1.28128   1.24268   11.013
 6385.00    1.29415   1.24265   11.090
 6386.00    1.26133   1.24168   11.131
 6387.00    1.19437   1.23999   11.252
 6388.00    1.14007   1.23848   11.467
 6389.00    1.12294   1.23739   11.520
 6390.00    1.12333   1.23645   10.998
 6391.00    1.11761   1.23454   10.237
 6392.00    1.09857   1.23271    9.988
 6393.00    1.07940   1.23113   10.265
 6394.00    1.08586   1.23053   10.416
 6395.00    1.12617   1.22966   10.188
 6396.00    1.18644   1.22845    9.916
 6397.00    1.24792   1.22801    9.589
 6398.00    1.29356   1.22691    9.008
 6399.00    1.31120   1.22816    8.525
 6400.00    1.29800   1.22895    8.585
 6401.00    1.26800   1.22858    9.013
 6402.00    1.24236   1.22964    9.284
 6403.00    1.22808   1.22863    9.494
 6404.00    1.22216   1.23008   10.125
 6405.00    1.22504   1.23195   10.953
 6406.00    1.23997   1.23066   11.261
 6407.00    1.26835   1.23137   11.207
 6408.00    1.30433   1.23105   11.339
 6409.00    1.33004   1.23061   11.450
 6410.00    1.33008   1.23137   11.245
 6411.00    1.30760   1.23004   11.168
 6412.00    1.28127   1.23007   11.511
 6413.00    1.27773   1.23082   11.648
 6414.00    1.30509   1.22973   11.084
 6415.00    1.33608   1.22931   10.414
 6416.00    1.34172   1.22974   10.151
 6417.00    1.31588   1.23039   10.285
 6418.00    1.27021   1.23148   10.541
 6419.00    1.22651   1.23152   10.493
 6420.00    1.19815   1.23161   10.140
 6421.00    1.18291   1.23354    9.989
 6422.00    1.17576   1.23518   10.183
 6423.00    1.17447   1.23573   10.374
 6424.00    1.17655   1.23617   10.390
 6425.00    1.17863   1.23709   10.439
 6426.00    1.17931   1.23888   10.546
 6427.00    1.17961   1.24029   10.507
 6428.00    1.18150   1.23948   10.388
 6429.00    1.18767   1.23863   10.458
 6430.00    1.20231   1.24006   10.657
 6431.00    1.22826   1.24112   10.701
 6432.00    1.26013   1.24170   10.694
 6433.00    1.28648   1.24095   10.941
 6434.00    1.29719   1.23962   11.279
 6435.00    1.28826   1.24197   11.316
 6436.00    1.26696   1.24361   11.247
 6437.00    1.24763   1.24355   11.405
 6438.00    1.24365   1.24444   11.400
 6439.00    1.26081   1.24422   10.851
 6440.00    1.29106   1.24575   10.363
 6441.00    1.32166   1.24725   10.371
 6442.00    1.34598   1.24577   10.331
 6443.00    1.35899   1.24610    9.841
 6444.00    1.35254   1.24610    9.560
 6445.00    1.32166   1.24457    9.946
 6446.00    1.27086   1.24428   10.575
 6447.00    1.21761   1.24140   10.853
 6448.00    1.19053   1.23925   10.852
 6449.00    1.20315   1.23950   10.877
 6450.00    1.23961   1.23772   10.996
 6451.00    1.26955   1.23734   11.114
 6452.00    1.26306   1.23580   11.077
 6453.00    1.21914   1.23354   10.956
 6454.00    1.16963   1.23553   11.041
 6455.00    1.13930   1.23668   11.296
 6456.00    1.13237   1.23763   11.295
 6457.00    1.14633   1.23812   10.963
 6458.00    1.17746   1.23743   10.664
 6459.00    1.22167   1.23986   10.536
 6460.00    1.27377   1.24148   10.464
 6461.00    1.32494   1.24227   10.349
 6462.00    1.36504   1.24385   10.181
 6463.00    1.38932   1.24456   10.037
 6464.00    1.39852   1.24571    9.999
 6465.00    1.39561   1.24592   10.016
 6466.00    1.38111   1.24609    9.996
 6467.00    1.34689   1.24794   10.025
 6468.00    1.28806   1.24941   10.245
 6469.00    1.22175   1.24943   10.633
 6470.00    1.17247   1.24881   11.030
 6471.00    1.14932   1.24894   11.271
 6472.00    1.14790   1.24939   11.311
 6473.00    1.15703   1.24936   11.338
 6474.00    1.16901   1.24826   11.499
 6475.00    1.18790   1.24717   11.651
 6476.00    1.21598   1.24657   11.598
 6477.00    1.24289   1.24478   11.354
 6478.00    1.25830   1.24262   11.109
 6479.00    1.26213   1.24029   11.104
 6480.00    1.26299   1.23786   11.319
 6481.00    1.27403   1.23534   11.350
 6482.00    1.29728   1.23222   11.019
 6483.00    1.31841   1.22887   10.653
 6484.00    1.32438   1.22413   10.452
 6485.00    1.31145   1.21897   10.344
 6486.00    1.27988   1.21419   10.312
 6487.00    1.23233   1.20909   10.417
 6488.00    1.17712   1.20371   10.441
 6489.00    1.12777   1.19592   10.003
 6490.00    1.09757   1.18889    9.346
 6491.00    1.09366   1.18367    9.002
 6492.00    1.10650   1.17702    8.986
 6493.00    1.11828   1.17180    8.988
 6494.00    1.12943   1.16658    8.866
 6495.00    1.14965   1.16350    8.691
 6496.00    1.16677   1.16365    8.573
 6497.00    1.16110   1.16119    8.591
 6498.00    1.14232   1.16196    8.742
 6499.00    1.13605   1.16569    8.885
 6500.00    1.15235   1.16984    8.702
 6501.00    1.18512   1.17659    8.215
 6502.00    1.21880   1.18077    8.175
 6503.00    1.24107   1.18644    9.131
 6504.00    1.25580   1.19468   10.429
 6505.00    1.27383   1.20086   10.582
 6506.00    1.30140   1.20725   10.132
 6507.00    1.33569   1.21225   10.070
 6508.00    1.36342   1.21650    9.976
 6509.00    1.37321   1.22155    9.540
 6510.00    1.36492   1.22468    9.430
 6511.00    1.34615   1.22664    9.917
 6512.00    1.32682   1.22853   10.246
 6513.00    1.30492   1.22957   10.022
 6514.00    1.26501   1.23072   10.084
 6515.00    1.21362   1.23182   10.778
 6516.00    1.18649   1.23148   11.307
 6517.00    1.20022   1.23154   11.158
 6518.00    1.23721   1.23206   10.956
 6519.00    1.27308   1.23221   11.069
 6520.00    1.28988   1.23341   11.294
 6521.00    1.28260   1.23324   11.415
 6522.00    1.25814   1.23268   11.385
 6523.00    1.22656   1.23421   11.272
 6524.00    1.19792   1.23483   11.174
 6525.00    1.18113   1.23537   11.100
 6526.00    1.18022   1.23569   10.994
 6527.00    1.18763   1.23519   10.848
 6528.00    1.19186   1.23647    0.000
 6529.00    1.19388   1.23717    0.000
 6530.00    1.20113   1.23671    0.000
 6531.00    1.21279   1.23704    0.000
 6532.00    1.21904   1.23714    0.000
 6533.00    1.20463   1.23758    0.000
 6534.00    1.16736   1.23813    0.000
 6535.00    1.13711   1.23716    0.000
 6536.00    1.14121   1.23590    0.000
 6537.00    1.16796   1.23559    0.000
 6538.00    1.19512   1.23514    0.000
 6539.00    1.21809   1.23389    0.000
 6540.00    1.23588   1.23128    0.000
 6541.00    1.23982   1.22728    0.000
 6542.00    1.22732   1.22504    0.000
 6543.00    1.20964   1.22279    0.000
 6544.00    1.19634   1.21785    0.000
 6545.00    1.18659   1.21299    0.000
 6546.00    1.17513   1.20757    0.000
 6547.00    1.15728   1.20277    0.000
 6548.00    1.13599   1.19801    0.000
 6549.00    1.12294   1.18987    0.000
 6550.00    1.13032   1.18289    0.000
 6551.00    1.16274   1.17696    0.000
 6552.00    1.20215   1.16847    0.000
 6553.00    1.21786   1.15950    0.000
 6554.00    1.21021   1.15079    0.000
 6555.00    1.20585   1.14248    0.000
 6556.00    1.21267   1.13494    0.000
 6557.00    1.21851   1.12464    0.000
 6558.00    1.21462   1.11404    0.000
 6559.00    1.20009   1.10897    0.000
 6560.00    1.17984   1.10338    0.000
 6561.00    1.16083   1.09698    0.000
 6562.00    1.14682   1.09436    0.000
 6563.00    1.14045   1.09258    0.000
 6564.00    1.14713   1.09397    0.000
 6565.00    1.16723   1.09486    0.000
 6566.00    1.18660   1.09494    0.000
 6567.00    1.19003   1.10254    0.000
 6568.00    1.17688   1.11113    0.000
 6569.00    1.15816   1.11710    0.000
 6570.00    1.15025   1.12366    0.000
 6571.00    1.15733   1.13041    0.000
 6572.00    1.16108   1.13864    0.000
 6573.00    1.14887   1.14684    0.000
 6574.00    1.13159   1.15418    0.000
 6575.00    1.12262   1.16079    0.000
 6576.00    1.12498   1.16645    0.000
 6577.00    1.13782   1.17244    0.000
 6578.00    1.15954   1.17734    0.000
 6579.00    1.18431   1.18210    0.000
 6580.00    1.20221   1.18699    0.000
 6581.00    1.20710   1.18990    0.000
 6582.00    1.19995   1.19296    0.000
 6583.00    1.18900   1.19524    0.000
 6584.00    1.18487   1.19583    0.000
 6585.00    1.18641   1.19802    0.000
 6586.00    1.18479   1.19930    0.000
 6587.00    1.18510   1.19878    0.000
 6588.00    1.20189   1.19798    0.000
 6589.00    1.23610   1.19677    0.000
 6590.00    1.27560   1.19691    0.000
 6591.00    1.30731   1.19639    0.000
 6592.00    1.32358   1.19480    0.000
 6593.00    1.32836   1.19419    0.000
 6594.00    1.32875   1.19383    0.000
 6595.00    1.32126   1.19368    0.000
 6596.00    1.29698   1.19246    0.000
 6597.00    1.25128   1.19241    0.000
 6598.00    1.18919   1.19456    0.000
 6599.00    1.12917   1.19505    0.000
 6600.00    1.09295   1.19522    0.000
 6601.00    1.09404   1.19566    0.000
 6602.00    1.12834   1.19613    0.000
 6603.00    1.16974   1.19764    0.000
 6604.00    1.19208   1.19785    0.000
 6605.00    1.18590   1.19836    0.000
 6606.00    1.15813   1.19991    0.000
 6607.00    1.12889   1.20018    0.000
 6608.00    1.11835   1.20064    0.000
 6609.00    1.13673   1.20156   11.197
 6610.00    1.17195   1.20349   10.944
 6611.00    1.19375   1.20528   10.830
 6612.00    1.19457   1.20523   10.729
 6613.00    1.19757   1.20700   10.107
 6614.00    1.22249   1.20955    8.855
 6615.00    1.27008   1.21092    7.449
 6616.00    1.31490   1.21181    6.416
 6617.00    1.32315   1.21162    5.936
 6618.00    1.30506   1.21285    5.823
 6619.00    1.30172   1.21336    5.798
 6620.00    1.32098   1.21147    5.779
 6621.00    1.33518   1.21099    5.834
 6622.00    1.30898   1.20978    5.977
 6623.00    1.22464   1.20762    6.194
 6624.00    1.11425   1.20605    6.579
 6625.00    1.03387   1.20315    7.272
 6626.00    1.01494   1.20096    8.209
 6627.00    1.05524   1.19858    9.036
 6628.00    1.11866   1.19484    9.409
 6629.00    1.16083   1.19317    9.341
 6630.00    1.15964   1.19173    9.212
 6631.00    1.12447   1.18963    9.313
 6632.00    1.09768   1.18829    9.562
 6633.00    1.11215   1.18675    9.784
 6634.00    1.15675   1.18584    9.981
 6635.00    1.20060   1.18555   10.174
 6636.00    1.21671   1.18527   10.254
 6637.00    1.20101   1.18514   10.155
 6638.00    1.17776   1.18492    9.977
 6639.00    1.16388   1.18572    9.858
 6640.00    1.15307   1.18699    9.894
 6641.00    1.14235   1.18731   10.128
 6642.00    1.14221   1.18730   10.522
 6643.00    1.16084   1.18735   10.851
 6644.00    1.19437   1.18882   10.794
 6645.00    1.21844   1.19025   10.627
 6646.00    1.20763   1.18910   10.866
 6647.00    1.20541   1.18889   10.524
 6648.00    1.29491   1.19030    8.432
 6649.00    1.45687   1.19050    6.460
 6650.00    1.58103   1.19003    5.564
 6651.00    1.59165   1.18914    5.210
 6652.00    1.47797   1.18874    4.903
 6653.00    1.29018   1.18881    4.846
 6654.00    1.11099   1.18737    5.458
 6655.00    1.00545   1.18555    6.546
 6656.00    0.99784   1.18461    6.921
 6657.00    1.05241   1.18338    6.573
 6658.00    1.10970   1.18118    6.495
 6659.00    1.14022   1.17940    6.699
 6660.00    1.14382   1.17822    6.840
 6661.00    1.13880   1.17664    7.050
 6662.00    1.14549   1.17548    7.607
 6663.00    1.17040   1.17409    8.375
 6664.00    1.20626   1.17324    8.896
 6665.00    1.23524   1.17358    8.888
 6666.00    1.24342   1.17250    8.504
 6667.00    1.23093   1.17214    8.141
 6668.00    1.20409   1.17325    8.056
 6669.00    1.16958   1.17338    8.302
 6670.00    1.13609   1.17359    8.822
 6671.00    1.11512   1.17412    9.381
 6672.00    1.11931   1.17389    9.498
 6673.00    1.15721   1.17339    8.786
 6674.00    1.21442   1.17408    7.755
 6675.00    1.25559   1.17439    7.126
 6676.00    1.26335   1.17345    6.942
 6677.00    1.24796   1.17345    6.916
 6678.00    1.22764   1.17353    6.992
 6679.00    1.21711   1.17409    7.349
 6680.00    1.21514   1.17412    8.003
 6681.00    1.20812   1.17264    8.694
 6682.00    1.18816   1.17402    9.212
 6683.00    1.16076   1.17594    9.512
 6684.00    1.15028   1.17589    9.396
 6685.00    1.17577   1.17641    8.765
 6686.00    1.20631   1.17700    8.057
 6687.00    1.20059   1.17789    7.665
 6688.00    1.18157   1.17818    7.569
 6689.00    1.18950   1.17802    7.670
 6690.00    1.20205   1.17814    8.103
 6691.00    1.18104   1.17706    9.031
 6692.00    1.14056   1.17686   10.094
 6693.00    1.11534   1.17644   10.470
 6694.00    1.11861   1.17500   10.007
 6695.00    1.14706   1.17477    9.115
 6696.00    1.18914   1.17353    0.000
 6697.00    1.22306   1.17258    0.000
 6698.00    1.21901   1.17220    0.000
 6699.00    1.16978   1.16985    0.000
 6700.00    1.10695   1.16930    0.000
 6701.00    1.06638   1.16948    0.000
 6702.00    1.06435   1.16791    0.000
 6703.00    1.08857   1.16763    0.000
 6704.00    1.10282   1.16691    0.000
 6705.00    1.08680   1.16495    0.000
 6706.00    1.05094   1.16421    0.000
 6707.00    1.02107   1.16243    0.000
 6708.00    1.02194   1.16023    0.000
 6709.00    1.04456   1.15940    0.000
 6710.00    1.05475   1.15722    0.000
 6711.00    1.05051   1.15513    0.000
 6712.00    1.05762   1.15335    0.000
 6713.00    1.07429   1.15044    0.000
 6714.00    1.07619   1.14977    0.000
 6715.00    1.05956   1.14905    0.000
 6716.00    1.04050   1.14704    0.000
 6717.00    1.03428   1.14662    0.000
 6718.00    1.04996   1.14670    0.000
 6719.00    1.08815   1.14740    0.000
 6720.00    1.13974   1.14752    0.000
 6721.00    1.18572   1.14747    0.000
 6722.00    1.21317   1.15031    0.000
 6723.00    1.23355   1.15259    0.000
 6724.00    1.25869   1.15325    0.000
 6725.00    1.27428   1.15474    0.000
 6726.00    1.26361   1.15667    0.000
 6727.00    1.23231   1.15874    0.000
 6728.00    1.20121   1.15965    0.000
 6729.00    1.19645   1.15961    0.000
 6730.00    1.23434   1.16090    0.000
 6731.00    1.30990   1.16225    0.000
 6732.00    1.39135   1.16183    0.000
 6733.00    1.42566   1.16112    0.000
 6734.00    1.38482   1.16079    0.000
 6735.00    1.28693   1.16020    0.000
 6736.00    1.17426   1.15943    0.000
 6737.00    1.09357   1.15767    0.000
 6738.00    1.06215   1.15592    0.000
 6739.00    1.06329   1.15561    0.000
 6740.00    1.07962   1.15420    0.000
 6741.00    1.10163   1.15208    0.000
 6742.00    1.11649   1.15063    0.000
 6743.00    1.11251   1.14962    0.000
 6744.00    1.10005   1.14936    0.000
 6745.00    1.10344   1.14775    0.000
 6746.00    1.13012   1.14691    0.000
 6747.00    1.16723   1.14765    0.000
 6748.00    1.19021   1.14705    0.000
 6749.00    1.18331   1.14771    0.000
 6750.00    1.16997   1.14836    0.000
 6751.00    1.18345   1.14897    0.000
 6752.00    1.21661   1.15145    0.000
 6753.00    1.23767   1.15211    8.567
 6754.00    1.22141   1.15383    8.316
 6755.00    1.16063   1.15682    8.097
 6756.00    1.07434   1.15749    8.250
 6757.00    1.00240   1.15956    8.955
 6758.00    0.99454   1.16177    9.367
 6759.00    1.06504   1.16255    8.641
 6760.00    1.16191   1.16445    7.574
 6761.00    1.22362   1.16534    6.876
 6762.00    1.22348   1.16511    6.594
 6763.00    1.16726   1.16596    6.646
 6764.00    1.08552   1.16652    6.960
 6765.00    1.00968   1.16600    7.514
 6766.00    0.95880   1.16578    8.347
 6767.00    0.94175   1.16591    9.353
 6768.00    0.95897   1.16625   10.070
 6769.00    1.00413   1.16643   10.262
 6770.00    1.06458   1.16596   10.334
 6771.00    1.12028   1.16633   10.549
 6772.00    1.15045   1.16741   10.771
 6773.00    1.15515   1.16761   10.786
 6774.00    1.15055   1.16772   10.527
 6775.00    1.13820   1.16811   10.250
 6776.00    1.10942   1.16859   10.258
 6777.00    1.07546   1.16851   10.385
 6778.00    1.05893   1.16750   10.231
 6779.00    1.06198   1.16684    9.907
 6780.00    1.07095   1.16614    9.753
 6781.00    1.07650   1.16459    9.695
 6782.00    1.07799   1.16352    9.538
 6783.00    1.08409   1.16259    9.446
 6784.00    1.10563   1.16089    9.587
 6785.00    1.14539   1.15934    9.639
 6786.00    1.19121   1.15824    9.318
 6787.00    1.21209   1.15714    9.034
 6788.00    1.18880   1.15620    9.195
 6789.00    1.14248   1.15578    9.714
 6790.00    1.10730   1.15571   10.163
 6791.00    1.10244   1.15590    9.978
 6792.00    1.12268   1.15627    9.247
 6793.00    1.13787   1.15609    8.741
 6794.00    1.12737   1.15663    8.671
 6795.00    1.09937   1.15787    8.555
 6796.00    1.06714   1.15761    8.275
 6797.00    1.03652   1.15847    8.379
 6798.00    1.01650   1.15976    9.088
 6799.00    1.02177   1.15930    9.911
 6800.00    1.05887   1.16080   10.258
 6801.00    1.11927   1.16159   10.153
 6802.00    1.17728   1.16075    9.925
 6803.00    1.20090   1.16235    9.837
 6804.00    1.18786   1.16246    9.984
 6805.00    1.16469   1.16204   10.309
 6806.00    1.15053   1.16311   10.620
 6807.00    1.15066   1.16220   10.684
 6808.00    1.16620   1.16288   10.539
 6809.00    1.19237   1.16370   10.414
 6810.00    1.21015   1.16194   10.365
 6811.00    1.19835   1.16329   10.334
 6812.00    1.15864   1.16433   10.327
 6813.00    1.11253   1.16330   10.376
 6814.00    1.08826   1.16447   10.399
 6815.00    1.10064   1.16481   10.336
 6816.00    1.12864   1.16518   10.331
 6817.00    1.14550   1.16656   10.452
 6818.00    1.15646   1.16642   10.368
 6819.00    1.17408   1.16747    9.917
 6820.00    1.19007   1.16879    9.578
 6821.00    1.19600   1.16897    9.608
 6822.00    1.20236   1.16977    9.583
 6823.00    1.21928   1.16974    9.244
 6824.00    1.24154   1.16984    9.035
 6825.00    1.25998   1.17069    9.218
 6826.00    1.27041   1.17067    9.486
 6827.00    1.27485   1.17038    9.470
 6828.00    1.27869   1.16972    9.150
 6829.00    1.27439   1.16924    8.778
 6830.00    1.24159   1.16894    8.636
 6831.00    1.18497   1.16708    8.748
 6832.00    1.14147   1.16562    8.873
 6833.00    1.14107   1.16489    8.844
 6834.00    1.18821   1.16314    8.709
 6835.00    1.25371   1.16142    8.630
 6836.00    1.28985   1.15940    8.763
 6837.00    1.28029   1.15763    9.060
 6838.00    1.24374   1.15672    9.287
 6839.00    1.20583   1.15495    9.310
 6840.00    1.18692   1.15366    9.206
 6841.00    1.19234   1.15299    9.183
 6842.00    1.21568   1.15175    9.383
 6843.00    1.24911   1.15150    9.570
 6844.00    1.28160   1.15107    9.416
 6845.00    1.29376   1.15064    9.159
 6846.00    1.27099   1.15113    9.179
 6847.00    1.22262   1.15092    9.399
 6848.00    1.17222   1.15146    9.567
 6849.00    1.14153   1.15153    9.677
 6850.00    1.13856   1.15002    9.825
 6851.00    1.14893   1.15050    9.962
 6852.00    1.15646   1.15020    9.988
 6853.00    1.16207   1.14828    9.875
 6854.00    1.17388   1.14822    9.608
 6855.00    1.19629   1.14722    9.164
 6856.00    1.22042   1.14580    8.703
 6857.00    1.22262   1.14521    8.548
 6858.00    1.19467   1.14355    8.786
 6859.00    1.15868   1.14326    9.157
 6860.00    1.14626   1.14309    9.331
 6861.00    1.18049   1.14168    9.189
 6862.00    1.24893   1.14191    8.918
 6863.00    1.30457   1.14176    8.845
 6864.00    1.31858   1.14092    9.041
 6865.00    1.29752   1.14144    9.295
 6866.00    1.26713   1.14200    9.432
 6867.00    1.25584   1.14211    9.441
 6868.00    1.26461   1.14218    9.421
 6869.00    1.26923   1.14295    9.476
 6870.00    1.24988   1.14369    9.557
 6871.00    1.20272   1.14332    9.543
 6872.00    1.14728   1.14423    9.520
 6873.00    1.11316   1.14605    9.645
 6874.00    1.11150   1.14635    9.767
 6875.00    1.13405   1.14668    9.624
 6876.00    1.16172   1.14816    9.357
 6877.00    1.17399   1.14953    9.265
 6878.00    1.16079   1.15020    9.409
 6879.00    1.12797   1.15144    9.681
 6880.00    1.09997   1.15353    9.878
 6881.00    1.09420   1.15479    9.854
 6882.00    1.09541   1.15611    9.715
 6883.00    1.08811   1.15831    9.672
 6884.00    1.08670   1.15993    9.883
 6885.00    1.10150   1.16155   10.307
 6886.00    1.11210   1.16353   10.571
 6887.00    1.09987   1.16550   10.462
 6888.00    1.07187   1.16774   10.332
 6889.00    1.05123   1.16926   10.404
 6890.00    1.06415   1.17090   10.450
 6891.00    1.10837   1.17332   10.291
 6892.00    1.14668   1.17430   10.044
 6893.00    1.15729   1.17546    9.840
 6894.00    1.15073   1.17775    9.717
 6895.00    1.13773   1.17806    9.672
 6896.00    1.11934   1.17851    9.684
 6897.00    1.10105   1.18036    9.696
 6898.00    1.09442   1.18069    9.640
 6899.00    1.10612   1.18110    9.523
 6900.00    1.13618   1.18177    9.421
 6901.00    1.18277   1.18223    9.395
 6902.00    1.23919   1.18327    9.464
 6903.00    1.28459   1.18272    9.605
 6904.00    1.29656   1.18277    9.751
 6905.00    1.27978   1.18402    9.808
 6906.00    1.25712   1.18289    9.743
 6907.00    1.24380   1.18265    9.698
 6908.00    1.23988   1.18294    9.806
 6909.00    1.22749   1.18133    9.906
 6910.00    1.19724   1.18150    9.799
 6911.00    1.18012   1.18093    9.631
 6912.00    1.20538   1.17918    9.550
 6913.00    1.25078   1.17945    9.337
 6914.00    1.27261   1.17816    8.940
 6915.00    1.24317   1.17689    8.821
 6916.00    1.17195   1.17699    9.207
 6917.00    1.11316   1.17508    9.599
 6918.00    1.10499   1.17455    9.460
 6919.00    1.12902   1.17473    9.034
 6920.00    1.15078   1.17282    8.703
 6921.00    1.14975   1.17257    8.549
 6922.00    1.12741   1.17276    8.517
 6923.00    1.10578   1.17181    8.505
 6924.00    1.10287   1.17159    8.491
 6925.00    1.12038   1.17111    8.559
 6926.00    1.14466   1.17095    8.749
 6927.00    1.15406   1.17107    9.004
 6928.00    1.14251   1.17016    9.252
 6929.00    1.12464   1.17035    9.436
 6930.00    1.12336   1.17131    9.519
 6931.00    1.15590   1.17111    9.496
 6932.00    1.20801   1.17143    9.416
 6933.00    1.24204   1.17213    9.335
 6934.00    1.23317   1.17232    9.220
 6935.00    1.18539   1.17299    9.016
 6936.00    1.14388   1.17298    8.804
 6937.00    1.15430   1.17265    8.691
 6938.00    1.18892   1.17364    8.609
 6939.00    1.19394   1.17359    8.452
 6940.00    1.18021   1.17246    8.304
 6941.00    1.18190   1.17313    8.297
 6942.00    1.18453   1.17326   -2.000
 6943.00    1.15946   1.17194   -2.000
 6944.00    1.11403   1.17229   -2.000
 6945.00    1.07615   1.17205   -2.000
 6946.00    1.07112   1.17081   -2.000
 6947.00    1.10706   1.17136   -2.000
 6948.00    1.16595   1.17095   -2.000
 6949.00    1.22044   1.17049   -2.000
 6950.00    1.24796   1.17191   -2.000
 6951.00    1.23349   1.17179   -2.000
 6952.00    1.17437   1.17211   -2.000
 6953.00    1.10098   1.17419   -2.000
 6954.00    1.07419   1.17436   -2.000
 6955.00    1.11284   1.17518   -2.000
 6956.00    1.17273   1.17778   -2.000
 6957.00    1.21783   1.17844   -2.000
 6958.00    1.24538   1.17935   -2.000
 6959.00    1.25789   1.18208   -2.000
 6960.00    1.25464   1.18327   -2.000
 6961.00    1.24036   1.18411   -2.000
 6962.00    1.22631   1.18609   -2.000
 6963.00    1.22451   1.18665   -2.000
 6964.00    1.24144   1.18730   -2.000
 6965.00    1.26727   1.18845   -2.000
 6966.00    1.28097   1.18765   -2.000
 6967.00    1.26691   1.18740   -2.000
 6968.00    1.22333   1.18756   -2.000
 6969.00    1.17004   1.18576   -2.000
 6970.00    1.12959   1.18412   -2.000
 6971.00    1.09677   1.18298   -2.000
 6972.00    1.06432   1.18133   -2.000
 6973.00    1.06176   1.17935   -2.000
 6974.00    1.10779   1.17723   -2.000
 6975.00    1.15232   1.17601   -2.000
 6976.00    1.14450   1.17512   -2.000
 6977.00    1.10639   1.17387   -2.000
 6978.00    1.08345   1.17291   -2.000
 6979.00    1.09333   1.17302   -2.000
 6980.00    1.13370   1.17415   -2.000
 6981.00    1.19236   1.17393   -2.000
 6982.00    1.25084   1.17439   -2.000
 6983.00    1.28888   1.17756   -2.000
 6984.00    1.29890   1.17897   -2.000
 6985.00    1.29066   1.17992   -2.000
 6986.00    1.27041   1.18279   -2.000
 6987.00    1.23500   1.18462   -2.000
 6988.00    1.19512   1.18592   -2.000
 6989.00    1.17441   1.18723   -2.000
 6990.00    1.16453   1.18823   -2.000
 6991.00    1.12983   1.18905   -2.000
 6992.00    1.08195   1.18865   -2.000
 6993.00    1.07619   1.18866   -2.000
 6994.00    1.12722   1.18892   -2.000
 6995.00    1.19727   1.18781   -2.000
 6996.00    1.23194   1.18690   -2.000
 6997.00    1.19845   1.18597   -2.000
 6998.00    1.14481   1.18476   -2.000
 6999.00    1.14969   1.18367   -2.000
 7000.00    1.20551   1.18197   -2.000
 7001.00    1.24895   1.18101   -2.000
 7002.00    1.24800   1.17999   -2.000
 7003.00    1.21307   1.17799   -2.000
 7004.00    1.18872   1.17734   -2.000
 7005.00    1.20225   1.17678   -2.000
 7006.00    1.20803   1.17543   -2.000
 7007.00    1.16630   1.17474   -2.000
 7008.00    1.12690   1.17356   -2.000
 7009.00    1.13965   1.17298   -2.000
 7010.00    1.17199   1.17316   -2.000
 7011.00    1.20070   1.17172   -2.000
 7012.00    1.27629   1.17138   -2.000
 7013.00    1.39715   1.17201   -2.000
 7014.00    1.44331   1.17090   -2.000
 7015.00    1.34872   1.17074   -2.000
 7016.00    1.19138   1.17095   -2.000
 7017.00    1.08052   1.17063   -2.000
 7018.00    1.08240   1.17149   -2.000
 7019.00    1.17689   1.17116   -2.000
 7020.00    1.26172   1.17133   -2.000
 7021.00    1.24504   1.17340   -2.000
 7022.00    1.09751   1.17356   -2.000
 7023.00    0.89616   1.17389   -2.000
 7024.00    0.78413   1.17602   -2.000
 7025.00    0.80855   1.17735   -2.000
 7026.00    0.91467   1.17831   -2.000
 7027.00    1.05980   1.17925   -2.000
 7028.00    1.21697   1.18128   -2.000
 7029.00    1.31653   1.18354   -2.000
 7030.00    1.30379   1.18363   -2.000
 7031.00    1.27094   1.18556   -2.000
 7032.00    1.35347   1.18900   -2.000
 7033.00    1.51674   1.19000   -2.000
 7034.00    1.63327   1.19203   -2.000
 7035.00    1.64829   1.19493   -2.000
 7036.00    1.56616   1.19655   -2.000
 7037.00    1.40385   1.19895   -2.000
 7038.00    1.21358   1.20097   -2.000
 7039.00    1.10363   1.20295   -2.000
 7040.00    1.12384   1.20601   -2.000
 7041.00    1.17100   1.20669   -2.000
 7042.00    1.16021   1.20745   -2.000
 7043.00    1.15446   1.21028   -2.000
 7044.00    1.18984   1.20961   -2.000
 7045.00    1.17111   1.20781   -2.000
 7046.00    1.07951   1.20856   -2.000
 7047.00    1.07169   1.20658   -2.000
 7048.00    1.25924   1.20276   -2.000
 7049.00    1.58558   1.20040   -2.000
 7050.00    1.84909   1.19631   -2.000
 7051.00    1.79693   1.19100   -2.000
 7052.00    1.44459   1.18589   -2.000
 7053.00    1.09210   1.18038   -2.000
 7054.00    0.90683   1.17517   -2.000
 7055.00    0.84855   1.16885   -2.000
 7056.00    0.91464   1.16283   -2.000
 7057.00    1.14149   1.15809   -2.000
 7058.00    1.40145   1.15226   -2.000
 7059.00    1.47274   1.14744   -2.000
 7060.00    1.32582   1.14343   -2.000
 7061.00    1.10339   1.13936   -2.000
 7062.00    0.94168   1.13711   -2.000
 7063.00    0.90921   1.13442   -2.000
 7064.00    0.96860   1.13235   -2.000
 7065.00    1.03511   1.13206   -2.000
 7066.00    1.07464   1.13045   -2.000
 7067.00    1.10838   1.13032   -2.000
 7068.00    1.19284   1.13159   -2.000
 7069.00    1.33451   1.13120   -2.000
 7070.00    1.40958   1.13241   -2.000
 7071.00    1.32340   1.13384   -2.000
 7072.00    1.16322   1.13389   -2.000
 7073.00    1.05196   1.13532   -2.000
 7074.00    1.01572   1.13598   -2.000
 7075.00    1.04319   1.13561   -2.000
 7076.00    1.13090   1.13564   -2.000
 7077.00    1.23102   1.13480   -2.000
 7078.00    1.23981   1.13373   -2.000
 7079.00    1.13961   1.13122   -2.000
 7080.00    1.04561   1.12817   -2.000
 7081.00    1.02998   1.12599   -2.000
 7082.00    1.05245   1.12130   -2.000
 7083.00    1.04918   1.11701   -2.000
 7084.00    0.98715   1.11398   -2.000
 7085.00    0.91331   1.10819   -2.000
 7086.00    0.93245   1.10415   -2.000
 7087.00    1.08156   1.10065   -2.000
 7088.00    1.29648   1.09524   -2.000
 7089.00    1.43736   1.09286   -2.000
 7090.00    1.37470   1.08965   -2.000
 7091.00    1.16936   1.08575   -2.000
 7092.00    1.00051   1.08550   -2.000
 7093.00    0.92956   1.08373   -2.000
 7094.00    0.91915   1.08195   -2.000
 7095.00    0.95570   1.08263   -2.000
 7096.00    1.03202   1.08190   -2.000
 7097.00    1.08936   1.08220   -2.000
 7098.00    1.08216   1.08345   -2.000
 7099.00    1.07064   1.08335   -2.000
 7100.00    1.12593   1.08432   -2.000
 7101.00    1.20942   1.08539   -2.000
 7102.00    1.23952   1.08588   -2.000
 7103.00    1.17672   1.08656   -2.000
 7104.00    1.04569   1.08700   -2.000
 7105.00    0.93771   1.08777   -2.000
 7106.00    0.92792   1.08805   -2.000
 7107.00    1.00806   1.08798   -2.000
 7108.00    1.07325   1.08844   -2.000
 7109.00    0.96737   1.08836   -2.000
 7110.00    0.78223   1.08810   -2.000
 7111.00    0.90839   1.08831   -2.000
 7112.00    1.40185   1.08829   -2.000
 7113.00    1.80298   1.08798   -2.000
 7114.00    1.78744   1.08724   -2.000
 7115.00    1.42787   1.08708   -2.000
 7116.00    1.04715   1.08713   -2.000
 7117.00    1.00473   1.08573   -2.000
 7118.00    1.21543   1.08474   -2.000
 7119.00    1.25259   1.08430   -2.000
 7120.00    1.08416   1.08278   -2.000
 7121.00    1.02239   1.08156   -2.000
 7122.00    1.07884   1.07989   -2.000
 7123.00    1.03472   1.07801   -2.000
 7124.00    0.93101   1.07711   -2.000
 7125.00    0.95521   1.07466   -2.000
 7126.00    1.04440   1.07308   -2.000
 7127.00    1.03688   1.07290   -2.000
 7128.00    1.02149   1.07031   -2.000
 7129.00    1.13859   1.06960   -2.000
 7130.00    1.24248   1.07026   -2.000
 7131.00    1.14975   1.06862   -2.000
 7132.00    0.97695   1.06904   -2.000
 7133.00    0.90208   1.06977   -2.000
 7134.00    0.88724   1.06930   -2.000
 7135.00    0.84750   1.07133   -2.000
 7136.00    0.82076   1.07196   -2.000
 7137.00    0.86874   1.07148   -2.000
 7138.00    0.98676   1.07422   -2.000
 7139.00    1.11272   1.07497   -2.000
 7140.00    1.15798   1.07465   -2.000
 7141.00    1.12866   1.07723   -2.000
 7142.00    1.15120   1.07737   -2.000
 7143.00    1.22413   1.07701   -2.000
 7144.00    1.16576   1.07946   -2.000
 7145.00    0.97627   1.07915   -2.000
 7146.00    0.89502   1.07894   -2.000
 7147.00    0.96852   1.08135   -2.000
 7148.00    0.99531   1.08114   -2.000
 7149.00    0.92811   1.08158   -2.000
 7150.00    0.91210   1.08366   -2.000
 7151.00    0.98546   1.08347   -2.000
 7152.00    1.05409   1.08469   -2.000
 7153.00    1.05869   1.08643   -2.000
 7154.00    1.00845   1.08614   -2.000
 7155.00    0.95574   1.08727   -2.000
 7156.00    0.95074   1.08868   -2.000
 7157.00    0.96978   1.08912   -2.000
 7158.00    0.96086   1.08960   -2.000
 7159.00    0.93912   1.09002   -2.000
 7160.00    0.94913   1.09116   -2.000
 7161.00    0.98994   1.09122   -2.000
 7162.00    1.03890   1.09079   -2.000
 7163.00    1.09173   1.09254   -2.000
 7164.00    1.12344   1.09305   -2.000
 7165.00    1.05351   1.09251   -2.000
 7166.00    0.88004   1.09418   -2.000
 7167.00    0.77976   1.09517   -2.000
 7168.00    0.83770   1.09523   -2.000
 7169.00    0.86793   1.09698   -2.000
 7170.00    0.80116   1.09764   -2.000
 7171.00    0.89393   1.09742   -2.000
 7172.00    1.21803   1.09914   -2.000
 7173.00    1.42933   1.09956   -2.000
 7174.00    1.30544   1.09906   -2.000
 7175.00    0.99339   1.10009   -2.000
 7176.00    0.74955   1.09899   -2.000
 7177.00    0.75980   1.09782   -2.000
 7178.00    0.94867   1.09843   -2.000
 7179.00    1.03087   1.09637   -2.000
 7180.00    0.94922   1.09489   -2.000
 7181.00    0.90554   1.09493   -2.000
 7182.00    0.98182   1.09218   -2.000
 7183.00    1.08787   1.09091   -2.000
 7184.00    1.13648   1.09081   -2.000
 7185.00    1.09743   1.08847   -2.000
 7186.00    1.00865   1.08780   -2.000
 7187.00    0.94256   1.08718   -2.000
 7188.00    0.93621   1.08559   -2.000
 7189.00    0.98267   1.08632   -2.000
 7190.00    1.04206   1.08595   -2.000
 7191.00    1.07232   1.08506   -2.000
 7192.00    1.07037   1.08638   -2.000
 7193.00    1.05569   1.08631   -2.000
 7194.00    1.04092   1.08628   -2.000
 7195.00    1.02568   1.08786   -2.000
 7196.00    0.99684   1.08790   -2.000
 7197.00    0.96161   1.08846   -2.000
 7198.00    0.97112   1.09006   -2.000
 7199.00    1.04013   1.08994   -2.000
 7200.00    1.09308   1.09051   -2.000
 7201.00    1.08817   1.09183   -2.000
 7202.00    1.08872   1.09164   -2.000
 7203.00    1.10529   1.09208   -2.000
 7204.00    1.03556   1.09280   -2.000
 7205.00    0.91592   1.09276   -2.000
 7206.00    0.97852   1.09377   -2.000
 7207.00    1.23623   1.09410   -2.000
 7208.00    1.39295   1.09436   -2.000
 7209.00    1.32101   1.09604   -2.000
 7210.00    1.17548   1.09639   -2.000
 7211.00    1.06490   1.09760   -2.000
 7212.00    0.97174   1.09978   -2.000
 7213.00    0.89138   1.10013   -2.000
 7214.00    0.85730   1.10222   -2.000
 7215.00    0.88611   1.10482   -2.000
 7216.00    0.95826   1.10573   -2.000
 7217.00    1.01187   1.10835   -2.000
 7218.00    0.99898   1.11090   -2.000
