###################################################################
## OUTPUT of StarlightChains_v04.for    [Cid@UFSC - 01/Apr/2007] ##
###################################################################

## Some input info
2011jf.txt                               [arq_obs]
Base.CB07.vall.4m                        [arq_base]
Masks.EmLines.NEW.gm                     [arq_masks]
StCv04.C11.config                        [arq_config]
   66                                    [N_base]
    0                                    [N_YAV_components = # of components with extra extinction!]
    0                                    [i_FitPowerLaw (1/0 = Yes/No)]
-9.99                                    [alpha_PowerLaw]
CCM                                      [red_law_option]
 1.458241                                [q_norm = A(l_norm)/A(V)]

## (Re)Sampling Parameters
 3741.00                                 [l_ini (A)]
 7218.00                                 [l_fin (A)]
    1.00                                 [dl    (A)]     (OBS: dl_cushion =    50.00 A)

## Normalization info
 4020.00                                 [l_norm (A) - for base]
 4010.00                                 [llow_norm (A) - window for f_obs]
 4060.00                                 [lupp_norm (A) - window for f_obs]
4.435166E-16                             [fobs_norm (in input units)]

## S/N
 3691.00                                 [llow_SN (A) - window for S/N]
 7268.00                                 [lupp_SN (A) - window for S/N]
   4.978                                 [S/N in S/N window]
   3.600                                 [S/N in norm. window]
  43.015                                 [S/N_err in S/N window]
  31.113                                 [S/N_err in norm. window]
  1.0000                                 [fscale_chi2]

## etc...
    -2007384                             [idum_orig]
  2385                                   [NOl_eff]
  2330                                   [Nl_eff]
    55    NSIGMA                         [Ntot_cliped & clip_method]
  2269890                                [Nglobal_steps]
   7                                     [N_chains]
  33                                     [NEX0s_base = N_base in EX0s-fits]
 0   0   1        7   2.0   5.835E+01    [Clip-Bug, RC-Crash & Burn-In warning-flags, n_censored_weights, wei_nsig_threshold & wei_limit]
    19     18.492     17.982      0.510  [idt_all, wdt_TotTime, wdt_UsrTime & wdt_SysTime (sec)]

## Synthesis Results - Best model ##

 9.85759E-01                             [chi2/Nl_eff]
     1.67642                             [adev (%)]

   109.74664                             [sum-of-x (%)]
 1.05010E-15                             [Flux_tot (units of input spectrum!)]
 4.08897E-11                             [Mini_tot (???)]
 2.08919E-11                             [Mcor_tot (???)]

 -45.76                                  [v0_min  (km/s)]
 181.89                                  [vd_min  (km/s)]
 0.5725                                  [AV_min  (mag)]
 0.0000                                  [YAV_min (mag)]

# j     x_j(%)      Mini_j(%)     Mcor_j(%)     age_j(yr)     Z_j      (L/M)_j    YAV?  Mstars   component_j        a/Fe...       SSP_chi2r SSP_adev(%)   SSP_AV   SSP_x(%)
  1      0.0000     0.0000E+00    0.0000E+00    1.000000E+06  0.00400  1.094E-02    0   1.0000   age020_m42            0.0000     1.1114E+01     5.5885   3.8566    94.8471
  2      0.0000     0.0000E+00    0.0000E+00    3.160000E+06  0.00400  4.007E-02    0   0.9999   age045_m42            0.0000     8.9872E+00     4.6112   3.1551   100.2645
  3      0.0000     0.0000E+00    0.0000E+00    5.010000E+06  0.00400  2.539E-02    0   0.9488   age055_m42            0.0000     9.7365E+00     4.9102   3.4619    98.3925
  4      0.0061     5.4271E-06    9.7934E-06    6.610000E+06  0.00400  2.620E-02    0   0.9220   age061_m42            0.0000     8.7167E+00     4.5962   3.0788   100.6448
  5      0.4678     8.2798E-04    1.4361E-03    1.000000E+07  0.00400  1.322E-02    0   0.8862   age070_m42            0.0000     8.8698E+00     4.9888   2.7671   104.2863
  6      1.5722     4.6670E-03    7.8290E-03    1.445000E+07  0.00400  7.883E-03    0   0.8571   age078_m42            0.0000     9.3870E+00     5.0688   3.0930   101.7047
  7      0.0000     0.0000E+00    0.0000E+00    2.512000E+07  0.00400  5.251E-03    0   0.8174   age090_m42            0.0000     9.1622E+00     5.1590   2.6328   105.0695
  8      0.4938     3.1667E-03    4.8659E-03    4.000000E+07  0.00400  3.649E-03    0   0.7851   age104_m42            0.0000     8.4106E+00     4.9523   2.4095   105.7374
  9      0.0000     0.0000E+00    0.0000E+00    5.500000E+07  0.00400  3.098E-03    0   0.7629   age110_m42            0.0000     8.0443E+00     4.6997   2.5831   104.7730
 10      0.0000     0.0000E+00    0.0000E+00    1.015200E+08  0.00400  2.228E-03    0   0.7207   age116_m42            0.0000     7.9266E+00     4.6701   2.6150   104.4007
 11      0.0000     0.0000E+00    0.0000E+00    2.861200E+08  0.00400  1.093E-03    0   0.6648   age125_m42            0.0000     7.9959E+00     5.1574   2.0473   107.7425
 12      0.0000     0.0000E+00    0.0000E+00    5.088000E+08  0.00400  6.597E-04    0   0.6365   age130_m42            0.0000     6.8858E+00     4.8541   2.0532   107.7933
 13      0.0000     0.0000E+00    0.0000E+00    1.434000E+09  0.00400  2.132E-04    0   0.5798   age139_m42            0.0000     3.1778E+00     3.3885   1.0792   109.9039
 14      0.0000     0.0000E+00    0.0000E+00    4.250000E+09  0.00400  5.895E-05    0   0.5377   age158_m42            0.0000     1.7146E+00     2.2624   0.6439   105.4408
 15      0.0021     1.4004E-03    1.4285E-03    7.500000E+09  0.00400  3.510E-05    0   0.5212   age171_m42            0.0000     1.7629E+00     2.4126   0.4654   104.3884
 16      0.8447     9.8586E-01    9.7133E-01    1.300000E+10  0.00400  2.005E-05    0   0.5034   age193_m42            0.0000     2.2008E+00     2.7027   0.3093   103.5223
 17     16.4298     2.5211E+01    2.4509E+01    1.800000E+10  0.00400  1.525E-05    0   0.4967   age213_m42            0.0000     2.1214E+00     2.6099   0.2826   103.1994
 18      1.3910     2.6292E-03    5.1460E-03    1.000000E+06  0.00800  1.238E-02    0   1.0000   age020_m52            0.0000     1.1085E+01     5.5897   3.8529    95.0309
 19      3.2081     2.4421E-03    4.7635E-03    3.160000E+06  0.00800  3.074E-02    0   0.9966   age045_m52            0.0000     1.0909E+01     5.5001   3.7775    95.7934
 20      0.8469     7.4284E-04    1.3729E-03    5.010000E+06  0.00800  2.668E-02    0   0.9443   age055_m52            0.0000     9.7481E+00     4.9845   3.5396    97.7205
 21      0.0000     0.0000E+00    0.0000E+00    6.610000E+06  0.00800  2.136E-02    0   0.9177   age061_m52            0.0000     6.4267E+00     4.3698   2.2564   105.9337
 22      0.0000     0.0000E+00    0.0000E+00    1.000000E+07  0.00800  1.215E-02    0   0.8827   age070_m52            0.0000     9.4140E+00     5.3205   2.9366   104.6035
 23      0.0149     4.0088E-05    6.7100E-05    1.445000E+07  0.00800  8.717E-03    0   0.8552   age078_m52            0.0000     8.9237E+00     4.9487   3.0568   103.1715
 24      0.9953     4.1650E-03    6.6535E-03    2.512000E+07  0.00800  5.592E-03    0   0.8162   age090_m52            0.0000     8.8133E+00     5.1509   2.6963   106.3672
 25      1.0106     6.0699E-03    9.3151E-03    4.000000E+07  0.00800  3.896E-03    0   0.7841   age104_m52            0.0000     8.2173E+00     4.9589   2.6215   106.6087
 26      0.0000     0.0000E+00    0.0000E+00    1.015200E+08  0.00800  2.148E-03    0   0.7226   age116_m52            0.0000     7.4726E+00     4.6517   2.5757   105.6264
 27      0.0000     0.0000E+00    0.0000E+00    2.861200E+08  0.00800  9.925E-04    0   0.6683   age125_m52            0.0000     6.3118E+00     4.7117   2.1162   108.8658
 28      0.0000     0.0000E+00    0.0000E+00    9.047900E+08  0.00800  3.141E-04    0   0.6138   age135_m52            0.0000     3.3936E+00     3.6367   1.3392   112.3006
 29      0.0000     0.0000E+00    0.0000E+00    1.434000E+09  0.00800  1.719E-04    0   0.5853   age139_m52            0.0000     2.0094E+00     2.6531   0.7523   110.4306
 30      0.0000     0.0000E+00    0.0000E+00    2.500000E+09  0.00800  7.872E-05    0   0.5600   age150_m52            0.0000     1.6844E+00     2.4982   0.4963   106.8368
 31      0.0000     0.0000E+00    0.0000E+00    4.250000E+09  0.00800  4.336E-05    0   0.5426   age158_m52            0.0000     1.8541E+00     2.5868   0.4804   105.8666
 32      0.0000     0.0000E+00    0.0000E+00    6.250000E+09  0.00800  3.159E-05    0   0.5319   age166_m52            0.0000     2.6204E+00     3.1776   0.2911   105.3171
 33     10.6355     1.8286E+01    1.8156E+01    1.300000E+10  0.00800  1.361E-05    0   0.5073   age193_m52            0.0000     4.1979E+00     4.0632  -0.1625   103.9745
 34      0.0000     0.0000E+00    0.0000E+00    1.800000E+10  0.00800  9.886E-06    0   0.4990   age213_m52            0.0000     5.9690E+00     4.9008  -0.2548   102.8073
 35      2.3090     3.4994E-03    6.8491E-03    1.000000E+06  0.02000  1.544E-02    0   1.0000   age020_m62            0.0000     1.1174E+01     5.6299   3.8470    95.3351
 36      0.8501     5.2876E-04    1.0202E-03    3.160000E+06  0.02000  3.762E-02    0   0.9858   age045_m62            0.0000     1.1219E+01     5.6089   3.7871    96.1268
 37      0.0000     0.0000E+00    0.0000E+00    5.010000E+06  0.02000  3.296E-02    0   0.9342   age055_m62            0.0000     9.2710E+00     4.7347   3.4295    99.2709
 38      7.0381     1.4272E-02    2.4751E-02    8.710000E+06  0.02000  1.154E-02    0   0.8861   age067_m62            0.0000     1.7315E+01     8.4829   2.3245   110.9690
 39      0.0000     0.0000E+00    0.0000E+00    1.445000E+07  0.02000  7.663E-03    0   0.8472   age078_m62            0.0000     1.0422E+01     6.1015   2.5670   107.9569
 40      0.7719     3.9856E-03    6.3177E-03    2.512000E+07  0.02000  4.532E-03    0   0.8099   age090_m62            0.0000     1.1332E+01     6.3209   2.5602   107.6674
 41      0.0000     0.0000E+00    0.0000E+00    5.500000E+07  0.02000  2.733E-03    0   0.7595   age110_m62            0.0000     7.9543E+00     4.8895   2.5995   106.0668
 42      0.0000     0.0000E+00    0.0000E+00    1.609000E+08  0.02000  1.369E-03    0   0.6985   age120_m62            0.0000     7.3054E+00     4.7614   2.4656   107.6176
 43      0.0000     0.0000E+00    0.0000E+00    2.861200E+08  0.02000  9.013E-04    0   0.6714   age125_m62            0.0000     6.7669E+00     4.8128   2.2277   110.0315
 44      0.1551     7.2193E-03    9.1122E-03    5.088000E+08  0.02000  5.028E-04    0   0.6449   age130_m62            0.0000     5.2223E+00     4.4128   1.8759   111.6568
 45      0.0000     0.0000E+00    0.0000E+00    9.047900E+08  0.02000  2.428E-04    0   0.6179   age135_m62            0.0000     2.4415E+00     2.9430   1.2935   110.9060
 46      0.1019     1.8887E-02    2.1840E-02    1.434000E+09  0.02000  1.263E-04    0   0.5908   age139_m62            0.0000     1.6507E+00     2.4543   0.8463   109.4403
 47      0.0000     0.0000E+00    0.0000E+00    2.500000E+09  0.02000  5.985E-05    0   0.5673   age150_m62            0.0000     2.3849E+00     3.1012   0.4923   107.4168
 48      1.8767     1.3426E+00    1.4368E+00    4.250000E+09  0.02000  3.271E-05    0   0.5468   age158_m62            0.0000     4.1858E+00     4.1852   0.2049   105.7052
 49      3.7521     6.4560E+00    6.5289E+00    1.000000E+10  0.02000  1.360E-05    0   0.5167   age181_m62            0.0000     7.5344E+00     5.6176  -0.1184   104.2100
 50      1.0231     3.3607E+00    3.2973E+00    1.800000E+10  0.02000  7.124E-06    0   0.5013   age213_m62            0.0000     1.0821E+01     6.7434  -0.3061   102.4725
 51      0.0000     0.0000E+00    0.0000E+00    1.000000E+06  0.05000  2.592E-02    0   0.9998   age020_m72            0.0000     1.1417E+01     5.7488   3.8360    95.4659
 52      3.0082     1.4529E-03    2.7234E-03    3.160000E+06  0.05000  4.845E-02    0   0.9577   age045_m72            0.0000     1.0619E+01     5.2647   3.6795    96.9833
 53      0.0000     0.0000E+00    0.0000E+00    5.010000E+06  0.05000  3.072E-02    0   0.9147   age055_m72            0.0000     1.0062E+01     5.6763   3.1793   102.8149
 54      0.0005     7.8227E-07    1.3591E-06    6.610000E+06  0.05000  1.455E-02    0   0.8877   age061_m72            0.0000     2.9738E+01    11.1861   2.3843   112.5512
 55      0.0000     0.0000E+00    0.0000E+00    1.000000E+07  0.05000  9.074E-03    0   0.8524   age070_m72            0.0000     1.2251E+01     6.4100   3.3902   101.8689
 56      0.0000     0.0000E+00    0.0000E+00    2.512000E+07  0.05000  4.250E-03    0   0.7902   age090_m72            0.0000     1.0917E+01     5.8844   3.0788   103.8623
 57      0.0000     0.0000E+00    0.0000E+00    4.000000E+07  0.05000  3.087E-03    0   0.7618   age104_m72            0.0000     1.1409E+01     6.0763   2.8485   105.6759
 58      0.0000     0.0000E+00    0.0000E+00    1.015200E+08  0.05000  1.700E-03    0   0.7096   age116_m72            0.0000     8.3386E+00     5.1421   2.6017   107.5677
 59      0.0043     1.3762E-04    1.7865E-04    2.861200E+08  0.05000  7.384E-04    0   0.6633   age125_m72            0.0000     5.6370E+00     4.4893   2.1080   110.9105
 60      7.6280     4.6740E-01    5.8291E-01    5.088000E+08  0.05000  3.819E-04    0   0.6372   age130_m72            0.0000     3.1305E+00     3.3755   1.6289   111.9838
 61     14.4604     2.0190E+00    2.4144E+00    9.047900E+08  0.05000  1.676E-04    0   0.6110   age135_m72            0.0000     2.4602E+00     3.2265   0.9468   109.4293
 62     14.8428     3.9304E+00    4.5186E+00    1.434000E+09  0.05000  8.837E-05    0   0.5874   age139_m72            0.0000     2.6280E+00     3.2647   0.4956   108.7900
 63      3.0903     1.7084E+00    1.8718E+00    2.500000E+09  0.05000  4.233E-05    0   0.5598   age150_m72            0.0000     5.0154E+00     4.5792   0.2111   106.3029
 64      4.6911     7.6498E+00    7.8589E+00    6.250000E+09  0.05000  1.435E-05    0   0.5249   age166_m72            0.0000     8.6436E+00     6.0228  -0.2093   103.5076
 65      2.3257     8.3559E+00    8.2359E+00    1.300000E+10  0.05000  6.513E-06    0   0.5036   age193_m72            0.0000     1.3382E+01     7.4721  -0.4616   103.3345
 66      3.8984     2.0151E+01    1.9503E+01    1.800000E+10  0.05000  4.527E-06    0   0.4945   age213_m72            0.0000     1.6789E+01     8.3485  -0.6037   102.3328


## Synthesis Results - Average & Chains ##

# j      x_j: min, <> & last-chain-values for 1 ...  7 chains
  1      0.0000      0.0367      0.1278      0.1361      0.0000      0.0000      0.1149      0.0000      0.0000
  2      0.0000      0.2239      0.3803      0.4265      0.0000      0.0000      0.1907      0.2041      0.0000
  3      0.0000      0.2360      0.0000      0.3404      0.2485      0.4037      0.0000      0.0192      0.2389
  4      0.0061      0.9492      0.9324      1.0673      1.2759      0.8374      0.8848      1.0899      0.8368
  5      0.4678      1.1634      1.0590      1.1282      1.0315      1.6832      1.5216      0.9066      1.3442
  6      1.5722      1.6723      1.3921      1.7559      1.7132      1.5144      1.8475      1.8259      2.0319
  7      0.0000      0.0727      0.2656      0.0000      0.0000      0.3451      0.1445      0.0000      0.0000
  8      0.4938      1.1874      0.8715      0.9701      0.9679      1.0581      1.2383      1.2615      1.2425
  9      0.0000      0.1376      0.0000      0.0000      0.1834      0.2147      0.1020      0.0000      0.0000
 10      0.0000      0.0409      0.0000      0.0000      0.3199      0.0000      0.0000      0.0000      0.0000
 11      0.0000      0.0675      0.0000      0.0000      0.0000      0.0800      0.0279      0.0000      0.0000
 12      0.0000      0.0434      0.0000      0.0000      0.0000      0.0000      0.1030      0.0000      0.0000
 13      0.0000      1.0259      0.9006      0.7204      0.0000      0.9442      0.0000      1.0876      1.0349
 14      0.0000      0.4187      1.1729      0.2129      0.2252      0.0393      0.7051      0.0000      0.5868
 15      0.0021      0.4794      1.3633      0.2271      1.0907      0.0863      0.4095      0.0000      0.4910
 16      0.8447      3.3360      1.7881      1.8509      3.1937      2.4612      2.8744      3.1554      3.1236
 17     16.4298     17.3219     16.2084     17.1280     17.3136     17.7806     16.9278     17.0410     16.9521
 18      1.3910      0.8214      0.8241      0.8223      1.2187      0.8429      0.8940      0.8011      0.9112
 19      3.2081      2.6629      2.6916      2.8298      2.6421      2.7214      3.2174      2.8388      2.6824
 20      0.8469      0.9805      1.0082      1.2599      1.0093      1.0521      0.9342      1.2411      0.8536
 21      0.0000      0.0506      0.0272      0.0000      0.0867      0.0000      0.0000      0.0000      0.1128
 22      0.0000      0.5457      0.5996      0.4045      0.1364      0.9166      0.2911      0.4944      0.5654
 23      0.0149      0.5911      0.6560      0.5475      0.4371      0.0858      0.0000      0.7513      1.2040
 24      0.9953      0.9653      0.8160      0.7955      1.2133      0.8844      0.8479      0.8970      0.2983
 25      1.0106      0.8513      1.2670      0.8679      0.6941      1.0533      0.8699      0.8978      0.8481
 26      0.0000      0.0522      0.0000      0.0000      0.0000      0.0000      0.0171      0.0000      0.0000
 27      0.0000      0.0485      0.1436      0.0418      0.0000      0.1906      0.0000      0.0000      0.0000
 28      0.0000      0.3081      0.0709      0.3680      0.0000      0.3481      0.0941      0.3240      0.3788
 29      0.0000      0.1704      0.0363      0.0000      0.0000      0.0000      0.0000      0.0000      0.0000
 30      0.0000      0.2207      0.0100      0.0000      0.0000      0.0000      0.0000      0.0000      0.0000
 31      0.0000      0.2373      0.0000      0.0000      0.0301      0.0000      0.0000      0.0462      0.0000
 32      0.0000      0.1889      0.0926      0.0000      0.0000      0.0000      0.0000      0.3485      0.0018
 33     10.6355      9.9177     10.1244     10.4110     10.1968      9.5603      9.7760     10.5251      9.9393
 34      0.0000      0.0498      0.0000      0.1561      0.0000      0.1236      0.0000      0.0000      0.0000
 35      2.3090      1.3867      1.4256      1.5431      1.5056      1.2871      1.3263      1.5193      1.5273
 36      0.8501      0.7164      0.6460      0.6653      0.7770      0.5562      0.9857      0.8224      0.8282
 37      0.0000      0.1013      0.5326      0.2289      0.0000      0.0000      0.0000      0.0000      0.0000
 38      7.0381      3.4205      3.2672      3.5695      3.7042      3.5250      3.7054      3.4186      3.9644
 39      0.0000      0.0447      0.0000      0.1087      0.0000      0.0338      0.0000      0.1479      0.0000
 40      0.7719      1.2636      1.4762      1.2072      1.2379      0.9758      1.6576      1.3775      1.1233
 41      0.0000      0.1076      0.4058      0.0000      0.0000      0.0000      0.2363      0.0000      0.0000
 42      0.0000      0.0368      0.0000      0.0000      0.0000      0.0000      0.1801      0.0000      0.0376
 43      0.0000      0.0567      0.0000      0.0000      0.0000      0.0000      0.0000      0.0000      0.0000
 44      0.1551      0.2157      0.1799      0.0000      0.5355      0.2951      0.2669      0.6248      0.2181
 45      0.0000      0.4226      0.3876      0.0000      0.2879      0.5355      0.9193      0.8744      0.5339
 46      0.1019      1.3487      0.5542      1.9461      1.1867      1.2029      1.7367      1.8574      0.6024
 47      0.0000      0.4676      0.0124      0.1730      0.0000      0.9620      0.2577      0.0000      0.1492
 48      1.8767      4.1631      3.7988      3.8518      4.9223      3.8685      3.8998      4.2187      4.0640
 49      3.7521      3.4859      4.1021      3.5424      3.8251      3.5379      3.9266      3.6077      3.5107
 50      1.0231      1.4573      1.3982      1.5482      1.3334      1.4761      1.4692      1.3878      1.4300
 51      0.0000      0.1937      0.3511      0.3306      0.2372      0.2188      0.0000      0.2308      0.2355
 52      3.0082      2.8434      2.8371      2.8162      2.8907      3.0135      2.9474      2.9563      2.8353
 53      0.0000      0.0476      0.0000      0.0356      0.0000      0.2113      0.0000      0.0422      0.0000
 54      0.0005      0.8625      1.1636      0.7655      0.7867      1.0589      0.8174      0.6609      0.8336
 55      0.0000      0.0602      0.0000      0.0000      0.0000      0.0000      0.0000      0.1472      0.0000
 56      0.0000      0.0514      0.0000      0.0000      0.0000      0.0000      0.0000      0.0000      0.0000
 57      0.0000      0.0516      0.0000      0.0730      0.0000      0.0000      0.0107      0.0128      0.0000
 58      0.0000      0.0303      0.0000      0.0000      0.1789      0.0000      0.0000      0.0000      0.0000
 59      0.0043      1.0011      1.0376      1.2657      1.0157      0.9037      0.9471      0.6926      1.1985
 60      7.6280      2.7494      2.8144      3.1275      4.7900      2.0457      2.6357      2.6599      2.7855
 61     14.4604      8.7833      8.8399      9.1062      9.3966      9.6995      9.2424     10.0729      9.4598
 62     14.8428     13.3495     15.5625     14.3801     12.6754     15.8993     14.2921     12.3338     13.9537
 63      3.0903      2.9759      2.6146      3.5877      2.2935      2.4609      3.7448      3.0823      3.7459
 64      4.6911      3.8524      4.5947      3.9165      3.7579      3.9310      3.9112      4.1362      3.7171
 65      2.3257      2.4890      2.2507      2.7664      2.7016      2.4672      2.2487      2.4400      2.5140
 66      3.8984      4.1001      4.2166      4.1492      4.1589      3.8795      3.9135      4.1781      4.2953

# j      m_j: min, <> & last-chain-values for 1 ...  7 chains
  1  0.0000E+00  1.4549E-04  5.1041E-04  5.3571E-04  0.0000E+00  0.0000E+00  4.6425E-04  0.0000E+00  0.0000E+00
  2  0.0000E+00  2.4203E-04  4.1483E-04  4.5842E-04  0.0000E+00  0.0000E+00  2.1038E-04  2.1989E-04  0.0000E+00
  3  0.0000E+00  3.8198E-04  0.0000E+00  5.4781E-04  3.9829E-04  6.6565E-04  0.0000E+00  3.0912E-05  3.8660E-04
  4  9.7934E-06  1.4470E-03  1.4341E-03  1.6177E-03  1.9257E-03  1.3004E-03  1.3767E-03  1.6558E-03  1.2754E-03
  5  1.4361E-03  3.3782E-03  3.1028E-03  3.2574E-03  2.9654E-03  4.9793E-03  4.5097E-03  2.6236E-03  3.9025E-03
  6  7.8290E-03  7.8766E-03  6.6158E-03  8.2224E-03  7.9886E-03  7.2661E-03  8.8814E-03  8.5704E-03  9.5678E-03
  7  0.0000E+00  4.9039E-04  1.8070E-03  0.0000E+00  0.0000E+00  2.3706E-03  9.9440E-04  0.0000E+00  0.0000E+00
  8  4.8659E-03  1.1067E-02  8.1956E-03  8.9897E-03  8.9317E-03  1.0046E-02  1.1779E-02  1.1717E-02  1.1577E-02
  9  0.0000E+00  1.4674E-03  0.0000E+00  0.0000E+00  1.9374E-03  2.3332E-03  1.1105E-03  0.0000E+00  0.0000E+00
 10  0.0000E+00  5.7337E-04  0.0000E+00  0.0000E+00  4.4378E-03  0.0000E+00  0.0000E+00  0.0000E+00  0.0000E+00
 11  0.0000E+00  1.7784E-03  0.0000E+00  0.0000E+00  0.0000E+00  2.1460E-03  7.4907E-04  0.0000E+00  0.0000E+00
 12  0.0000E+00  1.8155E-03  0.0000E+00  0.0000E+00  0.0000E+00  0.0000E+00  4.3954E-03  0.0000E+00  0.0000E+00
 13  0.0000E+00  1.2085E-01  1.0705E-01  8.4381E-02  0.0000E+00  1.1331E-01  0.0000E+00  1.2768E-01  1.2188E-01
 14  0.0000E+00  1.6542E-01  4.6761E-01  8.3622E-02  8.8079E-02  1.5800E-02  2.8437E-01  0.0000E+00  2.3178E-01
 15  1.4285E-03  3.0834E-01  8.8486E-01  1.4526E-01  6.9459E-01  5.6577E-02  2.6887E-01  0.0000E+00  3.1575E-01
 16  9.7133E-01  3.6282E+00  1.9623E+00  2.0015E+00  3.4390E+00  2.7269E+00  3.1908E+00  3.4201E+00  3.3964E+00
 17  2.4509E+01  2.4440E+01  2.3075E+01  2.4027E+01  2.4185E+01  2.5556E+01  2.4377E+01  2.3961E+01  2.3912E+01
 18  5.1460E-03  2.8740E-03  2.9096E-03  2.8607E-03  4.2218E-03  3.0046E-03  3.1926E-03  2.7934E-03  3.1877E-03
 19  4.7635E-03  3.7398E-03  3.8142E-03  3.9513E-03  3.6736E-03  3.8933E-03  4.6119E-03  3.9732E-03  3.7662E-03
 20  1.3729E-03  1.5032E-03  1.5597E-03  1.9206E-03  1.5321E-03  1.6433E-03  1.4619E-03  1.8963E-03  1.3084E-03
 21  0.0000E+00  9.4252E-05  5.1043E-05  0.0000E+00  1.5981E-04  0.0000E+00  0.0000E+00  0.0000E+00  2.0984E-04
 22  0.0000E+00  1.7173E-03  1.9040E-03  1.2656E-03  4.2499E-04  2.9387E-03  9.3498E-04  1.5504E-03  1.7788E-03
 23  6.7100E-05  2.5120E-03  2.8132E-03  2.3133E-03  1.8391E-03  3.7165E-04  0.0000E+00  3.1819E-03  5.1156E-03
 24  6.6535E-03  6.1035E-03  5.2057E-03  5.0009E-03  7.5952E-03  5.6961E-03  5.4718E-03  5.6518E-03  1.8859E-03
 25  9.3151E-03  7.4220E-03  1.1146E-02  7.5233E-03  5.9909E-03  9.3545E-03  7.7401E-03  7.8001E-03  7.3918E-03
 26  0.0000E+00  7.6135E-04  0.0000E+00  0.0000E+00  0.0000E+00  0.0000E+00  2.5497E-04  0.0000E+00  0.0000E+00
 27  0.0000E+00  1.4149E-03  4.2260E-03  1.2123E-03  0.0000E+00  5.6637E-03  0.0000E+00  0.0000E+00  0.0000E+00
 28  0.0000E+00  2.6080E-02  6.0519E-03  3.0969E-02  0.0000E+00  3.0016E-02  8.1317E-03  2.7334E-02  3.2057E-02
 29  0.0000E+00  2.5138E-02  5.4020E-03  0.0000E+00  0.0000E+00  0.0000E+00  0.0000E+00  0.0000E+00  0.0000E+00
 30  0.0000E+00  6.8006E-02  3.1197E-03  0.0000E+00  0.0000E+00  0.0000E+00  0.0000E+00  0.0000E+00  0.0000E+00
 31  0.0000E+00  1.2863E-01  0.0000E+00  0.0000E+00  1.6160E-02  0.0000E+00  0.0000E+00  2.4935E-02  0.0000E+00
 32  0.0000E+00  1.3778E-01  6.8147E-02  0.0000E+00  0.0000E+00  0.0000E+00  0.0000E+00  2.5330E-01  1.2771E-03
 33  1.8156E+01  1.6014E+01  1.6495E+01  1.6714E+01  1.6301E+01  1.5725E+01  1.6111E+01  1.6936E+01  1.6044E+01
 34  0.0000E+00  1.0880E-01  0.0000E+00  3.3929E-01  0.0000E+00  2.7535E-01  0.0000E+00  0.0000E+00  0.0000E+00
 35  6.8491E-03  3.8907E-03  4.0356E-03  4.3044E-03  4.1821E-03  3.6787E-03  3.7980E-03  4.2480E-03  4.2840E-03
 36  1.0202E-03  8.1323E-04  7.3991E-04  7.5087E-04  8.7322E-04  6.4316E-04  1.1420E-03  9.3037E-04  9.3990E-04
 37  0.0000E+00  1.2443E-04  6.5984E-04  2.7942E-04  0.0000E+00  0.0000E+00  0.0000E+00  0.0000E+00  0.0000E+00
 38  2.4751E-02  1.1378E-02  1.0965E-02  1.1805E-02  1.2198E-02  1.1944E-02  1.2579E-02  1.1332E-02  1.3183E-02
 39  0.0000E+00  2.1413E-04  0.0000E+00  5.1755E-04  0.0000E+00  1.6510E-04  0.0000E+00  7.0598E-04  0.0000E+00
 40  6.3177E-03  9.7816E-03  1.1531E-02  9.2914E-03  9.4877E-03  7.6950E-03  1.3097E-02  1.0627E-02  8.6934E-03
 41  0.0000E+00  1.2958E-03  4.9285E-03  0.0000E+00  0.0000E+00  0.0000E+00  2.9032E-03  0.0000E+00  0.0000E+00
 42  0.0000E+00  8.1400E-04  0.0000E+00  0.0000E+00  0.0000E+00  0.0000E+00  4.0621E-03  0.0000E+00  8.2987E-04
 43  0.0000E+00  1.8286E-03  0.0000E+00  0.0000E+00  0.0000E+00  0.0000E+00  0.0000E+00  0.0000E+00  0.0000E+00
 44  9.1122E-03  1.1987E-02  1.0087E-02  0.0000E+00  2.9457E-02  1.6705E-02  1.5135E-02  3.4593E-02  1.2117E-02
 45  0.0000E+00  4.6590E-02  4.3111E-02  0.0000E+00  3.1421E-02  6.0133E-02  1.0343E-01  9.6068E-02  5.8842E-02
 46  2.1840E-02  2.7329E-01  1.1331E-01  3.9209E-01  2.3806E-01  2.4830E-01  3.5917E-01  3.7508E-01  1.2204E-01
 47  0.0000E+00  1.9200E-01  5.1407E-03  7.0609E-02  0.0000E+00  4.0240E-01  1.0801E-01  0.0000E+00  6.1253E-02
 48  1.4368E+00  3.0147E+00  2.7757E+00  2.7732E+00  3.5290E+00  2.8537E+00  2.8823E+00  3.0445E+00  2.9421E+00
 49  6.5289E+00  5.7371E+00  6.8120E+00  5.7966E+00  6.2327E+00  5.9314E+00  6.5957E+00  5.9172E+00  5.7764E+00
 50  3.2973E+00  4.4423E+00  4.3004E+00  4.6921E+00  4.0242E+00  4.5837E+00  4.5708E+00  4.2157E+00  4.3578E+00
 51  0.0000E+00  3.2370E-04  5.9188E-04  5.4923E-04  3.9242E-04  3.7243E-04  0.0000E+00  3.8436E-04  3.9347E-04
 52  2.7234E-03  2.4347E-03  2.4512E-03  2.3976E-03  2.4506E-03  2.6286E-03  2.5758E-03  2.5227E-03  2.4272E-03
 53  0.0000E+00  6.1336E-05  0.0000E+00  4.5705E-05  0.0000E+00  2.7767E-04  0.0000E+00  5.4229E-05  0.0000E+00
 54  1.3591E-06  2.2795E-03  3.1030E-03  2.0116E-03  2.0585E-03  2.8507E-03  2.2049E-03  1.7406E-03  2.2026E-03
 55  0.0000E+00  2.4482E-04  0.0000E+00  0.0000E+00  0.0000E+00  0.0000E+00  0.0000E+00  5.9677E-04  0.0000E+00
 56  0.0000E+00  4.1407E-04  0.0000E+00  0.0000E+00  0.0000E+00  0.0000E+00  0.0000E+00  0.0000E+00  0.0000E+00
 57  0.0000E+00  5.5151E-04  0.0000E+00  7.7561E-04  0.0000E+00  0.0000E+00  1.1717E-04  1.3596E-04  0.0000E+00
 58  0.0000E+00  5.4787E-04  0.0000E+00  0.0000E+00  3.2019E-03  0.0000E+00  0.0000E+00  0.0000E+00  0.0000E+00
 59  1.7865E-04  3.8957E-02  4.0740E-02  4.8969E-02  3.9130E-02  3.5823E-02  3.7616E-02  2.6860E-02  4.6627E-02
 60  5.8291E-01  1.9872E-01  2.0525E-01  2.2475E-01  3.4277E-01  1.5062E-01  1.9444E-01  1.9159E-01  2.0128E-01
 61  2.4144E+00  1.3871E+00  1.4086E+00  1.4298E+00  1.4692E+00  1.5604E+00  1.4897E+00  1.5853E+00  1.4935E+00
 62  4.5186E+00  3.8439E+00  4.5214E+00  4.1168E+00  3.6134E+00  4.6637E+00  4.2003E+00  3.5392E+00  4.0168E+00
 63  1.8718E+00  1.7048E+00  1.5113E+00  2.0435E+00  1.3008E+00  1.4362E+00  2.1896E+00  1.7597E+00  2.1454E+00
 64  7.8589E+00  6.1043E+00  7.3460E+00  6.1701E+00  5.8952E+00  6.3453E+00  6.3254E+00  6.5314E+00  5.8883E+00
 65  8.2359E+00  8.3369E+00  7.6065E+00  9.2127E+00  8.9591E+00  8.4182E+00  7.6876E+00  8.1448E+00  8.4185E+00
 66  1.9503E+01  1.9401E+01  2.0132E+01  1.9520E+01  1.9483E+01  1.8700E+01  1.8901E+01  1.9702E+01  2.0320E+01

# AV, chi2 & Mass for <> & i_chain = 1 ...  7 solutions
AV       0.5725      0.5390      0.5395      0.5391      0.5418      0.5451      0.5462      0.5412      0.5400
chi2 9.8576E-01  1.0141E+00  1.0106E+00  1.0111E+00  1.0086E+00  1.0105E+00  1.0093E+00  1.0102E+00  1.0100E+00
Mass 2.0892E-11  2.1116E-11  2.0942E-11  2.1242E-11  2.1411E-11  2.0899E-11  2.0890E-11  2.1251E-11  2.1151E-11
 -45.76                                  [v0_min (km/s) before EX0s...]
 181.89                                  [vd_min (km/s) before EX0s...]


## Synthetic spectrum (Best Model) ##l_obs f_obs f_syn wei
 3478    [Nl_obs]
 3741.00    0.71049   0.66341    0.000
 3742.00    0.70278   0.65324    0.000
 3743.00    0.68102   0.63183    0.000
 3744.00    0.64700   0.60378    0.000
 3745.00    0.60928   0.57348   18.765
 3746.00    0.58385   0.54518   18.528
 3747.00    0.57648   0.52378   18.003
 3748.00    0.57755   0.51465   18.145
 3749.00    0.58224   0.52207   19.018
 3750.00    0.59710   0.54683   19.403
 3751.00    0.62414   0.58469   18.896
 3752.00    0.65542   0.62731   18.674
 3753.00    0.68269   0.66498   19.131
 3754.00    0.70110   0.68968   19.436
 3755.00    0.70724   0.69795   19.092
 3756.00    0.69959   0.69222   18.554
 3757.00    0.68292   0.67954   18.366
 3758.00    0.66709   0.66794   18.771
 3759.00    0.65748   0.66263   19.333
 3760.00    0.65342   0.66414   19.161
 3761.00    0.65397   0.66939   18.721
 3762.00    0.65886   0.67416   19.379
 3763.00    0.66567   0.67508   20.859
 3764.00    0.67048   0.67063   21.041
 3765.00    0.67211   0.66137   19.958
 3766.00    0.67223   0.64942   19.667
 3767.00    0.67275   0.63793   20.454
 3768.00    0.67503   0.63038   21.116
 3769.00    0.67988   0.62975   20.884
 3770.00    0.68833   0.63753   20.055
 3771.00    0.70336   0.65320   19.292
 3772.00    0.72783   0.67418   19.035
 3773.00    0.75939   0.69704   19.095
 3774.00    0.79149   0.71934   19.044
 3775.00    0.81746   0.74042   19.004
 3776.00    0.83402   0.76072   19.390
 3777.00    0.84588   0.78069   20.176
 3778.00    0.86059   0.80002   20.926
 3779.00    0.87846   0.81736   21.177
 3780.00    0.89461   0.83071   20.825
 3781.00    0.90466   0.83793   20.437
 3782.00    0.90553   0.83722   20.567
 3783.00    0.89539   0.82758   20.986
 3784.00    0.87475   0.80941   21.131
 3785.00    0.84793   0.78515   20.949
 3786.00    0.82048   0.75906   20.780
 3787.00    0.79553   0.73564   20.963
 3788.00    0.77349   0.71757   21.503
 3789.00    0.75243   0.70458   21.705
 3790.00    0.73085   0.69377   21.179
 3791.00    0.71056   0.68120   20.964
 3792.00    0.69314   0.66373   21.931
 3793.00    0.67638   0.64063   23.367
 3794.00    0.65828   0.61412   23.936
 3795.00    0.64109   0.58869   23.658
 3796.00    0.62872   0.57021   23.416
 3797.00    0.62400   0.56440   23.822
 3798.00    0.62877   0.57487   24.879
 3799.00    0.64402   0.60126   25.642
 3800.00    0.66839   0.63884   25.384
 3801.00    0.69734   0.68003   24.825
 3802.00    0.72593   0.71717   24.592
 3803.00    0.75099   0.74510   24.301
 3804.00    0.77106   0.76271   23.798
 3805.00    0.78618   0.77275   23.746
 3806.00    0.79686   0.77982   24.482
 3807.00    0.80334   0.78741   25.401
 3808.00    0.80565   0.79560   25.678
 3809.00    0.80363   0.80114   25.083
 3810.00    0.79705   0.79969   24.312
 3811.00    0.78596   0.78897   24.528
 3812.00    0.77203   0.77048   25.966
 3813.00    0.75870   0.74881   27.333
 3814.00    0.74830   0.72901   27.263
 3815.00    0.74081   0.71395   25.973
 3816.00    0.73457   0.70322   24.772
 3817.00    0.72737   0.69458   24.906
 3818.00    0.71892   0.68636   26.314
 3819.00    0.71134   0.67868   27.389
 3820.00    0.70669   0.67239   27.233
 3821.00    0.70511   0.66727   26.841
 3822.00    0.70184   0.66141   26.941
 3823.00    0.68907   0.65281   27.407
 3824.00    0.66583   0.64126   27.984
 3825.00    0.63893   0.62850   28.535
 3826.00    0.61469   0.61650   29.113
 3827.00    0.59618   0.60564   29.857
 3828.00    0.58356   0.59426   30.527
 3829.00    0.57466   0.57981   30.595
 3830.00    0.56651   0.56072   30.136
 3831.00    0.55643   0.53784   29.802
 3832.00    0.54366   0.51457   30.068
 3833.00    0.53009   0.49554   30.983
 3834.00    0.52075   0.48458   31.733
 3835.00    0.52096   0.48338   31.191
 3836.00    0.52961   0.49163   29.964
 3837.00    0.54180   0.50815   29.480
 3838.00    0.55735   0.53180   29.940
 3839.00    0.58011   0.56165   30.545
 3840.00    0.61289   0.59620   30.183
 3841.00    0.65465   0.63274   28.603
 3842.00    0.69763   0.66771   27.550
 3843.00    0.73221   0.69777   28.440
 3844.00    0.75602   0.72097   29.698
 3845.00    0.77124   0.73700   28.463
 3846.00    0.77787   0.74677   26.069
 3847.00    0.77552   0.75188    0.000
 3848.00    0.76753   0.75431    0.000
 3849.00    0.75872   0.75599    0.000
 3850.00    0.75151   0.75801    0.000
 3851.00    0.74654   0.75999    0.000
 3852.00    0.74417   0.76033    0.000
 3853.00    0.74356   0.75731    0.000
 3854.00    0.74160   0.75036    0.000
 3855.00    0.73624   0.74037    0.000
 3856.00    0.73013   0.72945    0.000
 3857.00    0.72740   0.72043    0.000
 3858.00    0.72978   0.71635    0.000
 3859.00    0.73716   0.71945    0.000
 3860.00    0.74836   0.72988    0.000
 3861.00    0.76127   0.74507    0.000
 3862.00    0.77300   0.76071    0.000
 3863.00    0.78195   0.77275    0.000
 3864.00    0.78916   0.77915    0.000
 3865.00    0.79525   0.78008    0.000
 3866.00    0.79808   0.77664    0.000
 3867.00    0.79507   0.76973    0.000
 3868.00    0.78511   0.75990    0.000
 3869.00    0.76994   0.74822    0.000
 3870.00    0.75412   0.73706    0.000
 3871.00    0.73930   0.72952    0.000
 3872.00    0.72198   0.72763    0.000
 3873.00    0.70319   0.73061    0.000
 3874.00    0.69220   0.73493    0.000
 3875.00    0.69223   0.73643    0.000
 3876.00    0.69454   0.73301    0.000
 3877.00    0.69195   0.72555    0.000
 3878.00    0.68518   0.71659    0.000
 3879.00    0.67665   0.70807    0.000
 3880.00    0.66722   0.70002    0.000
 3881.00    0.65671   0.69081   32.381
 3882.00    0.64454   0.67821   32.112
 3883.00    0.63136   0.66059   30.857
 3884.00    0.61932   0.63802   30.623
 3885.00    0.61045   0.61315   31.946
 3886.00    0.60610   0.59112   33.370
 3887.00    0.60747   0.57810   33.521
 3888.00    0.61567   0.57879   32.521
 3889.00    0.63130   0.59422   31.555
 3890.00    0.65390   0.62111   31.782
 3891.00    0.68076   0.65328   32.904
 3892.00    0.70712   0.68439   33.266
 3893.00    0.72814   0.71035   32.379
 3894.00    0.74037   0.73011   31.399
 3895.00    0.74408   0.74481   31.303
 3896.00    0.74301   0.75617   32.440
 3897.00    0.74189   0.76561   34.118
 3898.00    0.74464   0.77391   34.733
 3899.00    0.75182   0.78125   33.945
 3900.00    0.76106   0.78708   32.967
 3901.00    0.76953   0.79050   32.897
 3902.00    0.77496   0.79118   34.135
 3903.00    0.77690   0.79033   35.521
 3904.00    0.77686   0.79077   35.170
 3905.00    0.77844   0.79580   34.055
 3906.00    0.78536   0.80729   34.359
 3907.00    0.79805   0.82450   35.947
 3908.00    0.81381   0.84427   36.928
 3909.00    0.82838   0.86250   35.959
 3910.00    0.83817   0.87582   33.622
 3911.00    0.84332   0.88255   32.012
 3912.00    0.84611   0.88266   32.377
 3913.00    0.84786   0.87717   33.498
 3914.00    0.84823   0.86735   33.304
 3915.00    0.84507   0.85429   32.255
 3916.00    0.83658   0.83881   31.887
 3917.00    0.82393   0.82184   32.387
 3918.00    0.80946   0.80480   33.229
 3919.00    0.79400   0.78953   33.975
 3920.00    0.77778   0.77750   34.335
 3921.00    0.76173   0.76876   34.191
 3922.00    0.74688   0.76128   33.809
 3923.00    0.73334   0.75148   33.910
 3924.00    0.71870   0.73565   34.919
 3925.00    0.69710   0.71151   36.259
 3926.00    0.66494   0.67890   36.994
 3927.00    0.62581   0.63964   36.879
 3928.00    0.58464   0.59668   36.459
 3929.00    0.54264   0.55343   36.690
 3930.00    0.50111   0.51356   37.881
 3931.00    0.46475   0.48099   38.940
 3932.00    0.43965   0.45970   38.926
 3933.00    0.43123   0.45304   38.600
 3934.00    0.44221   0.46262   38.907
 3935.00    0.47132   0.48747   39.836
 3936.00    0.51455   0.52393   40.326
 3937.00    0.56612   0.56647   38.692
 3938.00    0.61894   0.60907   35.709
 3939.00    0.66545   0.64682   34.255
 3940.00    0.70058   0.67721   35.138
 3941.00    0.72334   0.70059   36.638
 3942.00    0.73569   0.71953   36.931
 3943.00    0.74156   0.73724   36.001
 3944.00    0.74498   0.75573   34.841
 3945.00    0.74904   0.77500   34.380
 3946.00    0.75518   0.79360   34.668
 3947.00    0.76309   0.81005   34.879
 3948.00    0.77194   0.82365   34.573
 3949.00    0.78104   0.83444   34.127
 3950.00    0.79039   0.84268   33.868
 3951.00    0.80053   0.84844   33.805
 3952.00    0.81109   0.85155   33.877
 3953.00    0.82037   0.85167   34.026
 3954.00    0.82590   0.84844   34.116
 3955.00    0.82542   0.84160   34.038
 3956.00    0.81937   0.83083   34.116
 3957.00    0.80992   0.81526   34.866
 3958.00    0.79545   0.79340   35.774
 3959.00    0.77116   0.76388   35.529
 3960.00    0.73570   0.72663    0.000
 3961.00    0.69183   0.68319    0.000
 3962.00    0.64309   0.63581    0.000
 3963.00    0.59241   0.58634    0.000
 3964.00    0.54111   0.53614    0.000
 3965.00    0.49044   0.48725    0.000
 3966.00    0.44583   0.44350    0.000
 3967.00    0.41529   0.41043    0.000
 3968.00    0.40391   0.39375    0.000
 3969.00    0.41224   0.39713    0.000
 3970.00    0.43547   0.42085    0.000
 3971.00    0.46679   0.46164    0.000
 3972.00    0.50377   0.51407    0.000
 3973.00    0.54645   0.57220    0.000
 3974.00    0.59193   0.63113    0.000
 3975.00    0.63630   0.68736    0.000
 3976.00    0.67917   0.73863    0.000
 3977.00    0.72101   0.78334    0.000
 3978.00    0.75806   0.82014    0.000
 3979.00    0.78561   0.84820    0.000
 3980.00    0.80370   0.86793    0.000
 3981.00    0.81587   0.88131   34.650
 3982.00    0.82620   0.89144   35.645
 3983.00    0.83768   0.90121   33.871
 3984.00    0.85060   0.91222   28.188
 3985.00    0.86461   0.92444   22.514
 3986.00    0.88103   0.93681   20.878
 3987.00    0.89977   0.94819   24.585
 3988.00    0.91622   0.95801   32.134
 3989.00    0.92629   0.96626   34.855
 3990.00    0.93164   0.97299   32.410
 3991.00    0.93558   0.97765   31.827
 3992.00    0.93883   0.97924   33.916
 3993.00    0.94066   0.97714   36.362
 3994.00    0.94038   0.97219   35.320
 3995.00    0.93858   0.96703   32.824
 3996.00    0.93788   0.96517   37.660
 3997.00    0.94086   0.96914   49.885
 3998.00    0.94845   0.97888   29.790
 3999.00    0.95886   0.99137   13.999
 4000.00    0.96742   1.00188   10.044
 4001.00    0.97002   1.00609   10.046
 4002.00    0.96559   1.00224   10.265
 4003.00    0.95663   0.99217    9.618
 4004.00    0.94882   0.98071   11.428
 4005.00    0.94723   0.97343   22.181
 4006.00    0.95384   0.97397   32.928
 4007.00    0.96677   0.98242   15.135
 4008.00    0.98092   0.99591    9.267
 4009.00    0.99268   1.01061    8.654
 4010.00    1.00194   1.02372   11.418
 4011.00    1.00963   1.03417   21.664
 4012.00    1.01610   1.04214   45.917
 4013.00    1.01961   1.04822   43.157
 4014.00    1.01693   1.05296   31.554
 4015.00    1.00864   1.05675   29.520
 4016.00    0.99985   1.05990   31.312
 4017.00    0.99449   1.06245   33.345
 4018.00    0.99334   1.06386   34.506
 4019.00    0.99524   1.06311   34.722
 4020.00    0.99794   1.05935   34.375
 4021.00    0.99940   1.05281   34.302
 4022.00    0.99903   1.04518   35.321
 4023.00    1.00000   1.03899   36.828
 4024.00    1.00725   1.03609   37.004
 4025.00    1.01975   1.03605   36.335
 4026.00    1.03073   1.03580   36.747
 4027.00    1.03437   1.03099   36.372
 4028.00    1.02816   1.01870   32.989
 4029.00    1.01361   0.99972   33.220
 4030.00    0.99573   0.97886   46.813
 4031.00    0.98119   0.96305   48.775
 4032.00    0.97597   0.95824   20.180
 4033.00    0.98157   0.96710   11.064
 4034.00    0.99547   0.98804    9.456
 4035.00    1.01396   1.01595    9.821
 4036.00    1.03253   1.04396    9.341
 4037.00    1.04571   1.06574    9.182
 4038.00    1.04881   1.07720   12.726
 4039.00    1.04110   1.07706   28.294
 4040.00    1.02503   1.06615   52.560
 4041.00    1.00372   1.04649   37.747
 4042.00    0.98048   1.02124   32.302
 4043.00    0.95863   0.99540   36.056
 4044.00    0.94218   0.97565   38.240
 4045.00    0.93676   0.96811   36.010
 4046.00    0.94631   0.97530   34.501
 4047.00    0.96865   0.99428   34.833
 4048.00    0.99686   1.01794   36.035
 4049.00    1.02204   1.03837   37.407
 4050.00    1.03740   1.05010   38.303
 4051.00    1.04230   1.05162   37.840
 4052.00    1.03902   1.04480   36.183
 4053.00    1.02856   1.03338   35.227
 4054.00    1.01248   1.02132   36.208
 4055.00    0.99490   1.01171   38.234
 4056.00    0.98058   1.00608   39.378
 4057.00    0.97262   1.00413   38.643
 4058.00    0.97158   1.00371   36.771
 4059.00    0.97500   1.00164   35.526
 4060.00    0.97938   0.99542   35.845
 4061.00    0.98205   0.98515   37.240
 4062.00    0.98201   0.97405   38.466
 4063.00    0.98050   0.96682   38.172
 4064.00    0.98057   0.96686   36.506
 4065.00    0.98602   0.97424   35.372
 4066.00    0.99655   0.98588   35.758
 4067.00    1.00561   0.99727   36.947
 4068.00    1.00753   1.00469   37.917
 4069.00    1.00196   1.00661   38.284
 4070.00    0.99162   1.00390   38.010
 4071.00    0.98048   0.99846   37.194
 4072.00    0.97204   0.99153   36.444
 4073.00    0.96825   0.98304   36.734
 4074.00    0.96879   0.97287   38.115
 4075.00    0.97141   0.96281   39.221
 4076.00    0.97518   0.95699   39.111
 4077.00    0.98151   0.95972   38.425
 4078.00    0.99145   0.97245   37.978
 4079.00    1.00403   0.99214   38.075
 4080.00    1.01530   1.01282   38.564
 4081.00    1.01955   1.02897   38.962
 4082.00    1.01588   1.03853   39.029
 4083.00    1.00916   1.04355   38.918
 4084.00    1.00441   1.04816   38.716
 4085.00    1.00433   1.05556   38.425
 4086.00    1.00842   1.06608   38.479
 4087.00    1.01344   1.07720   39.513
 4088.00    1.01557   1.08521   -1.000
 4089.00    1.01183   1.08725   -1.000
 4090.00    1.00201   1.08220   -1.000
 4091.00    0.98791   1.07036   -1.000
 4092.00    0.96972   1.05246    0.000
 4093.00    0.94649   1.02905    0.000
 4094.00    0.91986   1.00055    0.000
 4095.00    0.89357   0.96762    0.000
 4096.00    0.86994   0.93128    0.000
 4097.00    0.84963   0.89303    0.000
 4098.00    0.83293   0.85535    0.000
 4099.00    0.82012   0.82234    0.000
 4100.00    0.81151   0.79959    0.000
 4101.00    0.80789   0.79238    0.000
 4102.00    0.81123   0.80316    0.000
 4103.00    0.82372   0.82968    0.000
 4104.00    0.84582   0.86550    0.000
 4105.00    0.87535   0.90259    0.000
 4106.00    0.90671   0.93436    0.000
 4107.00    0.93338   0.95774    0.000
 4108.00    0.95203   0.97344    0.000
 4109.00    0.96267   0.98465    0.000
 4110.00    0.96790   0.99509    0.000
 4111.00    0.97105   1.00713    0.000
 4112.00    0.97394   1.02090    0.000
 4113.00    0.97711   1.03446   39.207
 4114.00    0.98059   1.04485   40.208
 4115.00    0.98383   1.04969   40.495
 4116.00    0.98567   1.04833   40.090
 4117.00    0.98606   1.04232   39.557
 4118.00    0.98763   1.03473   39.175
 4119.00    0.99248   1.02883   39.075
 4120.00    0.99886   1.02671   39.449
 4121.00    1.00421   1.02874   40.190
 4122.00    1.00836   1.03360   40.530
 4123.00    1.01176   1.03890   39.893
 4124.00    1.01385   1.04201   38.769
 4125.00    1.01362   1.04099   38.018
 4126.00    1.01033   1.03514   38.272
 4127.00    1.00406   1.02520   39.535
 4128.00    0.99597   1.01285   40.812
 4129.00    0.98790   1.00030   41.180
 4130.00    0.98200   0.99008   40.949
 4131.00    0.98044   0.98486   40.718
 4132.00    0.98503   0.98702   40.618
 4133.00    0.99620   0.99747   40.713
 4134.00    1.01236   1.01495   41.225
 4135.00    1.03030   1.03592   42.064
 4136.00    1.04566   1.05561   42.564
 4137.00    1.05399   1.06919   42.090
 4138.00    1.05203   1.07304   40.641
 4139.00    1.04050   1.06560   39.165
 4140.00    1.02463   1.04845   39.035
 4141.00    1.00926   1.02644   40.492
 4142.00    0.99680   1.00654   42.217
 4143.00    0.98927   0.99497   42.725
 4144.00    0.98862   0.99429   41.693
 4145.00    0.99406   1.00238   40.204
 4146.00    1.00186   1.01400   39.784
 4147.00    1.00909   1.02380   40.654
 4148.00    1.01484   1.02878   41.727
 4149.00    1.01850   1.02870   42.427
 4150.00    1.01948   1.02509   43.101
 4151.00    1.01789   1.01986   43.195
 4152.00    1.01466   1.01471   41.525
 4153.00    1.01061   1.01119   39.303
 4154.00    1.00652   1.01080   38.868
 4155.00    1.00422   1.01473   40.403
 4156.00    1.00624   1.02332   42.227
 4157.00    1.01417   1.03573   43.106
 4158.00    1.02813   1.05014   43.004
 4159.00    1.04647   1.06435   41.945
 4160.00    1.06621   1.07643   40.129
 4161.00    1.08422   1.08499   38.855
 4162.00    1.09756   1.08921   39.454
 4163.00    1.10377   1.08892   41.488
 4164.00    1.10176   1.08468   43.057
 4165.00    1.09337   1.07761   43.196
 4166.00    1.08128   1.06882   42.325
 4167.00    1.06443   1.05867   40.725
 4168.00    1.04141   1.04655   38.658
 4169.00    1.01786   1.03161   37.020
 4170.00    1.00115   1.01419   36.749
 4171.00    0.98927   0.99651   38.336
 4172.00    0.97692   0.98201   41.644
 4173.00    0.96784   0.97351   44.513
 4174.00    0.96904   0.97187   44.042
 4175.00    0.97952   0.97589   41.891
 4176.00    0.99378   0.98340   41.094
 4177.00    1.00890   0.99246   41.804
 4178.00    1.02372   1.00180   42.890
 4179.00    1.03661   1.01066   43.665
 4180.00    1.04613   1.01858   43.653
 4181.00    1.05206   1.02532   42.186
 4182.00    1.05478   1.03067   39.766
 4183.00    1.05428   1.03434   38.591
 4184.00    1.05072   1.03610   39.942
 4185.00    1.04519   1.03632   42.588
 4186.00    1.03974   1.03632   44.165
 4187.00    1.03722   1.03796   43.928
 4188.00    1.03952   1.04263   42.751
 4189.00    1.04602   1.05031   41.726
 4190.00    1.05513   1.05926   41.393
 4191.00    1.06556   1.06646   41.542
 4192.00    1.07495   1.06867   41.803
 4193.00    1.07920   1.06364   42.067
 4194.00    1.07499   1.05115   42.432
 4195.00    1.06203   1.03334   43.064
 4196.00    1.04335   1.01408   43.673
 4197.00    1.02499   0.99739   43.329
 4198.00    1.01168   0.98610   42.169
 4199.00    1.00454   0.98136   41.894
 4200.00    1.00356   0.98293   43.235
 4201.00    1.00913   0.99003   44.904
 4202.00    1.02143   1.00174   45.303
 4203.00    1.03987   1.01704   44.148
 4204.00    1.06192   1.03453   42.314
 4205.00    1.08327   1.05233   40.968
 4206.00    1.10140   1.06844   40.470
 4207.00    1.11681   1.08124   40.364
 4208.00    1.12994   1.08985   40.274
 4209.00    1.13967   1.09411   40.183
 4210.00    1.14314   1.09415   40.039
 4211.00    1.13706   1.09032   39.719
 4212.00    1.12304   1.08360   39.516
 4213.00    1.10799   1.07626   40.060
 4214.00    1.09737   1.07170   41.412
 4215.00    1.09317   1.07305   42.845
 4216.00    1.09599   1.08124   43.671
 4217.00    1.10497   1.09376   43.683
 4218.00    1.11536   1.10524   43.029
 4219.00    1.11945   1.10929   42.063
 4220.00    1.11198   1.10087   41.206
 4221.00    1.09164   1.07796   40.885
 4222.00    1.06058   1.04262   41.563
 4223.00    1.02412   1.00110   43.580
 4224.00    0.99022   0.96271   46.313
 4225.00    0.96791   0.93732   47.998
 4226.00    0.96369   0.93171   47.588
 4227.00    0.97924   0.94664   45.644
 4228.00    1.00852   0.97608   43.343
 4229.00    1.04031   1.00995   41.726
 4230.00    1.06498   1.03834   41.520
 4231.00    1.07700   1.05539   42.985
 4232.00    1.07679   1.06061   45.038
 4233.00    1.06923   1.05758   45.745
 4234.00    1.06020   1.05151   45.109
 4235.00    1.05504   1.04697   44.504
 4236.00    1.05698   1.04684   44.139
 4237.00    1.06667   1.05228   43.618
 4238.00    1.08190   1.06303   43.290
 4239.00    1.09909   1.07784   43.729
 4240.00    1.11557   1.09469   44.755
 4241.00    1.12940   1.11098   45.567
 4242.00    1.13860   1.12373   45.251
 4243.00    1.14187   1.13016   43.687
 4244.00    1.13948   1.12841   42.172
 4245.00    1.13252   1.11845   41.778
 4246.00    1.12186   1.10236   42.125
 4247.00    1.10864   1.08378   42.559
 4248.00    1.09504   1.06673   43.411
 4249.00    1.08374   1.05422   44.720
 4250.00    1.07727   1.04747   44.637
 4251.00    1.07655   1.04600   42.459
 4252.00    1.07975   1.04847   41.076
 4253.00    1.08402   1.05328   42.142
 4254.00    1.08716   1.05879   43.402
 4255.00    1.08752   1.06319   42.666
 4256.00    1.08394   1.06487   42.056
 4257.00    1.07723   1.06356   43.414
 4258.00    1.07115   1.06134   45.073
 4259.00    1.07019   1.06220   44.917
 4260.00    1.07758   1.07003   43.692
 4261.00    1.09337   1.08597   42.744
 4262.00    1.11347   1.10727   42.280
 4263.00    1.13182   1.12805   42.348
 4264.00    1.14238   1.14176   43.318
 4265.00    1.14169   1.14355   44.910
 4266.00    1.13013   1.13160   45.625
 4267.00    1.10975   1.10735   44.988
 4268.00    1.08301   1.07485   44.577
 4269.00    1.05352   1.03994   44.732
 4270.00    1.02616   1.00909   43.704
 4271.00    1.00619   0.98811   41.587
 4272.00    0.99806   0.98078   40.768
 4273.00    1.00266   0.98793   41.743
 4274.00    1.01705   1.00711   42.524
 4275.00    1.03926   1.03327   42.047
 4276.00    1.06876   1.06011   41.530
 4277.00    1.09943   1.08198   41.827
 4278.00    1.11984   1.09556   42.638
 4279.00    1.12500   1.10060   43.206
 4280.00    1.11892   1.09910   42.881
 4281.00    1.10748   1.09374   42.251
 4282.00    1.09539   1.08627   42.631
 4283.00    1.08514   1.07701   43.676
 4284.00    1.07694   1.06530   43.412
 4285.00    1.06942   1.05056   -2.000
 4286.00    1.06041   1.03339   -2.000
 4287.00    1.04847   1.01613   -2.000
 4288.00    1.03364   1.00231   -2.000
 4289.00    1.01836   0.99528   -2.000
 4290.00    1.00649   0.99630   -2.000
 4291.00    1.00052   1.00352   -2.000
 4292.00    1.00058   1.01236   -2.000
 4293.00    1.00385   1.01737   -2.000
 4294.00    1.00556   1.01418   -2.000
 4295.00    1.00128   1.00088   -2.000
 4296.00    0.98823   0.97846   -2.000
 4297.00    0.96683   0.95041   -2.000
 4298.00    0.94083   0.92171   -2.000
 4299.00    0.91676   0.89728   -2.000
 4300.00    0.90057   0.88037   -2.000
 4301.00    0.89219   0.87149   46.467
 4302.00    0.88791   0.86855   46.249
 4303.00    0.88594   0.86808   45.487
 4304.00    0.88565   0.86712   45.182
 4305.00    0.88523   0.86471   45.738
 4306.00    0.88372   0.86253   46.876
 4307.00    0.88435   0.86404   47.500
 4308.00    0.89148   0.87283   46.739
 4309.00    0.90611   0.89102   45.502
 4310.00    0.92752   0.91878   44.968
 4311.00    0.95594   0.95478   44.969
 4312.00    0.99166   0.99712   44.865
 4313.00    1.03349   1.04355   44.584
 4314.00    1.07786   1.09105   44.402
 4315.00    1.11825   1.13540   44.578
 4316.00    1.14869   1.17154   45.158
 4317.00    1.16706   1.19478   45.821
 4318.00    1.17279   1.20218   46.155
 4319.00    1.16459   1.19321   46.012
 4320.00    1.14308   1.16982   45.606
 4321.00    1.11301   1.13624   45.455
 4322.00    1.08121   1.09890   45.935
 4323.00    1.05447   1.06578   46.953
 4324.00    1.03855   1.04480   47.954
 4325.00    1.03716   1.04098   48.023
 4326.00    1.04996   1.05440   47.024
 4327.00    1.07165   1.07997   46.099
 4328.00    1.09535   1.10993   45.848
 4329.00    1.11530   1.13689   45.606
 4330.00    1.12849   1.15602    0.000
 4331.00    1.13513   1.16497    0.000
 4332.00    1.13565   1.16246    0.000
 4333.00    1.12911   1.14707    0.000
 4334.00    1.11523   1.11759    0.000
 4335.00    1.09540   1.07481    0.000
 4336.00    1.07205   1.02295    0.000
 4337.00    1.04819   0.97009    0.000
 4338.00    1.02704   0.92635    0.000
 4339.00    1.01152   0.90053    0.000
 4340.00    1.00313   0.89737    0.000
 4341.00    1.00203   0.91602    0.000
 4342.00    1.00916   0.95109    0.000
 4343.00    1.02620   0.99485    0.000
 4344.00    1.05170   1.03956    0.000
 4345.00    1.08062   1.07904    0.000
 4346.00    1.10794   1.10889    0.000
 4347.00    1.12973   1.12657    0.000
 4348.00    1.14219   1.13178    0.000
 4349.00    1.14274   1.12713    0.000
 4350.00    1.13448   1.11800    0.000
 4351.00    1.12521   1.11089   46.075
 4352.00    1.12096   1.11088   46.359
 4353.00    1.12414   1.11966   45.764
 4354.00    1.13411   1.13521   45.006
 4355.00    1.14809   1.15341   44.855
 4356.00    1.16283   1.17050   45.206
 4357.00    1.17605   1.18498   45.306
 4358.00    1.18846   1.19768   44.798
 4359.00    1.20235   1.21041   43.989
 4360.00    1.21739   1.22421   43.705
 4361.00    1.23081   1.23833   44.570
 4362.00    1.23962   1.25044   45.707
 4363.00    1.24169   1.25766   45.513
 4364.00    1.23694   1.25794   44.381
 4365.00    1.22713   1.25117   43.855
 4366.00    1.21505   1.23927   44.385
 4367.00    1.20356   1.22509   45.583
 4368.00    1.19432   1.21100   46.850
 4369.00    1.18732   1.19797   47.492
 4370.00    1.18058   1.18566   46.982
 4371.00    1.17210   1.17363   45.570
 4372.00    1.16264   1.16260   44.612
 4373.00    1.15484   1.15481   45.137
 4374.00    1.15141   1.15274   46.456
 4375.00    1.15357   1.15704   47.130
 4376.00    1.15947   1.16491   46.739
 4377.00    1.16431   1.17051   45.825
 4378.00    1.16108   1.16732   45.162
 4379.00    1.14446   1.15116   45.295
 4380.00    1.11507   1.12237   46.283
 4381.00    1.07881   1.08645   47.702
 4382.00    1.04537   1.05238   48.582
 4383.00    1.02393   1.02907   48.383
 4384.00    1.01898   1.02163   47.984
 4385.00    1.02992   1.02984   48.178
 4386.00    1.05131   1.04901   48.475
 4387.00    1.07661   1.07276   48.343
 4388.00    1.10135   1.09572   48.226
 4389.00    1.12313   1.11511   48.413
 4390.00    1.14143   1.13067   48.252
 4391.00    1.15666   1.14347   47.445
 4392.00    1.16957   1.15491   46.801
 4393.00    1.18092   1.16604   46.772
 4394.00    1.19125   1.17706   46.768
 4395.00    1.20037   1.18705   46.466
 4396.00    1.20697   1.19433   46.453
 4397.00    1.20907   1.19705   47.041
 4398.00    1.20450   1.19401   47.710
 4399.00    1.19233   1.18539   48.108
 4400.00    1.17365   1.17250   48.513
 4401.00    1.15181   1.15703   48.823
 4402.00    1.13188   1.14092   48.303
 4403.00    1.11788   1.12683   47.280
 4404.00    1.11158   1.11784   47.235
 4405.00    1.11326   1.11668   48.360
 4406.00    1.12216   1.12480   49.099
 4407.00    1.13669   1.14162   48.825
 4408.00    1.15437   1.16416   48.675
 4409.00    1.17125   1.18735   49.103
 4410.00    1.18272   1.20567   49.317
 4411.00    1.18724   1.21507   48.742
 4412.00    1.18707   1.21458   47.585
 4413.00    1.18573   1.20710   46.538
 4414.00    1.18669   1.19835   46.277
 4415.00    1.19189   1.19405   46.625
 4416.00    1.20140   1.19716   46.804
 4417.00    1.21380   1.20679   46.872
 4418.00    1.22658   1.21921   47.582
 4419.00    1.23665   1.22989   48.690
 4420.00    1.24139   1.23584   49.027
 4421.00    1.24067   1.23679   48.365
 4422.00    1.23680   1.23460   47.403
 4423.00    1.23304   1.23177   46.267
 4424.00    1.23214   1.22982   44.836
 4425.00    1.23413   1.22892   43.902
 4426.00    1.23677   1.22855   44.425
 4427.00    1.23760   1.22785   45.992
 4428.00    1.23485   1.22575   47.264
 4429.00    1.22828   1.22150   47.894
 4430.00    1.21901   1.21502   48.429
 4431.00    1.20892   1.20723   48.863
 4432.00    1.20074   1.20017   48.686
 4433.00    1.19825   1.19671   47.602
 4434.00    1.20459   1.19953   45.872
 4435.00    1.21946   1.20934   44.376
 4436.00    1.23942   1.22383   43.831
 4437.00    1.25903   1.23825   44.104
 4438.00    1.27249   1.24761   44.614
 4439.00    1.27566   1.24939   44.849
 4440.00    1.26812   1.24500   44.739
 4441.00    1.25506   1.23868   44.970
 4442.00    1.24418   1.23554   45.859
 4443.00    1.24154   1.23907   46.015
 4444.00    1.24962   1.24929   44.152
 4445.00    1.26583   1.26292   41.391
 4446.00    1.28497   1.27584   39.393
 4447.00    1.30206   1.28457   38.949
 4448.00    1.31352   1.28682   40.075
 4449.00    1.31795   1.28171   41.823
 4450.00    1.31426   1.26955   43.072
 4451.00    1.30028   1.25176   43.757
 4452.00    1.27604   1.23038   44.307
 4453.00    1.24634   1.20787   44.785
 4454.00    1.21752   1.18701   44.962
 4455.00    1.19460   1.17013   44.528
 4456.00    1.18009   1.15814   43.585
 4457.00    1.17343   1.15108   42.815
 4458.00    1.17285   1.14893   42.781
 4459.00    1.17681   1.15156   43.601
 4460.00    1.18454   1.15866   44.937
 4461.00    1.19605   1.16974    0.000
 4462.00    1.21015   1.18349    0.000
 4463.00    1.22375   1.19755    0.000
 4464.00    1.23441   1.20927    0.000
 4465.00    1.24163   1.21712    0.000
 4466.00    1.24617   1.22136    0.000
 4467.00    1.24956   1.22406    0.000
 4468.00    1.25420   1.22841    0.000
 4469.00    1.26309   1.23722    0.000
 4470.00    1.27792   1.25169    0.000
 4471.00    1.29833   1.27110    0.000
 4472.00    1.32197   1.29330    0.000
 4473.00    1.34485   1.31505    0.000
 4474.00    1.36230   1.33250    0.000
 4475.00    1.36984   1.34216    0.000
 4476.00    1.36497   1.34197    0.000
 4477.00    1.34832   1.33226    0.000
 4478.00    1.32526   1.31618    0.000
 4479.00    1.30479   1.29912    0.000
 4480.00    1.29456   1.28684    0.000
 4481.00    1.29844   1.28348    0.000
 4482.00    1.31449   1.28965   44.263
 4483.00    1.33565   1.30202   43.972
 4484.00    1.35338   1.31475   44.016
 4485.00    1.36046   1.32257   44.970
 4486.00    1.35559   1.32308   46.415
 4487.00    1.34291   1.31730   47.081
 4488.00    1.32839   1.30827   46.549
 4489.00    1.31741   1.29901   45.477
 4490.00    1.31172   1.29134   44.530
 4491.00    1.31018   1.28590   44.058
 4492.00    1.31155   1.28270   44.067
 4493.00    1.31546   1.28196   44.330
 4494.00    1.32294   1.28449   44.584
 4495.00    1.33514   1.29096   44.680
 4496.00    1.35100   1.30116   44.802
 4497.00    1.36804   1.31418   45.181
 4498.00    1.38455   1.32941   45.532
 4499.00    1.39996   1.34637   45.377
 4500.00    1.41479   1.36429   44.770
 4501.00    1.42956   1.38227   44.019
 4502.00    1.44316   1.39907   43.138
 4503.00    1.45348   1.41292   42.231
 4504.00    1.45857   1.42238   41.955
 4505.00    1.45756   1.42706   42.664
 4506.00    1.45160   1.42757   43.325
 4507.00    1.44290   1.42484   42.910
 4508.00    1.43357   1.41965   42.434
 4509.00    1.42513   1.41244   43.090
 4510.00    1.41808   1.40330   44.214
 4511.00    1.41169   1.39257   44.589
 4512.00    1.40407   1.38121   44.287
 4513.00    1.39612   1.37026   43.665
 4514.00    1.39447   1.36111   42.233
 4515.00    1.40178   1.35532   40.087
 4516.00    1.40893   1.35334   38.611
 4517.00    1.40757   1.35424   38.554
 4518.00    1.40048   1.35576   39.208
 4519.00    1.39268   1.35553   39.728
 4520.00    1.38397   1.35181   40.159
 4521.00    1.37286   1.34280   40.671
 4522.00    1.35945   1.32777   40.968
 4523.00    1.34278   1.30745   41.220
 4524.00    1.31968   1.28368   42.510
 4525.00    1.29107   1.25936   44.668
 4526.00    1.26479   1.23785   44.941
 4527.00    1.24754   1.22182   43.737
 4528.00    1.24015   1.21274   46.218
 4529.00    1.23999   1.20983   50.121
 4530.00    1.24338   1.21122   40.644
 4531.00    1.25053   1.21585   27.746
 4532.00    1.26613   1.22404   22.291
 4533.00    1.28981   1.23688   21.710
 4534.00    1.31294   1.25409   22.629
 4535.00    1.32633   1.27410   23.021
 4536.00    1.32593   1.29448   22.908
 4537.00    1.32077   1.31240   22.775
 4538.00    1.32843   1.32601   22.720
 4539.00    1.34423   1.33440   22.720
 4540.00    1.34211   1.33732   22.760
 4541.00    1.32444   1.33604   22.861
 4542.00    1.32382   1.33263   23.043
 4543.00    1.34421   1.32816   23.170
 4544.00    1.35583   1.32253   23.020
 4545.00    1.34674   1.31545   22.742
 4546.00    1.33077   1.30787   22.740
 4547.00    1.31968   1.30118   23.023
 4548.00    1.31596   1.29551   23.228
 4549.00    1.31766   1.29096   23.238
 4550.00    1.32104   1.28764    0.000
 4551.00    1.32357   1.28600    0.000
 4552.00    1.32561   1.28741    0.000
 4553.00    1.33220   1.29344    0.000
 4554.00    1.34739   1.30459    0.000
 4555.00    1.36102   1.32029    0.000
 4556.00    1.35910   1.33881    0.000
 4557.00    1.35145   1.35755    0.000
 4558.00    1.35845   1.37321    0.000
 4559.00    1.37419   1.38260    0.000
 4560.00    1.38029   1.38430    0.000
 4561.00    1.38395   1.37973    0.000
 4562.00    1.40088   1.37243    0.000
 4563.00    1.41539   1.36654    0.000
 4564.00    1.40443   1.36470    0.000
 4565.00    1.38551   1.36741    0.000
 4566.00    1.38740   1.37307    0.000
 4567.00    1.39674   1.37858    0.000
 4568.00    1.38734   1.38213    0.000
 4569.00    1.37050   1.38421    0.000
 4570.00    1.37115   1.38553    0.000
 4571.00    1.38837   1.38660    0.000
 4572.00    1.40682   1.38809    0.000
 4573.00    1.41718   1.38979    0.000
 4574.00    1.41834   1.39000    0.000
 4575.00    1.41647   1.38646    0.000
 4576.00    1.41515   1.37787    0.000
 4577.00    1.40623   1.36499    0.000
 4578.00    1.38334   1.35022    0.000
 4579.00    1.35538   1.33609    0.000
 4580.00    1.33600   1.32468    0.000
 4581.00    1.33221   1.31761    0.000
 4582.00    1.34074   1.31562    0.000
 4583.00    1.34780   1.31877    0.000
 4584.00    1.34764   1.32657    0.000
 4585.00    1.35426   1.33750    0.000
 4586.00    1.37352   1.34907    0.000
 4587.00    1.38568   1.35851    0.000
 4588.00    1.37865   1.36378    0.000
 4589.00    1.36823   1.36433    0.000
 4590.00    1.36807   1.36087    0.000
 4591.00    1.37168   1.35472    0.000
 4592.00    1.37215   1.34779    0.000
 4593.00    1.37280   1.34213    0.000
 4594.00    1.37358   1.33893    0.000
 4595.00    1.36636   1.33836    0.000
 4596.00    1.35476   1.33942    0.000
 4597.00    1.35850   1.34089    0.000
 4598.00    1.38138   1.34260    0.000
 4599.00    1.40162   1.34464    0.000
 4600.00    1.40398   1.34701    0.000
 4601.00    1.39286   1.35006    0.000
 4602.00    1.38070   1.35467    0.000
 4603.00    1.37977   1.36210    0.000
 4604.00    1.39076   1.37329    0.000
 4605.00    1.40286   1.38791    0.000
 4606.00    1.41125   1.40398    0.000
 4607.00    1.42049   1.41871    0.000
 4608.00    1.43248   1.42993    0.000
 4609.00    1.44430   1.43649    0.000
 4610.00    1.45540   1.43860    0.000
 4611.00    1.46683   1.43781    0.000
 4612.00    1.47164   1.43564    0.000
 4613.00    1.45924   1.43325    0.000
 4614.00    1.43586   1.43168    0.000
 4615.00    1.42099   1.43074    0.000
 4616.00    1.42261   1.43023    0.000
 4617.00    1.43411   1.43097    0.000
 4618.00    1.44393   1.43308    0.000
 4619.00    1.44278   1.43581    0.000
 4620.00    1.43407   1.43880    0.000
 4621.00    1.42808   1.44136    0.000
 4622.00    1.42459   1.44251    0.000
 4623.00    1.41741   1.44215    0.000
 4624.00    1.41071   1.44053    0.000
 4625.00    1.41291   1.43753    0.000
 4626.00    1.41979   1.43372    0.000
 4627.00    1.42155   1.43064    0.000
 4628.00    1.42045   1.42875    0.000
 4629.00    1.42397   1.42660    0.000
 4630.00    1.42918   1.42299    0.000
 4631.00    1.42864   1.41799    0.000
 4632.00    1.42294   1.41169    0.000
 4633.00    1.41673   1.40385    0.000
 4634.00    1.41053   1.39470    0.000
 4635.00    1.40188   1.38536    0.000
 4636.00    1.38842   1.37720    0.000
 4637.00    1.37124   1.37142    0.000
 4638.00    1.35786   1.36892    0.000
 4639.00    1.35464   1.36876    0.000
 4640.00    1.35795   1.36866    0.000
 4641.00    1.35933   1.36657    0.000
 4642.00    1.35247   1.36066    0.000
 4643.00    1.33738   1.35033    0.000
 4644.00    1.32301   1.33782    0.000
 4645.00    1.31746   1.32676    0.000
 4646.00    1.31935   1.32039    0.000
 4647.00    1.32513   1.32053    0.000
 4648.00    1.33575   1.32690    0.000
 4649.00    1.35157   1.33774    0.000
 4650.00    1.36809   1.34989    0.000
 4651.00    1.37924   1.35978    0.000
 4652.00    1.38068   1.36644    0.000
 4653.00    1.37335   1.37134    0.000
 4654.00    1.36507   1.37707    0.000
 4655.00    1.36498   1.38622    0.000
 4656.00    1.37854   1.39890    0.000
 4657.00    1.40073   1.41255    0.000
 4658.00    1.41524   1.42340    0.000
 4659.00    1.41382   1.42797    0.000
 4660.00    1.40438   1.42445    0.000
 4661.00    1.39218   1.41279    0.000
 4662.00    1.37197   1.39357    0.000
 4663.00    1.34260   1.36781    0.000
 4664.00    1.31287   1.33927    0.000
 4665.00    1.29203   1.31435    0.000
 4666.00    1.28472   1.29828    0.000
 4667.00    1.28921   1.29322    0.000
 4668.00    1.29841   1.29880    0.000
 4669.00    1.30650   1.31222    0.000
 4670.00    1.31167   1.32982    0.000
 4671.00    1.31577   1.34857    0.000
 4672.00    1.32361   1.36621    0.000
 4673.00    1.34111   1.38094    0.000
 4674.00    1.37110   1.39058    0.000
 4675.00    1.40245   1.39386    0.000
 4676.00    1.41474   1.39173    0.000
 4677.00    1.40369   1.38604    0.000
 4678.00    1.38323   1.37877    0.000
 4679.00    1.36786   1.37248    0.000
 4680.00    1.36531   1.36941    0.000
 4681.00    1.37142   1.36978    0.000
 4682.00    1.37547   1.37265    0.000
 4683.00    1.37650   1.37712    0.000
 4684.00    1.38142   1.38173    0.000
 4685.00    1.39090   1.38533    0.000
 4686.00    1.39803   1.38766    0.000
 4687.00    1.39284   1.38847    0.000
 4688.00    1.37216   1.38821    0.000
 4689.00    1.35640   1.38852    0.000
 4690.00    1.36900   1.39050    0.000
 4691.00    1.39305   1.39425    0.000
 4692.00    1.39660   1.39930    0.000
 4693.00    1.39042   1.40394    0.000
 4694.00    1.40289   1.40532    0.000
 4695.00    1.42337   1.40138    0.000
 4696.00    1.42326   1.39302    0.000
 4697.00    1.40200   1.38239    0.000
 4698.00    1.37551   1.37030    0.000
 4699.00    1.35002   1.35770    0.000
 4700.00    1.32789   1.34677    0.000
 4701.00    1.31954   1.34000    0.000
 4702.00    1.32920   1.33750    0.000
 4703.00    1.33718   1.33721    0.000
 4704.00    1.32699   1.33753    0.000
 4705.00    1.31705   1.33825    0.000
 4706.00    1.32900   1.33984    0.000
 4707.00    1.35132   1.34349    0.000
 4708.00    1.36421   1.34993    0.000
 4709.00    1.36788   1.35757    0.000
 4710.00    1.37040   1.36465    0.000
 4711.00    1.37383   1.37085    0.000
 4712.00    1.37670   1.37774    0.000
 4713.00    1.37770   1.38725    0.000
 4714.00    1.37889   1.39915    0.000
 4715.00    1.38663   1.41271    0.000
 4716.00    1.39959   1.42768    0.000
 4717.00    1.40254   1.44285    0.000
 4718.00    1.39188   1.45620    0.000
 4719.00    1.38936   1.46605    0.000
 4720.00    1.40471   1.47208    0.000
 4721.00    1.41553   1.47460    0.000
 4722.00    1.40729   1.47288    0.000
 4723.00    1.39458   1.46550    0.000
 4724.00    1.38944   1.45150    0.000
 4725.00    1.38501   1.43263    0.000
 4726.00    1.37416   1.41251    0.000
 4727.00    1.35927   1.39420    0.000
 4728.00    1.34667   1.38012    0.000
 4729.00    1.34292   1.37237    0.000
 4730.00    1.35246   1.37131    0.000
 4731.00    1.37549   1.37575    0.000
 4732.00    1.40395   1.38385    0.000
 4733.00    1.42349   1.39259    0.000
 4734.00    1.42945   1.40059    0.000
 4735.00    1.42959   1.40890    0.000
 4736.00    1.42857   1.41696    0.000
 4737.00    1.42461   1.42331    0.000
 4738.00    1.41969   1.42827    0.000
 4739.00    1.42027   1.43326    0.000
 4740.00    1.42680   1.43884    0.000
 4741.00    1.43353   1.44430    0.000
 4742.00    1.43911   1.44934    0.000
 4743.00    1.44697   1.45472    0.000
 4744.00    1.45637   1.46030    0.000
 4745.00    1.46210   1.46502    0.000
 4746.00    1.46095   1.46852    0.000
 4747.00    1.45291   1.47052    0.000
 4748.00    1.43989   1.46999    0.000
 4749.00    1.42563   1.46614    0.000
 4750.00    1.41657   1.45949    0.000
 4751.00    1.41791   1.45105    0.000
 4752.00    1.42506   1.44210    0.000
 4753.00    1.42854   1.43408    0.000
 4754.00    1.42802   1.42808    0.000
 4755.00    1.42836   1.42442    0.000
 4756.00    1.42700   1.42264    0.000
 4757.00    1.41900   1.42132    0.000
 4758.00    1.40988   1.41780    0.000
 4759.00    1.40647   1.41019    0.000
 4760.00    1.39861   1.39927    0.000
 4761.00    1.37410   1.38677   27.979
 4762.00    1.34561   1.37425   28.878
 4763.00    1.33377   1.36404   29.096
 4764.00    1.33731   1.35908   28.759
 4765.00    1.34458   1.36084   28.612
 4766.00    1.35449   1.36888   28.699
 4767.00    1.36905   1.38120   28.771
 4768.00    1.38120   1.39449   28.958
 4769.00    1.38623   1.40687   29.363
 4770.00    1.39574   1.41892   29.498
 4771.00    1.41897   1.43127   29.011
 4772.00    1.44241   1.44285   28.504
 4773.00    1.45268   1.45240   28.551
 4774.00    1.46041   1.46020   28.833
 4775.00    1.47729   1.46608   28.817
 4776.00    1.49347   1.46879   28.491
 4777.00    1.49468   1.46792   28.205
 4778.00    1.47932   1.46396   28.379
 4779.00    1.45442   1.45686   29.028
 4780.00    1.43027   1.44694   29.426
 4781.00    1.41421   1.43654   29.193
 4782.00    1.40650   1.42734   29.135
 4783.00    1.40457   1.41878   29.696
 4784.00    1.40611   1.41160   30.018
 4785.00    1.40770   1.40753   29.596
 4786.00    1.40448   1.40639   29.350
 4787.00    1.39596   1.40827   29.852
 4788.00    1.38870   1.41425   30.468
 4789.00    1.38990   1.42418   30.587
 4790.00    1.40294   1.43739   30.439
 4791.00    1.42489   1.45311   30.345
 4792.00    1.44684   1.46876   30.280
 4793.00    1.46166   1.48079   30.123
 4794.00    1.46771   1.48727   29.813
 4795.00    1.46647   1.48786   29.493
 4796.00    1.46105   1.48351   29.452
 4797.00    1.45495   1.47696   29.723
 4798.00    1.45151   1.47134   30.002
 4799.00    1.45405   1.46826   30.089
 4800.00    1.46427   1.46718   30.044
 4801.00    1.47586   1.46624   29.947
 4802.00    1.47652   1.46401   29.828
 4803.00    1.46419   1.46065   29.790
 4804.00    1.44900   1.45651   29.961
 4805.00    1.43925   1.45169   30.192
 4806.00    1.43687   1.44753   30.139
 4807.00    1.43867   1.44554   29.942
 4808.00    1.43870   1.44602   30.110
 4809.00    1.43336   1.44883   30.585
 4810.00    1.42316   1.45378   30.824
 4811.00    1.41298   1.46033   30.868
 4812.00    1.40960   1.46797   31.202
 4813.00    1.41532   1.47644   31.490
 4814.00    1.42810   1.48514   30.933
 4815.00    1.44579   1.49310   30.065
 4816.00    1.46575   1.49939   30.029
 4817.00    1.48165   1.50282   30.659
 4818.00    1.48568   1.50214   30.934
 4819.00    1.47471   1.49657   30.749
 4820.00    1.45241   1.48590   30.749
 4821.00    1.43053   1.47243   31.068
 4822.00    1.42100   1.46080   31.404
 4823.00    1.42165   1.45330   31.591
 4824.00    1.42194   1.44882   31.681
 4825.00    1.41708   1.44595   31.861
 4826.00    1.40930   1.44428   32.259
 4827.00    1.40562   1.44379   32.653
 4828.00    1.41125   1.44364   32.710
 4829.00    1.42070   1.44246   32.463
 4830.00    1.42527   1.44097   32.171
 4831.00    1.42468   1.44106   32.005
 4832.00    1.42242   1.44263   32.050
 4833.00    1.41799   1.44435   32.333
 4834.00    1.41113   1.44551   32.713
 4835.00    1.40752   1.44526   32.744
 4836.00    1.41074   1.44246   32.271
 4837.00    1.41327   1.43755   31.996
 4838.00    1.40621   1.43237   32.415
 4839.00    1.39003   1.42810   32.871
 4840.00    1.37182   1.42477   32.671
 4841.00    1.36077   1.42317   32.335
 4842.00    1.36220   1.42441   32.461
 4843.00    1.37283   1.42749   32.725
 4844.00    1.38554   1.42978   32.705
 4845.00    1.39391   1.42920   32.613
 4846.00    1.39463   1.42586   32.721
 4847.00    1.38872   1.42173   32.890
 4848.00    1.37959   1.41726    0.000
 4849.00    1.37092   1.41040    0.000
 4850.00    1.36289   1.39998    0.000
 4851.00    1.35083   1.38525    0.000
 4852.00    1.33329   1.36496    0.000
 4853.00    1.31615   1.34033    0.000
 4854.00    1.30442   1.31384    0.000
 4855.00    1.29883   1.28473    0.000
 4856.00    1.30591   1.25105    0.000
 4857.00    1.33949   1.21322    0.000
 4858.00    1.39789   1.17500    0.000
 4859.00    1.45605   1.14459    0.000
 4860.00    1.48769   1.13009    0.000
 4861.00    1.47805   1.13189    0.000
 4862.00    1.43034   1.14608    0.000
 4863.00    1.36479   1.17061    0.000
 4864.00    1.30335   1.20196    0.000
 4865.00    1.26170   1.23448    0.000
 4866.00    1.24515   1.26328    0.000
 4867.00    1.24790   1.28391    0.000
 4868.00    1.25681   1.29369    0.000
 4869.00    1.25742   1.29631    0.000
 4870.00    1.24947   1.29912    0.000
 4871.00    1.24593   1.30562    0.000
 4872.00    1.25289   1.31523    0.000
 4873.00    1.26678   1.32783    0.000
 4874.00    1.28644   1.34371    0.000
 4875.00    1.31316   1.36186   32.706
 4876.00    1.34073   1.38103   32.252
 4877.00    1.35850   1.39863   32.131
 4878.00    1.36623   1.40996   32.181
 4879.00    1.37183   1.41383   31.918
 4880.00    1.37606   1.41339   31.507
 4881.00    1.37313   1.40966   31.522
 4882.00    1.36065   1.40140   32.008
 4883.00    1.34188   1.38981   32.548
 4884.00    1.32555   1.37776   32.794
 4885.00    1.31947   1.36770   32.654
 4886.00    1.31864   1.36057   32.332
 4887.00    1.31344   1.35558   32.144
 4888.00    1.30832   1.35278   32.207
 4889.00    1.31505   1.35640   32.404
 4890.00    1.33550   1.37136   32.408
 4891.00    1.36366   1.39589   31.958
 4892.00    1.39373   1.42474   31.305
 4893.00    1.42122   1.45393   30.852
 4894.00    1.44260   1.47993   30.655
 4895.00    1.45513   1.50010   30.607
 4896.00    1.45685   1.51242   30.708
 4897.00    1.44823   1.51511   30.943
 4898.00    1.43421   1.51080   31.078
 4899.00    1.42243   1.50418   30.899
 4900.00    1.42042   1.49656   30.533
 4901.00    1.43067   1.48929   30.270
 4902.00    1.44606   1.48541   30.317
 4903.00    1.45756   1.48548   30.619
 4904.00    1.46251   1.48650   30.710
 4905.00    1.46051   1.48487   30.298
 4906.00    1.44890   1.47900   29.836
 4907.00    1.42803   1.47000   29.823
 4908.00    1.40568   1.46092   30.244
 4909.00    1.39055   1.45500   30.787
 4910.00    1.38610   1.45274   31.045
 4911.00    1.39019   1.45279   30.936
 4912.00    1.39598   1.45414   30.953
 4913.00    1.39849   1.45470   31.344
 4914.00    1.39854   1.45021   31.600
 4915.00    1.39587   1.43686   31.392
 4916.00    1.38534   1.41407   31.205
 4917.00    1.36618   1.38605   31.498
 4918.00    1.34688   1.36018   32.196
 4919.00    1.33637   1.34305   32.848
 4920.00    1.33817   1.33706   32.847
 4921.00    1.34895   1.34049   32.302
 4922.00    1.36008   1.35255   32.183
 4923.00    1.36914   1.37434   32.766
 4924.00    1.38329   1.40363   33.157
 4925.00    1.40566   1.43410   32.845
 4926.00    1.43037   1.46136   32.386
 4927.00    1.45216   1.48328   32.102
 4928.00    1.46953   1.49797   31.737
 4929.00    1.47774   1.50476   31.362
 4930.00    1.46914   1.50219   31.493
 4931.00    1.44660   1.49029   32.182
 4932.00    1.42433   1.47507   32.850
 4933.00    1.40978   1.46123   33.183
 4934.00    1.39908   1.44719   33.436
 4935.00    1.38538   1.43242   33.847
 4936.00    1.36523   1.42042   34.378
 4937.00    1.34883   1.41649   34.622
 4938.00    1.35448   1.42363   34.106
 4939.00    1.38227   1.43822   33.260
 4940.00    1.41493   1.45505    0.000
 4941.00    1.44335   1.47327    0.000
 4942.00    1.46921   1.49182    0.000
 4943.00    1.49255   1.50778    0.000
 4944.00    1.50979   1.52055    0.000
 4945.00    1.51758   1.53093    0.000
 4946.00    1.51488   1.53869    0.000
 4947.00    1.50556   1.54381    0.000
 4948.00    1.49624   1.54649    0.000
 4949.00    1.49048   1.54594    0.000
 4950.00    1.48788   1.54054    0.000
 4951.00    1.48492   1.52983    0.000
 4952.00    1.47709   1.51449    0.000
 4953.00    1.46245   1.49494    0.000
 4954.00    1.44276   1.47105    0.000
 4955.00    1.42403   1.44623    0.000
 4956.00    1.41349   1.43057    0.000
 4957.00    1.41463   1.42898    0.000
 4958.00    1.42630   1.43562    0.000
 4959.00    1.44270   1.44471    0.000
 4960.00    1.45532   1.45464    0.000
 4961.00    1.45588   1.46483    0.000
 4962.00    1.44278   1.47171    0.000
 4963.00    1.42794   1.47160    0.000
 4964.00    1.42404   1.46631    0.000
 4965.00    1.42819   1.46026    0.000
 4966.00    1.43031   1.45599    0.000
 4967.00    1.42513   1.45496    0.000
 4968.00    1.41499   1.45764    0.000
 4969.00    1.41040   1.46459    0.000
 4970.00    1.41854   1.47484    0.000
 4971.00    1.43270   1.48533    0.000
 4972.00    1.44337   1.49380    0.000
 4973.00    1.44903   1.49798    0.000
 4974.00    1.45087   1.49617    0.000
 4975.00    1.44741   1.48771    0.000
 4976.00    1.43570   1.47235    0.000
 4977.00    1.41332   1.45224    0.000
 4978.00    1.38330   1.42951    0.000
 4979.00    1.35650   1.40438    0.000
 4980.00    1.34139   1.37920    0.000
 4981.00    1.33722   1.36003    0.000
 4982.00    1.33825   1.35117    0.000
 4983.00    1.33810   1.35214    0.000
 4984.00    1.33673   1.36135    0.000
 4985.00    1.34239   1.37676    0.000
 4986.00    1.35747   1.39428    0.000
 4987.00    1.37262   1.41055    0.000
 4988.00    1.38067   1.42365    0.000
 4989.00    1.38315   1.43333    0.000
 4990.00    1.38393   1.44095    0.000
 4991.00    1.38580   1.44521    0.000
 4992.00    1.39119   1.44634    0.000
 4993.00    1.40151   1.44739    0.000
 4994.00    1.41299   1.44737    0.000
 4995.00    1.41708   1.44444    0.000
 4996.00    1.40960   1.43759    0.000
 4997.00    1.39342   1.42578    0.000
 4998.00    1.37426   1.41130    0.000
 4999.00    1.35815   1.39683    0.000
 5000.00    1.34908   1.38329    0.000
 5001.00    1.34873   1.37173    0.000
 5002.00    1.35878   1.36169    0.000
 5003.00    1.38030   1.35262    0.000
 5004.00    1.40964   1.34695    0.000
 5005.00    1.43798   1.34788    0.000
 5006.00    1.45393   1.35378    0.000
 5007.00    1.44841   1.35879    0.000
 5008.00    1.42531   1.35971    0.000
 5009.00    1.39776   1.35658    0.000
 5010.00    1.37229   1.34939    0.000
 5011.00    1.34857   1.33950    0.000
 5012.00    1.32846   1.32900    0.000
 5013.00    1.31614   1.32122    0.000
 5014.00    1.31381   1.31752    0.000
 5015.00    1.32022   1.31595    0.000
 5016.00    1.32977   1.31751    0.000
 5017.00    1.33507   1.32478    0.000
 5018.00    1.33193   1.33590    0.000
 5019.00    1.32162   1.34639    0.000
 5020.00    1.31266   1.35472    0.000
 5021.00    1.31347   1.36413    0.000
 5022.00    1.32026   1.37577    0.000
 5023.00    1.32453   1.38646    0.000
 5024.00    1.32708   1.39446    0.000
 5025.00    1.33378   1.40030    0.000
 5026.00    1.34651   1.40811    0.000
 5027.00    1.36337   1.41965    0.000
 5028.00    1.38105   1.43076    0.000
 5029.00    1.39712   1.44014   36.544
 5030.00    1.41239   1.44893   36.521
 5031.00    1.42753   1.45552   36.282
 5032.00    1.43891   1.45549   36.360
 5033.00    1.44090   1.44512   36.996
 5034.00    1.42905   1.42783   37.323
 5035.00    1.40400   1.40994   36.758
 5036.00    1.37437   1.39065   36.439
 5037.00    1.34998   1.36866   37.208
 5038.00    1.33525   1.34792   37.942
 5039.00    1.32976   1.33544   37.579
 5040.00    1.33012   1.33838   37.198
 5041.00    1.33562   1.35387   37.648
 5042.00    1.35158   1.37369   37.839
 5043.00    1.37802   1.39532   37.083
 5044.00    1.40243   1.41616   36.716
 5045.00    1.41372   1.43097   37.399
 5046.00    1.41187   1.43623   37.678
 5047.00    1.40195   1.43392   36.888
 5048.00    1.38967   1.42925   36.804
 5049.00    1.38211   1.42491   38.162
 5050.00    1.38660   1.42301   39.025
 5051.00    1.40071   1.42691   38.256
 5052.00    1.41018   1.43722   37.646
 5053.00    1.40938   1.45137   38.061
 5054.00    1.40930   1.46632   38.159
 5055.00    1.41901   1.48098   37.370
 5056.00    1.43682   1.49452   36.950
 5057.00    1.45593   1.50420   37.269
 5058.00    1.46871   1.50919   37.213
 5059.00    1.47278   1.51029   36.611
 5060.00    1.47159   1.50665   36.675
 5061.00    1.46578   1.49657   37.373
 5062.00    1.45194   1.47989   37.102
 5063.00    1.43162   1.46204   35.974
 5064.00    1.41266   1.44871   35.925
 5065.00    1.40085   1.43772   37.190
 5066.00    1.39719   1.42753   38.004
 5067.00    1.39910   1.42160   37.676
 5068.00    1.40205   1.42152   37.328
 5069.00    1.40289   1.42291   37.372
 5070.00    1.40123   1.42236   37.247
 5071.00    1.40014   1.42240   36.817
 5072.00    1.40362   1.42281   36.482
 5073.00    1.40946   1.41979   36.401
 5074.00    1.41024   1.41334   36.478
 5075.00    1.40068   1.40560   36.756
 5076.00    1.38097   1.39505   37.340
 5077.00    1.35952   1.37945   37.942
 5078.00    1.34753   1.36454   38.038
 5079.00    1.34593   1.35721   37.600
 5080.00    1.34824   1.35638   37.120
 5081.00    1.35223   1.35872   37.207
 5082.00    1.35929   1.36579   38.114
 5083.00    1.36850   1.37978   38.873
 5084.00    1.37718   1.39731   38.243
 5085.00    1.38384   1.41368   37.178
 5086.00    1.38958   1.42838   37.258
 5087.00    1.39915   1.44259   38.159
 5088.00    1.41693   1.45492   38.521
 5089.00    1.44060   1.46400   37.950
 5090.00    1.46295   1.47058   37.033
 5091.00    1.47622   1.47445   36.498
 5092.00    1.47452   1.47324   36.714
 5093.00    1.45658   1.46583   37.315
 5094.00    1.42720   1.45388   37.731
 5095.00    1.39820   1.43941   38.007
 5096.00    1.38047   1.42351   38.380
 5097.00    1.37478   1.40897   38.615
 5098.00    1.37594   1.40114   38.489
 5099.00    1.37884   1.40058   38.401
 5100.00    1.38219   1.40294   38.702
 5101.00    1.39085   1.40519   39.032
 5102.00    1.40647   1.40710   38.985
 5103.00    1.41935   1.40868   38.815
 5104.00    1.42079   1.40796   38.819
 5105.00    1.41392   1.40338   38.792
 5106.00    1.40583   1.39813   38.532
 5107.00    1.40025   1.39539   38.257
 5108.00    1.39862   1.39531   38.199
 5109.00    1.40133   1.40002   38.300
 5110.00    1.40775   1.40974   38.350
 5111.00    1.41631   1.42209   38.125
 5112.00    1.42612   1.43587   37.611
 5113.00    1.43768   1.44930   37.097
 5114.00    1.45044   1.46156   36.886
 5115.00    1.46139   1.47152   37.118
 5116.00    1.46611   1.47588   37.559
 5117.00    1.46054   1.47327   37.577
 5118.00    1.44705   1.46436   36.987
 5119.00    1.43499   1.45046   36.383
 5120.00    1.42671   1.43287   36.279
 5121.00    1.41333   1.41194   36.779
 5122.00    1.39034   1.39110   37.650
 5123.00    1.36396   1.37495   38.374
 5124.00    1.34392   1.36413   38.551
 5125.00    1.33822   1.35738   38.199
 5126.00    1.34573   1.35440   37.760
 5127.00    1.35632   1.35607   37.825
 5128.00    1.36349   1.36302   38.394
 5129.00    1.36819   1.37353   38.828
 5130.00    1.37427   1.38426   38.809
 5131.00    1.38541   1.39349   38.605
 5132.00    1.40086   1.40158   38.444
 5133.00    1.41540   1.40896   38.352
 5134.00    1.42384   1.41201   38.358
 5135.00    1.42304   1.40833   38.493
 5136.00    1.41337   1.40070   38.587
 5137.00    1.39805   1.39216   38.401
 5138.00    1.38029   1.38622   38.146
 5139.00    1.36320   1.38101   38.287
 5140.00    1.35180   1.37295   38.762
 5141.00    1.35023   1.36693   39.080
 5142.00    1.35458   1.36656   39.069
 5143.00    1.35571   1.36770   38.974
 5144.00    1.34965   1.36626   39.136
 5145.00    1.33846   1.36320   39.679
 5146.00    1.32721   1.36257   39.992
 5147.00    1.32166   1.36445   39.426
 5148.00    1.32516   1.36443   38.877
 5149.00    1.33704   1.36256   39.569
 5150.00    1.35129   1.36278   40.757
 5151.00    1.36097   1.36633   40.784
 5152.00    1.36595   1.37283   40.188
 5153.00    1.37075   1.38277   40.391
 5154.00    1.37901   1.39624   40.858
 5155.00    1.39192   1.41172   40.289
 5156.00    1.40742   1.42583   39.080
 5157.00    1.42116   1.43575   38.415
 5158.00    1.42813   1.44075   38.781
 5159.00    1.42549   1.43763   39.926
 5160.00    1.41541   1.42290   40.697
 5161.00    1.39923   1.39833   40.206
 5162.00    1.37086   1.36644   39.520
 5163.00    1.32543   1.32746   39.923
 5164.00    1.26954   1.28197   41.204
 5165.00    1.21529   1.23425   42.461
 5166.00    1.17278   1.19374   43.137
 5167.00    1.14700   1.16719   43.204
 5168.00    1.13598   1.15280   43.101
 5169.00    1.13562   1.14381   43.225
 5170.00    1.14408   1.13969   43.517
 5171.00    1.15993   1.15013   43.525
 5172.00    1.18078   1.17912   42.636
 5173.00    1.20621   1.21575   41.150
 5174.00    1.23933   1.24800   40.494
 5175.00    1.27843   1.27499   40.989
 5176.00    1.31204   1.29842   40.877
 5177.00    1.32868   1.31308   39.445
 5178.00    1.32374   1.31361   38.665
 5179.00    1.29850   1.30136   39.720
 5180.00    1.25939   1.28028   41.663
 5181.00    1.21909   1.25517   43.003
 5182.00    1.19495   1.23771   43.097
 5183.00    1.19614   1.23844   42.381
 5184.00    1.21802   1.25330   41.889
 5185.00    1.25153   1.27221   41.872
 5186.00    1.28823   1.29180   41.547
 5187.00    1.32008   1.31550   40.645
 5188.00    1.34034   1.33974   39.873
 5189.00    1.34846   1.35207   39.748
 5190.00    1.35057   1.35211    0.000
 5191.00    1.35167   1.35162    0.000
 5192.00    1.35341   1.35577    0.000
 5193.00    1.35896   1.36052    0.000
 5194.00    1.37301   1.36523    0.000
 5195.00    1.39473   1.37448    0.000
 5196.00    1.41715   1.38860    0.000
 5197.00    1.43413   1.40208    0.000
 5198.00    1.44249   1.40975    0.000
 5199.00    1.44052   1.41098    0.000
 5200.00    1.42778   1.40609    0.000
 5201.00    1.40595   1.39472    0.000
 5202.00    1.37879   1.37610    0.000
 5203.00    1.35133   1.35237    0.000
 5204.00    1.32856   1.33096    0.000
 5205.00    1.31254   1.31667    0.000
 5206.00    1.30385   1.30850    0.000
 5207.00    1.30650   1.30780    0.000
 5208.00    1.32440   1.31766    0.000
 5209.00    1.35105   1.33701    0.000
 5210.00    1.37366   1.36112    0.000
 5211.00    1.38692   1.38481   40.137
 5212.00    1.39376   1.40590   39.563
 5213.00    1.40106   1.42225   40.217
 5214.00    1.41465   1.43424   43.177
 5215.00    1.43194   1.44533   41.832
 5216.00    1.44536   1.45608   34.671
 5217.00    1.45049   1.46440   37.132
 5218.00    1.44730   1.46867   58.350
 5219.00    1.43959   1.46928   52.032
 5220.00    1.43086   1.46497   13.680
 5221.00    1.41874   1.45364    7.343
 5222.00    1.40026   1.43595    6.476
 5223.00    1.38017   1.41452    7.173
 5224.00    1.36592   1.39287    7.630
 5225.00    1.35992   1.37663    7.378
 5226.00    1.36210   1.37202    7.161
 5227.00    1.37381   1.37749    7.266
 5228.00    1.39409   1.38740    7.459
 5229.00    1.41546   1.39984    7.072
 5230.00    1.43046   1.41347    6.375
 5231.00    1.43872   1.42654    6.987
 5232.00    1.44391   1.43828   12.184
 5233.00    1.44980   1.44959   43.300
 5234.00    1.45861   1.46251   58.350
 5235.00    1.46988   1.47603   38.813
 5236.00    1.48166   1.48888   33.575
 5237.00    1.49165   1.50145   39.699
 5238.00    1.49836   1.51319   41.896
 5239.00    1.50181   1.52286   39.700
 5240.00    1.50314   1.52735   39.629
 5241.00    1.50400   1.52627   40.735
 5242.00    1.50384   1.52331   40.720
 5243.00    1.49895   1.51828   40.176
 5244.00    1.48797   1.50680   40.138
 5245.00    1.47469   1.49018   40.386
 5246.00    1.46228   1.47620   40.538
 5247.00    1.45027   1.46633   40.660
 5248.00    1.43855   1.45561   40.781
 5249.00    1.42932   1.44603   40.663
 5250.00    1.42499   1.44460   40.252
 5251.00    1.42681   1.45095   39.837
 5252.00    1.43443   1.45837   39.629
 5253.00    1.44600   1.46515   39.580
 5254.00    1.45948   1.47605   39.465
 5255.00    1.47292   1.48944   39.048
 5256.00    1.48299   1.49739   38.600
 5257.00    1.48535   1.49597   38.795
 5258.00    1.47867   1.48548   39.608
 5259.00    1.46508   1.46651   40.169
 5260.00    1.44567   1.43859   40.112
 5261.00    1.41960   1.40479   39.935
 5262.00    1.38702   1.36911   39.910
 5263.00    1.35040   1.33357   39.878
 5264.00    1.31534   1.30317   39.859
 5265.00    1.28913   1.28502   40.028
 5266.00    1.27570   1.27658   40.036
 5267.00    1.27448   1.26966   39.297
 5268.00    1.28155   1.26836   38.346
 5269.00    1.29251   1.28211   38.193
 5270.00    1.30898   1.30715   38.303
 5271.00    1.33561   1.33218   37.314
 5272.00    1.36890   1.35557   35.885
 5273.00    1.39914   1.38198   35.597
 5274.00    1.42113   1.41128   36.157
 5275.00    1.43590   1.43915   36.179
 5276.00    1.44894   1.46129   35.863
 5277.00    1.46526   1.47555   36.369
 5278.00    1.48094   1.48282   37.398
 5279.00    1.48735   1.48741   37.776
 5280.00    1.48206   1.49142   37.775
 5281.00    1.47067   1.49335   38.395
 5282.00    1.46580   1.49589   39.119
 5283.00    1.47793   1.50551   38.847
 5284.00    1.50144   1.52259   38.323
 5285.00    1.52335   1.54091   38.818
 5286.00    1.53965   1.55648   39.844
 5287.00    1.55286   1.57060   40.170
 5288.00    1.56518   1.58369   39.985
 5289.00    1.57625   1.59103   40.036
 5290.00    1.58182   1.58869   39.975
 5291.00    1.57705   1.57826   39.336
 5292.00    1.56076   1.56429   38.848
 5293.00    1.53517   1.54864   39.292
 5294.00    1.50483   1.52908   40.300
 5295.00    1.47556   1.50601   41.012
 5296.00    1.45326   1.48655   41.043
 5297.00    1.44201   1.47811   40.522
 5298.00    1.44230   1.47890   39.865
 5299.00    1.45272   1.48311   39.519
 5300.00    1.47140   1.49153   39.791
 5301.00    1.49511   1.50784   40.460
 5302.00    1.51860   1.52982   40.487
 5303.00    1.53797   1.55031   39.444
 5304.00    1.55315   1.56562   38.473
 5305.00    1.56621   1.57750   38.342
 5306.00    1.57957   1.58803   38.490
 5307.00    1.59378   1.59668   38.321
 5308.00    1.60628   1.60150   38.055
 5309.00    1.61292   1.60192   38.071
 5310.00    1.60993   1.59914   38.463
 5311.00    1.59904   1.59481   39.046
 5312.00    1.58860   1.58964   39.417
 5313.00    1.58189   1.58277   39.383
 5314.00    1.57250   1.57377   39.177
 5315.00    1.55717   1.56497   39.034
 5316.00    1.54124   1.55864   38.994
 5317.00    1.53001   1.55278   39.150
 5318.00    1.52447   1.54453   39.640
 5319.00    1.52291   1.53500   39.998
 5320.00    1.52178   1.52485   39.260
 5321.00    1.51592   1.50965   37.988
 5322.00    1.50017   1.48710   38.008
 5323.00    1.47548   1.46451   39.448
 5324.00    1.44926   1.44650   40.356
 5325.00    1.42715   1.42785   40.014
 5326.00    1.41084   1.40753   39.921
 5327.00    1.40151   1.39771   40.677
 5328.00    1.40098   1.40640   41.401
 5329.00    1.41121   1.42430   41.410
 5330.00    1.43303   1.44140   40.821
 5331.00    1.46319   1.46017   40.098
 5332.00    1.49473   1.48484   39.725
 5333.00    1.52071   1.50775   39.958
 5334.00    1.53575   1.51946   40.739
 5335.00    1.53707   1.52210   41.470
 5336.00    1.52590   1.52269   41.361
 5337.00    1.50992   1.52083   40.714
 5338.00    1.49965   1.51345   40.528
 5339.00    1.49892   1.50533   41.012
 5340.00    1.50466   1.50350   41.633
 5341.00    1.51154   1.50660   41.781
 5342.00    1.51481   1.50867   41.265
 5343.00    1.51394   1.50924   40.864
 5344.00    1.51222   1.51219   41.483
 5345.00    1.51454   1.51836   42.649
 5346.00    1.52400   1.52355   43.112
 5347.00    1.53706   1.52661   42.822
 5348.00    1.54728   1.53307   42.557
 5349.00    1.55285   1.54652   42.465
 5350.00    1.55561   1.56294   42.297
 5351.00    1.55779   1.57817   42.051
 5352.00    1.56271   1.59432   41.873
 5353.00    1.57620   1.61254   41.783
 5354.00    1.60059   1.62802   41.725
 5355.00    1.62703   1.63711   41.656
 5356.00    1.64320   1.64104   41.496
 5357.00    1.64397   1.64141   41.081
 5358.00    1.63086   1.63680   40.510
 5359.00    1.60963   1.62592   40.430
 5360.00    1.58682   1.61100   41.130
 5361.00    1.56644   1.59517   41.648
 5362.00    1.55027   1.57905   41.172
 5363.00    1.53842   1.56148   40.645
 5364.00    1.52775   1.54322   41.009
 5365.00    1.51118   1.52626   41.735
 5366.00    1.48577   1.51178   42.002
 5367.00    1.45893   1.49963   41.891
 5368.00    1.44047   1.48913   41.764
 5369.00    1.43543   1.48283   41.617
 5370.00    1.44462   1.48530   41.309
 5371.00    1.46550   1.49740   -2.000
 5372.00    1.49298   1.51436   -2.000
 5373.00    1.52022   1.53233   -2.000
 5374.00    1.54089   1.55038   -2.000
 5375.00    1.55126   1.56685   -2.000
 5376.00    1.55437   1.57939   -2.000
 5377.00    1.56050   1.58620   -2.000
 5378.00    1.57510   1.58738   -2.000
 5379.00    1.59307   1.58534   -2.000
 5380.00    1.60686   1.58260   -2.000
 5381.00    1.61178   1.57946   -2.000
 5382.00    1.60878   1.57639   -2.000
 5383.00    1.60412   1.57451   -2.000
 5384.00    1.60205   1.57254   -2.000
 5385.00    1.60180   1.56876   -2.000
 5386.00    1.60037   1.56325   39.167
 5387.00    1.59451   1.55580   39.662
 5388.00    1.58332   1.54580   40.168
 5389.00    1.56864   1.53441   40.477
 5390.00    1.55257   1.52230   40.638
 5391.00    1.53643   1.50914   41.000
 5392.00    1.52065   1.49723   41.625
 5393.00    1.50539   1.48888   42.193
 5394.00    1.49242   1.48140   42.489
 5395.00    1.48419   1.47348   42.601
 5396.00    1.47886   1.47071   42.869
 5397.00    1.47181   1.47421   43.628
 5398.00    1.46395   1.47600   44.507
 5399.00    1.46053   1.47302   44.639
 5400.00    1.46116   1.47036   44.130
 5401.00    1.46003   1.46784   43.879
 5402.00    1.45316   1.45956   44.070
 5403.00    1.44120   1.44625   44.246
 5404.00    1.43116   1.43537   44.232
 5405.00    1.43171   1.43174   44.165
 5406.00    1.44210   1.43359   44.056
 5407.00    1.45478   1.43752   43.803
 5408.00    1.46562   1.44473   43.404
 5409.00    1.47521   1.45937   42.955
 5410.00    1.48722   1.48017   42.543
 5411.00    1.50526   1.50042   42.207
 5412.00    1.52798   1.51702   41.913
 5413.00    1.55069   1.53251   41.609
 5414.00    1.56935   1.54823   41.328
 5415.00    1.58130   1.56118   41.141
 5416.00    1.58540   1.56873   41.071
 5417.00    1.58246   1.57143   41.090
 5418.00    1.57575   1.57078   41.135
 5419.00    1.56860   1.56866   41.076
 5420.00    1.56129   1.56678   40.705
 5421.00    1.55406   1.56401   40.076
 5422.00    1.55110   1.55828   39.810
 5423.00    1.55557   1.55199   40.322
 5424.00    1.56368   1.54863   40.991
 5425.00    1.56891   1.54646   40.937
 5426.00    1.56735   1.54003   40.178
 5427.00    1.55737   1.52756   39.360
 5428.00    1.53879   1.51506   39.185
 5429.00    1.51530   1.50794   39.871
 5430.00    1.49612   1.50212   40.735
 5431.00    1.48888   1.49403   41.024
 5432.00    1.49359   1.48991   40.873
 5433.00    1.50601   1.49520   40.761
 5434.00    1.52130   1.50688   40.899
 5435.00    1.53701   1.52140   41.202
 5436.00    1.55449   1.53933   41.334
 5437.00    1.57349   1.55964   41.200
 5438.00    1.58892   1.57820   41.228
 5439.00    1.59654   1.59125   41.703
 5440.00    1.59655   1.59689   42.378
 5441.00    1.59068   1.59502   42.929
 5442.00    1.58028   1.58692   43.292
 5443.00    1.56690   1.57390   43.635
 5444.00    1.55271   1.55740   44.224
 5445.00    1.54039   1.54195   44.949
 5446.00    1.53265   1.53334   45.160
 5447.00    1.52993   1.53126   44.609
 5448.00    1.52978   1.53048   43.848
 5449.00    1.52933   1.52925   43.495
 5450.00    1.52660   1.52926   43.856
 5451.00    1.52104   1.52995   44.606
 5452.00    1.51389   1.52800   44.856
 5453.00    1.50940   1.52233   44.478
 5454.00    1.51314   1.51768   44.299
 5455.00    1.52392   1.51921   44.410
 5456.00    1.53382   1.52433   44.008
 5457.00    1.53969   1.52771   43.106
 5458.00    1.54482   1.53031   42.582
 5459.00    1.55049   1.53478   42.549
 5460.00    1.55453   1.53793   42.357
 5461.00    1.55645   1.53688   41.990
 5462.00    1.55848   1.53602   42.038
 5463.00    1.56361   1.53861   42.436
 5464.00    1.57359   1.54080   42.464
 5465.00    1.58541   1.54134   41.829
 5466.00    1.59278   1.54367   40.891
 5467.00    1.59262   1.54580   40.269
 5468.00    1.58603   1.54298   40.405
 5469.00    1.57662   1.53715   40.889
 5470.00    1.56790   1.53023   40.871
 5471.00    1.55841   1.51917   40.478
 5472.00    1.54411   1.50605   40.487
 5473.00    1.52520   1.49630   41.006
 5474.00    1.50561   1.48724   41.487
 5475.00    1.48917   1.47685   41.249
 5476.00    1.48010   1.47282   40.382
 5477.00    1.48470   1.47765   40.757
 5478.00    1.50496   1.48319   42.985
 5479.00    1.52801   1.48736   40.732
 5480.00    1.54038   1.49601   34.036
 5481.00    1.55160   1.50840   37.973
 5482.00    1.57037   1.51879   -2.000
 5483.00    1.56739   1.52714   -2.000
 5484.00    1.52205   1.53485   -2.000
 5485.00    1.48991   1.53982   -2.000
 5486.00    1.55665   1.54275   -2.000
 5487.00    1.76432   1.54612   -2.000
 5488.00    2.06010   1.54812   -2.000
 5489.00    2.26052   1.54834   -2.000
 5490.00    2.23234   1.54980   -2.000
 5491.00    2.08387   1.55114   -2.000
 5492.00    1.99601   1.55029   -2.000
 5493.00    2.02757   1.55075   -2.000
 5494.00    2.13904   1.55248   -2.000
 5495.00    2.23994   1.55032   -2.000
 5496.00    2.24653   1.54627   -2.000
 5497.00    2.13189   1.54594   -2.000
 5498.00    1.93572   1.54590   -2.000
 5499.00    1.75764   1.54081   -2.000
 5500.00    1.66108   1.53409   -2.000
 5501.00    1.60892   1.53011   -2.000
 5502.00    1.55662   1.52743   -2.000
 5503.00    1.51765   1.52338   -2.000
 5504.00    1.51003   1.51812   -2.000
 5505.00    1.52032   1.51461   58.350
 5506.00    1.53165   1.51427   58.350
 5507.00    1.54153   1.51362   38.831
 5508.00    1.54996   1.51065   36.989
 5509.00    1.55278   1.50832   45.738
 5510.00    1.54801   1.50751   44.993
 5511.00    1.53901   1.50706   40.674
 5512.00    1.53112   1.50901   40.786
 5513.00    1.52945   1.51506   42.116
 5514.00    1.53757   1.52366   41.628
 5515.00    1.55640   1.53410   40.752
 5516.00    1.58263   1.54690   40.715
 5517.00    1.60902   1.56017   40.876
 5518.00    1.62920   1.57031   40.627
 5519.00    1.63974   1.57630   40.109
 5520.00    1.64031   1.57907   39.789
 5521.00    1.63296   1.57806   40.080
 5522.00    1.61955   1.57214   40.700
 5523.00    1.60148   1.56276   40.790
 5524.00    1.58196   1.55317   40.423
 5525.00    1.56588   1.54427   40.580
 5526.00    1.55678   1.53549   41.353
 5527.00    1.55534   1.52982   41.871
 5528.00    1.55788   1.53013   41.906
 5529.00    1.55859   1.53305   42.016
 5530.00    1.55681   1.53554   42.253
 5531.00    1.55661   1.53997   42.278
 5532.00    1.56068   1.54605   42.639
 5533.00    1.56839   1.55022   44.162
 5534.00    1.57523   1.55382   45.442
 5535.00    1.57628   1.55946   44.311
 5536.00    1.57378   1.56498   43.696
 5537.00    1.57460   1.56910   46.930
 5538.00    1.58137   1.57413   46.111
 5539.00    1.59192   1.57974   37.058
 5540.00    1.60206   1.58290   39.299
 5541.00    1.60755   1.58339   58.350
 5542.00    1.60673   1.58440   58.350
 5543.00    1.60158   1.58707   13.513
 5544.00    1.59840   1.58917    6.667
 5545.00    1.60331   1.59114    5.641
 5546.00    1.61495   1.59574    6.094
 5547.00    1.62683   1.60142    6.402
 5548.00    1.63260   1.60462    6.161
 5549.00    1.62991   1.60597    5.991
 5550.00    1.62433   1.60680    6.130
 5551.00    1.62284   1.60533    6.397
 5552.00    1.62510   1.60092    6.193
 5553.00    1.62648   1.59611    5.619
 5554.00    1.62325   1.59259    6.094
 5555.00    1.61492   1.58892   10.532
 5556.00    1.60588   1.58443   41.192
 5557.00    1.60086   1.58051   58.350
 5558.00    1.60023   1.57732   40.839
 5559.00    1.60161   1.57335   33.709
 5560.00    1.60213   1.56766   41.604
 5561.00    1.59962   1.56120   44.446
 5562.00    1.59360   1.55581   40.782
 5563.00    1.58603   1.55094   40.436
 5564.00    1.58131   1.54483   42.156
 5565.00    1.58089   1.54021   42.368
 5566.00    1.58000   1.53903   41.666
 5567.00    1.57465   1.53713   41.670
 5568.00    1.56656   1.53491   42.183
 5569.00    1.55909   1.53738   42.636
 5570.00    1.55417   1.54104   43.098
 5571.00    1.55317   1.54164   43.580
 5572.00    1.55718   1.54519   43.637
 5573.00    1.56472   1.55282   43.311
 5574.00    1.57133   1.55770   43.467
 5575.00    1.57605   1.56111   44.351
 5576.00    1.58356   1.56658   44.996
 5577.00    1.59629   1.57011   44.727
 5578.00    1.61071   1.57027   44.020
 5579.00    1.62108   1.56874   43.538
 5580.00    1.62205   1.56339   43.612
 5581.00    1.61163   1.55367   44.170
 5582.00    1.59219   1.54175   44.782
 5583.00    1.56873   1.52737   45.082
 5584.00    1.54714   1.51045   45.006
 5585.00    1.53049   1.49410   44.813
 5586.00    1.51849   1.48111   44.890
 5587.00    1.51065   1.47236   45.179
 5588.00    1.50739   1.46808   45.157
 5589.00    1.50942   1.46880   44.573
 5590.00    1.51692   1.47489   43.683
 5591.00    1.52781   1.48436   43.005
 5592.00    1.53831   1.49321   42.953
 5593.00    1.54629   1.50055   43.116
 5594.00    1.55163   1.50868   42.550
 5595.00    1.55433   1.51484   41.282
 5596.00    1.55414   1.51428   40.143
 5597.00    1.55131   1.51126   39.477
 5598.00    1.54687   1.51125   39.094
 5599.00    1.54282   1.51206   38.623
 5600.00    1.54158   1.51248   37.837
 5601.00    1.54460   1.51744   37.164
 5602.00    1.55239   1.52915   37.164
 5603.00    1.56533   1.54445   37.471
 5604.00    1.58311   1.56032   37.349
 5605.00    1.60333   1.57593   37.254
 5606.00    1.62223   1.59020   38.037
 5607.00    1.63654   1.60075   38.967
 5608.00    1.64358   1.60596   38.719
 5609.00    1.64096   1.60453   38.231
 5610.00    1.62869   1.59695   39.126
 5611.00    1.61244   1.58696   40.744
 5612.00    1.59858   1.57541   41.287
 5613.00    1.58645   1.55988   41.076
 5614.00    1.57267   1.54450   41.519
 5615.00    1.55863   1.53637   42.617
 5616.00    1.54800   1.53311   43.511
 5617.00    1.54223   1.52989   43.743
 5618.00    1.54107   1.52903   43.469
 5619.00    1.54394   1.53149   43.289
 5620.00    1.54941   1.53431   43.680
 5621.00    1.55462   1.53577   44.478
 5622.00    1.55751   1.53523   45.192
 5623.00    1.55902   1.53471   45.453
 5624.00    1.56076   1.53822   45.236
 5625.00    1.56265   1.54452   44.943
 5626.00    1.56480   1.55037   44.831
 5627.00    1.56931   1.55793   44.594
 5628.00    1.57748   1.56810   44.115
 5629.00    1.58752   1.57622   43.986
 5630.00    1.59616   1.58036   44.464
 5631.00    1.60020   1.58171   44.777
 5632.00    1.59735   1.57980   44.483
 5633.00    1.58692   1.57492   44.396
 5634.00    1.57120   1.56882   44.870
 5635.00    1.55581   1.56141   44.824
 5636.00    1.54565   1.55345   43.768
 5637.00    1.54225   1.54829   42.864
 5638.00    1.54402   1.54565   42.879
 5639.00    1.54730   1.54295   43.347
 5640.00    1.55056   1.54201   43.496
 5641.00    1.55593   1.54491   42.896
 5642.00    1.56466   1.54905   41.988
 5643.00    1.57487   1.55263   41.823
 5644.00    1.58324   1.55720   42.340
 5645.00    1.58654   1.56263   42.108
 5646.00    1.58432   1.56757   41.094
 5647.00    1.57952   1.57140   41.090
 5648.00    1.57548   1.57367   42.409
 5649.00    1.57431   1.57397   43.217
 5650.00    1.57580   1.57291   42.671
 5651.00    1.57750   1.57083   42.045
 5652.00    1.57650   1.56468   42.163
 5653.00    1.57061   1.55338   42.787
 5654.00    1.55977   1.54310   43.434
 5655.00    1.54612   1.53569   43.740
 5656.00    1.53262   1.52434   43.825
 5657.00    1.52211   1.51174   44.165
 5658.00    1.51612   1.50834   44.801
 5659.00    1.51489   1.51090   45.300
 5660.00    1.51843   1.51108   45.452
 5661.00    1.52629   1.51347   45.413
 5662.00    1.53616   1.52220   45.433
 5663.00    1.54450   1.53152   45.650
 5664.00    1.54903   1.53795   45.813
 5665.00    1.54972   1.54405   45.567
 5666.00    1.54958   1.55089   45.259
 5667.00    1.55319   1.55811   45.470
 5668.00    1.56341   1.56556   45.743
 5669.00    1.58004   1.57254   45.239
 5670.00    1.59901   1.57976   44.603
 5671.00    1.61417   1.58888   44.893
 5672.00    1.62122   1.59785   45.244
 5673.00    1.61929   1.60301   44.206
 5674.00    1.61245   1.60576   42.879
 5675.00    1.60626   1.60854   42.938
 5676.00    1.60194   1.60829   43.618
 5677.00    1.59754   1.60243   43.196
 5678.00    1.59124   1.59541   41.991
 5679.00    1.58338   1.58966   41.114
 5680.00    1.57852   1.58182   40.322
 5681.00    1.58091   1.57177   39.109
 5682.00    1.58836   1.56414   38.076
 5683.00    1.59494   1.55987   38.006
 5684.00    1.59550   1.55656   38.945
 5685.00    1.58870   1.55478   40.399
 5686.00    1.57951   1.55616   41.480
 5687.00    1.57416   1.56108   41.606
 5688.00    1.57455   1.56790   41.423
 5689.00    1.57912   1.57491   41.698
 5690.00    1.58456   1.58230   42.204
 5691.00    1.58810   1.59031   42.484
 5692.00    1.58955   1.59579   42.667
 5693.00    1.58974   1.59655   42.971
 5694.00    1.58902   1.59551   43.218
 5695.00    1.58685   1.59278   43.283
 5696.00    1.58182   1.58544   43.467
 5697.00    1.57444   1.57573   43.926
 5698.00    1.56868   1.56787   44.270
 5699.00    1.56731   1.56000   44.163
 5700.00    1.56882   1.54995   43.758
 5701.00    1.57035   1.54130   43.168
 5702.00    1.56986   1.53525   42.215
 5703.00    1.56666   1.52789   41.126
 5704.00    1.56126   1.51860   40.687
 5705.00    1.55286   1.51118   41.346
 5706.00    1.53901   1.50536   42.873
 5707.00    1.52149   1.49918   44.471
 5708.00    1.50818   1.49688   44.978
 5709.00    1.50553   1.50068   44.384
 5710.00    1.51482   1.50688   44.130
 5711.00    1.53333   1.51680   44.647
 5712.00    1.55568   1.53249   44.808
 5713.00    1.57680   1.54844   44.205
 5714.00    1.59363   1.56353   43.743
 5715.00    1.60616   1.57980   43.595
 5716.00    1.61686   1.59403   42.938
 5717.00    1.62683   1.60545   41.821
 5718.00    1.63521   1.61588   41.211
 5719.00    1.64230   1.62388   41.198
 5720.00    1.64997   1.62951   41.015
 5721.00    1.65906   1.63364   40.700
 5722.00    1.66855   1.63448   41.044
 5723.00    1.67575   1.63319   41.866
 5724.00    1.67743   1.63177   42.044
 5725.00    1.67294   1.62811   41.479
 5726.00    1.66479   1.62232   41.145
 5727.00    1.65773   1.61912   41.456
 5728.00    1.65634   1.61824   42.122
 5729.00    1.65979   1.61618   42.644
 5730.00    1.66321   1.61500   42.677
 5731.00    1.66398   1.61732   42.602
 5732.00    1.66304   1.62044   43.067
 5733.00    1.66445   1.62205   43.738
 5734.00    1.67178   1.62385   43.748
 5735.00    1.68143   1.62604   43.379
 5736.00    1.68613   1.62713   43.526
 5737.00    1.68407   1.62711   44.093
 5738.00    1.67809   1.62644   44.314
 5739.00    1.67113   1.62588   43.901
 5740.00    1.66563   1.62584    0.000
 5741.00    1.66384   1.62565    0.000
 5742.00    1.66694   1.62483    0.000
 5743.00    1.67356   1.62408    0.000
 5744.00    1.68029   1.62379    0.000
 5745.00    1.68275   1.62262    0.000
 5746.00    1.67840   1.61938    0.000
 5747.00    1.66965   1.61533    0.000
 5748.00    1.66074   1.61184    0.000
 5749.00    1.65320   1.60755    0.000
 5750.00    1.64745   1.60277    0.000
 5751.00    1.64511   1.59953    0.000
 5752.00    1.64757   1.59768    0.000
 5753.00    1.65427   1.59726    0.000
 5754.00    1.66327   1.59880    0.000
 5755.00    1.67203   1.60079    0.000
 5756.00    1.67726   1.60229    0.000
 5757.00    1.67502   1.60347    0.000
 5758.00    1.66426   1.60334    0.000
 5759.00    1.64948   1.60262    0.000
 5760.00    1.63718   1.60229    0.000
 5761.00    1.63249   1.60220    0.000
 5762.00    1.63757   1.60469    0.000
 5763.00    1.65079   1.61086    0.000
 5764.00    1.66802   1.61716    0.000
 5765.00    1.68405   1.62303    0.000
 5766.00    1.69496   1.62975    0.000
 5767.00    1.69957   1.63430    0.000
 5768.00    1.69794   1.63567    0.000
 5769.00    1.69053   1.63545    0.000
 5770.00    1.67897   1.63346    0.000
 5771.00    1.66639   1.63009    0.000
 5772.00    1.65641   1.62650    0.000
 5773.00    1.65184   1.62160    0.000
 5774.00    1.65109   1.61565    0.000
 5775.00    1.64778   1.60914    0.000
 5776.00    1.63843   1.59977    0.000
 5777.00    1.62519   1.58835    0.000
 5778.00    1.61164   1.57705    0.000
 5779.00    1.60022   1.56407    0.000
 5780.00    1.59031   1.55043    0.000
 5781.00    1.57895   1.54155    0.000
 5782.00    1.56707   1.53715    0.000
 5783.00    1.56020   1.53427    0.000
 5784.00    1.56258   1.53602    0.000
 5785.00    1.57455   1.54394    0.000
 5786.00    1.59187   1.55310    0.000
 5787.00    1.60742   1.56218    0.000
 5788.00    1.61747   1.57340    0.000
 5789.00    1.62274   1.58364    0.000
 5790.00    1.62562   1.59187    0.000
 5791.00    1.62858   1.60085    0.000
 5792.00    1.63231   1.60771    0.000
 5793.00    1.63591   1.61233    0.000
 5794.00    1.63872   1.61864    0.000
 5795.00    1.63939   1.62429   -2.000
 5796.00    1.63304   1.62721   -2.000
 5797.00    1.61491   1.63131   -2.000
 5798.00    1.58982   1.63699   -2.000
 5799.00    1.57020   1.63989   -2.000
 5800.00    1.56749   1.64104   -2.000
 5801.00    1.58534   1.64317   -2.000
 5802.00    1.61054   1.64336   -2.000
 5803.00    1.62324   1.64072   -2.000
 5804.00    1.61791   1.63867   -2.000
 5805.00    1.60221   1.63754   -2.000
 5806.00    1.58846   1.63629   -2.000
 5807.00    1.58678   1.63570   -2.000
 5808.00    1.59680   1.63612   -2.000
 5809.00    1.61181   1.63714   -2.000
 5810.00    1.62644   1.63746   -2.000
 5811.00    1.63752   1.63652   -2.000
 5812.00    1.64356   1.63596   -2.000
 5813.00    1.64486   1.63603   -2.000
 5814.00    1.64366   1.63566   -2.000
 5815.00    1.64319   1.63617    0.000
 5816.00    1.64647   1.63942    0.000
 5817.00    1.65406   1.64392    0.000
 5818.00    1.66227   1.64787    0.000
 5819.00    1.66683   1.65252    0.000
 5820.00    1.66694   1.65770    0.000
 5821.00    1.66480   1.66115    0.000
 5822.00    1.66441   1.66320    0.000
 5823.00    1.66843   1.66515    0.000
 5824.00    1.67555   1.66677    0.000
 5825.00    1.68197   1.66754    0.000
 5826.00    1.68330   1.66777    0.000
 5827.00    1.67782   1.66810    0.000
 5828.00    1.66842   1.66837    0.000
 5829.00    1.65854   1.66741    0.000
 5830.00    1.64945   1.66533    0.000
 5831.00    1.64277   1.66402    0.000
 5832.00    1.64188   1.66277    0.000
 5833.00    1.64800   1.66004    0.000
 5834.00    1.65819   1.65832    0.000
 5835.00    1.66854   1.65908    0.000
 5836.00    1.67637   1.65952    0.000
 5837.00    1.68148   1.65964    0.000
 5838.00    1.68587   1.66195    0.000
 5839.00    1.68982   1.66453    0.000
 5840.00    1.69071   1.66507    0.000
 5841.00    1.68784   1.66478    0.000
 5842.00    1.68420   1.66363    0.000
 5843.00    1.68321   1.66023    0.000
 5844.00    1.68677   1.65509    0.000
 5845.00    1.69304   1.64870    0.000
 5846.00    1.69660   1.64125    0.000
 5847.00    1.69247   1.63354    0.000
 5848.00    1.67838   1.62501    0.000
 5849.00    1.65694   1.61567    0.000
 5850.00    1.63436   1.60703    0.000
 5851.00    1.61336   1.59807    0.000
 5852.00    1.59289   1.58792    0.000
 5853.00    1.57485   1.57964    0.000
 5854.00    1.56411   1.57371    0.000
 5855.00    1.56213   1.56785    0.000
 5856.00    1.56591   1.56402    0.000
 5857.00    1.57056   1.56465    0.000
 5858.00    1.57206   1.56733    0.000
 5859.00    1.57230   1.57076    0.000
 5860.00    1.57694   1.57664    0.000
 5861.00    1.58736   1.58296    0.000
 5862.00    1.60031   1.58867    0.000
 5863.00    1.61131   1.59540    0.000
 5864.00    1.61720   1.60115    0.000
 5865.00    1.61933   1.60514    0.000
 5866.00    1.62200   1.61015    0.000
 5867.00    1.62793   1.61582    0.000
 5868.00    1.63754   1.61934    0.000
 5869.00    1.64920   1.62195    0.000
 5870.00    1.66042   1.62482    0.000
 5871.00    1.66972   1.62550    0.000
 5872.00    1.67659   1.62384    0.000
 5873.00    1.68086   1.62170    0.000
 5874.00    1.68180   1.61824    0.000
 5875.00    1.67725   1.61246    0.000
 5876.00    1.66536   1.60641    0.000
 5877.00    1.64733   1.60086    0.000
 5878.00    1.62713   1.59361    0.000
 5879.00    1.61044   1.58478    0.000
 5880.00    1.60047   1.57603    0.000
 5881.00    1.59336   1.56470    0.000
 5882.00    1.58255   1.54781    0.000
 5883.00    1.56417   1.52732    0.000
 5884.00    1.53689   1.50192    0.000
 5885.00    1.50101   1.46879    0.000
 5886.00    1.45878   1.43388    0.000
 5887.00    1.41450   1.40007    0.000
 5888.00    1.37384   1.36410    0.000
 5889.00    1.34281   1.33533    0.000
 5890.00    1.32528   1.32010    0.000
 5891.00    1.32107   1.30764    0.000
 5892.00    1.32707   1.30247    0.000
 5893.00    1.33874   1.31331    0.000
 5894.00    1.35321   1.32611    0.000
 5895.00    1.37113   1.34122    0.000
 5896.00    1.39396   1.37008    0.000
 5897.00    1.42185   1.40015    0.000
 5898.00    1.45332   1.42675    0.000
 5899.00    1.48538   1.46012    0.000
 5900.00    1.51487   1.49273    0.000
 5901.00    1.53929   1.51644   42.619
 5902.00    1.55661   1.53714   43.690
 5903.00    1.56566   1.55536   44.531
 5904.00    1.56909   1.56715   44.384
 5905.00    1.57342   1.57499   44.198
 5906.00    1.58182   1.58160   44.591
 5907.00    1.59166   1.58575   45.064
 5908.00    1.60005   1.58681   45.123
 5909.00    1.60611   1.58644   44.810
 5910.00    1.60937   1.58560   44.417
 5911.00    1.60937   1.58318   44.234
 5912.00    1.60680   1.57936   44.232
 5913.00    1.60368   1.57661   44.106
 5914.00    1.60210   1.57564   43.877
 5915.00    1.60347   1.57535   43.880
 5916.00    1.60756   1.57691   43.982
 5917.00    1.61266   1.58023   43.672
 5918.00    1.61715   1.58401   43.206
 5919.00    1.62020   1.58882   43.419
 5920.00    1.62239   1.59282   44.233
 5921.00    1.62514   1.59543   44.696
 5922.00    1.62876   1.59819   44.495
 5923.00    1.63200   1.59957   44.143
 5924.00    1.63250   1.59928   43.977
 5925.00    1.62781   1.59864   43.965
 5926.00    1.61775   1.59708   43.874
 5927.00    1.60477   1.59537   43.539
 5928.00    1.59347   1.59389   43.324
 5929.00    1.58862   1.59191   43.711
 5930.00    1.59144   1.59138   44.298
 5931.00    1.59937   1.59244   44.274
 5932.00    1.60754   1.59312   43.925
 5933.00    1.61166   1.59398   44.069
 5934.00    1.61272   1.59646   44.524
 5935.00    1.61479   1.59949   44.567
 5936.00    1.61999   1.60035   44.233
 5937.00    1.62744   1.60099   44.038
 5938.00    1.63321   1.60340   44.167
 5939.00    1.63387   1.60395   44.482
 5940.00    1.63160   1.60295   44.693
 5941.00    1.63102   1.60378   44.613
 5942.00    1.63382   1.60445   44.473
 5943.00    1.63874   1.60352   44.603
 5944.00    1.64276   1.60279   44.989
 5945.00    1.64331   1.60212   45.386
 5946.00    1.64058   1.60064   45.527
 5947.00    1.63610   1.59791   45.336
 5948.00    1.63067   1.59443   45.106
 5949.00    1.62474   1.59236   45.153
 5950.00    1.61897   1.59087   45.477
 5951.00    1.61348   1.58796   45.813
 5952.00    1.60728   1.58659   45.761
 5953.00    1.60017   1.58842   45.244
 5954.00    1.59437   1.58968   44.814
 5955.00    1.59245   1.59050   44.804
 5956.00    1.59536   1.59458   44.761
 5957.00    1.60183   1.60003   44.373
 5958.00    1.60861   1.60444   44.122
 5959.00    1.61440   1.60959   44.304
 5960.00    1.62217   1.61543   44.417
 5961.00    1.63331   1.61974   44.008
 5962.00    1.64402   1.62324   43.301
 5963.00    1.64984   1.62686   42.878
 5964.00    1.64893   1.62890   43.342
 5965.00    1.64354   1.63036   44.579
 5966.00    1.63964   1.63317   45.396
 5967.00    1.64019   1.63488   45.174
 5968.00    1.64228   1.63534   44.783
 5969.00    1.64289   1.63639   44.711
 5970.00    1.64178   1.63581   44.410
 5971.00    1.63995   1.63264   43.946
 5972.00    1.63862   1.62874   44.326
 5973.00    1.63857   1.62396   45.444
 5974.00    1.63957   1.61773   45.640
 5975.00    1.63920   1.61186   44.814
 5976.00    1.63357   1.60716   44.940
 5977.00    1.62200   1.60270   46.293
 5978.00    1.60808   1.59911   46.826
 5979.00    1.59628   1.59640   45.915
 5980.00    1.58992   1.59335   45.227
 5981.00    1.58883   1.59127   45.452
 5982.00    1.58991   1.58965   45.870
 5983.00    1.59123   1.58736   45.944
 5984.00    1.59292   1.58774   45.768
 5985.00    1.59535   1.59028   45.726
 5986.00    1.59847   1.59211   46.107
 5987.00    1.60149   1.59581   46.415
 5988.00    1.60338   1.60186   45.787
 5989.00    1.60429   1.60670   44.723
 5990.00    1.60553   1.60994   44.440
 5991.00    1.60847   1.61351   44.760
 5992.00    1.61363   1.61645   44.577
 5993.00    1.61920   1.61655   43.913
 5994.00    1.62203   1.61550   43.692
 5995.00    1.62045   1.61435   44.335
 5996.00    1.61529   1.61175   45.624
 5997.00    1.61037   1.60865   46.776
 5998.00    1.60965   1.60549   46.887
 5999.00    1.61167   1.60221   46.112
 6000.00    1.61183   1.59971   45.328
 6001.00    1.60798   1.59637   45.090
 6002.00    1.60089   1.59286   45.432
 6003.00    1.59319   1.59069   45.739
 6004.00    1.58734   1.58721   45.451
 6005.00    1.58287   1.58404   45.211
 6006.00    1.57862   1.58311   45.811
 6007.00    1.57630   1.58160   46.624
 6008.00    1.57812   1.58116   46.541
 6009.00    1.58319   1.58223   45.753
 6010.00    1.58925   1.58243   45.031
 6011.00    1.59533   1.58277   44.574
 6012.00    1.60076   1.58267   44.269
 6013.00    1.60380   1.58222   44.082
 6014.00    1.60243   1.58172   44.062
 6015.00    1.59551   1.57901   44.299
 6016.00    1.58436   1.57704   44.687
 6017.00    1.57388   1.57747   44.734
 6018.00    1.56887   1.57653   44.204
 6019.00    1.57057   1.57572   43.648
 6020.00    1.57733   1.57825   43.535
 6021.00    1.58587   1.58228   43.623
 6022.00    1.59376   1.58612   43.619
 6023.00    1.60118   1.59127   43.693
 6024.00    1.60870   1.59933   44.058
 6025.00    1.61566   1.60718   44.635
 6026.00    1.62135   1.61335   45.118
 6027.00    1.62581   1.62141   45.120
 6028.00    1.62923   1.62941   44.722
 6029.00    1.63158   1.63461   44.639
 6030.00    1.63329   1.63985   45.222
 6031.00    1.63552   1.64514   45.972
 6032.00    1.63932   1.64836   46.245
 6033.00    1.64508   1.65035   45.805
 6034.00    1.65167   1.65205   44.984
 6035.00    1.65673   1.65268   44.487
 6036.00    1.65964   1.65248   44.619
 6037.00    1.66251   1.65218   45.082
 6038.00    1.66712   1.65147   45.408
 6039.00    1.67333   1.65148   45.237
 6040.00    1.67811   1.65239   44.648
 6041.00    1.67689   1.65307   44.092
 6042.00    1.66981   1.65506   43.711
 6043.00    1.66250   1.65804   43.296
 6044.00    1.65879   1.65991   42.977
 6045.00    1.65856   1.66183   43.180
 6046.00    1.66029   1.66388   43.649
 6047.00    1.66242   1.66402   43.525
 6048.00    1.66473   1.66259   42.918
 6049.00    1.66789   1.66087   42.818
 6050.00    1.67069   1.65798   43.318
 6051.00    1.67051   1.65353   43.645
 6052.00    1.66682   1.64909   43.710
 6053.00    1.66144   1.64544   44.126
 6054.00    1.65636   1.64183   44.886
 6055.00    1.65277   1.63858   45.350
 6056.00    1.65019   1.63694   45.303
 6057.00    1.64689   1.63585   45.056
 6058.00    1.64130   1.63409   44.878
 6059.00    1.63291   1.63288   44.892
 6060.00    1.62332   1.63160   45.162
 6061.00    1.61567   1.62899   45.649
 6062.00    1.61272   1.62791   46.077
 6063.00    1.61531   1.62874   46.036
 6064.00    1.62022   1.62928   45.312
 6065.00    1.62320   1.63322   44.172
 6066.00    1.62490   1.64061   43.536
 6067.00    1.62912   1.64699   44.033
 6068.00    1.63821   1.65428   44.656
 6069.00    1.65152   1.66234   44.009
 6070.00    1.66447   1.66748   42.841
 6071.00    1.67165   1.67004   42.596
 6072.00    1.67146   1.67055   43.318
 6073.00    1.66519   1.66845   44.235
 6074.00    1.65492   1.66332   44.673
 6075.00    1.64326   1.65652   44.447
 6076.00    1.63310   1.64964   44.123
 6077.00    1.62689   1.64100   44.275
 6078.00    1.62553   1.63243   44.725
 6079.00    1.62752   1.62694   45.076
 6080.00    1.62840   1.62120   45.382
 6081.00    1.62453   1.61577   45.768
 6082.00    1.61677   1.61420   45.978
 6083.00    1.60832   1.61321   45.754
 6084.00    1.60218   1.61157   45.262
 6085.00    1.59962   1.61165   44.911
 6086.00    1.59927   1.61205   45.114
 6087.00    1.59920   1.61229   45.838
 6088.00    1.59866   1.61267   46.303
 6089.00    1.59718   1.61273   46.144
 6090.00    1.59397   1.61449   46.227
 6091.00    1.59012   1.61704   46.946
 6092.00    1.58954   1.61819   47.191
 6093.00    1.59475   1.62071   46.326
 6094.00    1.60417   1.62387   45.397
 6095.00    1.61384   1.62347   45.117
 6096.00    1.61914   1.62202   45.008
 6097.00    1.61786   1.62042   44.638
 6098.00    1.61160   1.61436   44.227
 6099.00    1.60323   1.60781   44.036
 6100.00    1.59534   1.60398   44.090
 6101.00    1.58920   1.59792   44.452
 6102.00    1.58482   1.59449   45.255
 6103.00    1.58278   1.59734   46.109
 6104.00    1.58462   1.59942   46.058
 6105.00    1.59012   1.60363   45.211
 6106.00    1.59678   1.61198   44.843
 6107.00    1.60258   1.61801   45.076
 6108.00    1.60702   1.62401   44.724
 6109.00    1.61043   1.63038   43.942
 6110.00    1.61366   1.63362   44.274
 6111.00    1.61767   1.63628   45.672
 6112.00    1.62286   1.63755   46.231
 6113.00    1.62750   1.63633   45.624
 6114.00    1.62834   1.63399   45.505
 6115.00    1.62431   1.62853   46.173
 6116.00    1.61698   1.62221   46.424
 6117.00    1.60825   1.61560   46.030
 6118.00    1.59979   1.60560   45.843
 6119.00    1.59344   1.59828   45.849
 6120.00    1.59026   1.59409   45.395
 6121.00    1.58808   1.58794   44.947
 6122.00    1.58361   1.58690   45.531
 6123.00    1.57867   1.59063   46.637
 6124.00    1.57840   1.59194   46.655
 6125.00    1.58416   1.59604   45.510
 6126.00    1.59345   1.60282   44.426
 6127.00    1.60319   1.60565   44.035
 6128.00    1.61054   1.60731   44.283
 6129.00    1.61322   1.60857   44.677
 6130.00    1.60984   1.60499   44.720
 6131.00    1.60036   1.59838   44.703
 6132.00    1.58637   1.59020   45.171
 6133.00    1.57129   1.57882   45.815
 6134.00    1.55907   1.56821   45.976
 6135.00    1.55206   1.56023   45.813
 6136.00    1.55067   1.55370   45.739
 6137.00    1.55330   1.55250   45.340
 6138.00    1.55844   1.55707   44.176
 6139.00    1.56718   1.56422   42.892
 6140.00    1.58011   1.57344   42.248
 6141.00    1.59332   1.58450   42.137
 6142.00    1.60226   1.59571   42.187
 6143.00    1.60677   1.60406   42.412
 6144.00    1.60881   1.60954   42.907
 6145.00    1.60946   1.61398   43.439
 6146.00    1.60906   1.61565   43.774
 6147.00    1.60782   1.61429   44.060
 6148.00    1.60561   1.61268   44.503
 6149.00    1.60193   1.61098   44.991
 6150.00    1.59648   1.60753   45.281
 6151.00    1.58969   1.60381   45.235
 6152.00    1.58257   1.60076   44.972
 6153.00    1.57640   1.59470   44.890
 6154.00    1.57182   1.58592   45.091
 6155.00    1.56803   1.57695   45.062
 6156.00    1.56258   1.56412   44.572
 6157.00    1.55176   1.54740   44.227
 6158.00    1.53432   1.53165   44.537
 6159.00    1.51350   1.51599   45.358
 6160.00    1.49383   1.50049   45.933
 6161.00    1.47880   1.48940   45.163
 6162.00    1.46974   1.48258   43.228
 6163.00    1.46577   1.48000   41.773
 6164.00    1.46663   1.48174   41.763
 6165.00    1.47349   1.48447   43.052
 6166.00    1.48475   1.49003   44.906
 6167.00    1.49499   1.49834   46.148
 6168.00    1.50043   1.50388   46.269
 6169.00    1.50142   1.50997   46.026
 6170.00    1.50090   1.51985   46.184
 6171.00    1.50293   1.52809   46.931
 6172.00    1.50960   1.53479   47.880
 6173.00    1.52011   1.54408   48.268
 6174.00    1.53236   1.55363   48.102
 6175.00    1.54407   1.56034   48.194
 6176.00    1.55429   1.56643   48.403
 6177.00    1.56308   1.57395   47.656
 6178.00    1.56876   1.57929   46.232
 6179.00    1.56775   1.58151   45.528
 6180.00    1.55741   1.58455   45.728
 6181.00    1.53779   1.58573   45.900
 6182.00    1.51400   1.58254   45.754
 6183.00    1.49385   1.57870   -1.000
 6184.00    1.47949   1.57285   -1.000
 6185.00    1.46781   1.56431   -1.000
 6186.00    1.45707   1.55625   -1.000
 6187.00    1.44804   1.54703   -1.000
 6188.00    1.44207   1.53960   -1.000
 6189.00    1.44073   1.53653   -1.000
 6190.00    1.44583   1.53327   -1.000
 6191.00    1.45860   1.53403   -1.000
 6192.00    1.47797   1.54010   43.548
 6193.00    1.50056   1.54488   43.638
 6194.00    1.52127   1.55085   44.192
 6195.00    1.53508   1.55823   44.665
 6196.00    1.53988   1.56321   45.394
 6197.00    1.53692   1.56768   46.954
 6198.00    1.53049   1.57151   48.481
 6199.00    1.52594   1.57448   48.282
 6200.00    1.52649   1.57832   -2.000
 6201.00    1.53235   1.58206   -2.000
 6202.00    1.54023   1.58562   -2.000
 6203.00    1.54734   1.58903   -2.000
 6204.00    1.55635   1.59136   -2.000
 6205.00    1.57005   1.59229   -2.000
 6206.00    1.58390   1.59025   -2.000
 6207.00    1.59072   1.58587   -2.000
 6208.00    1.58744   1.57985   -2.000
 6209.00    1.57448   1.56992   -2.000
 6210.00    1.55417   1.55885   -2.000
 6211.00    1.53084   1.54836   41.470
 6212.00    1.51070   1.53592   40.435
 6213.00    1.49819   1.52568   40.686
 6214.00    1.49264   1.51874   42.351
 6215.00    1.49079   1.51188   44.516
 6216.00    1.48947   1.50881   46.103
 6217.00    1.48721   1.50881   46.591
 6218.00    1.48505   1.50896   46.685
 6219.00    1.48423   1.51145   47.160
 6220.00    1.48440   1.51456   47.915
 6221.00    1.48523   1.51748   48.577
 6222.00    1.48748   1.52044   49.016
 6223.00    1.49181   1.52085   49.126
 6224.00    1.49772   1.52091   48.712
 6225.00    1.50338   1.51992   47.952
 6226.00    1.50571   1.51488   47.509
 6227.00    1.50275   1.51103   47.736
 6228.00    1.49498   1.50864   48.336
 6229.00    1.48536   1.50413   48.696
 6230.00    1.47872   1.50340   48.206
 6231.00    1.47898   1.50662   46.868
 6232.00    1.48750   1.50845   45.324
 6233.00    1.50262   1.51200   43.899
 6234.00    1.51982   1.51711   42.494
 6235.00    1.53315   1.51866   41.490
 6236.00    1.53695   1.51727   41.701
 6237.00    1.53030   1.51611   43.129
 6238.00    1.51766   1.51234   44.670
 6239.00    1.50395   1.50471   45.535
 6240.00    1.49218   1.50051   45.965
 6241.00    1.48237   1.49759   46.375
 6242.00    1.47255   1.49202   46.902
 6243.00    1.46375   1.49200   47.320
 6244.00    1.45992   1.49490   47.231
 6245.00    1.46237   1.49469   46.818
 6246.00    1.46886   1.49763   46.776
 6247.00    1.47613   1.50136   47.488
 6248.00    1.48143   1.49998   48.791
 6249.00    1.48445   1.49826   49.825
 6250.00    1.48639   1.49577   49.532
 6251.00    1.48631   1.48904   48.452
 6252.00    1.48207   1.48230   48.066
 6253.00    1.47483   1.47707   48.582
 6254.00    1.46815   1.47133   49.134
 6255.00    1.46354   1.46838   49.066
 6256.00    1.46064   1.47023   48.289
 6257.00    1.45954   1.47291   47.216
 6258.00    1.46129   1.47865   46.322
 6259.00    1.46773   1.48949   45.562
 6260.00    1.47982   1.49892   44.750
 6261.00    1.49483   1.50775   44.255
 6262.00    1.50795   1.51914   44.373
 6263.00    1.51588   1.52777   44.222
 6264.00    1.51786   1.53295   42.645
 6265.00    1.51627   1.53880   39.990
 6266.00    1.51532   1.54367   37.399
 6267.00    1.51878   1.54594   35.681
 6268.00    1.52760   1.54872   35.223
 6269.00    1.53722   1.55210   36.086
 6270.00    1.54210   1.55390   38.175
 6271.00    1.54179   1.55590   41.153
 6272.00    1.53861   1.55814   44.326
 6273.00    1.53395   1.55832   46.756
 6274.00    1.52907   1.55824   47.805
 6275.00    1.52627   1.55791   47.878
 6276.00    1.52677   1.55535   47.898
 6277.00    1.52856   1.55370   48.490
 6278.00    1.52811   1.55283   49.575
 6279.00    1.52263   1.55140   50.064
 6280.00    1.51246   1.55272    0.000
 6281.00    1.50277   1.55528    0.000
 6282.00    1.49903   1.55863    0.000
 6283.00    1.50313   1.56430    0.000
 6284.00    1.51404   1.56940    0.000
 6285.00    1.52877   1.57454    0.000
 6286.00    1.54433   1.57910    0.000
 6287.00    1.55892   1.58131    0.000
 6288.00    1.57036   1.58263    0.000
 6289.00    1.57538   1.58135    0.000
 6290.00    1.57186   1.57822    0.000
 6291.00    1.56049   1.57467    0.000
 6292.00    1.54509   1.56861    0.000
 6293.00    1.53206   1.56231    0.000
 6294.00    1.52631   1.55674    0.000
 6295.00    1.52905   1.55024    0.000
 6296.00    1.53881   1.54471    0.000
 6297.00    1.55214   1.54050    0.000
 6298.00    1.56437   1.53731    0.000
 6299.00    1.57059   1.53653    0.000
 6300.00    1.56858   1.53743    0.000
 6301.00    1.56004   1.53962    0.000
 6302.00    1.54981   1.54433    0.000
 6303.00    1.54406   1.55073    0.000
 6304.00    1.54423   1.55653    0.000
 6305.00    1.54625   1.56204    0.000
 6306.00    1.54655   1.56762    0.000
 6307.00    1.54417   1.57045    0.000
 6308.00    1.53980   1.57044    0.000
 6309.00    1.53507   1.56975    0.000
 6310.00    1.53134   1.56612    0.000
 6311.00    1.52907   1.55946    0.000
 6312.00    1.52702   1.55464    0.000
 6313.00    1.52303   1.54906    0.000
 6314.00    1.51685   1.54121    0.000
 6315.00    1.51027   1.53811    0.000
 6316.00    1.50553   1.53753    0.000
 6317.00    1.50448   1.53585    0.000
 6318.00    1.50774   1.53862    0.000
 6319.00    1.51448   1.54498    0.000
 6320.00    1.52247   1.55109    0.000
 6321.00    1.52919   1.55835   44.374
 6322.00    1.53415   1.56713   44.790
 6323.00    1.53854   1.57479   45.798
 6324.00    1.54341   1.58126   46.710
 6325.00    1.54950   1.58747   46.564
 6326.00    1.55730   1.59079   46.308
 6327.00    1.56653   1.59279   47.477
 6328.00    1.57522   1.59420   49.405
 6329.00    1.58059   1.59224   50.070
 6330.00    1.58086   1.58945   49.232
 6331.00    1.57559   1.58556   48.177
 6332.00    1.56581   1.57994   47.836
 6333.00    1.55415   1.57548   48.438
 6334.00    1.54461   1.57045   49.354
 6335.00    1.54031   1.56550   49.646
 6336.00    1.54060   1.56418   49.055
 6337.00    1.54240   1.56359   48.003
 6338.00    1.54246   1.56268   47.167
 6339.00    1.53936   1.56414   46.801
 6340.00    1.53517   1.56555   46.263
 6341.00    1.53271   1.56675   45.198
 6342.00    1.53252   1.56858   44.560
 6343.00    1.53349   1.56956   44.987
 6344.00    1.53413   1.57232   45.505
 6345.00    1.53457   1.57577   45.214
 6346.00    1.53802   1.57788   44.971
 6347.00    1.54715   1.58127   45.468
 6348.00    1.56094   1.58414   45.713
 6349.00    1.57530   1.58464   45.151
 6350.00    1.58429   1.58379   45.239
 6351.00    1.58436   1.58069   46.831
 6352.00    1.57696   1.57583   48.419
 6353.00    1.56453   1.56909   48.549
 6354.00    1.54785   1.55976   48.169
 6355.00    1.52848   1.55100   48.425
 6356.00    1.51019   1.54297   49.181
 6357.00    1.49660   1.53360   49.848
 6358.00    1.48971   1.52619   49.986
 6359.00    1.48989   1.52250   49.589
 6360.00    1.49595   1.52023   49.080
 6361.00    1.50549   1.52049   48.555
 6362.00    1.51533   1.52460   47.594
 6363.00    1.52306   1.53115   46.083
 6364.00    1.52784   1.53975   44.445
 6365.00    1.53080   1.54953   43.109
 6366.00    1.53445   1.55973   42.306
 6367.00    1.53963   1.57037   41.994
 6368.00    1.54503   1.58011   41.917
 6369.00    1.55065   1.58840   41.895
 6370.00    1.55842   1.59562   41.905
 6371.00    1.56898   1.60151   41.982
 6372.00    1.58072   1.60591   42.166
 6373.00    1.59079   1.60842   42.453
 6374.00    1.59578   1.60887   42.831
 6375.00    1.59253   1.60863   43.440
 6376.00    1.57981   1.60762   44.521
 6377.00    1.56225   1.60477   46.012
 6378.00    1.54912   1.60263   47.454
 6379.00    1.54709   1.60149   48.289
 6380.00    1.55695   1.59960   48.240
 6381.00    1.57084   1.59928   47.834
 6382.00    1.57722   1.60033   47.931
 6383.00    1.57479   1.60048   48.451
 6384.00    1.57106   1.60092   48.644
 6385.00    1.57101   1.60183   48.441
 6386.00    1.57497   1.60120   48.287
 6387.00    1.58004   1.59932   48.007
 6388.00    1.58205   1.59699   47.184
 6389.00    1.57874   1.59291   46.283
 6390.00    1.57019   1.58892   45.974
 6391.00    1.55820   1.58581   45.788
 6392.00    1.54593   1.58128   44.954
 6393.00    1.53736   1.57842   44.081
 6394.00    1.53521   1.57861   44.114
 6395.00    1.53798   1.57767   44.590
 6396.00    1.54204   1.57659   44.456
 6397.00    1.54570   1.57921   43.742
 6398.00    1.54915   1.58121   43.111
 6399.00    1.55358   1.58116   42.836
 6400.00    1.55989   1.58560   42.872
 6401.00    1.56717   1.59017   43.084
 6402.00    1.57334   1.59182   43.372
 6403.00    1.57626   1.59473   43.804
 6404.00    1.57511   1.59587   44.577
 6405.00    1.57169   1.59588   45.919
 6406.00    1.56817   1.59543   47.639
 6407.00    1.56472   1.59187   48.547
 6408.00    1.56114   1.59050   47.901
 6409.00    1.55855   1.59031   47.019
 6410.00    1.55737   1.58693   47.148
 6411.00    1.55548   1.58602   47.827
 6412.00    1.55148   1.58735   48.065
 6413.00    1.54730   1.58630   47.529
 6414.00    1.54472   1.58594   46.515
 6415.00    1.54257   1.58661   45.630
 6416.00    1.53906   1.58580   45.229
 6417.00    1.53377   1.58555   45.173
 6418.00    1.52783   1.58667   45.265
 6419.00    1.52385   1.58808   -1.000
 6420.00    1.52415   1.59026   -1.000
 6421.00    1.52960   1.59453   -1.000
 6422.00    1.53860   1.60002   45.512
 6423.00    1.54722   1.60405   45.114
 6424.00    1.55283   1.60705   45.012
 6425.00    1.55586   1.60962   45.430
 6426.00    1.55788   1.60967   46.273
 6427.00    1.55999   1.60779   47.076
 6428.00    1.56125   1.60596   47.546
 6429.00    1.55869   1.60252   47.797
 6430.00    1.55125   1.59904   47.709
 6431.00    1.54127   1.59836   46.848
 6432.00    1.53231   1.59766   -1.000
 6433.00    1.52769   1.59768   -1.000
 6434.00    1.52846   1.59881   -1.000
 6435.00    1.53331   1.59963   -1.000
 6436.00    1.54132   1.60263   45.680
 6437.00    1.55243   1.60528   45.592
 6438.00    1.56541   1.60709   45.101
 6439.00    1.57772   1.61262   44.987
 6440.00    1.58776   1.61789   45.135
 6441.00    1.59531   1.62087   44.631
 6442.00    1.60045   1.62385   43.523
 6443.00    1.60292   1.62413   42.741
 6444.00    1.60104   1.62182   42.615
 6445.00    1.59272   1.61684   42.849
 6446.00    1.57862   1.60926   43.161
 6447.00    1.56193   1.60260   43.494
 6448.00    1.54542   1.59445   44.143
 6449.00    1.53097   1.58696   45.432
 6450.00    1.52012   1.58548   -1.000
 6451.00    1.51425   1.58494   -1.000
 6452.00    1.51475   1.58561   -1.000
 6453.00    1.52227   1.59001   -1.000
 6454.00    1.53529   1.59371   43.795
 6455.00    1.55077   1.59687   43.756
 6456.00    1.56604   1.60109   44.414
 6457.00    1.57855   1.60391   45.405
 6458.00    1.58495   1.60395   45.945
 6459.00    1.58293   1.60391   45.427
 6460.00    1.57446   1.60451   44.473
 6461.00    1.56514   1.60239   44.075
 6462.00    1.56225   1.60162   44.317
 6463.00    1.57079   1.60478   44.653
 6464.00    1.58838   1.60679   44.428
 6465.00    1.60770   1.60877   43.452
 6466.00    1.62077   1.61242   42.493
 6467.00    1.62209   1.61493   42.277
 6468.00    1.61166   1.61611   42.536
 6469.00    1.59470   1.61773   42.797
 6470.00    1.58027   1.61777   43.334
 6471.00    1.57594   1.61690   44.363
 6472.00    1.58212   1.61765   45.023
 6473.00    1.59321   1.61725   44.629
 6474.00    1.60019   1.61526   44.149
 6475.00    1.59788   1.61421   44.426
 6476.00    1.59095   1.61308   44.674
 6477.00    1.58561   1.60984   44.126
 6478.00    1.58207   1.60612   43.546
 6479.00    1.57875   1.60328   43.806
 6480.00    1.57613   1.59972   44.824
 6481.00    1.57544   1.59586   45.886
 6482.00    1.57738   1.59376   45.995
 6483.00    1.58210   1.59257   45.044
 6484.00    1.58906   1.59069   44.313
 6485.00    1.59630   1.58758   44.652
 6486.00    1.60022   1.58279   45.645
 6487.00    1.59754   1.57530   46.333
 6488.00    1.58663   1.56441   45.865
 6489.00    1.56785   1.55017   44.570
 6490.00    1.54349   1.53282   43.925
 6491.00    1.51655   1.51575   44.561
 6492.00    1.49016   1.49953   45.724
 6493.00    1.46795   1.48349   46.583
 6494.00    1.45385   1.47406   46.944
 6495.00    1.44976   1.47072   46.754
 6496.00    1.45484   1.47222   45.961
 6497.00    1.46659   1.48114   45.180
 6498.00    1.48215   1.49285   45.466
 6499.00    1.50093   1.50821   46.658
 6500.00    1.52436   1.52638   47.106
 6501.00    1.55085   1.54281   45.995
 6502.00    1.57499   1.55860   44.228
 6503.00    1.59197   1.57239   42.906
 6504.00    1.59967   1.58315   42.632
 6505.00    1.59970   1.59190   43.142
 6506.00    1.59649   1.59795   43.576
 6507.00    1.59352   1.60137   43.841
 6508.00    1.59222   1.60328   44.546
 6509.00    1.59271   1.60410   45.230
 6510.00    1.59405   1.60350   44.650
 6511.00    1.59472   1.60142   43.447
 6512.00    1.59341   1.59887   43.376
 6513.00    1.59095   1.59647   44.371
 6514.00    1.58952   1.59334   44.958
 6515.00    1.58989   1.59071   44.859
 6516.00    1.59129   1.59033   44.943
 6517.00    1.59262   1.59013   45.253
 6518.00    1.59339   1.59084   45.247
 6519.00    1.59470   1.59397   45.226
 6520.00    1.59796   1.59684   45.758
 6521.00    1.60201   1.59951   46.014
 6522.00    1.60423   1.60181   44.919
 6523.00    1.60353   1.60326   43.802
 6524.00    1.60077   1.60470   44.312
 6525.00    1.59836   1.60454   45.243
 6526.00    1.59801   1.60341   44.441
 6527.00    1.59741   1.60319   43.075
 6528.00    1.59303   1.60276    0.000
 6529.00    1.58496   1.60231    0.000
 6530.00    1.57667   1.60238    0.000
 6531.00    1.57352   1.60263    0.000
 6532.00    1.57925   1.60352    0.000
 6533.00    1.59194   1.60504    0.000
 6534.00    1.60594   1.60696    0.000
 6535.00    1.61499   1.60871    0.000
 6536.00    1.61597   1.60931    0.000
 6537.00    1.61222   1.60899    0.000
 6538.00    1.60944   1.60817    0.000
 6539.00    1.61100   1.60560    0.000
 6540.00    1.61867   1.60090    0.000
 6541.00    1.63367   1.59520    0.000
 6542.00    1.65666   1.58829    0.000
 6543.00    1.68743   1.58163    0.000
 6544.00    1.72319   1.57511    0.000
 6545.00    1.75729   1.56734    0.000
 6546.00    1.78092   1.56165    0.000
 6547.00    1.78503   1.55692    0.000
 6548.00    1.76443   1.55112    0.000
 6549.00    1.72090   1.54504    0.000
 6550.00    1.66376   1.53739    0.000
 6551.00    1.60895   1.52857    0.000
 6552.00    1.57085   1.51817    0.000
 6553.00    1.55854   1.50388    0.000
 6554.00    1.58543   1.48701    0.000
 6555.00    1.67323   1.46839    0.000
 6556.00    1.84132   1.44658    0.000
 6557.00    2.09650   1.42285    0.000
 6558.00    2.41302   1.39841    0.000
 6559.00    2.72716   1.37577    0.000
 6560.00    2.96172   1.35984    0.000
 6561.00    3.04712   1.34631    0.000
 6562.00    2.95940   1.33977    0.000
 6563.00    2.73164   1.35019    0.000
 6564.00    2.42874   1.36646    0.000
 6565.00    2.12712   1.38431    0.000
 6566.00    1.88077   1.40796    0.000
 6567.00    1.70968   1.43156    0.000
 6568.00    1.60827   1.45216    0.000
 6569.00    1.55455   1.47073    0.000
 6570.00    1.52925   1.48615    0.000
 6571.00    1.52139   1.49810    0.000
 6572.00    1.52420   1.50837    0.000
 6573.00    1.53431   1.51741    0.000
 6574.00    1.55335   1.52527    0.000
 6575.00    1.58759   1.53392    0.000
 6576.00    1.64571   1.54211    0.000
 6577.00    1.73502   1.54886    0.000
 6578.00    1.85397   1.55563    0.000
 6579.00    1.98972   1.56123    0.000
 6580.00    2.11763   1.56500    0.000
 6581.00    2.20697   1.56930    0.000
 6582.00    2.23393   1.57261    0.000
 6583.00    2.18934   1.57431    0.000
 6584.00    2.08779   1.57581    0.000
 6585.00    1.95998   1.57547    0.000
 6586.00    1.83418   1.57440    0.000
 6587.00    1.73003   1.57245    0.000
 6588.00    1.65454   1.56817    0.000
 6589.00    1.60532   1.56352    0.000
 6590.00    1.57748   1.55906    0.000
 6591.00    1.56502   1.55425    0.000
 6592.00    1.56129   1.54968    0.000
 6593.00    1.56088   1.54868    0.000
 6594.00    1.56216   1.55080    0.000
 6595.00    1.56607   1.55327    0.000
 6596.00    1.57370   1.55733    0.000
 6597.00    1.58469   1.56216    0.000
 6598.00    1.59572   1.56682    0.000
 6599.00    1.60238   1.57158    0.000
 6600.00    1.60170   1.57444    0.000
 6601.00    1.59359   1.57545    0.000
 6602.00    1.58192   1.57542    0.000
 6603.00    1.57189   1.57356    0.000
 6604.00    1.56702   1.57104    0.000
 6605.00    1.56820   1.56887    0.000
 6606.00    1.57336   1.56735    0.000
 6607.00    1.57946   1.56687    0.000
 6608.00    1.58459   1.56700    0.000
 6609.00    1.58803   1.56971   44.159
 6610.00    1.59029   1.57440   44.300
 6611.00    1.59356   1.57895   44.553
 6612.00    1.60140   1.58348   44.678
 6613.00    1.61435   1.58805   44.518
 6614.00    1.62747   1.59326   44.337
 6615.00    1.63680   1.59717   44.126
 6616.00    1.64348   1.59910   43.307
 6617.00    1.64955   1.60047   41.918
 6618.00    1.65489   1.60062   40.958
 6619.00    1.65604   1.59943   40.884
 6620.00    1.64709   1.59720   41.137
 6621.00    1.62812   1.59374   41.163
 6622.00    1.60821   1.59013   40.962
 6623.00    1.59518   1.58581   40.831
 6624.00    1.59031   1.58107   41.106
 6625.00    1.59020   1.57788   41.679
 6626.00    1.58906   1.57432   41.933
 6627.00    1.58476   1.57031   41.749
 6628.00    1.58011   1.56703   41.787
 6629.00    1.57648   1.56373   42.500
 6630.00    1.57223   1.56105   43.772
 6631.00    1.56718   1.55924   45.067
 6632.00    1.56357   1.55760   45.651
 6633.00    1.56266   1.55713   45.590
 6634.00    1.56374   1.55844   45.717
 6635.00    1.56563   1.56051   46.012
 6636.00    1.56757   1.56260   45.561
 6637.00    1.57034   1.56444   44.363
 6638.00    1.57556   1.56582   43.319
 6639.00    1.58236   1.56667   42.726
 6640.00    1.58762   1.56777   42.240
 6641.00    1.58968   1.56838   41.608
 6642.00    1.58920   1.56730   40.838
 6643.00    1.58863   1.56720   40.174
 6644.00    1.59067   1.56867   39.885
 6645.00    1.59515   1.56958   39.888
 6646.00    1.59954   1.57029   39.943
 6647.00    1.60215   1.57127   40.252
 6648.00    1.60234   1.57262   41.190
 6649.00    1.59953   1.57388   42.396
 6650.00    1.59356   1.57400   43.019
 6651.00    1.58581   1.57389   42.993
 6652.00    1.57904   1.57376   42.937
 6653.00    1.57663   1.57278   43.243
 6654.00    1.58046   1.57139   43.906
 6655.00    1.58757   1.56924   44.513
 6656.00    1.59255   1.56631   44.645
 6657.00    1.59233   1.56291   44.628
 6658.00    1.58691   1.55909   44.913
 6659.00    1.57929   1.55475   45.005
 6660.00    1.57289   1.55073   44.260
 6661.00    1.56809   1.54766   43.199
 6662.00    1.56369   1.54427   42.568
 6663.00    1.55943   1.54327   42.195
 6664.00    1.55624   1.54467   41.662
 6665.00    1.55613   1.54621   41.092
 6666.00    1.56058   1.54916   40.583
 6667.00    1.56894   1.55276   39.642
 6668.00    1.57912   1.55648   38.340
 6669.00    1.58857   1.56000   38.081
 6670.00    1.59374   1.56195   39.562
 6671.00    1.59014   1.56187   40.987
 6672.00    1.57787   1.56025   40.685
 6673.00    1.56593   1.55762   40.510
 6674.00    1.56301   1.55393   42.078
 6675.00    1.56933   1.55005   43.636
 6676.00    1.57840   1.54581   43.373
 6677.00    1.58027   1.54196   43.036
 6678.00    1.57158   1.54189   44.122
 6679.00    1.56150   1.54381   45.230
 6680.00    1.56012   1.54563   44.798
 6681.00    1.57001   1.54913   43.568
 6682.00    1.58727   1.55330   42.803
 6683.00    1.60354   1.55780   43.000
 6684.00    1.61165   1.56185   43.631
 6685.00    1.60929   1.56467   43.176
 6686.00    1.60002   1.56692   41.341
 6687.00    1.59218   1.56800   39.707
 6688.00    1.59045   1.56848   39.217
 6689.00    1.59238   1.56798   39.612
 6690.00    1.59383   1.56624   40.207
 6691.00    1.59242   1.56431   40.249
 6692.00    1.58956   1.56179   39.665
 6693.00    1.58949   1.55930   39.177
 6694.00    1.59115   1.55706   39.271
 6695.00    1.58735   1.55438   39.912
 6696.00    1.57592   1.55321    0.000
 6697.00    1.56242   1.55278    0.000
 6698.00    1.55263   1.55239    0.000
 6699.00    1.54953   1.55319    0.000
 6700.00    1.55288   1.55369    0.000
 6701.00    1.55996   1.55408    0.000
 6702.00    1.56823   1.55440    0.000
 6703.00    1.57619   1.55420    0.000
 6704.00    1.58310   1.55394    0.000
 6705.00    1.58854   1.55364    0.000
 6706.00    1.59149   1.55247    0.000
 6707.00    1.59193   1.55029    0.000
 6708.00    1.59560   1.54793    0.000
 6709.00    1.61063   1.54408    0.000
 6710.00    1.63626   1.53972    0.000
 6711.00    1.66530   1.53496    0.000
 6712.00    1.69573   1.52918    0.000
 6713.00    1.72747   1.52445    0.000
 6714.00    1.74972   1.52026    0.000
 6715.00    1.74790   1.51704    0.000
 6716.00    1.72256   1.51522    0.000
 6717.00    1.68580   1.51531    0.000
 6718.00    1.64744   1.51829    0.000
 6719.00    1.61347   1.52171    0.000
 6720.00    1.58795   1.52518    0.000
 6721.00    1.57315   1.52938    0.000
 6722.00    1.56934   1.53392    0.000
 6723.00    1.57563   1.53831    0.000
 6724.00    1.59136   1.54156    0.000
 6725.00    1.61645   1.54393    0.000
 6726.00    1.65146   1.54647    0.000
 6727.00    1.69302   1.54865    0.000
 6728.00    1.72843   1.55009    0.000
 6729.00    1.74387   1.55119    0.000
 6730.00    1.73516   1.55183    0.000
 6731.00    1.70677   1.55176    0.000
 6732.00    1.66883   1.55092    0.000
 6733.00    1.63179   1.54965    0.000
 6734.00    1.60127   1.54804    0.000
 6735.00    1.57977   1.54630    0.000
 6736.00    1.56871   1.54376    0.000
 6737.00    1.56607   1.54068    0.000
 6738.00    1.56475   1.53822    0.000
 6739.00    1.56009   1.53613    0.000
 6740.00    1.55569   1.53433    0.000
 6741.00    1.55477   1.53224    0.000
 6742.00    1.55362   1.52989    0.000
 6743.00    1.54915   1.52861    0.000
 6744.00    1.54419   1.52730    0.000
 6745.00    1.54095   1.52596    0.000
 6746.00    1.53678   1.52483    0.000
 6747.00    1.52933   1.52361    0.000
 6748.00    1.51983   1.52380    0.000
 6749.00    1.51072   1.52407    0.000
 6750.00    1.50395   1.52575    0.000
 6751.00    1.50066   1.52864    0.000
 6752.00    1.50151   1.53132    0.000
 6753.00    1.50894   1.53612   40.011
 6754.00    1.52679   1.54102   39.803
 6755.00    1.55201   1.54577   39.087
 6756.00    1.57299   1.55072   36.860
 6757.00    1.58184   1.55473   33.890
 6758.00    1.57959   1.55798   31.962
 6759.00    1.57250   1.56003   31.342
 6760.00    1.56813   1.56051   31.082
 6761.00    1.56697   1.55932   30.749
 6762.00    1.56287   1.55763   30.707
 6763.00    1.55767   1.55536   31.048
 6764.00    1.56333   1.55225   31.339
 6765.00    1.58864   1.54905   31.169
 6766.00    1.63303   1.54617   30.461
 6767.00    1.68241   1.54476   -1.000
 6768.00    1.71556   1.54522   -1.000
 6769.00    1.72716   1.54631   -1.000
 6770.00    1.72847   1.54824   -1.000
 6771.00    1.72826   1.55156   -1.000
 6772.00    1.72766   1.55574   -1.000
 6773.00    1.72172   1.56027   -1.000
 6774.00    1.70484   1.56384   -1.000
 6775.00    1.68249   1.56638   -1.000
 6776.00    1.66717   1.56746   -1.000
 6777.00    1.66201   1.56684   -1.000
 6778.00    1.65922   1.56502   -1.000
 6779.00    1.64552   1.56151   34.010
 6780.00    1.61416   1.55693   34.127
 6781.00    1.58568   1.55195   34.114
 6782.00    1.58849   1.54707   34.247
 6783.00    1.61546   1.54284   34.030
 6784.00    1.63752   1.54003   -1.000
 6785.00    1.64186   1.53850   -1.000
 6786.00    1.63312   1.53807   -1.000
 6787.00    1.62357   1.53857   32.872
 6788.00    1.62391   1.53920   33.762
 6789.00    1.63189   1.54022   -1.000
 6790.00    1.63766   1.54142   -1.000
 6791.00    1.63415   1.54257   -1.000
 6792.00    1.62371   1.54309   34.045
 6793.00    1.62355   1.54358   34.090
 6794.00    1.64432   1.54478   -1.000
 6795.00    1.66499   1.54582   -1.000
 6796.00    1.66479   1.54746   -1.000
 6797.00    1.66126   1.54899   -1.000
 6798.00    1.67427   1.55016   -1.000
 6799.00    1.68541   1.55204   -1.000
 6800.00    1.67512   1.55321   -1.000
 6801.00    1.66146   1.55388   -1.000
 6802.00    1.66446   1.55450   -1.000
 6803.00    1.67136   1.55398   -1.000
 6804.00    1.66387   1.55365   -1.000
 6805.00    1.64410   1.55337   -1.000
 6806.00    1.62333   1.55229   33.499
 6807.00    1.61051   1.55199   32.469
 6808.00    1.60898   1.55127   31.935
 6809.00    1.61474   1.55015   31.964
 6810.00    1.61735   1.55047   32.522
 6811.00    1.60353   1.55066   33.613
 6812.00    1.57688   1.55095   34.985
 6813.00    1.56485   1.55142   35.878
 6814.00    1.57814   1.55158   35.603
 6815.00    1.59237   1.55319   34.224
 6816.00    1.59551   1.55523   32.504
 6817.00    1.60847   1.55671   31.366
 6818.00    1.63783   1.55827   31.035
 6819.00    1.65716   1.55964   -1.000
 6820.00    1.64959   1.56151   31.314
 6821.00    1.62613   1.56319   32.252
 6822.00    1.60420   1.56379   33.923
 6823.00    1.59525   1.56413   35.425
 6824.00    1.59857   1.56413   35.988
 6825.00    1.60237   1.56398   35.804
 6826.00    1.59875   1.56332   35.501
 6827.00    1.58867   1.56214   35.613
 6828.00    1.57664   1.56168   36.040
 6829.00    1.56758   1.56162   36.082
 6830.00    1.56372   1.56129   35.408
 6831.00    1.56362   1.56028   34.355
 6832.00    1.56264   1.55865   33.442
 6833.00    1.55585   1.55663   33.012
 6834.00    1.54634   1.55402   32.779
 6835.00    1.54230   1.54999   32.192
 6836.00    1.54160   1.54514   31.708
 6837.00    1.53479   1.54053   32.328
 6838.00    1.52554   1.53614   33.763
 6839.00    1.52658   1.53297   34.469
 6840.00    1.53563   1.53074   33.933
 6841.00    1.53974   1.53012   33.014
 6842.00    1.53960   1.53182   32.238
 6843.00    1.54584   1.53459   31.648
 6844.00    1.55831   1.53827   31.288
 6845.00    1.56802   1.54193   31.281
 6846.00    1.57060   1.54512   31.805
 6847.00    1.56779   1.54803   32.887
 6848.00    1.56466   1.54931   33.878
 6849.00    1.56585   1.54893   33.974
 6850.00    1.57009   1.54769   33.748
 6851.00    1.57242   1.54536   34.140
 6852.00    1.56960   1.54240   34.421
 6853.00    1.56287   1.53898   33.493
 6854.00    1.56032   1.53493   32.472
 6855.00    1.56827   1.53189   32.487
 6856.00    1.57898   1.53012   31.954
 6857.00    1.58257   1.52882   29.391
 6858.00    1.58455   1.52879   26.802
 6859.00    1.59323   1.52893   25.929
 6860.00    1.60171   1.52934   26.447
 6861.00    1.60003   1.53075   27.589
 6862.00    1.59135   1.53240   29.297
 6863.00    1.58347   1.53422   31.638
 6864.00    1.57766   1.53518   33.616
 6865.00    1.57297   1.53517   34.095
 6866.00    1.57140   1.53494   33.829
 6867.00    1.57276   1.53483   33.927
 6868.00    1.57028   1.53528   34.107
 6869.00    1.56108   1.53581   33.705
 6870.00    1.55466   1.53608   32.722
 6871.00    1.56078   1.53664   31.459
 6872.00    1.57911   1.53815   30.129
 6873.00    1.60252   1.54025   29.015
 6874.00    1.62079   1.54221   28.531
 6875.00    1.62440   1.54380   28.929
 6876.00    1.60821   1.54509   30.164
 6877.00    1.57917   1.54643   31.735
 6878.00    1.55746   1.54731   32.531
 6879.00    1.55127   1.54780   32.219
 6880.00    1.54565   1.54786   32.044
 6881.00    1.53465   1.54835   32.655
 6882.00    1.53520   1.54977   33.202
 6883.00    1.55289   1.55186   33.172
 6884.00    1.56833   1.55474   33.331
 6885.00    1.56899   1.55759   34.054
 6886.00    1.56254   1.56107   34.641
 6887.00    1.55829   1.56504   34.732
 6888.00    1.55805   1.56860   34.866
 6889.00    1.55814   1.57149   35.104
 6890.00    1.55312   1.57360   34.714
 6891.00    1.54659   1.57497   33.729
 6892.00    1.55071   1.57570   33.040
 6893.00    1.56653   1.57609   32.646
 6894.00    1.58120   1.57572   31.700
 6895.00    1.58643   1.57548   30.381
 6896.00    1.58310   1.57564   29.723
 6897.00    1.57333   1.57586   29.897
 6898.00    1.56002   1.57641   30.207
 6899.00    1.55404   1.57693   30.124
 6900.00    1.56814   1.57801   29.670
 6901.00    1.59267   1.57995   29.378
 6902.00    1.60315   1.58150   29.842
 6903.00    1.60029   1.58273   30.728
 6904.00    1.60456   1.58378   30.995
 6905.00    1.61391   1.58433   30.687
 6906.00    1.60793   1.58492   30.793
 6907.00    1.58373   1.58428   31.582
 6908.00    1.55562   1.58251   32.578
 6909.00    1.53457   1.58063   33.307
 6910.00    1.52449   1.57807   33.470
 6911.00    1.52435   1.57537   32.886
 6912.00    1.53012   1.57309   31.881
 6913.00    1.53774   1.57062   31.740
 6914.00    1.54372   1.56953   32.878
 6915.00    1.54534   1.56942   31.532
 6916.00    1.54184   1.56910   27.148
 6917.00    1.53627   1.56989   28.870
 6918.00    1.53354   1.57019   48.408
 6919.00    1.53672   1.57064   36.220
 6920.00    1.54523   1.57113   11.907
 6921.00    1.55353   1.57057    6.674
 6922.00    1.55766   1.57003    5.878
 6923.00    1.56376   1.56872    6.342
 6924.00    1.57757   1.56793    6.547
 6925.00    1.59033   1.56764    6.301
 6926.00    1.59182   1.56797    6.212
 6927.00    1.58729   1.56850    6.298
 6928.00    1.58634   1.56897    6.329
 6929.00    1.58888   1.57014    6.294
 6930.00    1.59034   1.57114    6.279
 6931.00    1.58870   1.57266    6.295
 6932.00    1.58421   1.57369    6.315
 6933.00    1.57845   1.57502    6.335
 6934.00    1.57336   1.57675    6.355
 6935.00    1.57068   1.57774    6.367
 6936.00    1.57329   1.57856    6.357
 6937.00    1.58551   1.57868    6.307
 6938.00    1.60602   1.57874    6.226
 6939.00    1.62344   1.57831    6.160
 6940.00    1.62668   1.57727    6.148
 6941.00    1.61308   1.57573    6.199
 6942.00    1.58921   1.57371    6.292
 6943.00    1.56902   1.57215    6.373
 6944.00    1.56041   1.57065    6.409
 6945.00    1.55841   1.56994    6.417
 6946.00    1.55736   1.57001    6.421
 6947.00    1.55748   1.56981    6.421
 6948.00    1.55849   1.56986    6.416
 6949.00    1.55716   1.57015    6.422
 6950.00    1.55435   1.57046    6.434
 6951.00    1.55651   1.57159    6.425
 6952.00    1.56420   1.57283    6.393
 6953.00    1.56950   1.57432    6.371
 6954.00    1.57042   1.57646    6.368
 6955.00    1.57408   1.57896    6.353
 6956.00    1.58101   1.58194    6.325
 6957.00    1.58253   1.58483    6.319
 6958.00    1.57720   1.58777    6.340
 6959.00    1.57386   1.59039    6.354
 6960.00    1.57785   1.59294    6.338
 6961.00    1.58704   1.59524    6.301
 6962.00    1.59653   1.59683    6.264
 6963.00    1.60181   1.59812    6.243
 6964.00    1.60317   1.59884    6.238
 6965.00    1.60472   1.59903    6.232
 6966.00    1.60748   1.59916    6.221
 6967.00    1.60873   1.59884    6.216
 6968.00    1.60635   1.59709    6.225
 6969.00    1.60148   1.59433    6.244
 6970.00    1.60185   1.59010    6.243
 6971.00    1.61128   1.58531    6.206
 6972.00    1.60351   1.58017    6.236
 6973.00    1.54978   1.57370    6.453
 6974.00    1.49256   1.56757    6.700
 6975.00    1.50304   1.56199    6.653
 6976.00    1.55942   1.55807    6.413
 6977.00    1.58551   1.55624    6.307
 6978.00    1.57526   1.55639    6.348
 6979.00    1.57160   1.55993    6.363
 6980.00    1.58337   1.56513    6.316
 6981.00    1.59346   1.57101    6.276
 6982.00    1.59873   1.57732    6.255
 6983.00    1.60603   1.58310    6.227
 6984.00    1.61511   1.58890    6.192
 6985.00    1.62092   1.59347    6.169
 6986.00    1.62110   1.59642    6.169
 6987.00    1.61642   1.59840    6.187
 6988.00    1.60975   1.59916    6.212
 6989.00    1.60417   1.59969    6.234
 6990.00    1.60084   1.60003    6.247
 6991.00    1.60190   1.59974    6.243
 6992.00    1.61348   1.59892    6.198
 6993.00    1.63451   1.59724    6.118
 6994.00    1.64554   1.59545    6.077
 6995.00    1.63195   1.59368    6.128
 6996.00    1.60765   1.59123    6.220
 6997.00    1.59259   1.58841    6.279
 6998.00    1.58895   1.58504    6.293
 6999.00    1.59091   1.58225    6.286
 7000.00    1.59510   1.58049    6.269
 7001.00    1.59476   1.57929   -2.000
 7002.00    1.57734   1.57832   -2.000
 7003.00    1.55398   1.57722   -2.000
 7004.00    1.57073   1.57711   -2.000
 7005.00    1.60839   1.57776   -2.000
 7006.00    1.53735   1.57882   -2.000
 7007.00    1.34631   1.57945   -2.000
 7008.00    1.25593   1.57917   -2.000
 7009.00    1.37439   1.57862   -2.000
 7010.00    1.51624   1.57728   -2.000
 7011.00    1.53201   1.57593   -2.000
 7012.00    1.48586   1.57461   -2.000
 7013.00    1.45902   1.57287   -2.000
 7014.00    1.44570   1.57136   -2.000
 7015.00    1.43761   1.56991   -2.000
 7016.00    1.45932   1.57005   -2.000
 7017.00    1.50301   1.57200   -2.000
 7018.00    1.51466   1.57386   -2.000
 7019.00    1.48550   1.57543   -2.000
 7020.00    1.47149   1.57674   -2.000
 7021.00    1.48968   1.57821   -2.000
 7022.00    1.49527   1.57989   -2.000
 7023.00    1.47469   1.58156   -2.000
 7024.00    1.46496   1.58341   -2.000
 7025.00    1.48144   1.58583   -2.000
 7026.00    1.50100   1.58809   -2.000
 7027.00    1.50167   1.59030   -2.000
 7028.00    1.47933   1.59287   -2.000
 7029.00    1.45384   1.59521   -2.000
 7030.00    1.45509   1.59736   -2.000
 7031.00    1.47677   1.59878   -2.000
 7032.00    1.48247   1.59992   -2.000
 7033.00    1.46255   1.60143   -2.000
 7034.00    1.43950   1.60310   -2.000
 7035.00    1.43807   1.60531   -2.000
 7036.00    1.46873   1.60801   -2.000
 7037.00    1.50856   1.61093   -2.000
 7038.00    1.52017   1.61543   -2.000
 7039.00    1.50437   1.62134   -2.000
 7040.00    1.49269   1.62731   -2.000
 7041.00    1.50505   1.63254   -2.000
 7042.00    1.53712   1.63649   -2.000
 7043.00    1.55498   1.63967   -2.000
 7044.00    1.52956   1.64152   -2.000
 7045.00    1.49900   1.64198   -2.000
 7046.00    1.51897   1.64034   -2.000
 7047.00    1.56005   1.63646   -2.000
 7048.00    1.55881   1.63072   -2.000
 7049.00    1.52609   1.62284   -2.000
 7050.00    1.50813   1.61414   -2.000
 7051.00    1.50324   1.60435   -2.000
 7052.00    1.48490   1.59403   -2.000
 7053.00    1.45117   1.58462   -2.000
 7054.00    1.42006   1.57591   -2.000
 7055.00    1.41298   1.56853   -2.000
 7056.00    1.43411   1.56225   -2.000
 7057.00    1.45093   1.55662   -2.000
 7058.00    1.43705   1.55206   -2.000
 7059.00    1.41956   1.54834   -2.000
 7060.00    1.42557   1.54552   -2.000
 7061.00    1.42481   1.54383   -2.000
 7062.00    1.39073   1.54219   -2.000
 7063.00    1.36135   1.54095   -2.000
 7064.00    1.37436   1.54034   -2.000
 7065.00    1.40613   1.53981   -2.000
 7066.00    1.42246   1.54070   -2.000
 7067.00    1.42511   1.54223   -2.000
 7068.00    1.42816   1.54499   -2.000
 7069.00    1.43571   1.54904   -2.000
 7070.00    1.44286   1.55318   -2.000
 7071.00    1.44015   1.55730   -2.000
 7072.00    1.43178   1.56124   -2.000
 7073.00    1.44163   1.56488   -2.000
 7074.00    1.46635   1.56764   -2.000
 7075.00    1.45750   1.56913   -2.000
 7076.00    1.40835   1.56867   -2.000
 7077.00    1.38909   1.56681   -2.000
 7078.00    1.42888   1.56327   -2.000
 7079.00    1.46560   1.55775   -2.000
 7080.00    1.45724   1.55082   -2.000
 7081.00    1.43042   1.54213   -2.000
 7082.00    1.40904   1.53247   -2.000
 7083.00    1.38563   1.52264   -2.000
 7084.00    1.36439   1.51304   -2.000
 7085.00    1.37075   1.50478   -2.000
 7086.00    1.40106   1.49729   -2.000
 7087.00    1.41548   1.49043   -2.000
 7088.00    1.40078   1.48548   -2.000
 7089.00    1.38368   1.48200   -2.000
 7090.00    1.38125   1.48008   -2.000
 7091.00    1.38715   1.48026   -2.000
 7092.00    1.39238   1.48040   -2.000
 7093.00    1.39142   1.48232   -2.000
 7094.00    1.37709   1.48465   -2.000
 7095.00    1.34661   1.48745   -2.000
 7096.00    1.32475   1.49149   -2.000
 7097.00    1.34834   1.49475   -2.000
 7098.00    1.40312   1.49884   -2.000
 7099.00    1.43527   1.50166   -2.000
 7100.00    1.42992   1.50426   -2.000
 7101.00    1.41415   1.50634   -2.000
 7102.00    1.41077   1.50762   -2.000
 7103.00    1.42373   1.50865   -2.000
 7104.00    1.43313   1.50884   -2.000
 7105.00    1.41363   1.50847   -2.000
 7106.00    1.37542   1.50757   -2.000
 7107.00    1.35192   1.50655   -2.000
 7108.00    1.35717   1.50596   -2.000
 7109.00    1.38030   1.50535   -2.000
 7110.00    1.39267   1.50494   -2.000
 7111.00    1.37366   1.50525   -2.000
 7112.00    1.35102   1.50604   -2.000
 7113.00    1.36263   1.50747   -2.000
 7114.00    1.38520   1.50817   -2.000
 7115.00    1.37585   1.50917   -2.000
 7116.00    1.35071   1.50976   -2.000
 7117.00    1.34869   1.50952   -2.000
 7118.00    1.36443   1.50884   -2.000
 7119.00    1.37159   1.50685   -2.000
 7120.00    1.36554   1.50485   -2.000
 7121.00    1.35429   1.50171   -2.000
 7122.00    1.34061   1.49792   -2.000
 7123.00    1.32577   1.49416   -2.000
 7124.00    1.31599   1.48964   -2.000
 7125.00    1.31669   1.48549   -2.000
 7126.00    1.32611   1.48165   -2.000
 7127.00    1.34252   1.47870   -2.000
 7128.00    1.37031   1.47660   -2.000
 7129.00    1.40099   1.47554   -2.000
 7130.00    1.40004   1.47555   -2.000
 7131.00    1.35966   1.47749   -2.000
 7132.00    1.33707   1.48040   -2.000
 7133.00    1.36972   1.48394   -2.000
 7134.00    1.41182   1.48785   -2.000
 7135.00    1.41460   1.49112   -2.000
 7136.00    1.38711   1.49470   -2.000
 7137.00    1.35610   1.49730   -2.000
 7138.00    1.33442   1.49926   -2.000
 7139.00    1.32626   1.50033   -2.000
 7140.00    1.33162   1.50052   -2.000
 7141.00    1.34360   1.50033   -2.000
 7142.00    1.34909   1.49911   -2.000
 7143.00    1.34363   1.49792   -2.000
 7144.00    1.33717   1.49654   -2.000
 7145.00    1.33658   1.49546   -2.000
 7146.00    1.33737   1.49531   -2.000
 7147.00    1.33179   1.49534   -2.000
 7148.00    1.31557   1.49727   -2.000
 7149.00    1.29826   1.50073   -2.000
 7150.00    1.30129   1.50445   -2.000
 7151.00    1.32785   1.50884   -2.000
 7152.00    1.35598   1.51287   -2.000
 7153.00    1.36616   1.51668   -2.000
 7154.00    1.35349   1.52003   -2.000
 7155.00    1.32854   1.52169   -2.000
 7156.00    1.31293   1.52279   -2.000
 7157.00    1.32286   1.52186   -2.000
 7158.00    1.35868   1.51987   -2.000
 7159.00    1.39104   1.51742   -2.000
 7160.00    1.37929   1.51426   -2.000
 7161.00    1.34047   1.51173   -2.000
 7162.00    1.33476   1.50886   -2.000
 7163.00    1.36166   1.50730   -2.000
 7164.00    1.36697   1.50710   -2.000
 7165.00    1.34353   1.50892   -2.000
 7166.00    1.32881   1.51212   -2.000
 7167.00    1.32963   1.51564   -2.000
 7168.00    1.32778   1.51941   -2.000
 7169.00    1.33803   1.52302   -2.000
 7170.00    1.39098   1.52664   -2.000
 7171.00    1.46675   1.52927   -2.000
 7172.00    1.51482   1.53059   -2.000
 7173.00    1.52332   1.53028   -2.000
 7174.00    1.50983   1.52901   -2.000
 7175.00    1.47678   1.52713   -2.000
 7176.00    1.41739   1.52464   -2.000
 7177.00    1.34112   1.52197   -2.000
 7178.00    1.27432   1.51870   -2.000
 7179.00    1.25239   1.51517   -2.000
 7180.00    1.29270   1.51227   -2.000
 7181.00    1.35749   1.50984   -2.000
 7182.00    1.39264   1.50804   -2.000
 7183.00    1.39052   1.50605   -2.000
 7184.00    1.37324   1.50315   -2.000
 7185.00    1.35748   1.50089   -2.000
 7186.00    1.34545   1.49866   -2.000
 7187.00    1.32169   1.49756   -2.000
 7188.00    1.28282   1.49773   -2.000
 7189.00    1.26844   1.49791   -2.000
 7190.00    1.30349   1.49944   -2.000
 7191.00    1.33777   1.50082   -2.000
 7192.00    1.32289   1.50293   -2.000
 7193.00    1.29165   1.50551   -2.000
 7194.00    1.28948   1.50782   -2.000
 7195.00    1.30551   1.51057   -2.000
 7196.00    1.31519   1.51213   -2.000
 7197.00    1.32125   1.51367   -2.000
 7198.00    1.32700   1.51462   -2.000
 7199.00    1.31570   1.51442   -2.000
 7200.00    1.28811   1.51424   -2.000
 7201.00    1.28473   1.51310   -2.000
 7202.00    1.31975   1.51212   -2.000
 7203.00    1.34371   1.51097   -2.000
 7204.00    1.33089   1.50887   -2.000
 7205.00    1.32592   1.50756   -2.000
 7206.00    1.34325   1.50606   -2.000
 7207.00    1.32159   1.50634   -2.000
 7208.00    1.25059   1.50807   -2.000
 7209.00    1.22142   1.51002   -2.000
 7210.00    1.27420   1.51309   -2.000
 7211.00    1.33570   1.51557   -2.000
 7212.00    1.35098   1.51857   -2.000
 7213.00    1.33965   1.52162   -2.000
 7214.00    1.32418   1.52483   -2.000
 7215.00    1.30223   1.52814   -2.000
 7216.00    1.28620   1.53072   -2.000
 7217.00    1.30676   1.53339   -2.000
 7218.00    1.35043   1.53525   -2.000
