###################################################################
## OUTPUT of StarlightChains_v04.for    [Cid@UFSC - 01/Apr/2007] ##
###################################################################

## Some input info
2011jg.txt                               [arq_obs]
Base.CB07.vall.4m                        [arq_base]
Masks.EmLines.NEW.gm                     [arq_masks]
StCv04.C11.config                        [arq_config]
   66                                    [N_base]
    0                                    [N_YAV_components = # of components with extra extinction!]
    0                                    [i_FitPowerLaw (1/0 = Yes/No)]
-9.99                                    [alpha_PowerLaw]
CCM                                      [red_law_option]
 1.458241                                [q_norm = A(l_norm)/A(V)]

## (Re)Sampling Parameters
 3741.00                                 [l_ini (A)]
 7218.00                                 [l_fin (A)]
    1.00                                 [dl    (A)]     (OBS: dl_cushion =    50.00 A)

## Normalization info
 4020.00                                 [l_norm (A) - for base]
 4010.00                                 [llow_norm (A) - window for f_obs]
 4060.00                                 [lupp_norm (A) - window for f_obs]
6.971609E-17                             [fobs_norm (in input units)]

## S/N
 3691.00                                 [llow_SN (A) - window for S/N]
 7268.00                                 [lupp_SN (A) - window for S/N]
   7.778                                 [S/N in S/N window]
   9.739                                 [S/N in norm. window]
  13.327                                 [S/N_err in S/N window]
  16.688                                 [S/N_err in norm. window]
  1.0000                                 [fscale_chi2]

## etc...
    -2007385                             [idum_orig]
  2385                                   [NOl_eff]
  2385                                   [Nl_eff]
     0    NSIGMA                         [Ntot_cliped & clip_method]
  1762180                                [Nglobal_steps]
   7                                     [N_chains]
  34                                     [NEX0s_base = N_base in EX0s-fits]
 0   0   1        0   2.0   2.306E+01    [Clip-Bug, RC-Crash & Burn-In warning-flags, n_censored_weights, wei_nsig_threshold & wei_limit]
    13     13.474     12.968      0.506  [idt_all, wdt_TotTime, wdt_UsrTime & wdt_SysTime (sec)]

## Synthesis Results - Best model ##

 3.64915E-01                             [chi2/Nl_eff]
     3.64566                             [adev (%)]

   100.13437                             [sum-of-x (%)]
 1.32257E-16                             [Flux_tot (units of input spectrum!)]
 8.82863E-13                             [Mini_tot (???)]
 4.63786E-13                             [Mcor_tot (???)]

  27.56                                  [v0_min  (km/s)]
 189.67                                  [vd_min  (km/s)]
 0.4757                                  [AV_min  (mag)]
 0.0000                                  [YAV_min (mag)]

# j     x_j(%)      Mini_j(%)     Mcor_j(%)     age_j(yr)     Z_j      (L/M)_j    YAV?  Mstars   component_j        a/Fe...       SSP_chi2r SSP_adev(%)   SSP_AV   SSP_x(%)
  1      0.0000     0.0000E+00    0.0000E+00    1.000000E+06  0.00400  1.094E-02    0   1.0000   age020_m42            0.0000     8.4180E-01     5.8055   2.5520    88.5591
  2      2.4864     9.2833E-03    1.7670E-02    3.160000E+06  0.00400  4.007E-02    0   0.9999   age045_m42            0.0000     5.7365E-01     4.6430   1.8544    93.3714
  3      1.2756     7.5159E-03    1.3575E-02    5.010000E+06  0.00400  2.539E-02    0   0.9488   age055_m42            0.0000     6.5724E-01     5.0055   2.1619    91.6453
  4      0.7122     4.0665E-03    7.1372E-03    6.610000E+06  0.00400  2.620E-02    0   0.9220   age061_m42            0.0000     5.3753E-01     4.4469   1.7819    93.5495
  5      3.4196     3.8698E-02    6.5283E-02    1.000000E+07  0.00400  1.322E-02    0   0.8862   age070_m42            0.0000     4.7046E-01     4.2082   1.4917    95.9191
  6      0.0000     0.0000E+00    0.0000E+00    1.445000E+07  0.00400  7.883E-03    0   0.8571   age078_m42            0.0000     5.3787E-01     4.5106   1.8115    93.8073
  7      2.3609     6.7264E-02    1.0466E-01    2.512000E+07  0.00400  5.251E-03    0   0.8174   age090_m42            0.0000     4.7248E-01     4.2117   1.3629    96.3975
  8      8.1630     3.3467E-01    5.0017E-01    4.000000E+07  0.00400  3.649E-03    0   0.7851   age104_m42            0.0000     4.3658E-01     4.0346   1.1396    97.0060
  9      2.2682     1.0953E-01    1.5907E-01    5.500000E+07  0.00400  3.098E-03    0   0.7629   age110_m42            0.0000     4.3906E-01     3.9775   1.3022    96.5953
 10      0.0000     0.0000E+00    0.0000E+00    1.015200E+08  0.00400  2.228E-03    0   0.7207   age116_m42            0.0000     4.6018E-01     4.1133   1.3291    96.4740
 11      1.7215     2.3563E-01    2.9819E-01    2.861200E+08  0.00400  1.093E-03    0   0.6648   age125_m42            0.0000     4.5132E-01     4.0936   0.7645    99.1561
 12      6.5344     1.4818E+00    1.7955E+00    5.088000E+08  0.00400  6.597E-04    0   0.6365   age130_m42            0.0000     4.8286E-01     4.3224   0.7641    99.5334
 13      5.5718     3.9098E+00    4.3153E+00    1.434000E+09  0.00400  2.132E-04    0   0.5798   age139_m42            0.0000     5.2221E-01     4.5446  -0.1970   100.9876
 14      0.0000     0.0000E+00    0.0000E+00    4.250000E+09  0.00400  5.895E-05    0   0.5377   age158_m42            0.0000     7.5050E-01     4.9540  -0.6417    97.3309
 15      4.7640     2.0305E+01    2.0146E+01    7.500000E+09  0.00400  3.510E-05    0   0.5212   age171_m42            0.0000     9.3542E-01     5.4179  -0.8247    96.4917
 16      0.0000     0.0000E+00    0.0000E+00    1.300000E+10  0.00400  2.005E-05    0   0.5034   age193_m42            0.0000     1.1305E+00     5.8777  -0.9861    95.8376
 17      5.3554     5.2537E+01    4.9675E+01    1.800000E+10  0.00400  1.525E-05    0   0.4967   age213_m42            0.0000     1.1006E+00     5.7859  -1.0000    95.1135
 18      0.0000     0.0000E+00    0.0000E+00    1.000000E+06  0.00800  1.238E-02    0   1.0000   age020_m52            0.0000     8.4634E-01     5.8170   2.5484    88.7338
 19      0.0000     0.0000E+00    0.0000E+00    3.160000E+06  0.00800  3.074E-02    0   0.9966   age045_m52            0.0000     8.3304E-01     5.7444   2.4730    89.4616
 20      0.0000     0.0000E+00    0.0000E+00    5.010000E+06  0.00800  2.668E-02    0   0.9443   age055_m52            0.0000     6.9254E-01     5.1473   2.2395    91.0344
 21     23.0798     1.6165E-01    2.8239E-01    6.610000E+06  0.00800  2.136E-02    0   0.9177   age061_m52            0.0000     4.3618E-01     4.1442   0.9869    97.2456
 22      0.0000     0.0000E+00    0.0000E+00    1.000000E+07  0.00800  1.215E-02    0   0.8827   age070_m52            0.0000     5.1783E-01     4.4356   1.6644    95.9964
 23      0.0230     3.9466E-04    6.4250E-04    1.445000E+07  0.00800  8.717E-03    0   0.8552   age078_m52            0.0000     5.1064E-01     4.3743   1.7791    95.0099
 24      0.0000     0.0000E+00    0.0000E+00    2.512000E+07  0.00800  5.592E-03    0   0.8162   age090_m52            0.0000     4.6712E-01     4.1838   1.4279    97.4696
 25      0.0000     0.0000E+00    0.0000E+00    4.000000E+07  0.00800  3.896E-03    0   0.7841   age104_m52            0.0000     4.4141E-01     4.0053   1.3480    97.8673
 26      0.0000     0.0000E+00    0.0000E+00    1.015200E+08  0.00800  2.148E-03    0   0.7226   age116_m52            0.0000     4.2808E-01     3.9527   1.2949    97.3343
 27      0.4062     6.1226E-02    7.7890E-02    2.861200E+08  0.00800  9.925E-04    0   0.6683   age125_m52            0.0000     4.7604E-01     4.2718   0.8294   100.4270
 28      0.0000     0.0000E+00    0.0000E+00    9.047900E+08  0.00800  3.141E-04    0   0.6138   age135_m52            0.0000     6.8264E-01     5.0483   0.0530   103.5003
 29      0.0000     0.0000E+00    0.0000E+00    1.434000E+09  0.00800  1.719E-04    0   0.5853   age139_m52            0.0000     7.0776E-01     5.0191  -0.5338   101.7207
 30      0.0000     0.0000E+00    0.0000E+00    2.500000E+09  0.00800  7.872E-05    0   0.5600   age150_m52            0.0000     9.9524E-01     5.7290  -0.7976    98.8474
 31      0.0000     0.0000E+00    0.0000E+00    4.250000E+09  0.00800  4.336E-05    0   0.5426   age158_m52            0.0000     1.0550E+00     5.7620  -0.8132    97.9456
 32      0.0000     0.0000E+00    0.0000E+00    6.250000E+09  0.00800  3.159E-05    0   0.5319   age166_m52            0.0000     1.3432E+00     6.4788  -1.0000    97.3568
 33      0.0000     0.0000E+00    0.0000E+00    1.300000E+10  0.00800  1.361E-05    0   0.5073   age193_m52            0.0000     3.3443E+00    10.3491  -1.0000    80.9344
 34      0.0000     0.0000E+00    0.0000E+00    1.800000E+10  0.00800  9.886E-06    0   0.4990   age213_m52            0.0000     4.3553E+00    11.8694  -1.0000    77.0458
 35      0.0000     0.0000E+00    0.0000E+00    1.000000E+06  0.02000  1.544E-02    0   1.0000   age020_m62            0.0000     8.5850E-01     5.8586   2.5433    88.9873
 36      0.8184     3.2547E-03    6.1076E-03    3.160000E+06  0.02000  3.762E-02    0   0.9858   age045_m62            0.0000     8.6544E-01     5.8737   2.4812    89.8137
 37      0.0000     0.0000E+00    0.0000E+00    5.010000E+06  0.02000  3.296E-02    0   0.9342   age055_m62            0.0000     6.2570E-01     4.8311   2.1258    92.6037
 38      0.6689     8.6713E-03    1.4627E-02    8.710000E+06  0.02000  1.154E-02    0   0.8861   age067_m62            0.0000     1.0305E+00     6.6345   1.0902    99.8514
 39      0.0000     0.0000E+00    0.0000E+00    1.445000E+07  0.02000  7.663E-03    0   0.8472   age078_m62            0.0000     5.7974E-01     4.7997   1.3054    98.4333
 40      0.0000     0.0000E+00    0.0000E+00    2.512000E+07  0.02000  4.532E-03    0   0.8099   age090_m62            0.0000     6.1973E-01     4.9225   1.2994    98.0711
 41      0.0002     1.3231E-05    1.9129E-05    5.500000E+07  0.02000  2.733E-03    0   0.7595   age110_m62            0.0000     4.3712E-01     3.9876   1.3268    97.3445
 42      5.7746     6.3105E-01    8.3908E-01    1.609000E+08  0.02000  1.369E-03    0   0.6985   age120_m62            0.0000     4.4671E-01     4.0828   1.1834    99.1848
 43     13.4077     2.2255E+00    2.8444E+00    2.861200E+08  0.02000  9.013E-04    0   0.6714   age125_m62            0.0000     5.1576E-01     4.4690   0.9446   101.4619
 44      0.0213     6.3370E-03    7.7795E-03    5.088000E+08  0.02000  5.028E-04    0   0.6449   age130_m62            0.0000     6.7909E-01     5.1416   0.5846   103.3056
 45      0.0000     0.0000E+00    0.0000E+00    9.047900E+08  0.02000  2.428E-04    0   0.6179   age135_m62            0.0000     7.7954E-01     5.3039   0.0017   102.5601
 46      0.0000     0.0000E+00    0.0000E+00    1.434000E+09  0.02000  1.263E-04    0   0.5908   age139_m62            0.0000     9.3855E-01     5.5897  -0.4442   101.1391
 47      0.0000     0.0000E+00    0.0000E+00    2.500000E+09  0.02000  5.985E-05    0   0.5673   age150_m62            0.0000     1.2935E+00     6.4457  -0.8058    99.5873
 48      0.0000     0.0000E+00    0.0000E+00    4.250000E+09  0.02000  3.271E-05    0   0.5468   age158_m62            0.0000     1.8680E+00     7.7207  -1.0000    94.8109
 49      0.0000     0.0000E+00    0.0000E+00    1.000000E+10  0.02000  1.360E-05    0   0.5167   age181_m62            0.0000     3.7825E+00    10.8019  -1.0000    82.5568
 50      0.0000     0.0000E+00    0.0000E+00    1.800000E+10  0.02000  7.124E-06    0   0.5013   age213_m62            0.0000     5.6467E+00    13.3642  -1.0000    75.1253
 51      1.2051     6.9557E-03    1.3238E-02    1.000000E+06  0.05000  2.592E-02    0   0.9998   age020_m72            0.0000     8.9892E-01     5.9924   2.5328    89.1027
 52      0.0036     1.1021E-05    2.0093E-05    3.160000E+06  0.05000  4.845E-02    0   0.9577   age045_m72            0.0000     7.8797E-01     5.5023   2.3733    90.6231
 53      0.0000     0.0000E+00    0.0000E+00    5.010000E+06  0.05000  3.072E-02    0   0.9147   age055_m72            0.0000     6.3969E-01     4.9521   1.8914    94.7782
 54      0.0000     0.0000E+00    0.0000E+00    6.610000E+06  0.05000  1.455E-02    0   0.8877   age061_m72            0.0000     1.8488E+00     8.8491   1.1309   101.1650
 55      0.0000     0.0000E+00    0.0000E+00    1.000000E+07  0.05000  9.074E-03    0   0.8524   age070_m72            0.0000     8.3935E-01     5.5855   2.0792    94.4253
 56      0.0000     0.0000E+00    0.0000E+00    2.512000E+07  0.05000  4.250E-03    0   0.7902   age090_m72            0.0000     6.3541E-01     4.7989   1.7869    95.7153
 57      0.0000     0.0000E+00    0.0000E+00    4.000000E+07  0.05000  3.087E-03    0   0.7618   age104_m72            0.0000     6.2244E-01     4.7162   1.5617    97.1444
 58      0.0000     0.0000E+00    0.0000E+00    1.015200E+08  0.05000  1.700E-03    0   0.7096   age116_m72            0.0000     4.6447E-01     4.1398   1.3214    98.9708
 59      0.5388     1.0917E-01    1.3784E-01    2.861200E+08  0.05000  7.384E-04    0   0.6633   age125_m72            0.0000     5.8888E-01     4.7491   0.8221   102.3744
 60      0.0000     0.0000E+00    0.0000E+00    5.088000E+08  0.05000  3.819E-04    0   0.6372   age130_m72            0.0000     7.2980E-01     5.3065   0.3398   103.5469
 61      9.1361     8.1551E+00    9.4852E+00    9.047900E+08  0.05000  1.676E-04    0   0.6110   age135_m72            0.0000     1.1669E+00     6.3821  -0.3499   101.5225
 62      0.0000     0.0000E+00    0.0000E+00    1.434000E+09  0.05000  8.837E-05    0   0.5874   age139_m72            0.0000     1.4166E+00     6.7674  -0.8027   100.8513
 63      0.0000     0.0000E+00    0.0000E+00    2.500000E+09  0.05000  4.233E-05    0   0.5598   age150_m72            0.0000     2.0515E+00     8.1080  -1.0000    95.5696
 64      0.0000     0.0000E+00    0.0000E+00    6.250000E+09  0.05000  1.435E-05    0   0.5249   age166_m72            0.0000     4.5397E+00    11.9448  -1.0000    79.0456
 65      0.4175     9.5903E+00    9.1938E+00    1.300000E+10  0.05000  6.513E-06    0   0.5036   age193_m72            0.0000     7.3527E+00    15.3827  -1.0000    70.8819
 66      0.0000     0.0000E+00    0.0000E+00    1.800000E+10  0.05000  4.527E-06    0   0.4945   age213_m72            0.0000     9.2502E+00    17.3017  -1.0000    65.8968


## Synthesis Results - Average & Chains ##

# j      x_j: min, <> & last-chain-values for 1 ...  7 chains
  1      0.0000      0.3370      0.0000      0.0000      0.7484      0.8483      0.0527      0.0000      0.6821
  2      2.4864      2.0034      0.0000      3.5147      3.0238      3.8221      2.3989      2.9878      2.8923
  3      1.2756      0.5954      3.0739      3.1623      0.0000      0.5536      1.0021      0.0000      2.6198
  4      0.7122      0.4302      0.0000      0.0000      0.0000      0.0522      0.4611      0.0000      1.1011
  5      3.4196      0.8027      0.0000      0.7675      0.0000      1.4403      0.5908      0.0000      0.0000
  6      0.0000      0.7569      0.0000      0.5011      2.2893      1.4155      0.0000      0.0000      0.0000
  7      2.3609      1.5572      0.9835      0.0000      0.0000      2.3362      1.1285      2.7876      3.1403
  8      8.1630      3.8577      6.5935      3.5393      9.9729      2.3075      8.0011      4.6628      0.0000
  9      2.2682      1.7323      1.9258      0.0000      1.3655      4.6695      0.9983      3.6405      1.0809
 10      0.0000      1.1391      1.1671      0.9770      0.6674      3.3700      0.0000      0.4371      0.0000
 11      1.7215      6.9760      5.6830      6.9444      7.7277      3.3027      6.1451      0.4808     11.3143
 12      6.5344      7.0506      6.8270     10.0159      8.1687      8.1178      6.5924     11.0784      5.8238
 13      5.5718      3.6940      4.2888      4.7075      4.2522      3.5070      1.4787      3.1939      5.4716
 14      0.0000      0.1783      0.0000      0.0000      0.2652      0.1980      0.0901      0.0000      0.1669
 15      4.7640      3.4600      3.1253      4.1624      3.6149      3.4564      4.4501      3.5251      3.6803
 16      0.0000      0.2046      0.0000      0.1782      0.2959      0.0000      0.3598      0.0000      0.0000
 17      5.3554      3.1269      2.7754      2.7703      3.1396      3.6687      3.5297      3.7334      3.1218
 18      0.0000      0.4037      0.7080      0.0000      0.8248      1.6593      0.0000      3.3280      1.1886
 19      0.0000      0.3339      0.0000      0.0000      0.0000      0.0602      0.0000      0.0000      0.0000
 20      0.0000      1.5060      0.0000      0.0000      0.8972      0.0000      1.8034      1.0256      3.2839
 21     23.0798     13.2655     17.2843     14.0779     11.9481     12.4078     17.4443     13.3837     14.9604
 22      0.0000      0.6741      0.0000      2.4137      1.1622      1.4049      0.0000      1.9492      0.6084
 23      0.0230      0.7837      2.9804      0.0833      0.0896      0.0000      1.0394      0.2679      0.0000
 24      0.0000      1.9569      0.7273      0.6555      0.0000      3.3739      1.3770      2.0512      2.5814
 25      0.0000      0.7595      0.0000      1.0919      0.2094      0.0000      0.1256      0.3533      0.4710
 26      0.0000      0.9328      0.9747      0.0000      0.7390      0.0000      1.3779      0.0000      0.0000
 27      0.4062      2.7826      1.9554      3.3478      2.6224      0.2713      4.0885      3.2987      3.1038
 28      0.0000      1.0432      0.0000      0.0000      0.0000      0.0000      0.0000      0.0000      0.0000
 29      0.0000      0.3416      1.6800      0.0000      0.0000      0.0000      0.0000      0.0000      0.6288
 30      0.0000      1.7004      1.6978      1.0670      0.9699      2.1013      0.4149      1.3462      2.5779
 31      0.0000      0.3645      0.0000      0.0000      0.2073      0.0598      1.3491      0.9539      0.0000
 32      0.0000      0.0970      0.0016      0.0000      1.1968      0.0000      0.0000      0.0000      0.0000
 33      0.0000      0.0956      0.0000      0.4647      0.2979      0.0000      0.1555      0.0000      0.0000
 34      0.0000      0.0567      0.0000      0.6334      0.0000      0.4986      0.0000      0.0000      0.1215
 35      0.0000      0.3113      1.4392      0.0000      0.0000      0.0000      0.1898      1.4258      0.5864
 36      0.8184      1.4431      1.7989      2.6825      1.4099      1.9759      1.3717      1.9765      2.3424
 37      0.0000      0.2450      0.0000      0.0000      0.2585      1.0069      0.3095      0.1376      0.0000
 38      0.6689      1.9939      2.5912      1.7028      3.0899      2.3219      2.1222      0.0000      1.1722
 39      0.0000      0.5220      1.4952      0.4986      0.0000      0.0000      0.0000      2.0060      0.0000
 40      0.0000      0.7718      0.0000      1.6399      0.0000      0.0000      0.0000      0.2008      0.0000
 41      0.0002      1.8540      0.0000      1.5726      1.5364      3.0253      0.4845      1.6671      1.5900
 42      5.7746      1.3297      4.5422      0.0000      3.1299      0.9774      0.4922      0.8461      1.3237
 43     13.4077      4.0202      4.9964      7.9425      5.1501      4.6024      6.0653      6.0613      6.7667
 44      0.0213      3.2365      3.5630      1.9361      2.5882      4.9132      7.7705      5.0834      1.8828
 45      0.0000      1.1614      0.0000      0.0000      0.7330      1.1643      0.5747      1.6462      0.0000
 46      0.0000      0.3662      0.0132      0.0000      0.0508      0.0000      0.0000      0.0000      0.0000
 47      0.0000      0.8876      0.7991      0.0000      1.7416      0.9021      0.0000      1.0354      0.0000
 48      0.0000      0.3274      0.6525      0.6524      0.2718      0.0000      0.0000      0.0000      1.3662
 49      0.0000      0.1903      0.7173      1.0112      0.0000      0.0000      0.0000      0.9699      0.4797
 50      0.0000      0.0981      0.0000      0.0000      0.0000      0.0000      0.0000      0.4475      0.0000
 51      1.2051      0.3115      0.2161      1.1978      1.0745      0.0000      1.2456      0.6576      0.0000
 52      0.0036      0.2875      0.0000      1.6678      0.0275      0.0420      0.5163      0.0000      0.0000
 53      0.0000      0.6157      0.0000      0.4455      0.0000      0.2656      1.0162      0.0000      0.0000
 54      0.0000      0.3497      0.0000      0.0000      0.2497      0.0000      0.0000      0.0000      0.0000
 55      0.0000      0.2469      0.0000      0.0000      0.0784      0.0000      0.0000      0.2016      0.0000
 56      0.0000      0.2779      0.0000      0.0000      0.0000      0.0000      0.0000      0.0000      0.0000
 57      0.0000      0.3637      0.0000      0.0000      0.0890      0.0117      0.5567      0.0000      0.0000
 58      0.0000      0.8819      1.2788      1.0750      0.0000      0.0000      0.0000      0.5930      0.0000
 59      0.5388      2.7987      3.6520      0.0000      2.3171      2.9281      1.6669      1.8321      0.4323
 60      0.0000      2.8092      0.0000      2.6903      1.7557      2.2353      0.0000      1.6994      5.3409
 61      9.1361      6.0184      6.5328      6.9538      6.3985      6.8497      7.4829      5.7250      5.7960
 62      0.0000      0.9270      1.1292      1.6828      2.0032      1.4614      0.4255      0.9361      0.0000
 63      0.0000      0.1925      0.0000      0.0000      0.0000      0.1898      0.0000      0.0000      0.0000
 64      0.0000      0.0676      0.0000      0.0000      0.0000      0.0000      0.1750      0.0000      0.0000
 65      0.4175      0.6449      0.6819      0.1880      0.0000      0.8167      1.4955      0.8436      0.6917
 66      0.0000      0.0718      0.0000      0.0000      0.1351      0.0000      0.0000      0.0695      0.1526

# j      m_j: min, <> & last-chain-values for 1 ...  7 chains
  1  0.0000E+00  8.6859E-03  0.0000E+00  0.0000E+00  2.1009E-02  2.1105E-02  1.1809E-03  0.0000E+00  1.7000E-02
  2  1.7670E-02  1.4099E-02  0.0000E+00  2.4386E-02  2.3172E-02  2.5959E-02  1.4682E-02  1.7723E-02  1.9680E-02
  3  1.3575E-02  6.2746E-03  3.5182E-02  3.2857E-02  0.0000E+00  5.6307E-03  9.1846E-03  0.0000E+00  2.6695E-02
  4  7.1372E-03  4.2695E-03  0.0000E+00  0.0000E+00  0.0000E+00  4.9953E-04  3.9800E-03  0.0000E+00  1.0565E-02
  5  6.5283E-02  1.5174E-02  0.0000E+00  1.4306E-02  0.0000E+00  2.6277E-02  9.7140E-03  0.0000E+00  0.0000E+00
  6  0.0000E+00  2.3207E-02  0.0000E+00  1.5148E-02  7.6439E-02  4.1889E-02  0.0000E+00  0.0000E+00  0.0000E+00
  7  1.0466E-01  6.8358E-02  4.6888E-02  0.0000E+00  0.0000E+00  9.8980E-02  4.3086E-02  1.0315E-01  1.3330E-01
  8  5.0017E-01  2.3407E-01  4.3449E-01  2.1174E-01  6.5893E-01  1.3513E-01  4.2221E-01  2.3848E-01  0.0000E+00
  9  1.5907E-01  1.2030E-01  1.4525E-01  0.0000E+00  1.0326E-01  3.1297E-01  6.0296E-02  2.1311E-01  7.2582E-02
 10  0.0000E+00  1.0391E-01  1.1562E-01  8.7870E-02  6.6292E-02  2.9669E-01  0.0000E+00  3.3611E-02  0.0000E+00
 11  2.9819E-01  1.1966E+00  1.0587E+00  1.1744E+00  1.4434E+00  5.4675E-01  9.1671E-01  6.9521E-02  1.8765E+00
 12  1.7955E+00  1.9184E+00  2.0174E+00  2.6870E+00  2.4203E+00  2.1317E+00  1.5600E+00  2.5409E+00  1.5322E+00
 13  4.3153E+00  2.8330E+00  3.5722E+00  3.5596E+00  3.5512E+00  2.5958E+00  9.8629E-01  2.0647E+00  4.0575E+00
 14  0.0000E+00  4.5864E-01  0.0000E+00  0.0000E+00  7.4286E-01  4.9165E-01  2.0150E-01  0.0000E+00  4.1502E-01
 15  2.0146E+01  1.4489E+01  1.4214E+01  1.7186E+01  1.6484E+01  1.3969E+01  1.6207E+01  1.2443E+01  1.4902E+01
 16  0.0000E+00  1.4490E+00  0.0000E+00  1.2443E+00  2.2813E+00  0.0000E+00  2.2154E+00  0.0000E+00  0.0000E+00
 17  4.9675E+01  2.8721E+01  2.7686E+01  2.5089E+01  3.1402E+01  3.2522E+01  2.8196E+01  2.8906E+01  2.7726E+01
 18  0.0000E+00  9.1960E-03  1.7516E-02  0.0000E+00  2.0459E-02  3.6480E-02  0.0000E+00  6.3902E-02  2.6180E-02
 19  0.0000E+00  3.0526E-03  0.0000E+00  0.0000E+00  0.0000E+00  5.3079E-04  0.0000E+00  0.0000E+00  0.0000E+00
 20  0.0000E+00  1.5032E-02  0.0000E+00  0.0000E+00  9.7517E-03  0.0000E+00  1.5655E-02  8.6289E-03  3.1693E-02
 21  2.8239E-01  1.6073E-01  2.2744E-01  1.6817E-01  1.5764E-01  1.4509E-01  1.8381E-01  1.3669E-01  1.7526E-01
 22  0.0000E+00  1.3811E-02  0.0000E+00  4.8758E-02  2.5929E-02  2.7780E-02  0.0000E+00  3.3662E-02  1.2052E-02
 23  6.4250E-04  2.1682E-02  8.9555E-02  2.2727E-03  2.6984E-03  0.0000E+00  2.5010E-02  6.2485E-03  0.0000E+00
 24  0.0000E+00  8.0549E-02  3.2513E-02  2.6601E-02  0.0000E+00  1.3403E-01  4.9293E-02  7.1169E-02  1.0274E-01
 25  0.0000E+00  4.3106E-02  0.0000E+00  6.1105E-02  1.2942E-02  0.0000E+00  6.2018E-03  1.6903E-02  2.5846E-02
 26  0.0000E+00  8.8491E-02  1.0043E-01  0.0000E+00  7.6343E-02  0.0000E+00  1.1369E-01  0.0000E+00  0.0000E+00
 27  7.7890E-02  5.2838E-01  4.0327E-01  6.2679E-01  5.4226E-01  4.9715E-02  6.7521E-01  5.2801E-01  5.6989E-01
 28  0.0000E+00  5.7488E-01  0.0000E+00  0.0000E+00  0.0000E+00  0.0000E+00  0.0000E+00  0.0000E+00  0.0000E+00
 29  0.0000E+00  3.2800E-01  1.7520E+00  0.0000E+00  0.0000E+00  0.0000E+00  0.0000E+00  0.0000E+00  5.8381E-01
 30  0.0000E+00  3.4113E+00  3.6991E+00  2.1105E+00  2.1187E+00  4.0685E+00  7.2386E-01  2.2766E+00  5.0006E+00
 31  0.0000E+00  1.2863E+00  0.0000E+00  0.0000E+00  7.9669E-01  2.0359E-01  4.1405E+00  2.8376E+00  0.0000E+00
 32  0.0000E+00  4.6077E-01  8.3926E-03  0.0000E+00  6.1881E+00  0.0000E+00  0.0000E+00  0.0000E+00  0.0000E+00
 33  0.0000E+00  1.0047E+00  0.0000E+00  4.8158E+00  3.4097E+00  0.0000E+00  1.4213E+00  0.0000E+00  0.0000E+00
 34  0.0000E+00  8.0752E-01  0.0000E+00  8.8903E+00  0.0000E+00  6.8500E+00  0.0000E+00  0.0000E+00  1.6723E+00
 35  0.0000E+00  5.6851E-03  2.8549E-02  0.0000E+00  0.0000E+00  0.0000E+00  3.0156E-03  2.1951E-02  1.0357E-02
 36  6.1076E-03  1.0664E-02  1.4438E-02  1.9545E-02  1.1345E-02  1.4092E-02  8.8155E-03  1.2312E-02  1.6737E-02
 37  0.0000E+00  1.9580E-03  0.0000E+00  0.0000E+00  2.2504E-03  7.7676E-03  2.1512E-03  9.2709E-04  0.0000E+00
 38  1.4627E-02  4.3177E-02  6.0938E-02  3.6354E-02  7.2859E-02  4.8526E-02  3.9967E-02  0.0000E+00  2.4543E-02
 39  0.0000E+00  1.6275E-02  5.0630E-02  1.5329E-02  0.0000E+00  0.0000E+00  0.0000E+00  5.2721E-02  0.0000E+00
 40  0.0000E+00  3.8898E-02  0.0000E+00  8.1485E-02  0.0000E+00  0.0000E+00  0.0000E+00  8.5288E-03  0.0000E+00
 41  1.9129E-05  1.4529E-01  0.0000E+00  1.2151E-01  1.3112E-01  2.2883E-01  3.3020E-02  1.1013E-01  1.2048E-01
 42  8.3908E-01  1.9132E-01  7.0983E-01  0.0000E+00  4.9041E-01  1.3573E-01  6.1589E-02  1.0262E-01  1.8416E-01
 43  2.8444E+00  8.4454E-01  1.1399E+00  1.6451E+00  1.1781E+00  9.3313E-01  1.1081E+00  1.0733E+00  1.3745E+00
 44  7.7795E-03  1.1707E+00  1.3997E+00  6.9048E-01  1.0194E+00  1.7152E+00  2.4444E+00  1.5499E+00  6.5848E-01
 45  0.0000E+00  8.3349E-01  0.0000E+00  0.0000E+00  5.7282E-01  8.0642E-01  3.5868E-01  9.9589E-01  0.0000E+00
 46  0.0000E+00  4.8310E-01  1.8902E-02  0.0000E+00  7.2917E-02  0.0000E+00  0.0000E+00  0.0000E+00  0.0000E+00
 47  0.0000E+00  2.3726E+00  2.3198E+00  0.0000E+00  5.0694E+00  2.3274E+00  0.0000E+00  2.3331E+00  0.0000E+00
 48  0.0000E+00  1.5435E+00  3.3407E+00  3.0322E+00  1.3954E+00  0.0000E+00  0.0000E+00  0.0000E+00  6.2274E+00
 49  0.0000E+00  2.0385E+00  8.3468E+00  1.0682E+01  0.0000E+00  0.0000E+00  0.0000E+00  8.7595E+00  4.9693E+00
 50  0.0000E+00  1.9463E+00  0.0000E+00  0.0000E+00  0.0000E+00  0.0000E+00  0.0000E+00  7.4848E+00  0.0000E+00
 51  1.3238E-02  3.3883E-03  2.5536E-03  1.2847E-02  1.2728E-02  0.0000E+00  1.1784E-02  6.0293E-03  0.0000E+00
 52  2.0093E-05  1.6029E-03  0.0000E+00  9.1666E-03  1.6693E-04  2.2617E-04  2.5029E-03  0.0000E+00  0.0000E+00
 53  0.0000E+00  5.1701E-03  0.0000E+00  3.6887E-03  0.0000E+00  2.1525E-03  7.4208E-03  0.0000E+00  0.0000E+00
 54  0.0000E+00  6.0174E-03  0.0000E+00  0.0000E+00  4.6787E-03  0.0000E+00  0.0000E+00  0.0000E+00  0.0000E+00
 55  0.0000E+00  6.5404E-03  0.0000E+00  0.0000E+00  2.2609E-03  0.0000E+00  0.0000E+00  4.5014E-03  0.0000E+00
 56  0.0000E+00  1.4569E-02  0.0000E+00  0.0000E+00  0.0000E+00  0.0000E+00  0.0000E+00  0.0000E+00  0.0000E+00
 57  0.0000E+00  2.5310E-02  0.0000E+00  0.0000E+00  6.7448E-03  7.8344E-04  3.3697E-02  0.0000E+00  0.0000E+00
 58  0.0000E+00  1.0381E-01  1.6349E-01  1.2477E-01  0.0000E+00  0.0000E+00  0.0000E+00  5.8840E-02  0.0000E+00
 59  1.3784E-01  7.0898E-01  1.0048E+00  0.0000E+00  6.3919E-01  7.1589E-01  3.6724E-01  3.9123E-01  1.0588E-01
 60  0.0000E+00  1.3218E+00  0.0000E+00  1.2481E+00  8.9958E-01  1.0151E+00  0.0000E+00  6.7404E-01  2.4299E+00
 61  9.4852E+00  6.1874E+00  7.2943E+00  7.0487E+00  7.1633E+00  6.7965E+00  6.6906E+00  4.9613E+00  5.7616E+00
 62  0.0000E+00  1.7376E+00  2.2989E+00  3.1102E+00  4.0889E+00  2.6439E+00  6.9366E-01  1.4792E+00  0.0000E+00
 63  0.0000E+00  7.1789E-01  0.0000E+00  0.0000E+00  0.0000E+00  6.8302E-01  0.0000E+00  0.0000E+00  0.0000E+00
 64  0.0000E+00  6.9723E-01  0.0000E+00  0.0000E+00  0.0000E+00  0.0000E+00  1.5697E+00  0.0000E+00  0.0000E+00
 65  9.1938E+00  1.4062E+01  1.6150E+01  4.0425E+00  0.0000E+00  1.7187E+01  2.8362E+01  1.5505E+01  1.4584E+01
 66  0.0000E+00  2.2130E+00  0.0000E+00  0.0000E+00  4.5307E+00  0.0000E+00  0.0000E+00  1.8044E+00  4.5442E+00

# AV, chi2 & Mass for <> & i_chain = 1 ...  7 solutions
AV       0.4757      0.4467      0.4681      0.4464      0.4310      0.4640      0.4580      0.4494      0.4458
chi2 3.6492E-01  3.6922E-01  3.6771E-01  3.6778E-01  3.6859E-01  3.6788E-01  3.6751E-01  3.6816E-01  3.6791E-01
Mass 4.6379E-13  4.5041E-13  4.2685E-13  4.5668E-13  4.0500E-13  4.7769E-13  5.2586E-13  5.3632E-13  4.6527E-13
  27.56                                  [v0_min (km/s) before EX0s...]
 189.67                                  [vd_min (km/s) before EX0s...]


## Synthetic spectrum (Best Model) ##l_obs f_obs f_syn wei
 3478    [Nl_obs]
 3741.00    0.58273   0.69367    0.000
 3742.00    0.60572   0.70180    0.000
 3743.00    0.60954   0.69724    0.000
 3744.00    0.60193   0.68156    0.000
 3745.00    0.58280   0.65712    7.580
 3746.00    0.55065   0.62683    7.558
 3747.00    0.51531   0.59455    7.618
 3748.00    0.49054   0.56538    7.764
 3749.00    0.48212   0.54523    7.832
 3750.00    0.49110   0.53924    7.720
 3751.00    0.51940   0.54970    7.666
 3752.00    0.56480   0.57481    7.861
 3753.00    0.61503   0.60915    8.023
 3754.00    0.65756   0.64556    7.829
 3755.00    0.69023   0.67768    7.536
 3756.00    0.71223   0.70174    7.493
 3757.00    0.71502   0.71724    7.743
 3758.00    0.69581   0.72629    8.121
 3759.00    0.66935   0.73188    8.283
 3760.00    0.64868   0.73618    8.109
 3761.00    0.62900   0.73942    8.036
 3762.00    0.60719   0.74010    8.333
 3763.00    0.59670   0.73601    8.627
 3764.00    0.60541   0.72525    8.511
 3765.00    0.61981   0.70700    8.230
 3766.00    0.62516   0.68189    8.152
 3767.00    0.61995   0.65216    8.401
 3768.00    0.60649   0.62171    8.848
 3769.00    0.58509   0.59564    9.044
 3770.00    0.56232   0.57929    8.821
 3771.00    0.55363   0.57660    8.653
 3772.00    0.56573   0.58871    8.727
 3773.00    0.58889   0.61350    8.639
 3774.00    0.61501   0.64660    8.306
 3775.00    0.64617   0.68315    8.232
 3776.00    0.68377   0.71938    8.570
 3777.00    0.72368   0.75307    8.855
 3778.00    0.76195   0.78320    8.771
 3779.00    0.79688   0.80923    8.621
 3780.00    0.82510   0.83069    8.662
 3781.00    0.84164   0.84706    8.862
 3782.00    0.84802   0.85785    9.061
 3783.00    0.85233   0.86263    9.083
 3784.00    0.85588   0.86123    9.008
 3785.00    0.85218   0.85398    9.124
 3786.00    0.84338   0.84189    9.390
 3787.00    0.84087   0.82653    9.392
 3788.00    0.84618   0.80937    9.100
 3789.00    0.84894   0.79114    8.921
 3790.00    0.84216   0.77136    8.972
 3791.00    0.82544   0.74862    9.081
 3792.00    0.79875   0.72131    9.224
 3793.00    0.76262   0.68859    9.540
 3794.00    0.72392   0.65135    9.896
 3795.00    0.69269   0.61263    9.917
 3796.00    0.67000   0.57749    9.654
 3797.00    0.64926   0.55200    9.516
 3798.00    0.62776   0.54161    9.657
 3799.00    0.60856   0.54920    9.994
 3800.00    0.59827   0.57385   10.412
 3801.00    0.60410   0.61094   10.773
 3802.00    0.62898   0.65386   10.863
 3803.00    0.67095   0.69627   10.563
 3804.00    0.72441   0.73383   10.107
 3805.00    0.78122   0.76501    9.830
 3806.00    0.83244   0.79051    9.831
 3807.00    0.87245   0.81210   10.044
 3808.00    0.90503   0.83109   10.298
 3809.00    0.93652   0.84746   10.387
 3810.00    0.96333   0.85998   10.250
 3811.00    0.97836   0.86718   10.021
 3812.00    0.98366   0.86857    9.985
 3813.00    0.98564   0.86517   10.295
 3814.00    0.98566   0.85900   10.598
 3815.00    0.97966   0.85195   10.466
 3816.00    0.96037   0.84485   10.252
 3817.00    0.92843   0.83755   10.409
 3818.00    0.90416   0.82976   10.681
 3819.00    0.90365   0.82190   10.628
 3820.00    0.91110   0.81508   10.467
 3821.00    0.90336   0.80997   10.568
 3822.00    0.87923   0.80580   10.880
 3823.00    0.84706   0.80051   11.161
 3824.00    0.80944   0.79196   11.302
 3825.00    0.76869   0.77913   11.358
 3826.00    0.73271   0.76228   11.496
 3827.00    0.70664   0.74214   11.754
 3828.00    0.68580   0.71893   11.852
 3829.00    0.66373   0.69212   11.623
 3830.00    0.63907   0.66091   11.379
 3831.00    0.61116   0.62536   11.427
 3832.00    0.57732   0.58725   11.767
 3833.00    0.54173   0.55047   12.194
 3834.00    0.51929   0.52027   12.351
 3835.00    0.51607   0.50176   12.161
 3836.00    0.51916   0.49825   12.038
 3837.00    0.52126   0.51030   12.179
 3838.00    0.53291   0.53579   12.247
 3839.00    0.55779   0.57104   12.012
 3840.00    0.58181   0.61191   11.715
 3841.00    0.59961   0.65469   11.634
 3842.00    0.62511   0.69634   11.870
 3843.00    0.66578   0.73448   12.226
 3844.00    0.71189   0.76757   12.190
 3845.00    0.75276   0.79494   11.693
 3846.00    0.78482   0.81672   11.278
 3847.00    0.80964   0.83364    0.000
 3848.00    0.83191   0.84674    0.000
 3849.00    0.85515   0.85712    0.000
 3850.00    0.87998   0.86575    0.000
 3851.00    0.90429   0.87310    0.000
 3852.00    0.92359   0.87906    0.000
 3853.00    0.93181   0.88309    0.000
 3854.00    0.92398   0.88477    0.000
 3855.00    0.90450   0.88418    0.000
 3856.00    0.88521   0.88204    0.000
 3857.00    0.87021   0.87944    0.000
 3858.00    0.85526   0.87757    0.000
 3859.00    0.84085   0.87751    0.000
 3860.00    0.83336   0.87988    0.000
 3861.00    0.83656   0.88456    0.000
 3862.00    0.84967   0.89054    0.000
 3863.00    0.86881   0.89622    0.000
 3864.00    0.88841   0.90018    0.000
 3865.00    0.90393   0.90170    0.000
 3866.00    0.91369   0.90081    0.000
 3867.00    0.92157   0.89792    0.000
 3868.00    0.93234   0.89324    0.000
 3869.00    0.94086   0.88682    0.000
 3870.00    0.93729   0.87892    0.000
 3871.00    0.92205   0.87038    0.000
 3872.00    0.90319   0.86247    0.000
 3873.00    0.88581   0.85606    0.000
 3874.00    0.87152   0.85090    0.000
 3875.00    0.86116   0.84554    0.000
 3876.00    0.85391   0.83820    0.000
 3877.00    0.84530   0.82777    0.000
 3878.00    0.82974   0.81435    0.000
 3879.00    0.80476   0.79860    0.000
 3880.00    0.77033   0.78095    0.000
 3881.00    0.72707   0.76099   13.013
 3882.00    0.67958   0.73764   13.022
 3883.00    0.64059   0.70976   13.201
 3884.00    0.62066   0.67684   13.276
 3885.00    0.61544   0.63982   13.146
 3886.00    0.61636   0.60156   12.893
 3887.00    0.62418   0.56693   12.671
 3888.00    0.64005   0.54183   12.624
 3889.00    0.65488   0.53131   12.838
 3890.00    0.66131   0.53772   13.225
 3891.00    0.66592   0.55962   13.379
 3892.00    0.67667   0.59243   13.089
 3893.00    0.69050   0.63033   12.829
 3894.00    0.70086   0.66828   12.978
 3895.00    0.70551   0.70315   13.309
 3896.00    0.70677   0.73368   13.446
 3897.00    0.71073   0.75983   13.353
 3898.00    0.72277   0.78209   13.252
 3899.00    0.74416   0.80113   13.420
 3900.00    0.77263   0.81750   13.817
 3901.00    0.80345   0.83154   13.849
 3902.00    0.83280   0.84332   13.285
 3903.00    0.85918   0.85299   12.776
 3904.00    0.87766   0.86112   12.797
 3905.00    0.87881   0.86883   13.318
 3906.00    0.86591   0.87741   14.066
 3907.00    0.86069   0.88760   14.564
 3908.00    0.87628   0.89910   14.530
 3909.00    0.90487   0.91063   14.208
 3910.00    0.93541   0.92053   13.946
 3911.00    0.96242   0.92754   13.920
 3912.00    0.98104   0.93121   14.027
 3913.00    0.98578   0.93191   13.931
 3914.00    0.97729   0.93039   13.593
 3915.00    0.96323   0.92735   13.368
 3916.00    0.94856   0.92315   13.420
 3917.00    0.93301   0.91797   13.607
 3918.00    0.91801   0.91207   13.692
 3919.00    0.90795   0.90603   13.515
 3920.00    0.90407   0.90063   13.274
 3921.00    0.90370   0.89635   13.374
 3922.00    0.90590   0.89297   13.774
 3923.00    0.91135   0.88941   13.930
 3924.00    0.91579   0.88415   13.543
 3925.00    0.91133   0.87583   12.862
 3926.00    0.89670   0.86373   12.327
 3927.00    0.87748   0.84786   12.258
 3928.00    0.85744   0.82860   12.554
 3929.00    0.83607   0.80655   12.823
 3930.00    0.80897   0.78267   12.966
 3931.00    0.77194   0.75872   13.228
 3932.00    0.73037   0.73764   13.739
 3933.00    0.69722   0.72315   14.383
 3934.00    0.68268   0.71859   14.778
 3935.00    0.69057   0.72546   14.566
 3936.00    0.71595   0.74254   14.110
 3937.00    0.74895   0.76637   14.005
 3938.00    0.78332   0.79246   14.185
 3939.00    0.81631   0.81684   14.191
 3940.00    0.84513   0.83699   13.913
 3941.00    0.86740   0.85207   13.609
 3942.00    0.88316   0.86267   13.594
 3943.00    0.89429   0.87024   14.022
 3944.00    0.90313   0.87632   14.545
 3945.00    0.91170   0.88193   14.584
 3946.00    0.92083   0.88727   14.160
 3947.00    0.92919   0.89194   13.660
 3948.00    0.93226   0.89542   13.227
 3949.00    0.92704   0.89741   12.926
 3950.00    0.91804   0.89789   12.986
 3951.00    0.90930   0.89691   13.467
 3952.00    0.89424   0.89448   13.748
 3953.00    0.86691   0.89052   13.347
 3954.00    0.83564   0.88483   13.088
 3955.00    0.81192   0.87718   13.711
 3956.00    0.79701   0.86732   14.634
 3957.00    0.78873   0.85491   14.740
 3958.00    0.78908   0.83937   14.130
 3959.00    0.79629   0.81987   13.562
 3960.00    0.79759   0.79557    0.000
 3961.00    0.78070   0.76609    0.000
 3962.00    0.74446   0.73158    0.000
 3963.00    0.69417   0.69251    0.000
 3964.00    0.63715   0.64948    0.000
 3965.00    0.58332   0.60338    0.000
 3966.00    0.54482   0.55613    0.000
 3967.00    0.52695   0.51124    0.000
 3968.00    0.52324   0.47371    0.000
 3969.00    0.52792   0.44907    0.000
 3970.00    0.54299   0.44162    0.000
 3971.00    0.56581   0.45295    0.000
 3972.00    0.58398   0.48130    0.000
 3973.00    0.59506   0.52231    0.000
 3974.00    0.61447   0.57043    0.000
 3975.00    0.65051   0.62050    0.000
 3976.00    0.69314   0.66864    0.000
 3977.00    0.73205   0.71249    0.000
 3978.00    0.76576   0.75081    0.000
 3979.00    0.79719   0.78308    0.000
 3980.00    0.83021   0.80939    0.000
 3981.00    0.86480   0.83036   13.989
 3982.00    0.89591   0.84713   13.341
 3983.00    0.91812   0.86117   13.238
 3984.00    0.92777   0.87376   13.180
 3985.00    0.92312   0.88568   11.984
 3986.00    0.90539   0.89710    9.514
 3987.00    0.88214   0.90782    7.837
 3988.00    0.86528   0.91755    8.114
 3989.00    0.85999   0.92614   10.605
 3990.00    0.86316   0.93354   13.694
 3991.00    0.87130   0.93966   14.075
 3992.00    0.88200   0.94426   13.609
 3993.00    0.89062   0.94702   13.788
 3994.00    0.89193   0.94785   13.791
 3995.00    0.88754   0.94722   13.509
 3996.00    0.88481   0.94621   13.717
 3997.00    0.88811   0.94611   14.338
 3998.00    0.89814   0.94785   14.473
 3999.00    0.91569   0.95137   14.051
 4000.00    0.94055   0.95562   13.810
 4001.00    0.96661   0.95897   13.967
 4002.00    0.98500   0.95999   14.255
 4003.00    0.99314   0.95814   14.352
 4004.00    0.99550   0.95414   14.133
 4005.00    1.00101   0.94962   13.931
 4006.00    1.01722   0.94642   14.134
 4007.00    1.04090   0.94582   14.507
 4008.00    1.06336   0.94802   14.496
 4009.00    1.08273   0.95238   14.174
 4010.00    1.09864   0.95786   13.942
 4011.00    1.10076   0.96354   13.770
 4012.00    1.08177   0.96883   13.548
 4013.00    1.05892   0.97342   13.651
 4014.00    1.05153   0.97725   14.335
 4015.00    1.04589   0.98033   14.663
 4016.00    1.02049   0.98275   13.710
 4017.00    0.98516   0.98455   12.720
 4018.00    0.96161   0.98559   12.826
 4019.00    0.95304   0.98547   13.716
 4020.00    0.95226   0.98355   14.490
 4021.00    0.95555   0.97929   14.783
 4022.00    0.96205   0.97266   14.773
 4023.00    0.97133   0.96448   14.604
 4024.00    0.98282   0.95631   14.396
 4025.00    0.99532   0.94994   14.339
 4026.00    1.00611   0.94650   14.547
 4027.00    1.01058   0.94586   14.925
 4028.00    1.00698   0.94671   15.255
 4029.00    1.00000   0.94740   15.325
 4030.00    0.99329   0.94705   15.099
 4031.00    0.98378   0.94606   14.810
 4032.00    0.96851   0.94591   14.710
 4033.00    0.94999   0.94821   14.909
 4034.00    0.93214   0.95382   15.306
 4035.00    0.91729   0.96242   15.537
 4036.00    0.90816   0.97256   15.426
 4037.00    0.90867   0.98220   15.281
 4038.00    0.91918   0.98943   15.236
 4039.00    0.93437   0.99298   14.966
 4040.00    0.94982   0.99240   14.398
 4041.00    0.96525   0.98792   13.957
 4042.00    0.98014   0.98025   13.897
 4043.00    0.99166   0.97064   14.117
 4044.00    0.99786   0.96096   14.350
 4045.00    0.99956   0.95356   14.296
 4046.00    1.00061   0.95046   14.011
 4047.00    1.00610   0.95236   13.921
 4048.00    1.01363   0.95820   14.194
 4049.00    1.01348   0.96557   14.593
 4050.00    1.00670   0.97185   14.849
 4051.00    1.00678   0.97523   14.871
 4052.00    1.01477   0.97521   14.743
 4053.00    1.01617   0.97245   14.646
 4054.00    1.00750   0.96824   14.665
 4055.00    1.00036   0.96395   14.777
 4056.00    1.00027   0.96061   15.028
 4057.00    1.00256   0.95862   15.486
 4058.00    1.00408   0.95773   15.821
 4059.00    1.00536   0.95706   15.447
 4060.00    1.00496   0.95549   14.659
 4061.00    0.99932   0.95225   14.287
 4062.00    0.98730   0.94750   14.528
 4063.00    0.97181   0.94240   15.062
 4064.00    0.96014   0.93850   15.480
 4065.00    0.96049   0.93692   15.474
 4066.00    0.97332   0.93771   15.124
 4067.00    0.99236   0.93990   14.790
 4068.00    1.01187   0.94205   14.738
 4069.00    1.02753   0.94296   15.063
 4070.00    1.03466   0.94216   15.580
 4071.00    1.03014   0.93986   15.884
 4072.00    1.01672   0.93652   15.731
 4073.00    1.00087   0.93242   15.282
 4074.00    0.98695   0.92752   15.134
 4075.00    0.97712   0.92197   15.738
 4076.00    0.97308   0.91659   16.509
 4077.00    0.97399   0.91284   16.325
 4078.00    0.97296   0.91206   15.534
 4079.00    0.96307   0.91451   15.157
 4080.00    0.94723   0.91903   15.421
 4081.00    0.93276   0.92354   16.070
 4082.00    0.92151   0.92616   16.641
 4083.00    0.91243   0.92615   16.712
 4084.00    0.90665   0.92401   16.411
 4085.00    0.90511   0.92092   16.148
 4086.00    0.90506   0.91783   16.155
 4087.00    0.90343   0.91482   16.395
 4088.00    0.90111   0.91115   16.489
 4089.00    0.89955   0.90568   16.215
 4090.00    0.89665   0.89737   16.024
 4091.00    0.88876   0.88556   16.215
 4092.00    0.87318   0.86989    0.000
 4093.00    0.84891   0.85013    0.000
 4094.00    0.81713   0.82607    0.000
 4095.00    0.78230   0.79757    0.000
 4096.00    0.75239   0.76477    0.000
 4097.00    0.73418   0.72831    0.000
 4098.00    0.72933   0.68969    0.000
 4099.00    0.73633   0.65171    0.000
 4100.00    0.75211   0.61852    0.000
 4101.00    0.77108   0.59503    0.000
 4102.00    0.78510   0.58547    0.000
 4103.00    0.78925   0.59175    0.000
 4104.00    0.78535   0.61248    0.000
 4105.00    0.77804   0.64344    0.000
 4106.00    0.77180   0.67914    0.000
 4107.00    0.76870   0.71467    0.000
 4108.00    0.76760   0.74691    0.000
 4109.00    0.76684   0.77481    0.000
 4110.00    0.76589   0.79876    0.000
 4111.00    0.76632   0.81977    0.000
 4112.00    0.77147   0.83865    0.000
 4113.00    0.78310   0.85560   15.521
 4114.00    0.80006   0.87029   16.024
 4115.00    0.82023   0.88209   16.667
 4116.00    0.84123   0.89056   16.713
 4117.00    0.85929   0.89583   16.135
 4118.00    0.86984   0.89866   15.766
 4119.00    0.87187   0.90034   15.919
 4120.00    0.86884   0.90224   16.246
 4121.00    0.86549   0.90533   16.474
 4122.00    0.86623   0.90985   16.620
 4123.00    0.87368   0.91521   16.660
 4124.00    0.88759   0.92027   16.489
 4125.00    0.90297   0.92381   16.223
 4126.00    0.91201   0.92499   16.136
 4127.00    0.91144   0.92367   16.292
 4128.00    0.90325   0.92039   16.532
 4129.00    0.88987   0.91617   16.728
 4130.00    0.87389   0.91221   16.829
 4131.00    0.86086   0.90967   16.776
 4132.00    0.85743   0.90955   16.535
 4133.00    0.86505   0.91244   16.221
 4134.00    0.87956   0.91832   16.050
 4135.00    0.89423   0.92640   16.190
 4136.00    0.90426   0.93523   16.662
 4137.00    0.91464   0.94300   17.065
 4138.00    0.93350   0.94792   16.857
 4139.00    0.95582   0.94861   16.303
 4140.00    0.96931   0.94461   16.052
 4141.00    0.97168   0.93672   16.234
 4142.00    0.96809   0.92710   16.610
 4143.00    0.96084   0.91867   16.884
 4144.00    0.94971   0.91404   16.864
 4145.00    0.93547   0.91430   16.667
 4146.00    0.92061   0.91871   16.526
 4147.00    0.90943   0.92514   16.472
 4148.00    0.90533   0.93127   16.460
 4149.00    0.90716   0.93549   16.583
 4150.00    0.91254   0.93732   16.836
 4151.00    0.92273   0.93712   16.776
 4152.00    0.93886   0.93565   16.180
 4153.00    0.95653   0.93379   15.786
 4154.00    0.97044   0.93236   16.186
 4155.00    0.98009   0.93206   16.877
 4156.00    0.98669   0.93336   17.027
 4157.00    0.98900   0.93631   16.805
 4158.00    0.98625   0.94053   16.723
 4159.00    0.98124   0.94531   16.733
 4160.00    0.97748   0.94984   16.633
 4161.00    0.97637   0.95346   16.509
 4162.00    0.97945   0.95579   16.544
 4163.00    0.98976   0.95670   16.810
 4164.00    1.00394   0.95624   17.141
 4165.00    1.00764   0.95459   17.069
 4166.00    0.99432   0.95197   16.541
 4167.00    0.97768   0.94847   16.267
 4168.00    0.96939   0.94403   16.552
 4169.00    0.96377   0.93846   16.756
 4170.00    0.95363   0.93173   16.540
 4171.00    0.94086   0.92428   16.652
 4172.00    0.92868   0.91711   17.378
 4173.00    0.91678   0.91148   17.686
 4174.00    0.90512   0.90827   17.054
 4175.00    0.89597   0.90766   16.568
 4176.00    0.89107   0.90917   16.859
 4177.00    0.88995   0.91202   17.490
 4178.00    0.89068   0.91550   17.824
 4179.00    0.89088   0.91916   17.605
 4180.00    0.89083   0.92274   17.018
 4181.00    0.89402   0.92598   16.481
 4182.00    0.90277   0.92867   16.264
 4183.00    0.91630   0.93058   16.419
 4184.00    0.93181   0.93155   16.806
 4185.00    0.94552   0.93164   17.116
 4186.00    0.95494   0.93119   17.185
 4187.00    0.95983   0.93082   17.122
 4188.00    0.96212   0.93122   17.055
 4189.00    0.96493   0.93279   17.022
 4190.00    0.96944   0.93549   16.960
 4191.00    0.97481   0.93868   16.785
 4192.00    0.98149   0.94125   16.631
 4193.00    0.99028   0.94205   16.755
 4194.00    0.99654   0.94025   17.059
 4195.00    0.99242   0.93570   17.145
 4196.00    0.97854   0.92904   16.983
 4197.00    0.96290   0.92152   16.918
 4198.00    0.94934   0.91459   17.084
 4199.00    0.93715   0.90943   17.345
 4200.00    0.92798   0.90669   17.481
 4201.00    0.92501   0.90651   17.344
 4202.00    0.92734   0.90867   17.122
 4203.00    0.93133   0.91271   17.135
 4204.00    0.93660   0.91812   17.400
 4205.00    0.94412   0.92430   17.658
 4206.00    0.95019   0.93061   17.615
 4207.00    0.94942   0.93642   17.154
 4208.00    0.94264   0.94117   16.543
 4209.00    0.93607   0.94452   16.173
 4210.00    0.93689   0.94626   16.238
 4211.00    0.94654   0.94629   16.725
 4212.00    0.95159   0.94471   17.311
 4213.00    0.93773   0.94189   17.607
 4214.00    0.91268   0.93868   17.785
 4215.00    0.89469   0.93632   18.173
 4216.00    0.89081   0.93589   18.398
 4217.00    0.89759   0.93779   18.002
 4218.00    0.90640   0.94134   17.516
 4219.00    0.90960   0.94487   17.551
 4220.00    0.90710   0.94622   17.839
 4221.00    0.90106   0.94348   17.893
 4222.00    0.88918   0.93579   17.904
 4223.00    0.87014   0.92372   18.195
 4224.00    0.84993   0.90938   18.514
 4225.00    0.83575   0.89598   18.497
 4226.00    0.82944   0.88687   18.318
 4227.00    0.83096   0.88430   18.240
 4228.00    0.84222   0.88846   18.169
 4229.00    0.86361   0.89740   18.017
 4230.00    0.89083   0.90784   17.991
 4231.00    0.91752   0.91655   18.135
 4232.00    0.93799   0.92165   18.019
 4233.00    0.94980   0.92296   17.529
 4234.00    0.95508   0.92166   17.322
 4235.00    0.95647   0.91947   17.722
 4236.00    0.95433   0.91794   18.150
 4237.00    0.94943   0.91794   18.146
 4238.00    0.94449   0.91975   18.154
 4239.00    0.94047   0.92316   18.489
 4240.00    0.93493   0.92765   18.726
 4241.00    0.92657   0.93247   18.543
 4242.00    0.91748   0.93675   18.250
 4243.00    0.90965   0.93963   18.161
 4244.00    0.90317   0.94034   18.293
 4245.00    0.89830   0.93846   18.514
 4246.00    0.89604   0.93420   18.618
 4247.00    0.89555   0.92840   18.424
 4248.00    0.89357   0.92227   17.902
 4249.00    0.88827   0.91700   17.386
 4250.00    0.88046   0.91347   17.384
 4251.00    0.87131   0.91198   17.866
 4252.00    0.86196   0.91228   18.171
 4253.00    0.85570   0.91380   18.089
 4254.00    0.85722   0.91586   18.142
 4255.00    0.86597   0.91776   18.419
 4256.00    0.87600   0.91886   18.410
 4257.00    0.88393   0.91878   18.062
 4258.00    0.89056   0.91767   17.899
 4259.00    0.89663   0.91632   18.128
 4260.00    0.90178   0.91599   18.534
 4261.00    0.90627   0.91780   18.833
 4262.00    0.91122   0.92199   18.842
 4263.00    0.91794   0.92773   18.655
 4264.00    0.92767   0.93331   18.512
 4265.00    0.94143   0.93675   18.389
 4266.00    0.95902   0.93646   18.096
 4267.00    0.97660   0.93190   17.734
 4268.00    0.98749   0.92355   17.598
 4269.00    0.98550   0.91271   17.820
 4270.00    0.96830   0.90120   18.303
 4271.00    0.94276   0.89109   18.632
 4272.00    0.92040   0.88420   18.399
 4273.00    0.90607   0.88172   17.983
 4274.00    0.89835   0.88384   17.996
 4275.00    0.89485   0.88974   18.212
 4276.00    0.89343   0.89776   18.078
 4277.00    0.89242   0.90592   17.940
 4278.00    0.89104   0.91246   18.414
 4279.00    0.88980   0.91638   19.074
 4280.00    0.88919   0.91752   18.961
 4281.00    0.88770   0.91641   18.190
 4282.00    0.88466   0.91383   17.464
 4283.00    0.88456   0.91039   16.999
 4284.00    0.89138   0.90624   16.819
 4285.00    0.90054   0.90121   17.160
 4286.00    0.90471   0.89523   18.079
 4287.00    0.90241   0.88863   -2.000
 4288.00    0.89575   0.88222   -2.000
 4289.00    0.88663   0.87703   -2.000
 4290.00    0.87810   0.87400   -2.000
 4291.00    0.87587   0.87344   -2.000
 4292.00    0.88175   0.87472   -2.000
 4293.00    0.88767   0.87641   -2.000
 4294.00    0.88572   0.87674   -2.000
 4295.00    0.87778   0.87420   -2.000
 4296.00    0.86857   0.86815   -2.000
 4297.00    0.85867   0.85896   -2.000
 4298.00    0.84739   0.84777   -2.000
 4299.00    0.83554   0.83633   -2.000
 4300.00    0.82504   0.82641   -2.000
 4301.00    0.81818   0.81922   -2.000
 4302.00    0.81651   0.81510   18.534
 4303.00    0.81998   0.81345   18.460
 4304.00    0.82718   0.81308   18.148
 4305.00    0.83568   0.81292   18.069
 4306.00    0.84274   0.81242   18.284
 4307.00    0.84602   0.81179   18.421
 4308.00    0.84503   0.81188   18.316
 4309.00    0.84167   0.81369   18.316
 4310.00    0.83877   0.81798   18.603
 4311.00    0.83936   0.82517   18.891
 4312.00    0.84728   0.83528   18.973
 4313.00    0.86649   0.84789   18.981
 4314.00    0.89551   0.86228   18.932
 4315.00    0.92610   0.87736   18.614
 4316.00    0.94990   0.89158   18.227
 4317.00    0.96182   0.90314   18.369
 4318.00    0.96124   0.91036   19.112
 4319.00    0.95135   0.91201   19.762
 4320.00    0.93495   0.90757   19.828
 4321.00    0.91308   0.89751   19.552
 4322.00    0.88642   0.88331   19.361
 4323.00    0.85649   0.86738   19.527
 4324.00    0.82770   0.85239   19.975
 4325.00    0.80637   0.84065   20.312
 4326.00    0.79524   0.83352   20.270
 4327.00    0.79297   0.83097   19.911
 4328.00    0.79838   0.83151   19.508
 4329.00    0.80997   0.83275   19.333
 4330.00    0.82107   0.83224    0.000
 4331.00    0.82228   0.82808    0.000
 4332.00    0.81180   0.81890    0.000
 4333.00    0.79421   0.80370    0.000
 4334.00    0.77084   0.78192    0.000
 4335.00    0.74177   0.75338    0.000
 4336.00    0.71597   0.71882    0.000
 4337.00    0.70912   0.68088    0.000
 4338.00    0.73353   0.64408    0.000
 4339.00    0.79120   0.61356    0.000
 4340.00    0.86467   0.59416    0.000
 4341.00    0.92433   0.58915    0.000
 4342.00    0.94580   0.59891    0.000
 4343.00    0.92011   0.62106    0.000
 4344.00    0.86473   0.65151    0.000
 4345.00    0.80984   0.68554    0.000
 4346.00    0.77249   0.71867    0.000
 4347.00    0.75631   0.74748    0.000
 4348.00    0.75789   0.77029    0.000
 4349.00    0.77042   0.78714    0.000
 4350.00    0.78764   0.79918    0.000
 4351.00    0.80485   0.80833   20.013
 4352.00    0.81957   0.81688   20.307
 4353.00    0.83192   0.82650   20.174
 4354.00    0.84485   0.83768   19.645
 4355.00    0.86079   0.84991   19.110
 4356.00    0.87803   0.86224   18.909
 4357.00    0.89362   0.87370   19.082
 4358.00    0.90678   0.88375   19.168
 4359.00    0.91721   0.89248   18.877
 4360.00    0.92303   0.90038   18.747
 4361.00    0.92411   0.90784   19.241
 4362.00    0.92491   0.91473   19.945
 4363.00    0.92913   0.92041   20.201
 4364.00    0.93495   0.92419   19.990
 4365.00    0.93849   0.92567   19.680
 4366.00    0.93720   0.92488   19.587
 4367.00    0.93002   0.92240   19.798
 4368.00    0.91742   0.91906   20.095
 4369.00    0.90194   0.91550   20.227
 4370.00    0.88797   0.91192   20.149
 4371.00    0.87802   0.90832   19.956
 4372.00    0.87063   0.90488   19.791
 4373.00    0.86492   0.90209   19.731
 4374.00    0.86299   0.90061   19.757
 4375.00    0.86632   0.90095   19.891
 4376.00    0.87365   0.90311   20.228
 4377.00    0.88233   0.90632   20.598
 4378.00    0.88924   0.90882   20.490
 4379.00    0.89152   0.90831   19.938
 4380.00    0.88707   0.90320   19.694
 4381.00    0.87568   0.89359   20.010
 4382.00    0.85914   0.88123   20.354
 4383.00    0.83945   0.86864   20.326
 4384.00    0.81841   0.85847   20.116
 4385.00    0.79983   0.85277   20.115
 4386.00    0.78913   0.85225   20.629
 4387.00    0.78813   0.85625   21.442
 4388.00    0.79432   0.86336   21.745
 4389.00    0.80633   0.87193   21.316
 4390.00    0.82444   0.88042   20.814
 4391.00    0.84491   0.88781   20.622
 4392.00    0.86064   0.89387   20.662
 4393.00    0.87001   0.89897   20.817
 4394.00    0.87698   0.90350   20.998
 4395.00    0.88241   0.90747   20.995
 4396.00    0.88329   0.91063   20.618
 4397.00    0.87856   0.91273   20.201
 4398.00    0.87011   0.91376   20.307
 4399.00    0.86086   0.91359   20.900
 4400.00    0.85339   0.91190   21.391
 4401.00    0.84798   0.90871   21.418
 4402.00    0.84288   0.90477   21.101
 4403.00    0.83632   0.90091   20.848
 4404.00    0.82788   0.89767   20.992
 4405.00    0.82035   0.89573   21.285
 4406.00    0.81784   0.89591   21.202
 4407.00    0.82112   0.89862   20.903
 4408.00    0.82832   0.90361   20.904
 4409.00    0.83797   0.91007   21.185
 4410.00    0.84939   0.91659   21.373
 4411.00    0.86219   0.92139   21.358
 4412.00    0.87508   0.92329   21.273
 4413.00    0.88428   0.92215   21.209
 4414.00    0.88702   0.91885   21.157
 4415.00    0.88704   0.91513   20.998
 4416.00    0.89057   0.91281   20.663
 4417.00    0.89931   0.91286   20.345
 4418.00    0.91141   0.91525   20.285
 4419.00    0.92431   0.91913   20.525
 4420.00    0.93537   0.92334   20.943
 4421.00    0.94240   0.92686   21.298
 4422.00    0.94455   0.92900   21.370
 4423.00    0.94316   0.92963   21.158
 4424.00    0.93928   0.92926   20.821
 4425.00    0.93118   0.92858   20.542
 4426.00    0.91802   0.92784   20.460
 4427.00    0.90369   0.92699   20.636
 4428.00    0.89291   0.92612   21.031
 4429.00    0.88718   0.92511   21.470
 4430.00    0.88614   0.92345   21.702
 4431.00    0.88893   0.92086   21.524
 4432.00    0.89332   0.91765   21.031
 4433.00    0.89534   0.91468   20.669
 4434.00    0.89349   0.91292   20.681
 4435.00    0.89156   0.91308   20.829
 4436.00    0.89371   0.91533   20.822
 4437.00    0.90077   0.91902   20.648
 4438.00    0.91128   0.92274   20.421
 4439.00    0.92239   0.92507   20.228
 4440.00    0.93041   0.92531   20.038
 4441.00    0.93185   0.92385   19.702
 4442.00    0.92812   0.92182   19.274
 4443.00    0.92665   0.92035   19.049
 4444.00    0.93119   0.92033   18.996
 4445.00    0.93764   0.92224   18.633
 4446.00    0.94258   0.92559   17.884
 4447.00    0.94652   0.92916   17.284
 4448.00    0.94686   0.93193   17.203
 4449.00    0.93685   0.93316   17.672
 4450.00    0.91784   0.93219   18.447
 4451.00    0.90125   0.92877   18.999
 4452.00    0.89166   0.92333   19.095
 4453.00    0.88287   0.91697   19.069
 4454.00    0.87245   0.91053   19.167
 4455.00    0.86522   0.90454   19.325
 4456.00    0.86314   0.89956   19.412
 4457.00    0.86331   0.89598   19.359
 4458.00    0.86489   0.89367   19.282
 4459.00    0.86949   0.89266   19.406
 4460.00    0.87431   0.89322   19.746
 4461.00    0.87325   0.89508    0.000
 4462.00    0.86731   0.89772    0.000
 4463.00    0.86400   0.90065    0.000
 4464.00    0.86644   0.90328    0.000
 4465.00    0.87197   0.90479    0.000
 4466.00    0.87706   0.90460    0.000
 4467.00    0.87978   0.90274    0.000
 4468.00    0.88237   0.89996    0.000
 4469.00    0.88944   0.89769    0.000
 4470.00    0.90233   0.89754    0.000
 4471.00    0.91864   0.90044    0.000
 4472.00    0.93410   0.90637    0.000
 4473.00    0.94460   0.91466    0.000
 4474.00    0.94909   0.92405    0.000
 4475.00    0.94843   0.93262    0.000
 4476.00    0.94212   0.93825    0.000
 4477.00    0.92996   0.93947    0.000
 4478.00    0.91607   0.93617    0.000
 4479.00    0.90559   0.93002    0.000
 4480.00    0.89843   0.92353    0.000
 4481.00    0.89350   0.91888    0.000
 4482.00    0.89648   0.91752   20.554
 4483.00    0.91207   0.91971   20.942
 4484.00    0.93154   0.92449   20.860
 4485.00    0.94277   0.92992   20.227
 4486.00    0.94573   0.93421   19.635
 4487.00    0.94531   0.93637   19.617
 4488.00    0.94010   0.93634   20.041
 4489.00    0.92765   0.93472   20.472
 4490.00    0.91233   0.93241   20.656
 4491.00    0.90089   0.93013   20.632
 4492.00    0.89672   0.92846   20.719
 4493.00    0.90039   0.92773   21.148
 4494.00    0.91095   0.92802   21.711
 4495.00    0.92702   0.92938   22.009
 4496.00    0.94754   0.93162   21.854
 4497.00    0.96933   0.93431   21.341
 4498.00    0.98546   0.93717   20.773
 4499.00    0.99057   0.94060   20.391
 4500.00    0.98534   0.94499   20.231
 4501.00    0.97447   0.95003   20.247
 4502.00    0.96429   0.95517   20.391
 4503.00    0.96014   0.95997   20.683
 4504.00    0.96424   0.96390   21.227
 4505.00    0.97461   0.96661   21.837
 4506.00    0.98517   0.96811   21.831
 4507.00    0.99121   0.96857   21.114
 4508.00    0.99236   0.96796   20.594
 4509.00    0.98910   0.96622   20.656
 4510.00    0.98088   0.96365   20.710
 4511.00    0.96903   0.96051   20.441
 4512.00    0.95766   0.95693   20.337
 4513.00    0.94935   0.95320   20.561
 4514.00    0.94328   0.94949   20.593
 4515.00    0.93798   0.94597   20.379
 4516.00    0.93275   0.94309   20.638
 4517.00    0.92759   0.94120   21.459
 4518.00    0.92296   0.94017   21.863
 4519.00    0.91915   0.93923   21.434
 4520.00    0.91598   0.93776   20.952
 4521.00    0.91305   0.93557   20.848
 4522.00    0.90973   0.93227   20.877
 4523.00    0.90477   0.92764   20.797
 4524.00    0.89726   0.92188   20.616
 4525.00    0.89020   0.91529   20.596
 4526.00    0.88931   0.90850   21.020
 4527.00    0.89507   0.90236   21.429
 4528.00    0.90327   0.89764   20.989
 4529.00    0.91504   0.89468   20.746
 4530.00    0.93242   0.89297   22.383
 4531.00    0.93717   0.89206   22.791
 4532.00    0.90379   0.89215   17.340
 4533.00    0.84968   0.89382   12.545
 4534.00    0.82049   0.89752   10.993
 4535.00    0.82071   0.90296   11.252
 4536.00    0.82294   0.90933   11.690
 4537.00    0.83008   0.91582   11.632
 4538.00    0.86260   0.92166   11.471
 4539.00    0.89975   0.92654   11.397
 4540.00    0.90172   0.93011   11.321
 4541.00    0.88016   0.93176   11.303
 4542.00    0.87837   0.93138   11.453
 4543.00    0.90675   0.92967   11.591
 4544.00    0.94606   0.92736   11.450
 4545.00    0.97597   0.92450   11.196
 4546.00    0.98409   0.92077   11.147
 4547.00    0.97209   0.91655   11.258
 4548.00    0.95009   0.91264   11.318
 4549.00    0.92633   0.90930   11.344
 4550.00    0.90621   0.90665    0.000
 4551.00    0.89320   0.90479    0.000
 4552.00    0.89002   0.90374    0.000
 4553.00    0.89967   0.90392    0.000
 4554.00    0.92089   0.90597    0.000
 4555.00    0.94282   0.90986    0.000
 4556.00    0.95347   0.91487    0.000
 4557.00    0.95035   0.92051    0.000
 4558.00    0.93841   0.92649    0.000
 4559.00    0.92602   0.93201    0.000
 4560.00    0.92206   0.93582    0.000
 4561.00    0.93261   0.93725    0.000
 4562.00    0.95396   0.93654    0.000
 4563.00    0.96766   0.93473    0.000
 4564.00    0.95716   0.93310    0.000
 4565.00    0.92340   0.93244    0.000
 4566.00    0.88340   0.93284    0.000
 4567.00    0.86437   0.93391    0.000
 4568.00    0.87386   0.93493    0.000
 4569.00    0.88219   0.93558    0.000
 4570.00    0.87097   0.93614    0.000
 4571.00    0.86463   0.93661    0.000
 4572.00    0.88483   0.93674    0.000
 4573.00    0.91991   0.93673    0.000
 4574.00    0.94690   0.93685    0.000
 4575.00    0.94991   0.93683    0.000
 4576.00    0.93452   0.93608    0.000
 4577.00    0.92913   0.93408    0.000
 4578.00    0.94392   0.93062    0.000
 4579.00    0.95454   0.92608    0.000
 4580.00    0.94346   0.92125    0.000
 4581.00    0.91869   0.91687    0.000
 4582.00    0.89219   0.91359    0.000
 4583.00    0.87000   0.91191    0.000
 4584.00    0.85911   0.91207    0.000
 4585.00    0.86755   0.91397    0.000
 4586.00    0.88935   0.91704    0.000
 4587.00    0.90534   0.92035    0.000
 4588.00    0.91305   0.92309    0.000
 4589.00    0.92827   0.92479    0.000
 4590.00    0.94450   0.92537    0.000
 4591.00    0.93347   0.92502    0.000
 4592.00    0.90190   0.92398    0.000
 4593.00    0.89124   0.92263    0.000
 4594.00    0.90960   0.92154    0.000
 4595.00    0.92740   0.92110    0.000
 4596.00    0.93489   0.92138    0.000
 4597.00    0.94570   0.92204    0.000
 4598.00    0.95458   0.92261    0.000
 4599.00    0.94123   0.92304    0.000
 4600.00    0.91333   0.92355    0.000
 4601.00    0.90083   0.92423    0.000
 4602.00    0.91238   0.92513    0.000
 4603.00    0.93302   0.92640    0.000
 4604.00    0.94532   0.92839    0.000
 4605.00    0.93860   0.93141    0.000
 4606.00    0.91736   0.93536    0.000
 4607.00    0.89679   0.93956    0.000
 4608.00    0.88971   0.94323    0.000
 4609.00    0.90178   0.94593    0.000
 4610.00    0.92790   0.94755    0.000
 4611.00    0.95372   0.94812    0.000
 4612.00    0.96026   0.94779    0.000
 4613.00    0.93830   0.94667    0.000
 4614.00    0.90964   0.94499    0.000
 4615.00    0.90500   0.94325    0.000
 4616.00    0.92493   0.94163    0.000
 4617.00    0.95043   0.94031    0.000
 4618.00    0.96744   0.93978    0.000
 4619.00    0.97014   0.94006    0.000
 4620.00    0.96063   0.94082    0.000
 4621.00    0.94821   0.94204    0.000
 4622.00    0.94749   0.94339    0.000
 4623.00    0.96367   0.94444    0.000
 4624.00    0.97735   0.94516    0.000
 4625.00    0.96928   0.94528    0.000
 4626.00    0.94864   0.94427    0.000
 4627.00    0.93508   0.94246    0.000
 4628.00    0.93652   0.94076    0.000
 4629.00    0.94645   0.93937    0.000
 4630.00    0.94575   0.93794    0.000
 4631.00    0.92741   0.93626    0.000
 4632.00    0.91480   0.93441    0.000
 4633.00    0.92249   0.93252    0.000
 4634.00    0.92630   0.93062    0.000
 4635.00    0.90695   0.92848    0.000
 4636.00    0.88292   0.92604    0.000
 4637.00    0.87551   0.92379    0.000
 4638.00    0.88284   0.92240    0.000
 4639.00    0.89558   0.92207    0.000
 4640.00    0.90903   0.92222    0.000
 4641.00    0.92074   0.92222    0.000
 4642.00    0.92866   0.92172    0.000
 4643.00    0.93195   0.92018    0.000
 4644.00    0.93127   0.91726    0.000
 4645.00    0.92734   0.91350    0.000
 4646.00    0.92030   0.90977    0.000
 4647.00    0.91149   0.90681    0.000
 4648.00    0.90371   0.90529    0.000
 4649.00    0.89772   0.90545    0.000
 4650.00    0.89192   0.90712    0.000
 4651.00    0.88925   0.90978    0.000
 4652.00    0.89687   0.91251    0.000
 4653.00    0.91023   0.91482    0.000
 4654.00    0.91258   0.91684    0.000
 4655.00    0.90117   0.91911    0.000
 4656.00    0.89141   0.92222    0.000
 4657.00    0.89114   0.92603    0.000
 4658.00    0.89392   0.92975    0.000
 4659.00    0.89162   0.93269    0.000
 4660.00    0.88045   0.93422    0.000
 4661.00    0.86497   0.93374    0.000
 4662.00    0.85539   0.93103    0.000
 4663.00    0.85515   0.92579    0.000
 4664.00    0.86082   0.91807    0.000
 4665.00    0.87285   0.90924    0.000
 4666.00    0.89338   0.90153    0.000
 4667.00    0.91215   0.89640    0.000
 4668.00    0.91478   0.89431    0.000
 4669.00    0.91203   0.89505    0.000
 4670.00    0.92774   0.89786    0.000
 4671.00    0.95374   0.90227    0.000
 4672.00    0.96210   0.90797    0.000
 4673.00    0.95442   0.91391    0.000
 4674.00    0.95177   0.91885    0.000
 4675.00    0.95227   0.92199    0.000
 4676.00    0.94016   0.92299    0.000
 4677.00    0.91933   0.92232    0.000
 4678.00    0.90466   0.92072    0.000
 4679.00    0.89540   0.91866    0.000
 4680.00    0.88419   0.91663    0.000
 4681.00    0.87935   0.91505    0.000
 4682.00    0.89157   0.91407    0.000
 4683.00    0.90853   0.91385    0.000
 4684.00    0.91290   0.91439    0.000
 4685.00    0.91308   0.91536    0.000
 4686.00    0.92375   0.91651    0.000
 4687.00    0.93469   0.91757    0.000
 4688.00    0.93007   0.91816    0.000
 4689.00    0.91718   0.91849    0.000
 4690.00    0.90776   0.91919    0.000
 4691.00    0.89310   0.92038    0.000
 4692.00    0.86556   0.92190    0.000
 4693.00    0.84369   0.92354    0.000
 4694.00    0.84621   0.92476    0.000
 4695.00    0.86384   0.92485    0.000
 4696.00    0.88022   0.92346    0.000
 4697.00    0.89411   0.92087    0.000
 4698.00    0.90722   0.91747    0.000
 4699.00    0.91237   0.91337    0.000
 4700.00    0.90368   0.90871    0.000
 4701.00    0.88564   0.90425    0.000
 4702.00    0.86850   0.90111    0.000
 4703.00    0.86278   0.89964    0.000
 4704.00    0.87022   0.89900    0.000
 4705.00    0.87947   0.89838    0.000
 4706.00    0.88264   0.89785    0.000
 4707.00    0.88461   0.89793    0.000
 4708.00    0.88521   0.89898    0.000
 4709.00    0.87154   0.90054    0.000
 4710.00    0.84663   0.90176    0.000
 4711.00    0.83976   0.90270    0.000
 4712.00    0.86193   0.90403    0.000
 4713.00    0.88749   0.90631    0.000
 4714.00    0.89784   0.90963    0.000
 4715.00    0.90088   0.91349    0.000
 4716.00    0.90600   0.91732    0.000
 4717.00    0.91236   0.92149    0.000
 4718.00    0.91682   0.92607    0.000
 4719.00    0.91804   0.93037    0.000
 4720.00    0.91665   0.93362    0.000
 4721.00    0.91441   0.93559    0.000
 4722.00    0.91064   0.93641    0.000
 4723.00    0.90284   0.93603    0.000
 4724.00    0.89436   0.93391    0.000
 4725.00    0.89360   0.92977    0.000
 4726.00    0.90032   0.92445    0.000
 4727.00    0.90524   0.91911    0.000
 4728.00    0.90496   0.91404    0.000
 4729.00    0.90533   0.90956    0.000
 4730.00    0.91598   0.90643    0.000
 4731.00    0.94139   0.90515    0.000
 4732.00    0.96168   0.90583    0.000
 4733.00    0.94645   0.90779    0.000
 4734.00    0.90619   0.90973    0.000
 4735.00    0.88151   0.91160    0.000
 4736.00    0.88151   0.91390    0.000
 4737.00    0.88489   0.91597    0.000
 4738.00    0.87992   0.91736    0.000
 4739.00    0.87042   0.91843    0.000
 4740.00    0.86719   0.91973    0.000
 4741.00    0.87893   0.92165    0.000
 4742.00    0.89835   0.92367    0.000
 4743.00    0.91012   0.92522    0.000
 4744.00    0.91134   0.92676    0.000
 4745.00    0.90767   0.92848    0.000
 4746.00    0.89967   0.92998    0.000
 4747.00    0.88681   0.93099    0.000
 4748.00    0.87776   0.93140    0.000
 4749.00    0.88016   0.93114    0.000
 4750.00    0.88295   0.93007    0.000
 4751.00    0.87279   0.92808    0.000
 4752.00    0.86109   0.92538    0.000
 4753.00    0.86566   0.92251    0.000
 4754.00    0.88135   0.91967    0.000
 4755.00    0.89221   0.91710    0.000
 4756.00    0.89208   0.91514    0.000
 4757.00    0.88485   0.91382    0.000
 4758.00    0.88106   0.91268    0.000
 4759.00    0.88912   0.91091    0.000
 4760.00    0.90662   0.90806    0.000
 4761.00    0.92720   0.90461   13.537
 4762.00    0.94840   0.90089   13.573
 4763.00    0.96833   0.89710   13.413
 4764.00    0.98182   0.89389   13.274
 4765.00    0.98260   0.89207   13.363
 4766.00    0.96665   0.89225   13.548
 4767.00    0.93986   0.89450   13.634
 4768.00    0.92189   0.89783   13.645
 4769.00    0.92325   0.90122   13.673
 4770.00    0.92936   0.90460   13.738
 4771.00    0.92286   0.90819   13.832
 4772.00    0.90148   0.91176   13.958
 4773.00    0.87766   0.91473   14.097
 4774.00    0.87368   0.91685   14.189
 4775.00    0.89668   0.91860   14.174
 4776.00    0.92689   0.92010   14.031
 4777.00    0.94669   0.92082   13.839
 4778.00    0.95722   0.92052   13.762
 4779.00    0.96662   0.91932   13.851
 4780.00    0.98031   0.91729   13.979
 4781.00    0.98954   0.91457   14.039
 4782.00    0.97265   0.91175   14.053
 4783.00    0.93130   0.90909   14.087
 4784.00    0.89887   0.90636   14.191
 4785.00    0.89254   0.90405   14.304
 4786.00    0.89750   0.90247   14.275
 4787.00    0.89941   0.90159   14.121
 4788.00    0.89733   0.90183   14.052
 4789.00    0.89565   0.90312   14.086
 4790.00    0.89881   0.90539   14.019
 4791.00    0.90546   0.90894   13.875
 4792.00    0.90879   0.91320   13.914
 4793.00    0.90542   0.91726   14.134
 4794.00    0.89759   0.92048   14.233
 4795.00    0.88956   0.92231   14.131
 4796.00    0.88611   0.92251   14.047
 4797.00    0.89208   0.92139   14.089
 4798.00    0.90989   0.91951   14.198
 4799.00    0.93325   0.91757   14.303
 4800.00    0.95052   0.91601   14.355
 4801.00    0.95812   0.91469   14.318
 4802.00    0.95942   0.91340   14.191
 4803.00    0.95252   0.91220   14.087
 4804.00    0.93317   0.91138   14.118
 4805.00    0.90861   0.91048   14.131
 4806.00    0.89032   0.90906   13.902
 4807.00    0.87142   0.90759   13.693
 4808.00    0.83971   0.90665   13.925
 4809.00    0.81378   0.90646   14.432
 4810.00    0.82465   0.90691   14.627
 4811.00    0.86732   0.90786   14.355
 4812.00    0.91204   0.90931   13.943
 4813.00    0.94110   0.91120   13.709
 4814.00    0.95127   0.91325   13.777
 4815.00    0.94641   0.91529   13.929
 4816.00    0.93460   0.91708   13.865
 4817.00    0.92547   0.91831   13.701
 4818.00    0.92419   0.91863   13.712
 4819.00    0.92415   0.91790   13.880
 4820.00    0.91760   0.91577   14.034
 4821.00    0.91108   0.91181   14.115
 4822.00    0.91613   0.90728   14.157
 4823.00    0.93480   0.90367   14.200
 4824.00    0.95960   0.90097   14.256
 4825.00    0.97660   0.89865   14.273
 4826.00    0.97636   0.89655   14.201
 4827.00    0.96494   0.89533   14.066
 4828.00    0.95293   0.89531   13.955
 4829.00    0.94285   0.89519   13.972
 4830.00    0.93079   0.89413   14.143
 4831.00    0.91040   0.89299   14.331
 4832.00    0.88399   0.89226   14.355
 4833.00    0.86954   0.89161   14.163
 4834.00    0.87374   0.89063   13.907
 4835.00    0.87252   0.88934   13.913
 4836.00    0.84884   0.88770   14.296
 4837.00    0.82090   0.88525   14.695
 4838.00    0.81235   0.88195   14.739
 4839.00    0.82857   0.87852   14.533
 4840.00    0.86129   0.87518   14.283
 4841.00    0.89431   0.87167   14.011
 4842.00    0.91279   0.86843   13.760
 4843.00    0.90972   0.86597   13.683
 4844.00    0.88912   0.86375   13.891
 4845.00    0.86556   0.86063   14.357
 4846.00    0.85149   0.85600   14.819
 4847.00    0.84987   0.85063   14.798
 4848.00    0.85450   0.84498    0.000
 4849.00    0.85280   0.83797    0.000
 4850.00    0.83759   0.82899    0.000
 4851.00    0.81260   0.81838    0.000
 4852.00    0.78968   0.80585    0.000
 4853.00    0.78301   0.79069    0.000
 4854.00    0.79051   0.77305    0.000
 4855.00    0.79534   0.75333    0.000
 4856.00    0.80460   0.73114    0.000
 4857.00    0.85430   0.70608    0.000
 4858.00    0.96635   0.67892    0.000
 4859.00    1.13450   0.65310    0.000
 4860.00    1.33521   0.63373    0.000
 4861.00    1.52925   0.62305    0.000
 4862.00    1.65359   0.62034    0.000
 4863.00    1.64121   0.62571    0.000
 4864.00    1.48881   0.63964    0.000
 4865.00    1.25928   0.66096    0.000
 4866.00    1.02632   0.68589    0.000
 4867.00    0.85058   0.70982    0.000
 4868.00    0.76127   0.73002    0.000
 4869.00    0.75307   0.74604    0.000
 4870.00    0.79176   0.75918    0.000
 4871.00    0.83125   0.77096    0.000
 4872.00    0.84933   0.78167    0.000
 4873.00    0.84661   0.79120    0.000
 4874.00    0.82534   0.80039    0.000
 4875.00    0.79025   0.81042   14.692
 4876.00    0.75974   0.82109   14.955
 4877.00    0.75633   0.83137   15.008
 4878.00    0.78416   0.84005   14.820
 4879.00    0.82845   0.84646   14.598
 4880.00    0.86318   0.85118   14.474
 4881.00    0.86587   0.85467   14.494
 4882.00    0.83950   0.85669   14.688
 4883.00    0.80458   0.85671   15.034
 4884.00    0.78072   0.85523   15.355
 4885.00    0.77848   0.85377   15.440
 4886.00    0.79219   0.85291   15.306
 4887.00    0.80590   0.85206   15.120
 4888.00    0.80406   0.85095   15.010
 4889.00    0.78591   0.85060   15.001
 4890.00    0.77981   0.85301   14.982
 4891.00    0.81038   0.85840   14.884
 4892.00    0.85924   0.86539   14.872
 4893.00    0.89587   0.87325   15.026
 4894.00    0.91601   0.88170   14.982
 4895.00    0.92556   0.89052   14.530
 4896.00    0.92060   0.89811   14.166
 4897.00    0.90313   0.90252   14.279
 4898.00    0.89554   0.90396   14.576
 4899.00    0.91065   0.90378   14.608
 4900.00    0.92646   0.90251   14.357
 4901.00    0.92149   0.90027   14.041
 4902.00    0.90460   0.89797   13.828
 4903.00    0.89032   0.89689   13.799
 4904.00    0.87859   0.89707   13.932
 4905.00    0.86823   0.89708   14.098
 4906.00    0.86646   0.89605   14.076
 4907.00    0.87537   0.89436   13.799
 4908.00    0.88416   0.89234   13.482
 4909.00    0.88461   0.89024   13.328
 4910.00    0.88001   0.88843   13.383
 4911.00    0.87372   0.88703   13.615
 4912.00    0.86304   0.88613   13.937
 4913.00    0.84716   0.88587   14.235
 4914.00    0.83140   0.88566   14.401
 4915.00    0.82322   0.88401   14.449
 4916.00    0.82862   0.87933   14.521
 4917.00    0.84574   0.87174   14.598
 4918.00    0.86347   0.86273   14.457
 4919.00    0.87080   0.85379   14.160
 4920.00    0.86193   0.84650   14.106
 4921.00    0.83927   0.84161   14.396
 4922.00    0.81248   0.83989   14.720
 4923.00    0.79007   0.84246   14.926
 4924.00    0.77765   0.84953   15.190
 4925.00    0.78484   0.85930   15.471
 4926.00    0.82166   0.86931   15.420
 4927.00    0.87695   0.87858   15.077
 4928.00    0.91959   0.88683   14.882
 4929.00    0.92907   0.89329   14.980
 4930.00    0.90608   0.89647   15.159
 4931.00    0.87212   0.89577   15.191
 4932.00    0.85659   0.89271   14.998
 4933.00    0.86096   0.88910   14.786
 4934.00    0.86257   0.88526   14.866
 4935.00    0.85294   0.88054   15.215
 4936.00    0.84079   0.87538   15.518
 4937.00    0.83252   0.87213   15.610
 4938.00    0.82837   0.87239   15.575
 4939.00    0.82583   0.87487   15.548
 4940.00    0.82418   0.87783    0.000
 4941.00    0.83231   0.88167    0.000
 4942.00    0.85948   0.88704    0.000
 4943.00    0.89371   0.89300    0.000
 4944.00    0.91388   0.89806    0.000
 4945.00    0.92084   0.90182    0.000
 4946.00    0.93016   0.90486    0.000
 4947.00    0.94819   0.90709    0.000
 4948.00    0.96982   0.90827    0.000
 4949.00    0.98266   0.90890    0.000
 4950.00    0.97638   0.90875    0.000
 4951.00    0.95572   0.90711    0.000
 4952.00    0.93240   0.90410    0.000
 4953.00    0.91081   0.90008    0.000
 4954.00    0.89578   0.89449    0.000
 4955.00    0.90513   0.88682    0.000
 4956.00    0.95501   0.87973    0.000
 4957.00    1.03944   0.87634    0.000
 4958.00    1.13886   0.87571    0.000
 4959.00    1.23335   0.87574    0.000
 4960.00    1.30117   0.87653    0.000
 4961.00    1.31669   0.87988    0.000
 4962.00    1.26630   0.88458    0.000
 4963.00    1.16475   0.88694    0.000
 4964.00    1.04602   0.88653    0.000
 4965.00    0.95063   0.88525    0.000
 4966.00    0.90289   0.88390    0.000
 4967.00    0.89311   0.88243    0.000
 4968.00    0.89721   0.88120    0.000
 4969.00    0.89623   0.88133    0.000
 4970.00    0.88540   0.88303    0.000
 4971.00    0.87757   0.88536    0.000
 4972.00    0.88146   0.88790    0.000
 4973.00    0.88742   0.89014    0.000
 4974.00    0.88769   0.89143    0.000
 4975.00    0.88914   0.89115    0.000
 4976.00    0.89722   0.88872    0.000
 4977.00    0.90615   0.88452    0.000
 4978.00    0.90822   0.87894    0.000
 4979.00    0.89983   0.87190    0.000
 4980.00    0.88021   0.86367    0.000
 4981.00    0.85117   0.85563    0.000
 4982.00    0.82035   0.84973    0.000
 4983.00    0.80086   0.84642    0.000
 4984.00    0.80021   0.84530    0.000
 4985.00    0.81594   0.84659    0.000
 4986.00    0.84184   0.85033    0.000
 4987.00    0.87117   0.85533    0.000
 4988.00    0.89677   0.86006    0.000
 4989.00    0.91234   0.86410    0.000
 4990.00    0.91715   0.86756    0.000
 4991.00    0.91589   0.86972    0.000
 4992.00    0.91030   0.87050    0.000
 4993.00    0.89853   0.87102    0.000
 4994.00    0.88433   0.87161    0.000
 4995.00    0.87644   0.87193    0.000
 4996.00    0.87572   0.87112    0.000
 4997.00    0.87410   0.86895    0.000
 4998.00    0.86528   0.86598    0.000
 4999.00    0.84893   0.86212    0.000
 5000.00    0.83264   0.85768    0.000
 5001.00    0.83437   0.85341    0.000
 5002.00    0.88741   0.84938    0.000
 5003.00    1.02969   0.84557    0.000
 5004.00    1.27392   0.84244    0.000
 5005.00    1.59489   0.84100    0.000
 5006.00    1.91923   0.84149    0.000
 5007.00    2.15038   0.84234    0.000
 5008.00    2.22817   0.84225    0.000
 5009.00    2.13948   0.84165    0.000
 5010.00    1.91167   0.84086    0.000
 5011.00    1.60496   0.83894    0.000
 5012.00    1.29930   0.83516    0.000
 5013.00    1.06558   0.83061    0.000
 5014.00    0.91981   0.82678    0.000
 5015.00    0.83989   0.82367    0.000
 5016.00    0.80748   0.82142    0.000
 5017.00    0.80816   0.82112    0.000
 5018.00    0.82081   0.82342    0.000
 5019.00    0.82671   0.82708    0.000
 5020.00    0.82481   0.83029    0.000
 5021.00    0.82353   0.83365    0.000
 5022.00    0.82648   0.83838    0.000
 5023.00    0.83191   0.84345    0.000
 5024.00    0.83489   0.84709    0.000
 5025.00    0.83212   0.84935    0.000
 5026.00    0.82704   0.85191    0.000
 5027.00    0.82397   0.85529    0.000
 5028.00    0.82148   0.85832    0.000
 5029.00    0.81972   0.86048   16.877
 5030.00    0.82758   0.86237   17.010
 5031.00    0.84840   0.86482   16.856
 5032.00    0.86697   0.86665   16.593
 5033.00    0.86854   0.86560   16.494
 5034.00    0.85660   0.86200   16.606
 5035.00    0.84355   0.85770   16.823
 5036.00    0.84030   0.85269   16.946
 5037.00    0.84872   0.84590   16.845
 5038.00    0.85774   0.83778   16.605
 5039.00    0.85649   0.83089   16.451
 5040.00    0.84428   0.82788   16.644
 5041.00    0.82820   0.82841   17.101
 5042.00    0.81947   0.83085   17.185
 5043.00    0.82328   0.83484   16.718
 5044.00    0.83377   0.84083   16.485
 5045.00    0.84482   0.84786   16.822
 5046.00    0.85592   0.85313   17.088
 5047.00    0.86575   0.85531   16.878
 5048.00    0.86931   0.85593   16.693
 5049.00    0.86415   0.85556   16.861
 5050.00    0.85362   0.85418   17.092
 5051.00    0.84619   0.85330   17.078
 5052.00    0.85277   0.85434   16.814
 5053.00    0.87713   0.85682   16.433
 5054.00    0.91203   0.85971   16.076
 5055.00    0.94332   0.86331   15.867
 5056.00    0.95563   0.86773   15.870
 5057.00    0.94789   0.87158   15.950
 5058.00    0.93430   0.87394   15.832
 5059.00    0.92396   0.87542   15.597
 5060.00    0.91562   0.87632   15.640
 5061.00    0.90853   0.87575   15.992
 5062.00    0.90363   0.87271   16.250
 5063.00    0.89437   0.86831   16.261
 5064.00    0.86943   0.86436   16.271
 5065.00    0.83063   0.86076   16.421
 5066.00    0.79506   0.85659   16.634
 5067.00    0.78426   0.85277   16.739
 5068.00    0.81232   0.85115   16.573
 5069.00    0.86353   0.85114   16.143
 5070.00    0.90275   0.85053   15.639
 5071.00    0.91651   0.84975   15.354
 5072.00    0.91435   0.84995   15.490
 5073.00    0.90640   0.84983   15.783
 5074.00    0.89653   0.84817   15.732
 5075.00    0.87991   0.84611   15.485
 5076.00    0.85070   0.84424   15.546
 5077.00    0.81839   0.84082   15.825
 5078.00    0.80003   0.83605   15.862
 5079.00    0.79894   0.83265   15.662
 5080.00    0.80819   0.83111   15.556
 5081.00    0.82420   0.82987   15.617
 5082.00    0.84486   0.82934   15.739
 5083.00    0.86242   0.83173   15.897
 5084.00    0.86910   0.83644   16.094
 5085.00    0.86739   0.84105   16.200
 5086.00    0.86531   0.84514   16.137
 5087.00    0.86683   0.84969   16.182
 5088.00    0.87084   0.85416   16.612
 5089.00    0.87208   0.85741   17.163
 5090.00    0.86847   0.85968   17.372
 5091.00    0.86951   0.86164   17.324
 5092.00    0.88370   0.86274   17.316
 5093.00    0.90292   0.86203   17.284
 5094.00    0.91291   0.85977   17.116
 5095.00    0.90733   0.85655   17.037
 5096.00    0.88924   0.85229   17.231
 5097.00    0.87017   0.84718   17.459
 5098.00    0.86127   0.84267   17.429
 5099.00    0.86465   0.83998   17.245
 5100.00    0.87494   0.83873   17.126
 5101.00    0.88240   0.83808   17.118
 5102.00    0.88223   0.83825   17.157
 5103.00    0.88106   0.83942   17.160
 5104.00    0.88499   0.84029   17.124
 5105.00    0.89046   0.83970   17.182
 5106.00    0.89213   0.83835   17.378
 5107.00    0.88916   0.83733   17.512
 5108.00    0.88278   0.83668   17.409
 5109.00    0.87431   0.83652   17.134
 5110.00    0.86621   0.83770   16.870
 5111.00    0.86215   0.84043   16.791
 5112.00    0.86247   0.84383   16.922
 5113.00    0.86259   0.84745   17.090
 5114.00    0.86069   0.85147   17.126
 5115.00    0.86117   0.85529   16.988
 5116.00    0.86883   0.85792   16.697
 5117.00    0.88500   0.85892   16.273
 5118.00    0.90461   0.85823   15.665
 5119.00    0.91727   0.85603   14.818
 5120.00    0.91885   0.85242   14.003
 5121.00    0.91406   0.84718   13.654
 5122.00    0.90377   0.84086   13.788
 5123.00    0.88291   0.83482   14.022
 5124.00    0.85587   0.82984   14.237
 5125.00    0.83765   0.82578   14.746
 5126.00    0.83350   0.82264   15.618
 5127.00    0.83526   0.82103   16.424
 5128.00    0.83690   0.82119   16.858
 5129.00    0.83873   0.82263   17.087
 5130.00    0.84188   0.82465   17.317
 5131.00    0.84597   0.82675   17.579
 5132.00    0.84819   0.82898   17.689
 5133.00    0.84438   0.83147   17.422
 5134.00    0.83296   0.83338   17.006
 5135.00    0.81612   0.83357   16.914
 5136.00    0.79963   0.83226   17.145
 5137.00    0.79060   0.83030   17.312
 5138.00    0.79201   0.82824   17.268
 5139.00    0.80189   0.82599   17.155
 5140.00    0.81482   0.82311   17.049
 5141.00    0.82436   0.82023   16.940
 5142.00    0.82752   0.81895   16.871
 5143.00    0.82627   0.81918   16.884
 5144.00    0.82831   0.81880   16.834
 5145.00    0.84135   0.81764   16.558
 5146.00    0.86192   0.81756   16.250
 5147.00    0.87841   0.81845   16.221
 5148.00    0.88051   0.81857   16.469
 5149.00    0.86450   0.81778   16.788
 5150.00    0.83879   0.81734   17.029
 5151.00    0.81775   0.81780   17.145
 5152.00    0.81042   0.81869   17.172
 5153.00    0.81617   0.81988   17.174
 5154.00    0.82176   0.82223   17.184
 5155.00    0.81531   0.82597   17.187
 5156.00    0.80514   0.83015   17.128
 5157.00    0.80512   0.83397   16.952
 5158.00    0.81305   0.83728   16.654
 5159.00    0.82024   0.83927   16.330
 5160.00    0.82584   0.83844   16.193
 5161.00    0.83304   0.83436   16.353
 5162.00    0.84246   0.82765   16.600
 5163.00    0.84997   0.81831   16.709
 5164.00    0.84595   0.80584   16.808
 5165.00    0.82519   0.79101   17.066
 5166.00    0.79587   0.77597   17.344
 5167.00    0.76991   0.76292   17.573
 5168.00    0.75325   0.75294   18.077
 5169.00    0.74561   0.74547   18.598
 5170.00    0.74189   0.74003   17.527
 5171.00    0.73999   0.73894   15.029
 5172.00    0.74585   0.74437   13.284
 5173.00    0.76339   0.75369   12.805
 5174.00    0.78736   0.76276   12.745
 5175.00    0.80955   0.77213   12.448
 5176.00    0.82409   0.78349   12.117
 5177.00    0.82991   0.79366   12.012
 5178.00    0.83121   0.79858   12.041
 5179.00    0.83069   0.79881   12.068
 5180.00    0.82656   0.79593   12.083
 5181.00    0.81962   0.78946   12.145
 5182.00    0.81550   0.78109   12.305
 5183.00    0.81303   0.77558   12.450
 5184.00    0.80217   0.77436   12.334
 5185.00    0.78544   0.77507   12.296
 5186.00    0.78288   0.77754   13.321
 5187.00    0.80236   0.78400   15.825
 5188.00    0.82996   0.79315   18.063
 5189.00    0.85122   0.80006   18.069
 5190.00    0.86090   0.80280    0.000
 5191.00    0.86211   0.80444    0.000
 5192.00    0.86303   0.80696    0.000
 5193.00    0.86653   0.80832    0.000
 5194.00    0.86818   0.80808    0.000
 5195.00    0.86370   0.80935    0.000
 5196.00    0.85311   0.81289    0.000
 5197.00    0.84457   0.81657    0.000
 5198.00    0.84962   0.81956    0.000
 5199.00    0.86471   0.82204    0.000
 5200.00    0.87360   0.82328    0.000
 5201.00    0.87114   0.82275    0.000
 5202.00    0.86488   0.82018    0.000
 5203.00    0.85996   0.81524    0.000
 5204.00    0.85564   0.80918    0.000
 5205.00    0.84770   0.80386    0.000
 5206.00    0.83357   0.79933    0.000
 5207.00    0.82255   0.79567    0.000
 5208.00    0.82876   0.79490    0.000
 5209.00    0.85048   0.79756    0.000
 5210.00    0.87234   0.80198    0.000
 5211.00    0.87972   0.80737   17.030
 5212.00    0.86605   0.81372   17.100
 5213.00    0.84055   0.81968   17.363
 5214.00    0.82056   0.82419   17.646
 5215.00    0.81508   0.82795   17.742
 5216.00    0.82270   0.83143   17.555
 5217.00    0.83366   0.83410   17.273
 5218.00    0.83788   0.83582   17.154
 5219.00    0.83660   0.83730   17.203
 5220.00    0.83628   0.83822   17.257
 5221.00    0.83681   0.83720   17.155
 5222.00    0.83299   0.83386   16.917
 5223.00    0.81916   0.82887   16.896
 5224.00    0.79560   0.82245   17.312
 5225.00    0.77492   0.81529   17.685
 5226.00    0.76899   0.80985   17.504
 5227.00    0.77301   0.80731   17.303
 5228.00    0.77741   0.80650   17.607
 5229.00    0.78271   0.80735   17.799
 5230.00    0.79161   0.81069   17.261
 5231.00    0.79956   0.81495   16.726
 5232.00    0.80282   0.81844   16.896
 5233.00    0.80638   0.82175   17.432
 5234.00    0.81416   0.82541   17.712
 5235.00    0.82020   0.82899   17.674
 5236.00    0.81874   0.83266   17.548
 5237.00    0.81313   0.83678   17.461
 5238.00    0.81061   0.84112   17.475
 5239.00    0.81674   0.84525   17.638
 5240.00    0.83008   0.84843   17.873
 5241.00    0.84025   0.84999   17.907
 5242.00    0.84231   0.85051   17.667
 5243.00    0.84507   0.85062   17.476
 5244.00    0.85638   0.84914   17.512
 5245.00    0.87357   0.84533   17.560
 5246.00    0.88804   0.84128   17.526
 5247.00    0.89039   0.83822   17.667
 5248.00    0.88118   0.83441   17.955
 5249.00    0.87309   0.82982   17.837
 5250.00    0.86886   0.82726   17.285
 5251.00    0.85458   0.82720   17.049
 5252.00    0.82804   0.82746   17.350
 5253.00    0.80803   0.82791   17.581
 5254.00    0.80747   0.83012   17.453
 5255.00    0.82225   0.83369   17.415
 5256.00    0.84079   0.83649   17.588
 5257.00    0.85089   0.83754   17.514
 5258.00    0.84899   0.83723   17.137
 5259.00    0.84077   0.83500   16.968
 5260.00    0.82914   0.82961   17.192
 5261.00    0.81169   0.82135   17.516
 5262.00    0.78873   0.81170   17.603
 5263.00    0.76544   0.80115   17.335
 5264.00    0.74905   0.79015   16.980
 5265.00    0.74590   0.78115   16.922
 5266.00    0.75557   0.77549   16.918
 5267.00    0.77139   0.77092   16.338
 5268.00    0.78719   0.76710   15.440
 5269.00    0.79941   0.76763   14.981
 5270.00    0.80719   0.77224   15.010
 5271.00    0.81185   0.77668   15.047
 5272.00    0.81561   0.78139   14.774
 5273.00    0.81925   0.78905   14.249
 5274.00    0.81759   0.79791   13.863
 5275.00    0.80466   0.80585   13.964
 5276.00    0.78720   0.81339   14.303
 5277.00    0.77717   0.82001   14.324
 5278.00    0.77059   0.82470   14.179
 5279.00    0.75663   0.82821   14.424
 5280.00    0.74340   0.83101   14.987
 5281.00    0.74958   0.83227   15.343
 5282.00    0.78010   0.83238   15.372
 5283.00    0.82337   0.83346   15.332
 5284.00    0.85505   0.83656   15.320
 5285.00    0.85595   0.84043   15.313
 5286.00    0.83830   0.84428   15.398
 5287.00    0.82989   0.84889   15.610
 5288.00    0.84454   0.85399   15.660
 5289.00    0.87793   0.85777   15.327
 5290.00    0.90911   0.85929   15.030
 5291.00    0.91624   0.85896   15.207
 5292.00    0.89647   0.85720   15.645
 5293.00    0.86172   0.85405   15.896
 5294.00    0.82975   0.84933   15.968
 5295.00    0.81373   0.84323   16.092
 5296.00    0.81213   0.83688   16.281
 5297.00    0.81616   0.83196   16.398
 5298.00    0.81901   0.82898   16.315
 5299.00    0.81690   0.82708   16.060
 5300.00    0.80940   0.82660   15.898
 5301.00    0.80004   0.82894   16.018
 5302.00    0.79610   0.83350   16.307
 5303.00    0.80157   0.83823   16.526
 5304.00    0.81195   0.84251   16.511
 5305.00    0.82272   0.84674   16.323
 5306.00    0.83569   0.85069   16.265
 5307.00    0.85143   0.85381   16.500
 5308.00    0.86408   0.85583   16.813
 5309.00    0.86827   0.85680   16.959
 5310.00    0.86405   0.85700   16.966
 5311.00    0.85454   0.85649   16.972
 5312.00    0.84371   0.85527   17.083
 5313.00    0.83373   0.85342   17.282
 5314.00    0.82422   0.85075   17.416
 5315.00    0.81672   0.84754   17.446
 5316.00    0.81611   0.84507   17.552
 5317.00    0.82359   0.84330   17.747
 5318.00    0.83360   0.84097   17.743
 5319.00    0.83785   0.83835   17.450
 5320.00    0.82874   0.83650   17.164
 5321.00    0.80491   0.83420   17.142
 5322.00    0.77327   0.82959   17.445
 5323.00    0.74611   0.82362   17.915
 5324.00    0.73695   0.81834   18.198
 5325.00    0.74935   0.81281   18.189
 5326.00    0.77522   0.80566   18.137
 5327.00    0.80633   0.79970   18.113
 5328.00    0.83656   0.79825   17.943
 5329.00    0.85341   0.79959   17.708
 5330.00    0.84291   0.80131   17.726
 5331.00    0.81580   0.80504   17.987
 5332.00    0.80350   0.81194   18.108
 5333.00    0.81780   0.81932   17.865
 5334.00    0.84487   0.82422   17.399
 5335.00    0.86624   0.82695   17.112
 5336.00    0.86854   0.82917   17.341
 5337.00    0.85185   0.83046   17.705
 5338.00    0.82696   0.82930   17.411
 5339.00    0.80232   0.82685   16.822
 5340.00    0.78175   0.82574   16.919
 5341.00    0.76720   0.82574   17.608
 5342.00    0.76065   0.82541   17.954
 5343.00    0.76676   0.82539   17.718
 5344.00    0.78878   0.82651   17.452
 5345.00    0.81938   0.82822   17.439
 5346.00    0.84441   0.82971   17.610
 5347.00    0.85428   0.83059   17.735
 5348.00    0.84837   0.83172   17.609
 5349.00    0.83877   0.83435   17.370
 5350.00    0.84134   0.83772   17.286
 5351.00    0.85962   0.84073   17.363
 5352.00    0.88460   0.84441   17.460
 5353.00    0.89933   0.84941   17.567
 5354.00    0.89235   0.85406   17.714
 5355.00    0.87540   0.85728   17.779
 5356.00    0.86693   0.85977   17.651
 5357.00    0.86640   0.86157   17.492
 5358.00    0.86400   0.86179   17.513
 5359.00    0.85770   0.86012   17.674
 5360.00    0.85189   0.85699   17.822
 5361.00    0.85242   0.85303   17.898
 5362.00    0.86049   0.84852   17.900
 5363.00    0.86710   0.84328   17.821
 5364.00    0.86281   0.83768   17.703
 5365.00    0.84848   0.83248   17.691
 5366.00    0.83099   0.82766   17.858
 5367.00    0.81748   0.82317   18.042
 5368.00    0.81022   0.81929   18.066
 5369.00    0.80353   0.81608   17.970
 5370.00    0.79517   0.81447   17.900
 5371.00    0.79491   0.81526   17.984
 5372.00    0.81073   0.81773   18.168
 5373.00    0.83781   0.82132   -2.000
 5374.00    0.86598   0.82640   -2.000
 5375.00    0.88654   0.83204   -2.000
 5376.00    0.89435   0.83670   -2.000
 5377.00    0.88912   0.84013   -2.000
 5378.00    0.87529   0.84204   -2.000
 5379.00    0.86095   0.84245   -2.000
 5380.00    0.85207   0.84214   -2.000
 5381.00    0.84943   0.84125   -2.000
 5382.00    0.85222   0.83981   -2.000
 5383.00    0.86013   0.83887   -2.000
 5384.00    0.87217   0.83847   -2.000
 5385.00    0.88550   0.83770   -2.000
 5386.00    0.89307   0.83684   -2.000
 5387.00    0.88519   0.83596   -2.000
 5388.00    0.86253   0.83417   16.503
 5389.00    0.83917   0.83154   16.708
 5390.00    0.82806   0.82870   17.067
 5391.00    0.83396   0.82517   17.318
 5392.00    0.85202   0.82102   17.307
 5393.00    0.86989   0.81762   17.217
 5394.00    0.87758   0.81475   17.198
 5395.00    0.87101   0.81132   17.253
 5396.00    0.85086   0.80866   17.374
 5397.00    0.82206   0.80829   17.577
 5398.00    0.79377   0.80804   17.820
 5399.00    0.77685   0.80667   17.991
 5400.00    0.77594   0.80623   17.960
 5401.00    0.78778   0.80645   17.678
 5402.00    0.80345   0.80472   17.348
 5403.00    0.81262   0.80146   17.271
 5404.00    0.81260   0.79858   17.444
 5405.00    0.80781   0.79621   17.638
 5406.00    0.80165   0.79436   17.839
 5407.00    0.79556   0.79343   18.194
 5408.00    0.79155   0.79374   18.540
 5409.00    0.79156   0.79580   18.529
 5410.00    0.79468   0.79961   18.304
 5411.00    0.79854   0.80398   18.290
 5412.00    0.80359   0.80829   18.482
 5413.00    0.81122   0.81304   18.572
 5414.00    0.81865   0.81815   18.456
 5415.00    0.82176   0.82262   18.272
 5416.00    0.82203   0.82580   18.217
 5417.00    0.82334   0.82816   18.401
 5418.00    0.82466   0.82988   18.643
 5419.00    0.82337   0.83042   18.670
 5420.00    0.82208   0.83017   18.545
 5421.00    0.82367   0.82964   18.490
 5422.00    0.82271   0.82837   18.530
 5423.00    0.81316   0.82661   18.582
 5424.00    0.80045   0.82526   18.633
 5425.00    0.79438   0.82406   18.705
 5426.00    0.79791   0.82237   18.767
 5427.00    0.80736   0.81986   18.777
 5428.00    0.81496   0.81687   18.756
 5429.00    0.81602   0.81451   18.728
 5430.00    0.81603   0.81228   18.655
 5431.00    0.82084   0.80906   18.546
 5432.00    0.82619   0.80682   18.562
 5433.00    0.82577   0.80705   18.779
 5434.00    0.82020   0.80823   18.967
 5435.00    0.81455   0.80999   18.892
 5436.00    0.81482   0.81360   18.638
 5437.00    0.82416   0.81883   18.401
 5438.00    0.84015   0.82414   18.290
 5439.00    0.85658   0.82882   18.314
 5440.00    0.86588   0.83250   18.397
 5441.00    0.86436   0.83438   18.490
 5442.00    0.85538   0.83426   18.627
 5443.00    0.84390   0.83248   18.808
 5444.00    0.83238   0.82912   18.910
 5445.00    0.82179   0.82476   18.840
 5446.00    0.81264   0.82105   18.648
 5447.00    0.80626   0.81885   18.473
 5448.00    0.80503   0.81726   18.461
 5449.00    0.80874   0.81638   18.584
 5450.00    0.81339   0.81672   18.590
 5451.00    0.81623   0.81730   18.371
 5452.00    0.81810   0.81717   18.122
 5453.00    0.82108   0.81610   18.008
 5454.00    0.82674   0.81462   18.036
 5455.00    0.83411   0.81398   18.105
 5456.00    0.83948   0.81408   18.076
 5457.00    0.83988   0.81380   18.009
 5458.00    0.83487   0.81397   18.125
 5459.00    0.82710   0.81548   18.306
 5460.00    0.82136   0.81676   18.091
 5461.00    0.81977   0.81657   17.629
 5462.00    0.82094   0.81618   17.600
 5463.00    0.82380   0.81681   17.958
 5464.00    0.82788   0.81715   17.919
 5465.00    0.82951   0.81667   17.481
 5466.00    0.82353   0.81720   17.451
 5467.00    0.81246   0.81851   17.996
 5468.00    0.80510   0.81838   18.549
 5469.00    0.80367   0.81745   18.757
 5470.00    0.80306   0.81686   18.750
 5471.00    0.79922   0.81485   18.672
 5472.00    0.79167   0.81108   18.575
 5473.00    0.78326   0.80794   18.575
 5474.00    0.77813   0.80498   18.784
 5475.00    0.77701   0.80064   19.031
 5476.00    0.77801   0.79752   19.008
 5477.00    0.78095   0.79707   18.793
 5478.00    0.78645   0.79678   18.679
 5479.00    0.79230   0.79660   18.576
 5480.00    0.79627   0.79864   18.235
 5481.00    0.80281   0.80196   17.839
 5482.00    0.81834   0.80444   17.711
 5483.00    0.84048   0.80679   17.737
 5484.00    0.86092   0.81002   -2.000
 5485.00    0.87369   0.81253   -2.000
 5486.00    0.87717   0.81386   -2.000
 5487.00    0.87522   0.81537   -2.000
 5488.00    0.87987   0.81666   -2.000
 5489.00    0.91408   0.81680   -2.000
 5490.00    0.99163   0.81716   -2.000
 5491.00    1.08970   0.81804   -2.000
 5492.00    1.16163   0.81780   -2.000
 5493.00    1.16099   0.81741   -2.000
 5494.00    1.07585   0.81786   -2.000
 5495.00    0.96210   0.81740   -2.000
 5496.00    0.87995   0.81595   -2.000
 5497.00    0.82110   0.81552   -2.000
 5498.00    0.76019   0.81536   -2.000
 5499.00    0.71515   0.81370   -2.000
 5500.00    0.71139   0.81191   -2.000
 5501.00    0.74128   0.81108   -2.000
 5502.00    0.78077   0.80989   -2.000
 5503.00    0.80940   0.80816   -2.000
 5504.00    0.81884   0.80662   -2.000
 5505.00    0.81701   0.80533   -2.000
 5506.00    0.81118   0.80462   -2.000
 5507.00    0.79586   0.80406   17.943
 5508.00    0.77030   0.80285   18.286
 5509.00    0.74991   0.80214   18.505
 5510.00    0.74628   0.80216   18.487
 5511.00    0.75404   0.80166   18.410
 5512.00    0.76466   0.80134   18.400
 5513.00    0.77583   0.80221   18.344
 5514.00    0.78710   0.80373   18.207
 5515.00    0.79707   0.80571   18.181
 5516.00    0.80512   0.80860   18.340
 5517.00    0.81236   0.81216   18.495
 5518.00    0.82072   0.81534   18.456
 5519.00    0.83170   0.81782   18.204
 5520.00    0.84322   0.81972   17.860
 5521.00    0.84968   0.82053   17.607
 5522.00    0.84991   0.81993   17.577
 5523.00    0.84921   0.81802   17.791
 5524.00    0.85104   0.81539   18.053
 5525.00    0.85334   0.81251   18.021
 5526.00    0.84943   0.80920   17.895
 5527.00    0.83164   0.80601   18.354
 5528.00    0.80307   0.80441   19.286
 5529.00    0.77787   0.80384   19.532
 5530.00    0.76567   0.80336   19.011
 5531.00    0.76720   0.80412   18.942
 5532.00    0.77967   0.80597   19.348
 5533.00    0.79832   0.80720   19.065
 5534.00    0.81547   0.80815   18.263
 5535.00    0.82327   0.80993   18.209
 5536.00    0.82232   0.81160   18.894
 5537.00    0.82090   0.81265   19.129
 5538.00    0.82547   0.81422   18.590
 5539.00    0.83773   0.81606   18.049
 5540.00    0.85392   0.81718   17.843
 5541.00    0.86591   0.81778   17.846
 5542.00    0.86397   0.81831   17.994
 5543.00    0.84254   0.81882   18.298
 5544.00    0.81100   0.81899   18.619
 5545.00    0.78696   0.81898   18.727
 5546.00    0.77736   0.81967   18.582
 5547.00    0.77848   0.82081   18.354
 5548.00    0.78400   0.82156   18.279
 5549.00    0.78898   0.82224   18.487
 5550.00    0.79385   0.82296   18.758
 5551.00    0.80054   0.82304   18.766
 5552.00    0.80491   0.82233   18.658
 5553.00    0.80311   0.82131   18.722
 5554.00    0.80304   0.82031   18.717
 5555.00    0.81464   0.81913   18.334
 5556.00    0.83328   0.81770   17.979
 5557.00    0.84777   0.81660   18.097
 5558.00    0.85495   0.81572   18.326
 5559.00    0.85671   0.81452   18.130
 5560.00    0.85386   0.81312   17.819
 5561.00    0.84766   0.81151   17.880
 5562.00    0.84251   0.80970   18.135
 5563.00    0.84149   0.80807   18.231
 5564.00    0.84128   0.80606   18.300
 5565.00    0.83671   0.80397   18.596
 5566.00    0.82633   0.80289   19.016
 5567.00    0.81386   0.80186   19.289
 5568.00    0.80827   0.80033   19.272
 5569.00    0.81444   0.80003   19.015
 5570.00    0.82558   0.80054   18.728
 5571.00    0.83373   0.79995   18.575
 5572.00    0.83917   0.80011   18.539
 5573.00    0.84515   0.80197   18.565
 5574.00    0.85291   0.80284   18.644
 5575.00    0.86059   0.80341   18.740
 5576.00    0.86328   0.80548   18.744
 5577.00    0.85789   0.80697   18.694
 5578.00    0.84628   0.80736   18.852
 5579.00    0.83303   0.80805   19.177
 5580.00    0.82302   0.80789   19.066
 5581.00    0.81643   0.80632   18.359
 5582.00    0.80747   0.80425   17.748
 5583.00    0.79459   0.80123   17.653
 5584.00    0.78463   0.79701   17.886
 5585.00    0.78102   0.79239   18.058
 5586.00    0.77876   0.78790   17.839
 5587.00    0.77365   0.78387   17.374
 5588.00    0.76644   0.78059   17.212
 5589.00    0.75969   0.77865   17.456
 5590.00    0.75597   0.77832   17.613
 5591.00    0.75736   0.77926   17.504
 5592.00    0.76502   0.78101   17.514
 5593.00    0.77792   0.78298   17.698
 5594.00    0.79289   0.78529   17.610
 5595.00    0.80653   0.78761   17.178
 5596.00    0.81672   0.78845   16.803
 5597.00    0.82515   0.78849   16.512
 5598.00    0.83549   0.78907   15.978
 5599.00    0.84463   0.78899   15.289
 5600.00    0.84336   0.78820   14.830
 5601.00    0.82840   0.78858   14.590
 5602.00    0.80467   0.79045   14.273
 5603.00    0.78066   0.79317   13.929
 5604.00    0.76526   0.79663   13.862
 5605.00    0.76329   0.80095   14.092
 5606.00    0.77391   0.80571   14.374
 5607.00    0.78987   0.80979   14.555
 5608.00    0.80029   0.81280   14.670
 5609.00    0.79768   0.81454   14.890
 5610.00    0.78179   0.81460   15.390
 5611.00    0.76388   0.81314   16.079
 5612.00    0.75942   0.81073   16.639
 5613.00    0.77111   0.80704   16.939
 5614.00    0.78987   0.80247   17.115
 5615.00    0.80420   0.79910   17.325
 5616.00    0.80632   0.79666   17.637
 5617.00    0.79979   0.79403   17.924
 5618.00    0.79423   0.79299   18.007
 5619.00    0.79420   0.79366   17.976
 5620.00    0.79849   0.79412   18.033
 5621.00    0.80245   0.79453   18.153
 5622.00    0.80219   0.79510   18.209
 5623.00    0.80013   0.79522   18.253
 5624.00    0.80120   0.79566   18.359
 5625.00    0.80650   0.79662   18.356
 5626.00    0.81350   0.79729   18.117
 5627.00    0.81776   0.79863   17.946
 5628.00    0.81562   0.80115   18.180
 5629.00    0.80738   0.80326   18.740
 5630.00    0.79655   0.80476   19.263
 5631.00    0.78855   0.80625   19.356
 5632.00    0.78699   0.80677   18.948
 5633.00    0.79028   0.80615   18.493
 5634.00    0.79380   0.80507   18.366
 5635.00    0.79283   0.80337   18.439
 5636.00    0.78571   0.80110   18.498
 5637.00    0.77621   0.79908   18.608
 5638.00    0.77015   0.79759   18.815
 5639.00    0.77191   0.79600   18.874
 5640.00    0.78100   0.79482   18.668
 5641.00    0.79039   0.79489   18.512
 5642.00    0.79402   0.79519   18.648
 5643.00    0.79220   0.79538   18.911
 5644.00    0.78698   0.79646   18.971
 5645.00    0.77913   0.79781   18.594
 5646.00    0.77170   0.79885   17.857
 5647.00    0.77135   0.79998   17.134
 5648.00    0.78011   0.80092   16.759
 5649.00    0.79140   0.80143   16.894
 5650.00    0.79820   0.80154   17.365
 5651.00    0.79816   0.80116   17.578
 5652.00    0.79405   0.80013   17.401
 5653.00    0.79221   0.79803   17.505
 5654.00    0.79410   0.79533   18.178
 5655.00    0.79436   0.79283   18.856
 5656.00    0.79280   0.78938   19.016
 5657.00    0.79728   0.78515   18.793
 5658.00    0.81019   0.78286   18.555
 5659.00    0.82429   0.78177   18.564
 5660.00    0.83149   0.77998   18.816
 5661.00    0.82776   0.77966   19.045
 5662.00    0.81682   0.78161   19.013
 5663.00    0.80798   0.78345   18.695
 5664.00    0.80328   0.78491   18.351
 5665.00    0.79668   0.78709   18.326
 5666.00    0.78718   0.78943   18.528
 5667.00    0.78019   0.79138   18.501
 5668.00    0.77723   0.79320   18.238
 5669.00    0.77509   0.79504   18.168
 5670.00    0.77350   0.79697   18.369
 5671.00    0.77518   0.79905   18.550
 5672.00    0.77995   0.80120   18.611
 5673.00    0.78493   0.80295   18.685
 5674.00    0.78958   0.80425   18.765
 5675.00    0.79515   0.80540   18.711
 5676.00    0.80052   0.80593   18.500
 5677.00    0.80367   0.80521   18.203
 5678.00    0.80725   0.80402   17.779
 5679.00    0.81694   0.80279   17.172
 5680.00    0.83523   0.80069   16.528
 5681.00    0.85923   0.79790   15.974
 5682.00    0.87913   0.79558   15.285
 5683.00    0.88270   0.79364   14.323
 5684.00    0.86413   0.79155   13.576
 5685.00    0.82693   0.79004   13.550
 5686.00    0.78566   0.78948   14.229
 5687.00    0.75730   0.78958   15.267
 5688.00    0.74729   0.79034   16.193
 5689.00    0.75260   0.79163   16.648
 5690.00    0.76946   0.79332   16.883
 5691.00    0.79284   0.79545   17.360
 5692.00    0.81431   0.79743   17.951
 5693.00    0.82609   0.79863   18.221
 5694.00    0.82666   0.79938   18.157
 5695.00    0.81955   0.79966   18.027
 5696.00    0.81074   0.79871   17.972
 5697.00    0.80570   0.79684   17.985
 5698.00    0.80636   0.79510   17.940
 5699.00    0.81051   0.79292   17.709
 5700.00    0.81189   0.78995   17.273
 5701.00    0.80554   0.78751   16.686
 5702.00    0.79284   0.78547   16.017
 5703.00    0.77913   0.78300   15.361
 5704.00    0.77060   0.78040   14.836
 5705.00    0.77032   0.77807   14.548
 5706.00    0.77547   0.77600   14.568
 5707.00    0.78038   0.77351   14.919
 5708.00    0.77986   0.77134   15.544
 5709.00    0.77287   0.77084   16.324
 5710.00    0.76439   0.77081   17.081
 5711.00    0.76000   0.77152   17.626
 5712.00    0.76188   0.77461   17.848
 5713.00    0.76943   0.77813   17.802
 5714.00    0.78026   0.78164   17.691
 5715.00    0.79167   0.78651   17.617
 5716.00    0.80175   0.79088   17.500
 5717.00    0.80954   0.79433   17.367
 5718.00    0.81531   0.79804   17.448
 5719.00    0.82135   0.80092   17.724
 5720.00    0.83136   0.80285   17.777
 5721.00    0.84500   0.80475   17.500
 5722.00    0.85626   0.80577   17.318
 5723.00    0.85915   0.80591   17.391
 5724.00    0.85104   0.80599   17.426
 5725.00    0.83461   0.80538   17.369
 5726.00    0.81706   0.80405   17.545
 5727.00    0.80337   0.80309   17.934
 5728.00    0.79412   0.80227   18.022
 5729.00    0.78842   0.80116   17.722
 5730.00    0.78571   0.80048   17.532
 5731.00    0.78728   0.80065   17.682
 5732.00    0.79534   0.80093   17.981
 5733.00    0.80769   0.80103   18.176
 5734.00    0.81705   0.80160   18.127
 5735.00    0.81485   0.80231   17.987
 5736.00    0.79595   0.80261   18.054
 5737.00    0.76871   0.80277   18.274
 5738.00    0.75074   0.80279   18.303
 5739.00    0.74959   0.80258   18.125
 5740.00    0.75994   0.80232    0.000
 5741.00    0.77123   0.80205    0.000
 5742.00    0.77426   0.80174    0.000
 5743.00    0.77185   0.80143    0.000
 5744.00    0.77470   0.80115    0.000
 5745.00    0.78652   0.80081    0.000
 5746.00    0.80372   0.80010    0.000
 5747.00    0.82208   0.79918    0.000
 5748.00    0.83749   0.79839    0.000
 5749.00    0.84474   0.79712    0.000
 5750.00    0.84026   0.79544    0.000
 5751.00    0.82735   0.79427    0.000
 5752.00    0.81317   0.79318    0.000
 5753.00    0.80197   0.79209    0.000
 5754.00    0.79568   0.79176    0.000
 5755.00    0.79662   0.79177    0.000
 5756.00    0.80543   0.79186    0.000
 5757.00    0.81765   0.79253    0.000
 5758.00    0.82819   0.79297    0.000
 5759.00    0.83799   0.79294    0.000
 5760.00    0.84919   0.79309    0.000
 5761.00    0.85789   0.79286    0.000
 5762.00    0.85998   0.79263    0.000
 5763.00    0.85890   0.79333    0.000
 5764.00    0.85922   0.79403    0.000
 5765.00    0.85858   0.79487    0.000
 5766.00    0.85191   0.79662    0.000
 5767.00    0.83715   0.79802    0.000
 5768.00    0.81833   0.79875    0.000
 5769.00    0.80693   0.79946    0.000
 5770.00    0.81111   0.79957    0.000
 5771.00    0.82607   0.79894    0.000
 5772.00    0.84117   0.79832    0.000
 5773.00    0.84752   0.79726    0.000
 5774.00    0.84239   0.79570    0.000
 5775.00    0.83135   0.79435    0.000
 5776.00    0.81918   0.79244    0.000
 5777.00    0.80378   0.78978    0.000
 5778.00    0.78477   0.78724    0.000
 5779.00    0.76876   0.78420    0.000
 5780.00    0.76127   0.78050    0.000
 5781.00    0.76132   0.77750    0.000
 5782.00    0.76507   0.77520    0.000
 5783.00    0.76850   0.77302    0.000
 5784.00    0.76958   0.77204    0.000
 5785.00    0.76895   0.77283    0.000
 5786.00    0.76771   0.77397    0.000
 5787.00    0.76633   0.77533    0.000
 5788.00    0.76601   0.77797    0.000
 5789.00    0.76898   0.78054    0.000
 5790.00    0.77628   0.78238    0.000
 5791.00    0.78688   0.78480    0.000
 5792.00    0.79865   0.78680    0.000
 5793.00    0.80908   0.78798    0.000
 5794.00    0.81638   0.78962    0.000
 5795.00    0.81982   0.79113    0.000
 5796.00    0.81924   0.79191    0.000
 5797.00    0.81499   0.79296   -2.000
 5798.00    0.80843   0.79437   -2.000
 5799.00    0.80131   0.79516   -2.000
 5800.00    0.79333   0.79572   -2.000
 5801.00    0.78290   0.79676   -2.000
 5802.00    0.77216   0.79728   -2.000
 5803.00    0.76663   0.79704   -2.000
 5804.00    0.76935   0.79701   -2.000
 5805.00    0.78026   0.79680   -2.000
 5806.00    0.79907   0.79627   -2.000
 5807.00    0.82305   0.79603   -2.000
 5808.00    0.83930   0.79595   -2.000
 5809.00    0.83171   0.79603   -2.000
 5810.00    0.80204   0.79619   -2.000
 5811.00    0.76758   0.79616   -2.000
 5812.00    0.74407   0.79616   -2.000
 5813.00    0.73980   0.79617   -2.000
 5814.00    0.75169   0.79599   -2.000
 5815.00    0.76963   0.79584   -2.000
 5816.00    0.78654   0.79616   -2.000
 5817.00    0.79835   0.79678    0.000
 5818.00    0.80069   0.79737    0.000
 5819.00    0.79195   0.79840    0.000
 5820.00    0.77959   0.79975    0.000
 5821.00    0.77495   0.80070    0.000
 5822.00    0.78334   0.80147    0.000
 5823.00    0.80232   0.80227    0.000
 5824.00    0.82177   0.80277    0.000
 5825.00    0.82975   0.80298    0.000
 5826.00    0.82067   0.80314    0.000
 5827.00    0.79784   0.80328    0.000
 5828.00    0.77459   0.80328    0.000
 5829.00    0.76378   0.80313    0.000
 5830.00    0.76524   0.80288    0.000
 5831.00    0.77343   0.80260    0.000
 5832.00    0.78761   0.80227    0.000
 5833.00    0.80782   0.80169    0.000
 5834.00    0.82962   0.80119    0.000
 5835.00    0.84703   0.80102    0.000
 5836.00    0.85606   0.80072    0.000
 5837.00    0.85517   0.80045    0.000
 5838.00    0.84534   0.80068    0.000
 5839.00    0.83048   0.80091    0.000
 5840.00    0.81724   0.80087    0.000
 5841.00    0.81136   0.80092    0.000
 5842.00    0.81449   0.80081    0.000
 5843.00    0.82402   0.80014    0.000
 5844.00    0.83360   0.79918    0.000
 5845.00    0.83738   0.79793    0.000
 5846.00    0.83300   0.79615    0.000
 5847.00    0.82065   0.79429    0.000
 5848.00    0.80248   0.79224    0.000
 5849.00    0.78331   0.78971    0.000
 5850.00    0.76981   0.78736    0.000
 5851.00    0.76303   0.78492    0.000
 5852.00    0.75591   0.78192    0.000
 5853.00    0.74430   0.77921    0.000
 5854.00    0.73224   0.77691    0.000
 5855.00    0.72609   0.77438    0.000
 5856.00    0.73040   0.77230    0.000
 5857.00    0.74386   0.77139    0.000
 5858.00    0.75837   0.77089    0.000
 5859.00    0.76376   0.77073    0.000
 5860.00    0.75257   0.77175    0.000
 5861.00    0.73044   0.77318    0.000
 5862.00    0.71542   0.77452    0.000
 5863.00    0.71837   0.77639    0.000
 5864.00    0.73628   0.77816    0.000
 5865.00    0.75721   0.77945    0.000
 5866.00    0.76664   0.78095    0.000
 5867.00    0.76206   0.78236    0.000
 5868.00    0.75384   0.78311    0.000
 5869.00    0.75188   0.78380    0.000
 5870.00    0.76040   0.78441    0.000
 5871.00    0.77593   0.78419    0.000
 5872.00    0.79084   0.78359    0.000
 5873.00    0.80430   0.78273    0.000
 5874.00    0.82122   0.78136    0.000
 5875.00    0.84152   0.77978    0.000
 5876.00    0.85905   0.77822    0.000
 5877.00    0.86605   0.77684    0.000
 5878.00    0.85700   0.77539    0.000
 5879.00    0.83429   0.77392    0.000
 5880.00    0.80642   0.77267    0.000
 5881.00    0.78138   0.77089    0.000
 5882.00    0.76431   0.76805    0.000
 5883.00    0.75593   0.76447    0.000
 5884.00    0.75379   0.75978    0.000
 5885.00    0.75507   0.75271    0.000
 5886.00    0.75641   0.74427    0.000
 5887.00    0.75297   0.73580    0.000
 5888.00    0.74108   0.72541    0.000
 5889.00    0.72260   0.71508    0.000
 5890.00    0.70407   0.70826    0.000
 5891.00    0.69384   0.70139    0.000
 5892.00    0.69701   0.69576    0.000
 5893.00    0.70905   0.69578    0.000
 5894.00    0.72098   0.69612    0.000
 5895.00    0.72729   0.69682    0.000
 5896.00    0.72806   0.70286    0.000
 5897.00    0.72972   0.70910    0.000
 5898.00    0.73936   0.71465    0.000
 5899.00    0.75791   0.72385    0.000
 5900.00    0.78046   0.73294    0.000
 5901.00    0.79789   0.74006   17.645
 5902.00    0.80271   0.74795   17.720
 5903.00    0.79481   0.75499   18.068
 5904.00    0.78045   0.75976   18.301
 5905.00    0.76983   0.76368   18.154
 5906.00    0.76853   0.76686   17.719
 5907.00    0.77126   0.76879   17.441
 5908.00    0.77324   0.76981   17.505
 5909.00    0.77892   0.77032   17.507
 5910.00    0.79220   0.77040   17.179
 5911.00    0.80899   0.76990   16.880
 5912.00    0.82322   0.76890   16.892
 5913.00    0.83154   0.76799   17.036
 5914.00    0.83322   0.76723   17.102
 5915.00    0.82970   0.76638   17.129
 5916.00    0.82293   0.76613   17.208
 5917.00    0.81448   0.76646   17.351
 5918.00    0.80615   0.76686   17.522
 5919.00    0.80017   0.76787   17.678
 5920.00    0.79826   0.76899   17.794
 5921.00    0.80068   0.76983   17.872
 5922.00    0.80418   0.77095   17.931
 5923.00    0.80252   0.77165   17.993
 5924.00    0.79407   0.77191   18.049
 5925.00    0.78402   0.77225   18.071
 5926.00    0.77724   0.77201   18.136
 5927.00    0.77551   0.77160   18.400
 5928.00    0.77968   0.77126   18.753
 5929.00    0.78940   0.77054   18.789
 5930.00    0.79809   0.77009   18.512
 5931.00    0.79498   0.76998   18.397
 5932.00    0.77940   0.76977   18.616
 5933.00    0.76238   0.76982   18.916
 5934.00    0.75378   0.77021   19.067
 5935.00    0.75751   0.77070   19.011
 5936.00    0.77120   0.77095   18.766
 5937.00    0.78769   0.77114   18.419
 5938.00    0.79959   0.77156   18.174
 5939.00    0.80135   0.77152   18.232
 5940.00    0.79079   0.77109   18.446
 5941.00    0.77029   0.77102   18.437
 5942.00    0.74845   0.77078   18.207
 5943.00    0.73683   0.77019   18.071
 5944.00    0.74118   0.76986   18.081
 5945.00    0.75957   0.76946   18.073
 5946.00    0.78347   0.76889   18.016
 5947.00    0.80168   0.76827   17.991
 5948.00    0.80819   0.76739   17.977
 5949.00    0.80374   0.76667   17.921
 5950.00    0.79550   0.76611   17.928
 5951.00    0.79113   0.76524   18.132
 5952.00    0.78857   0.76466   18.386
 5953.00    0.77976   0.76474   18.427
 5954.00    0.76071   0.76467   18.335
 5955.00    0.73494   0.76459   18.377
 5956.00    0.71590   0.76535   18.625
 5957.00    0.71671   0.76628   18.937
 5958.00    0.73464   0.76703   19.016
 5959.00    0.75657   0.76834   18.744
 5960.00    0.77030   0.76986   18.586
 5961.00    0.77008   0.77104   18.959
 5962.00    0.76134   0.77219   19.456
 5963.00    0.75391   0.77337   19.461
 5964.00    0.75296   0.77409   19.234
 5965.00    0.75902   0.77453   19.253
 5966.00    0.76928   0.77519   19.341
 5967.00    0.77737   0.77550   19.179
 5968.00    0.77389   0.77559   18.936
 5969.00    0.75589   0.77593   18.920
 5970.00    0.73542   0.77589   19.205
 5971.00    0.72757   0.77538   19.609
 5972.00    0.73813   0.77477   19.707
 5973.00    0.76175   0.77374   19.311
 5974.00    0.78276   0.77218   18.847
 5975.00    0.78895   0.77059   18.679
 5976.00    0.78227   0.76906   18.697
 5977.00    0.77247   0.76739   18.677
 5978.00    0.77052   0.76610   18.545
 5979.00    0.78100   0.76514   18.324
 5980.00    0.79773   0.76403   18.074
 5981.00    0.81057   0.76335   17.895
 5982.00    0.81157   0.76281   17.914
 5983.00    0.80332   0.76190   18.166
 5984.00    0.80081   0.76153   18.522
 5985.00    0.81217   0.76153   18.731
 5986.00    0.82923   0.76137   18.538
 5987.00    0.84060   0.76175   18.112
 5988.00    0.83970   0.76271   18.029
 5989.00    0.82642   0.76369   18.471
 5990.00    0.80665   0.76459   18.994
 5991.00    0.78681   0.76571   19.229
 5992.00    0.77124   0.76679   19.266
 5993.00    0.76295   0.76726   19.259
 5994.00    0.76331   0.76756   19.233
 5995.00    0.76924   0.76777   19.245
 5996.00    0.77394   0.76735   19.390
 5997.00    0.77442   0.76678   19.504
 5998.00    0.77354   0.76612   19.308
 5999.00    0.77600   0.76514   19.345
 6000.00    0.78558   0.76433   20.488
 6001.00    0.80095   0.76335   20.777
 6002.00    0.81568   0.76216   16.997
 6003.00    0.82278   0.76136   13.085
 6004.00    0.81735   0.76021   11.758
 6005.00    0.79985   0.75907   12.257
 6006.00    0.77639   0.75846   13.088
 6007.00    0.75675   0.75757   13.323
 6008.00    0.75012   0.75701   13.217
 6009.00    0.75597   0.75698   13.153
 6010.00    0.76648   0.75681   13.184
 6011.00    0.77805   0.75692   12.976
 6012.00    0.79086   0.75696   12.342
 6013.00    0.80141   0.75690   12.185
 6014.00    0.80489   0.75703   13.689
 6015.00    0.80369   0.75648   16.726
 6016.00    0.80354   0.75587   18.378
 6017.00    0.80257   0.75570   17.663
 6018.00    0.79499   0.75497   17.268
 6019.00    0.78193   0.75423   17.734
 6020.00    0.77064   0.75407   18.105
 6021.00    0.76945   0.75413   18.057
 6022.00    0.78221   0.75434   17.903
 6023.00    0.80112   0.75486   17.752
 6024.00    0.81291   0.75622   17.605
 6025.00    0.81003   0.75780   17.701
 6026.00    0.79378   0.75913   18.241
 6027.00    0.77575   0.76123   18.939
 6028.00    0.76836   0.76337   19.278
 6029.00    0.77236   0.76496   19.206
 6030.00    0.78115   0.76676   19.048
 6031.00    0.78827   0.76843   19.113
 6032.00    0.78999   0.76963   19.463
 6033.00    0.78716   0.77056   19.706
 6034.00    0.78233   0.77130   19.496
 6035.00    0.77670   0.77167   19.157
 6036.00    0.77142   0.77171   19.095
 6037.00    0.76901   0.77165   19.247
 6038.00    0.77066   0.77133   19.346
 6039.00    0.77369   0.77097   19.204
 6040.00    0.77475   0.77076   18.861
 6041.00    0.77283   0.77048   18.604
 6042.00    0.76984   0.77047   18.567
 6043.00    0.77021   0.77075   18.505
 6044.00    0.77519   0.77098   18.278
 6045.00    0.77926   0.77133   18.147
 6046.00    0.77666   0.77185   18.199
 6047.00    0.76627   0.77215   18.052
 6048.00    0.75069   0.77214   17.625
 6049.00    0.73519   0.77208   17.468
 6050.00    0.72636   0.77176   17.739
 6051.00    0.73008   0.77096   17.801
 6052.00    0.74451   0.77000   17.434
 6053.00    0.75829   0.76907   17.361
 6054.00    0.76397   0.76794   17.864
 6055.00    0.76401   0.76681   18.275
 6056.00    0.76233   0.76601   18.226
 6057.00    0.76011   0.76534   18.272
 6058.00    0.75796   0.76464   18.661
 6059.00    0.75704   0.76411   18.899
 6060.00    0.75884   0.76363   18.739
 6061.00    0.76444   0.76274   18.542
 6062.00    0.77211   0.76202   18.451
 6063.00    0.77707   0.76159   18.237
 6064.00    0.77505   0.76074   17.949
 6065.00    0.76454   0.76069   17.946
 6066.00    0.74992   0.76155   18.203
 6067.00    0.74031   0.76224   18.267
 6068.00    0.74171   0.76369   18.012
 6069.00    0.75427   0.76565   17.749
 6070.00    0.77208   0.76721   17.602
 6071.00    0.78626   0.76873   17.484
 6072.00    0.79375   0.76980   17.487
 6073.00    0.79718   0.77012   17.821
 6074.00    0.79705   0.76985   18.310
 6075.00    0.79134   0.76887   18.447
 6076.00    0.78011   0.76749   18.209
 6077.00    0.76547   0.76552   17.994
 6078.00    0.74824   0.76328   17.847
 6079.00    0.72848   0.76149   17.593
 6080.00    0.70823   0.75947   17.443
 6081.00    0.69178   0.75751   17.763
 6082.00    0.68459   0.75645   18.398
 6083.00    0.69026   0.75556   18.798
 6084.00    0.70495   0.75471   18.808
 6085.00    0.72058   0.75448   18.720
 6086.00    0.73251   0.75438   18.807
 6087.00    0.74068   0.75435   19.164
 6088.00    0.74882   0.75447   19.567
 6089.00    0.75958   0.75445   19.704
 6090.00    0.76731   0.75471   19.670
 6091.00    0.76432   0.75518   19.747
 6092.00    0.75192   0.75536   19.904
 6093.00    0.73780   0.75585   19.941
 6094.00    0.72979   0.75660   19.810
 6095.00    0.73170   0.75674   19.587
 6096.00    0.73930   0.75672   19.350
 6097.00    0.74522   0.75662   19.135
 6098.00    0.74579   0.75549   18.912
 6099.00    0.74216   0.75407   18.678
 6100.00    0.74004   0.75284   18.539
 6101.00    0.74235   0.75059   18.549
 6102.00    0.74204   0.74875   18.562
 6103.00    0.73102   0.74839   18.478
 6104.00    0.71013   0.74774   18.475
 6105.00    0.68888   0.74787   18.691
 6106.00    0.68291   0.74925   18.909
 6107.00    0.70035   0.75035   18.794
 6108.00    0.73112   0.75208   18.219
 6109.00    0.75931   0.75402   17.446
 6110.00    0.77454   0.75511   17.025
 6111.00    0.77348   0.75635   17.180
 6112.00    0.76008   0.75732   17.562
 6113.00    0.74303   0.75752   17.856
 6114.00    0.73271   0.75756   18.231
 6115.00    0.73434   0.75685   18.821
 6116.00    0.74384   0.75571   19.328
 6117.00    0.75133   0.75449   19.565
 6118.00    0.74568   0.75221   19.840
 6119.00    0.72719   0.75010   20.297
 6120.00    0.71146   0.74829   20.553
 6121.00    0.70906   0.74577   20.426
 6122.00    0.71608   0.74447   20.296
 6123.00    0.72564   0.74417   20.382
 6124.00    0.73409   0.74350   20.475
 6125.00    0.74021   0.74390   20.395
 6126.00    0.74432   0.74509   20.187
 6127.00    0.74672   0.74586   19.874
 6128.00    0.74761   0.74677   19.406
 6129.00    0.74984   0.74767   18.895
 6130.00    0.75796   0.74770   18.592
 6131.00    0.76990   0.74701   18.607
 6132.00    0.77703   0.74570   18.852
 6133.00    0.77650   0.74340   19.098
 6134.00    0.77274   0.74076   19.095
 6135.00    0.76689   0.73783   18.962
 6136.00    0.75575   0.73463   19.096
 6137.00    0.74073   0.73270   19.467
 6138.00    0.72859   0.73201   19.569
 6139.00    0.72498   0.73189   19.076
 6140.00    0.73128   0.73270   18.080
 6141.00    0.74171   0.73463   16.850
 6142.00    0.74685   0.73741   15.677
 6143.00    0.74457   0.74005   14.833
 6144.00    0.73901   0.74234   14.505
 6145.00    0.73132   0.74458   14.696
 6146.00    0.72021   0.74619   15.301
 6147.00    0.70857   0.74697   16.191
 6148.00    0.70342   0.74742   17.172
 6149.00    0.71255   0.74747   17.947
 6150.00    0.73918   0.74706   18.274
 6151.00    0.77354   0.74651   18.342
 6152.00    0.79802   0.74596   18.568
 6153.00    0.80025   0.74479   19.036
 6154.00    0.77878   0.74323   19.559
 6155.00    0.74818   0.74170   19.974
 6156.00    0.72751   0.73915   20.212
 6157.00    0.72065   0.73573   20.305
 6158.00    0.72031   0.73220   20.357
 6159.00    0.71920   0.72809   20.478
 6160.00    0.71427   0.72332   20.559
 6161.00    0.70987   0.71907   20.024
 6162.00    0.71111   0.71570   18.573
 6163.00    0.71486   0.71317   16.880
 6164.00    0.71459   0.71170   15.557
 6165.00    0.70781   0.71092   14.637
 6166.00    0.69562   0.71140   14.138
 6167.00    0.68122   0.71274   14.404
 6168.00    0.66965   0.71356   15.634
 6169.00    0.66706   0.71500   17.035
 6170.00    0.67421   0.71744   17.409
 6171.00    0.68110   0.71939   17.210
 6172.00    0.68051   0.72117   17.408
 6173.00    0.68007   0.72362   17.939
 6174.00    0.68882   0.72612   18.347
 6175.00    0.70487   0.72822   18.521
 6176.00    0.72065   0.73025   18.694
 6177.00    0.72883   0.73249   19.276
 6178.00    0.72789   0.73431   20.319
 6179.00    0.72449   0.73553   20.996
 6180.00    0.72138   0.73691   20.708
 6181.00    0.71055   0.73787   20.175
 6182.00    0.68879   0.73800   20.097
 6183.00    0.66675   0.73792   20.404
 6184.00    0.65600   0.73728   20.563
 6185.00    0.65993   0.73579   19.918
 6186.00    0.67188   0.73405   18.798
 6187.00    0.67745   0.73180   18.368
 6188.00    0.67171   0.72960   18.765
 6189.00    0.66564   0.72784   18.752
 6190.00    0.66878   0.72559   17.838
 6191.00    0.68072   0.72455   17.039
 6192.00    0.69566   0.72499   16.720
 6193.00    0.70590   0.72513   16.304
 6194.00    0.70620   0.72606   15.579
 6195.00    0.69606   0.72768   14.994
 6196.00    0.68045   0.72907   15.019
 6197.00    0.66884   0.73058   15.998
 6198.00    0.66986   0.73162   17.716
 6199.00    0.68939   0.73239   18.931
 6200.00    0.73145   0.73357   19.223
 6201.00    0.80057   0.73449   19.647
 6202.00    0.90813   0.73525   -2.000
 6203.00    1.05956   0.73626   -2.000
 6204.00    1.20726   0.73713   -2.000
 6205.00    1.25993   0.73789   -2.000
 6206.00    1.15564   0.73825   -2.000
 6207.00    0.89524   0.73804   -2.000
 6208.00    0.56942   0.73743   -2.000
 6209.00    0.31852   0.73593   -2.000
 6210.00    0.21055   0.73383   -2.000
 6211.00    0.23018   0.73153   -2.000
 6212.00    0.33241   0.72837   -2.000
 6213.00    0.46254   0.72538   -2.000
 6214.00    0.57030   0.72285   15.926
 6215.00    0.62477   0.72021   15.794
 6216.00    0.63793   0.71861   16.720
 6217.00    0.64602   0.71763   18.084
 6218.00    0.66304   0.71663   19.180
 6219.00    0.68234   0.71666   19.757
 6220.00    0.69704   0.71709   20.032
 6221.00    0.70451   0.71758   20.344
 6222.00    0.70708   0.71837   20.538
 6223.00    0.70907   0.71871   20.235
 6224.00    0.71186   0.71904   19.546
 6225.00    0.71385   0.71915   18.879
 6226.00    0.71186   0.71839   18.528
 6227.00    0.70370   0.71761   18.538
 6228.00    0.69161   0.71663   18.583
 6229.00    0.68107   0.71495   18.436
 6230.00    0.67843   0.71395   18.595
 6231.00    0.68623   0.71366   19.481
 6232.00    0.69815   0.71327   20.301
 6233.00    0.70526   0.71376   19.843
 6234.00    0.70398   0.71467   18.439
 6235.00    0.69477   0.71531   17.146
 6236.00    0.67996   0.71592   16.562
 6237.00    0.66428   0.71609   16.819
 6238.00    0.65521   0.71582   17.607
 6239.00    0.65738   0.71480   18.541
 6240.00    0.66744   0.71375   19.613
 6241.00    0.67671   0.71258   20.869
 6242.00    0.67513   0.71071   21.873
 6243.00    0.66115   0.70978   22.167
 6244.00    0.64793   0.70925   21.956
 6245.00    0.64681   0.70837   21.585
 6246.00    0.65543   0.70847   21.059
 6247.00    0.66861   0.70885   20.429
 6248.00    0.68644   0.70876   19.973
 6249.00    0.70937   0.70882   19.784
 6250.00    0.73444   0.70841   19.619
 6251.00    0.75509   0.70716   19.321
 6252.00    0.76262   0.70586   19.026
 6253.00    0.75483   0.70437   18.860
 6254.00    0.73948   0.70268   18.811
 6255.00    0.72420   0.70127   18.861
 6256.00    0.71118   0.70041   19.039
 6257.00    0.70033   0.70001   19.284
 6258.00    0.69103   0.70056   19.407
 6259.00    0.68257   0.70217   19.338
 6260.00    0.67516   0.70382   19.198
 6261.00    0.67384   0.70608   19.015
 6262.00    0.68845   0.70907   18.698
 6263.00    0.72558   0.71140   18.438
 6264.00    0.78311   0.71340   18.503
 6265.00    0.84270   0.71556   17.946
 6266.00    0.87322   0.71727   15.430
 6267.00    0.85402   0.71850   12.406
 6268.00    0.78430   0.71945   10.456
 6269.00    0.68452   0.72021    9.499
 6270.00    0.58932   0.72098    9.139
 6271.00    0.52431   0.72160    9.371
 6272.00    0.49957   0.72203   10.543
 6273.00    0.51371   0.72225   12.986
 6274.00    0.55594   0.72233   16.381
 6275.00    0.60829   0.72227   19.370
 6276.00    0.65151   0.72174   20.562
 6277.00    0.67841   0.72111   20.319
 6278.00    0.69281   0.72047   20.082
 6279.00    0.69820   0.71958   20.197
 6280.00    0.69684   0.71923    0.000
 6281.00    0.69419   0.71917    0.000
 6282.00    0.69695   0.71938    0.000
 6283.00    0.70699   0.72028    0.000
 6284.00    0.72080   0.72117    0.000
 6285.00    0.73135   0.72243    0.000
 6286.00    0.73236   0.72389    0.000
 6287.00    0.72502   0.72486    0.000
 6288.00    0.71569   0.72578    0.000
 6289.00    0.70941   0.72612    0.000
 6290.00    0.70861   0.72592    0.000
 6291.00    0.71300   0.72550    0.000
 6292.00    0.72018   0.72437    0.000
 6293.00    0.72686   0.72310    0.000
 6294.00    0.73077   0.72168    0.000
 6295.00    0.73319   0.71973    0.000
 6296.00    0.73899   0.71789    0.000
 6297.00    0.75597   0.71623    0.000
 6298.00    0.78968   0.71482    0.000
 6299.00    0.83724   0.71369    0.000
 6300.00    0.88850   0.71274    0.000
 6301.00    0.92866   0.71251    0.000
 6302.00    0.94396   0.71306    0.000
 6303.00    0.92792   0.71406    0.000
 6304.00    0.88480   0.71529    0.000
 6305.00    0.83156   0.71674    0.000
 6306.00    0.78640   0.71856    0.000
 6307.00    0.75798   0.72009    0.000
 6308.00    0.74769   0.72092    0.000
 6309.00    0.75275   0.72135    0.000
 6310.00    0.76625   0.72122    0.000
 6311.00    0.77787   0.72046    0.000
 6312.00    0.77971   0.71944    0.000
 6313.00    0.77076   0.71780    0.000
 6314.00    0.75526   0.71581    0.000
 6315.00    0.74057   0.71455    0.000
 6316.00    0.73118   0.71336    0.000
 6317.00    0.72574   0.71202    0.000
 6318.00    0.72366   0.71184    0.000
 6319.00    0.72816   0.71240    0.000
 6320.00    0.73767   0.71325    0.000
 6321.00    0.74284   0.71457   21.557
 6322.00    0.73903   0.71623   21.563
 6323.00    0.73171   0.71830   21.565
 6324.00    0.72645   0.72024   21.412
 6325.00    0.72399   0.72191   21.180
 6326.00    0.72281   0.72316   20.972
 6327.00    0.72075   0.72427   20.825
 6328.00    0.71563   0.72509   20.747
 6329.00    0.70643   0.72491   20.730
 6330.00    0.69656   0.72456   20.710
 6331.00    0.69304   0.72396   20.591
 6332.00    0.69756   0.72285   20.383
 6333.00    0.70484   0.72157   20.228
 6334.00    0.71011   0.71976   20.285
 6335.00    0.71275   0.71816   20.634
 6336.00    0.71885   0.71721   20.994
 6337.00    0.73679   0.71626   20.843
 6338.00    0.76068   0.71544   20.340
 6339.00    0.77288   0.71533   20.188
 6340.00    0.76757   0.71541   20.569
 6341.00    0.75325   0.71548   21.127
 6342.00    0.73928   0.71558   21.574
 6343.00    0.73124   0.71545   21.844
 6344.00    0.72948   0.71585   21.944
 6345.00    0.73086   0.71614   21.926
 6346.00    0.73372   0.71620   21.912
 6347.00    0.73816   0.71680   22.019
 6348.00    0.74357   0.71749   22.161
 6349.00    0.74914   0.71797   22.141
 6350.00    0.75604   0.71838   21.948
 6351.00    0.76536   0.71853   21.701
 6352.00    0.77318   0.71824   21.426
 6353.00    0.77217   0.71739   21.124
 6354.00    0.75665   0.71594   20.964
 6355.00    0.72646   0.71438   21.071
 6356.00    0.69170   0.71254   21.157
 6357.00    0.66661   0.71015   20.854
 6358.00    0.65822   0.70798   20.394
 6359.00    0.66551   0.70640   20.181
 6360.00    0.68126   0.70491   20.127
 6361.00    0.69754   0.70384   20.012
 6362.00    0.71301   0.70352   20.016
 6363.00    0.73043   0.70392   20.327
 6364.00    0.75192   0.70493   20.537
 6365.00    0.77523   0.70622   20.167
 6366.00    0.79060   0.70795   19.501
 6367.00    0.78953   0.71007   18.964
 6368.00    0.77501   0.71213   18.479
 6369.00    0.75590   0.71392   17.959
 6370.00    0.73942   0.71573   17.722
 6371.00    0.72942   0.71749   17.963
 6372.00    0.72557   0.71893   18.315
 6373.00    0.72431   0.72003   18.388
 6374.00    0.72045   0.72071   18.388
 6375.00    0.71220   0.72125   18.607
 6376.00    0.70475   0.72150   18.922
 6377.00    0.70360   0.72121   19.206
 6378.00    0.70881   0.72083   19.687
 6379.00    0.71623   0.72037   20.424
 6380.00    0.71962   0.71984   20.830
 6381.00    0.71566   0.71953   20.506
 6382.00    0.70695   0.71923   19.960
 6383.00    0.69789   0.71896   19.707
 6384.00    0.69139   0.71895   19.780
 6385.00    0.68803   0.71900   19.996
 6386.00    0.68588   0.71896   20.133
 6387.00    0.68181   0.71864   20.196
 6388.00    0.67325   0.71816   20.499
 6389.00    0.66270   0.71752   21.111
 6390.00    0.65846   0.71665   21.599
 6391.00    0.66498   0.71557   21.685
 6392.00    0.67866   0.71413   21.629
 6393.00    0.69290   0.71305   21.671
 6394.00    0.70169   0.71242   21.782
 6395.00    0.70407   0.71171   21.905
 6396.00    0.70438   0.71126   22.032
 6397.00    0.70559   0.71117   22.053
 6398.00    0.70675   0.71102   21.716
 6399.00    0.70530   0.71088   20.805
 6400.00    0.69947   0.71161   19.337
 6401.00    0.69336   0.71242   17.733
 6402.00    0.69447   0.71292   16.509
 6403.00    0.69891   0.71381   15.955
 6404.00    0.69303   0.71440   16.194
 6405.00    0.67529   0.71487   17.090
 6406.00    0.65851   0.71512   18.149
 6407.00    0.65458   0.71469   18.772
 6408.00    0.66809   0.71466   18.655
 6409.00    0.69236   0.71451   18.219
 6410.00    0.71332   0.71362   18.183
 6411.00    0.72266   0.71323   18.663
 6412.00    0.72017   0.71319   19.278
 6413.00    0.71072   0.71296   19.814
 6414.00    0.70124   0.71285   20.299
 6415.00    0.69583   0.71270   20.623
 6416.00    0.69511   0.71262   20.621
 6417.00    0.69769   0.71273   20.509
 6418.00    0.70103   0.71263   20.695
 6419.00    0.70291   0.71245   21.251
 6420.00    0.70269   0.71263   21.931
 6421.00    0.70292   0.71335   22.392
 6422.00    0.70685   0.71436   22.368
 6423.00    0.71344   0.71527   21.915
 6424.00    0.71890   0.71616   21.293
 6425.00    0.72062   0.71709   20.685
 6426.00    0.71924   0.71789   20.233
 6427.00    0.72035   0.71820   20.149
 6428.00    0.72980   0.71799   20.496
 6429.00    0.74657   0.71728   20.841
 6430.00    0.76383   0.71639   20.732
 6431.00    0.77214   0.71588   20.521
 6432.00    0.76633   0.71510   20.455
 6433.00    0.75296   0.71445   19.624
 6434.00    0.74212   0.71423   17.712
 6435.00    0.73685   0.71402   16.128
 6436.00    0.73487   0.71424   15.654
 6437.00    0.73202   0.71427   15.810
 6438.00    0.72629   0.71428   16.065
 6439.00    0.72129   0.71526   16.728
 6440.00    0.72254   0.71627   18.189
 6441.00    0.73331   0.71709   19.794
 6442.00    0.75115   0.71809   20.427
 6443.00    0.76616   0.71864   20.243
 6444.00    0.76967   0.71901   19.969
 6445.00    0.76128   0.71902   19.768
 6446.00    0.74494   0.71807   19.629
 6447.00    0.72540   0.71678   19.697
 6448.00    0.70847   0.71474   19.990
 6449.00    0.70065   0.71240   20.243
 6450.00    0.70398   0.71100   20.402
 6451.00    0.71336   0.70972   20.876
 6452.00    0.72245   0.70874   21.403
 6453.00    0.72742   0.70840   20.535
 6454.00    0.72594   0.70819   18.411
 6455.00    0.71689   0.70857   16.875
 6456.00    0.70297   0.70914   16.402
 6457.00    0.69077   0.70957   16.286
 6458.00    0.68329   0.70994   16.311
 6459.00    0.67753   0.70999   17.142
 6460.00    0.67201   0.70988   18.894
 6461.00    0.66916   0.70929   20.039
 6462.00    0.66836   0.70896   19.294
 6463.00    0.66464   0.70928   17.622
 6464.00    0.65702   0.70934   16.189
 6465.00    0.65093   0.70969   15.408
 6466.00    0.65337   0.71023   15.225
 6467.00    0.66874   0.71086   15.406
 6468.00    0.69199   0.71156   15.966
 6469.00    0.71054   0.71194   17.169
 6470.00    0.72013   0.71201   18.756
 6471.00    0.72635   0.71200   19.599
 6472.00    0.73155   0.71205   19.593
 6473.00    0.73363   0.71173   20.031
 6474.00    0.73578   0.71122   21.146
 6475.00    0.74510   0.71084   21.722
 6476.00    0.76067   0.71047   21.045
 6477.00    0.77366   0.70998   19.683
 6478.00    0.77691   0.70934   18.382
 6479.00    0.76845   0.70858   17.543
 6480.00    0.75361   0.70760   17.200
 6481.00    0.74146   0.70664   17.239
 6482.00    0.73579   0.70586   17.649
 6483.00    0.73486   0.70522   18.448
 6484.00    0.73555   0.70464   19.380
 6485.00    0.73504   0.70390   19.989
 6486.00    0.73234   0.70303   20.251
 6487.00    0.72826   0.70186   20.466
 6488.00    0.72484   0.69989   20.566
 6489.00    0.72325   0.69718   20.365
 6490.00    0.72059   0.69360   20.244
 6491.00    0.71388   0.68942   20.674
 6492.00    0.70729   0.68486   21.318
 6493.00    0.70661   0.67970   21.472
 6494.00    0.70939   0.67548   21.253
 6495.00    0.70919   0.67234   21.206
 6496.00    0.70364   0.67025   21.388
 6497.00    0.69472   0.67011   21.489
 6498.00    0.68716   0.67090   21.163
 6499.00    0.68351   0.67347   20.526
 6500.00    0.67879   0.67742   20.465
 6501.00    0.66846   0.68156   21.468
 6502.00    0.65798   0.68626   22.299
 6503.00    0.65536   0.69061   21.510
 6504.00    0.66202   0.69459   20.198
 6505.00    0.67527   0.69813   19.560
 6506.00    0.69175   0.70069   19.184
 6507.00    0.70710   0.70256   18.645
 6508.00    0.71579   0.70378   18.555
 6509.00    0.71578   0.70439   19.350
 6510.00    0.71198   0.70446   20.321
 6511.00    0.70889   0.70403   20.618
 6512.00    0.70488   0.70322   20.649
 6513.00    0.69853   0.70220   20.976
 6514.00    0.69326   0.70102   21.302
 6515.00    0.69211   0.69977   21.320
 6516.00    0.69421   0.69873   21.394
 6517.00    0.69927   0.69785   21.735
 6518.00    0.71000   0.69733   21.903
 6519.00    0.72690   0.69734   21.650
 6520.00    0.74529   0.69749   21.430
 6521.00    0.75899   0.69791   21.583
 6522.00    0.76353   0.69842   21.951
 6523.00    0.76053   0.69893   22.224
 6524.00    0.75787   0.69947   22.186
 6525.00    0.75702   0.69959   21.929
 6526.00    0.74946   0.69945   21.809
 6527.00    0.73165   0.69929   21.829
 6528.00    0.71051   0.69903    0.000
 6529.00    0.69347   0.69870    0.000
 6530.00    0.68381   0.69823    0.000
 6531.00    0.68160   0.69768    0.000
 6532.00    0.68447   0.69734    0.000
 6533.00    0.68875   0.69715    0.000
 6534.00    0.69092   0.69699    0.000
 6535.00    0.69088   0.69678    0.000
 6536.00    0.69199   0.69641    0.000
 6537.00    0.69690   0.69604    0.000
 6538.00    0.70626   0.69554    0.000
 6539.00    0.71965   0.69467    0.000
 6540.00    0.73512   0.69328    0.000
 6541.00    0.74706   0.69146    0.000
 6542.00    0.74906   0.68934    0.000
 6543.00    0.74337   0.68687    0.000
 6544.00    0.74058   0.68403    0.000
 6545.00    0.75163   0.68084    0.000
 6546.00    0.78213   0.67782    0.000
 6547.00    0.82461   0.67485    0.000
 6548.00    0.86219   0.67166    0.000
 6549.00    0.88159   0.66822    0.000
 6550.00    0.87703   0.66436    0.000
 6551.00    0.85168   0.66019    0.000
 6552.00    0.81448   0.65532    0.000
 6553.00    0.77300   0.64937    0.000
 6554.00    0.73315   0.64229    0.000
 6555.00    0.70113   0.63396    0.000
 6556.00    0.68556   0.62416    0.000
 6557.00    0.70099   0.61333    0.000
 6558.00    0.78334   0.60205    0.000
 6559.00    1.01161   0.59044    0.000
 6560.00    1.46609   0.57924    0.000
 6561.00    2.15773   0.56894    0.000
 6562.00    2.99841   0.56150    0.000
 6563.00    3.77958   0.55895    0.000
 6564.00    4.26172   0.55983    0.000
 6565.00    4.30031   0.56365    0.000
 6566.00    3.88330   0.57051    0.000
 6567.00    3.15173   0.57972    0.000
 6568.00    2.32434   0.59110    0.000
 6569.00    1.60136   0.60276    0.000
 6570.00    1.10461   0.61328    0.000
 6571.00    0.82879   0.62273    0.000
 6572.00    0.70245   0.63101    0.000
 6573.00    0.65769   0.63821    0.000
 6574.00    0.64693   0.64453    0.000
 6575.00    0.65116   0.65019    0.000
 6576.00    0.66564   0.65511    0.000
 6577.00    0.68642   0.65951    0.000
 6578.00    0.71278   0.66347    0.000
 6579.00    0.75019   0.66701    0.000
 6580.00    0.81022   0.67013    0.000
 6581.00    0.90775   0.67294    0.000
 6582.00    1.04080   0.67530    0.000
 6583.00    1.17870   0.67711    0.000
 6584.00    1.28333   0.67866    0.000
 6585.00    1.32577   0.67970    0.000
 6586.00    1.29401   0.68054    0.000
 6587.00    1.19702   0.68111    0.000
 6588.00    1.06224   0.68116    0.000
 6589.00    0.92968   0.68103    0.000
 6590.00    0.82822   0.68042    0.000
 6591.00    0.76371   0.67959    0.000
 6592.00    0.72746   0.67875    0.000
 6593.00    0.70410   0.67834    0.000
 6594.00    0.68603   0.67849    0.000
 6595.00    0.67741   0.67872    0.000
 6596.00    0.67991   0.67930    0.000
 6597.00    0.68736   0.68018    0.000
 6598.00    0.69211   0.68157    0.000
 6599.00    0.68915   0.68333    0.000
 6600.00    0.68096   0.68471    0.000
 6601.00    0.67625   0.68568    0.000
 6602.00    0.67832   0.68634    0.000
 6603.00    0.68300   0.68662    0.000
 6604.00    0.68672   0.68678    0.000
 6605.00    0.68910   0.68671    0.000
 6606.00    0.69156   0.68630    0.000
 6607.00    0.69608   0.68595    0.000
 6608.00    0.70331   0.68565    0.000
 6609.00    0.71212   0.68589   19.571
 6610.00    0.72037   0.68652   20.107
 6611.00    0.72564   0.68719   20.494
 6612.00    0.72675   0.68807   20.700
 6613.00    0.72450   0.68904   21.143
 6614.00    0.72226   0.69038   21.661
 6615.00    0.72383   0.69165   21.650
 6616.00    0.72816   0.69258   21.293
 6617.00    0.73135   0.69326   21.259
 6618.00    0.73368   0.69371   21.487
 6619.00    0.73754   0.69404   21.451
 6620.00    0.74060   0.69405   21.160
 6621.00    0.73659   0.69366   21.031
 6622.00    0.71972   0.69298   21.266
 6623.00    0.69067   0.69213   21.780
 6624.00    0.66479   0.69117   22.176
 6625.00    0.66003   0.69027   22.010
 6626.00    0.67512   0.68926   21.367
 6627.00    0.69534   0.68814   20.704
 6628.00    0.70708   0.68710   20.426
 6629.00    0.70419   0.68610   20.695
 6630.00    0.69321   0.68526   21.221
 6631.00    0.68512   0.68447   21.527
 6632.00    0.68352   0.68366   21.488
 6633.00    0.68531   0.68311   21.268
 6634.00    0.68417   0.68294   21.049
 6635.00    0.67593   0.68299   20.976
 6636.00    0.66421   0.68321   21.146
 6637.00    0.65594   0.68337   21.549
 6638.00    0.65563   0.68368   21.982
 6639.00    0.66421   0.68410   22.155
 6640.00    0.67844   0.68444   21.892
 6641.00    0.69116   0.68462   21.381
 6642.00    0.69262   0.68438   21.201
 6643.00    0.68079   0.68430   21.559
 6644.00    0.66875   0.68443   21.779
 6645.00    0.66815   0.68460   21.389
 6646.00    0.67585   0.68479   21.047
 6647.00    0.68421   0.68487   21.199
 6648.00    0.68990   0.68517   21.272
 6649.00    0.69252   0.68570   20.891
 6650.00    0.69289   0.68606   20.677
 6651.00    0.69192   0.68622   21.031
 6652.00    0.68999   0.68632   21.487
 6653.00    0.68773   0.68627   21.575
 6654.00    0.68636   0.68617   21.460
 6655.00    0.68634   0.68580   21.370
 6656.00    0.68673   0.68523   21.277
 6657.00    0.68602   0.68453   21.228
 6658.00    0.68323   0.68364   21.463
 6659.00    0.68051   0.68267   21.943
 6660.00    0.68313   0.68147   22.193
 6661.00    0.69253   0.68036   22.009
 6662.00    0.70396   0.67918   21.763
 6663.00    0.71171   0.67838   21.707
 6664.00    0.71214   0.67796   21.756
 6665.00    0.70553   0.67767   21.787
 6666.00    0.69580   0.67783   21.757
 6667.00    0.68624   0.67807   21.645
 6668.00    0.67856   0.67877   21.455
 6669.00    0.67570   0.67959   21.284
 6670.00    0.68138   0.68011   21.256
 6671.00    0.69493   0.68029   21.222
 6672.00    0.71014   0.68016   20.894
 6673.00    0.71802   0.67975   20.584
 6674.00    0.71156   0.67891   20.942
 6675.00    0.69711   0.67777   21.720
 6676.00    0.69097   0.67620   21.818
 6677.00    0.70008   0.67489   21.184
 6678.00    0.71881   0.67413   20.797
 6679.00    0.73557   0.67389   20.959
 6680.00    0.73914   0.67399   21.315
 6681.00    0.72914   0.67429   21.552
 6682.00    0.71396   0.67511   21.572
 6683.00    0.69965   0.67651   21.470
 6684.00    0.68875   0.67811   21.420
 6685.00    0.68306   0.67937   21.469
 6686.00    0.68294   0.68041   21.536
 6687.00    0.68464   0.68122   21.496
 6688.00    0.68228   0.68186   21.309
 6689.00    0.67262   0.68219   21.192
 6690.00    0.65834   0.68218   21.414
 6691.00    0.65171   0.68194   21.905
 6692.00    0.66482   0.68151   22.247
 6693.00    0.69307   0.68095   21.827
 6694.00    0.72020   0.68032   20.643
 6695.00    0.73090   0.67958   19.892
 6696.00    0.71946   0.67894    0.000
 6697.00    0.69874   0.67851    0.000
 6698.00    0.68614   0.67812    0.000
 6699.00    0.68364   0.67793    0.000
 6700.00    0.68332   0.67769    0.000
 6701.00    0.67808   0.67760    0.000
 6702.00    0.66604   0.67756    0.000
 6703.00    0.65377   0.67748    0.000
 6704.00    0.64928   0.67748    0.000
 6705.00    0.65407   0.67738    0.000
 6706.00    0.66498   0.67720    0.000
 6707.00    0.67732   0.67682    0.000
 6708.00    0.68767   0.67641    0.000
 6709.00    0.69617   0.67581    0.000
 6710.00    0.70530   0.67510    0.000
 6711.00    0.71914   0.67420    0.000
 6712.00    0.75026   0.67294    0.000
 6713.00    0.82327   0.67170    0.000
 6714.00    0.95685   0.67023    0.000
 6715.00    1.14787   0.66889    0.000
 6716.00    1.36209   0.66775    0.000
 6717.00    1.53387   0.66687    0.000
 6718.00    1.60702   0.66659    0.000
 6719.00    1.56328   0.66658    0.000
 6720.00    1.41930   0.66686    0.000
 6721.00    1.22021   0.66741    0.000
 6722.00    1.01843   0.66832    0.000
 6723.00    0.85791   0.66950    0.000
 6724.00    0.75792   0.67054    0.000
 6725.00    0.70925   0.67134    0.000
 6726.00    0.70107   0.67213    0.000
 6727.00    0.73399   0.67292    0.000
 6728.00    0.81208   0.67355    0.000
 6729.00    0.93506   0.67399    0.000
 6730.00    1.08294   0.67420    0.000
 6731.00    1.21506   0.67438    0.000
 6732.00    1.29632   0.67439    0.000
 6733.00    1.30833   0.67430    0.000
 6734.00    1.24681   0.67401    0.000
 6735.00    1.12244   0.67358    0.000
 6736.00    0.96810   0.67300    0.000
 6737.00    0.83117   0.67226    0.000
 6738.00    0.73817   0.67157    0.000
 6739.00    0.68708   0.67088    0.000
 6740.00    0.66439   0.67024    0.000
 6741.00    0.65429   0.66956    0.000
 6742.00    0.64860   0.66883    0.000
 6743.00    0.64688   0.66831    0.000
 6744.00    0.64804   0.66790    0.000
 6745.00    0.64894   0.66749    0.000
 6746.00    0.64717   0.66706    0.000
 6747.00    0.64235   0.66658    0.000
 6748.00    0.63723   0.66634    0.000
 6749.00    0.63569   0.66615    0.000
 6750.00    0.63761   0.66614    0.000
 6751.00    0.64004   0.66637    0.000
 6752.00    0.64235   0.66664    0.000
 6753.00    0.64528   0.66732   22.323
 6754.00    0.64712   0.66806   22.308
 6755.00    0.64520   0.66908   21.985
 6756.00    0.64040   0.67018   21.751
 6757.00    0.63624   0.67112   21.623
 6758.00    0.63594   0.67212   20.107
 6759.00    0.64093   0.67279   16.790
 6760.00    0.64949   0.67330   13.913
 6761.00    0.65915   0.67344   12.399
 6762.00    0.67050   0.67335   11.567
 6763.00    0.68246   0.67297   10.889
 6764.00    0.68567   0.67226   10.738
 6765.00    0.67582   0.67146   11.581
 6766.00    0.67141   0.67049   13.093
 6767.00    0.69208   0.66970   14.144
 6768.00    0.72945   0.66915   14.220
 6769.00    0.76292   0.66875   13.870
 6770.00    0.78245   0.66858   13.709
 6771.00    0.78841   0.66877   14.049
 6772.00    0.78776   0.66930   14.842
 6773.00    0.78527   0.67017   15.823
 6774.00    0.77579   0.67103   16.665
 6775.00    0.75358   0.67181   17.118
 6776.00    0.72192   0.67251   17.233
 6777.00    0.69132   0.67300   17.183
 6778.00    0.67591   0.67324   17.039
 6779.00    0.68188   0.67303   16.880
 6780.00    0.69905   0.67250   16.898
 6781.00    0.71106   0.67164   17.210
 6782.00    0.70499   0.67062   17.713
 6783.00    0.67987   0.66956   18.089
 6784.00    0.65027   0.66862   17.896
 6785.00    0.63049   0.66780   17.096
 6786.00    0.62386   0.66719   16.208
 6787.00    0.62679   0.66680   15.629
 6788.00    0.63294   0.66659   15.443
 6789.00    0.63988   0.66659   15.667
 6790.00    0.65150   0.66666   16.345
 6791.00    0.66910   0.66681   17.342
 6792.00    0.68714   0.66692   18.171
 6793.00    0.69847   0.66700   18.468
 6794.00    0.69880   0.66711   18.393
 6795.00    0.69402   0.66718   18.023
 6796.00    0.69913   0.66734   17.187
 6797.00    0.71672   0.66746   16.191
 6798.00    0.73286   0.66761   15.663
 6799.00    0.74256   0.66784   15.686
 6800.00    0.75465   0.66800   15.844
 6801.00    0.76585   0.66813   16.045
 6802.00    0.75893   0.66817   16.672
 6803.00    0.73545   0.66809   17.755
 6804.00    0.71786   0.66798   18.639
 6805.00    0.71299   0.66784   18.841
 6806.00    0.70806   0.66754   18.523
 6807.00    0.70040   0.66732   17.822
 6808.00    0.70050   0.66705   16.773
 6809.00    0.71067   0.66680   15.774
 6810.00    0.72164   0.66669   15.287
 6811.00    0.72235   0.66649   15.300
 6812.00    0.70603   0.66646   15.564
 6813.00    0.67814   0.66642   16.268
 6814.00    0.65308   0.66641   17.912
 6815.00    0.64083   0.66659   19.997
 6816.00    0.64212   0.66680   20.458
 6817.00    0.64591   0.66699   18.834
 6818.00    0.63959   0.66719   16.776
 6819.00    0.63153   0.66740   15.135
 6820.00    0.63995   0.66769   14.016
 6821.00    0.66118   0.66805   13.420
 6822.00    0.67686   0.66824   13.388
 6823.00    0.67983   0.66837   14.083
 6824.00    0.67435   0.66833   15.696
 6825.00    0.66778   0.66823   17.870
 6826.00    0.66597   0.66809   19.429
 6827.00    0.66839   0.66784   19.876
 6828.00    0.67037   0.66767   19.895
 6829.00    0.66800   0.66747   20.000
 6830.00    0.66080   0.66730   20.291
 6831.00    0.65428   0.66705   20.609
 6832.00    0.65478   0.66674   20.635
 6833.00    0.66229   0.66642   20.079
 6834.00    0.67224   0.66597   18.955
 6835.00    0.67911   0.66531   17.674
 6836.00    0.67860   0.66436   16.679
 6837.00    0.66967   0.66325   16.247
 6838.00    0.65512   0.66197   16.464
 6839.00    0.64155   0.66079   17.170
 6840.00    0.63555   0.65967   18.094
 6841.00    0.63986   0.65887   18.987
 6842.00    0.65447   0.65847   19.251
 6843.00    0.67775   0.65840   17.885
 6844.00    0.70350   0.65876   15.441
 6845.00    0.71959   0.65927   13.677
 6846.00    0.71989   0.66000   13.105
 6847.00    0.71288   0.66079   13.255
 6848.00    0.70640   0.66151   13.778
 6849.00    0.69663   0.66203   14.920
 6850.00    0.68074   0.66222   16.912
 6851.00    0.66553   0.66206   18.978
 6852.00    0.65730   0.66162   19.844
 6853.00    0.65508   0.66091   19.629
 6854.00    0.65610   0.66003   19.230
 6855.00    0.65941   0.65921   19.134
 6856.00    0.66442   0.65848   19.316
 6857.00    0.66978   0.65780   19.350
 6858.00    0.67269   0.65726   19.113
 6859.00    0.66955   0.65689   19.061
 6860.00    0.66129   0.65675   19.417
 6861.00    0.65450   0.65689   19.852
 6862.00    0.65321   0.65716   19.918
 6863.00    0.65578   0.65750   19.400
 6864.00    0.66062   0.65774   18.512
 6865.00    0.66792   0.65779   17.728
 6866.00    0.67525   0.65787   17.353
 6867.00    0.67759   0.65787   17.473
 6868.00    0.67548   0.65788   17.931
 6869.00    0.67516   0.65785   18.334
 6870.00    0.67704   0.65773   18.415
 6871.00    0.67470   0.65767   18.175
 6872.00    0.66678   0.65766   17.596
 6873.00    0.65899   0.65790   16.658
 6874.00    0.65639   0.65818   15.628
 6875.00    0.66063   0.65855   14.906
 6876.00    0.66977   0.65887   14.760
 6877.00    0.67914   0.65920   15.343
 6878.00    0.68396   0.65941   16.528
 6879.00    0.68075   0.65944   17.811
 6880.00    0.66899   0.65950   18.810
 6881.00    0.65134   0.65940   19.534
 6882.00    0.63309   0.65945   20.006
 6883.00    0.61992   0.65946   20.178
 6884.00    0.61307   0.65966   20.157
 6885.00    0.61041   0.65995   20.153
 6886.00    0.61108   0.66035   20.255
 6887.00    0.61506   0.66105   20.425
 6888.00    0.62025   0.66177   20.595
 6889.00    0.62340   0.66253   20.655
 6890.00    0.62299   0.66321   20.414
 6891.00    0.62008   0.66378   19.858
 6892.00    0.61860   0.66416   19.468
 6893.00    0.62345   0.66444   19.642
 6894.00    0.63713   0.66454   19.891
 6895.00    0.65682   0.66459   19.504
 6896.00    0.67133   0.66453   18.897
 6897.00    0.67051   0.66442   18.788
 6898.00    0.65913   0.66440   19.071
 6899.00    0.65051   0.66435   19.248
 6900.00    0.65494   0.66444   19.137
 6901.00    0.67293   0.66462   18.917
 6902.00    0.68988   0.66485   18.950
 6903.00    0.69260   0.66508   19.343
 6904.00    0.68844   0.66532   19.476
 6905.00    0.68956   0.66551   18.811
 6906.00    0.69375   0.66567   17.894
 6907.00    0.69146   0.66565   17.359
 6908.00    0.67582   0.66544   17.221
 6909.00    0.64816   0.66507   17.345
 6910.00    0.62116   0.66445   17.784
 6911.00    0.60600   0.66372   18.563
 6912.00    0.60123   0.66292   19.433
 6913.00    0.60100   0.66204   20.028
 6914.00    0.60278   0.66131   20.178
 6915.00    0.60653   0.66074   20.081
 6916.00    0.61349   0.66027   20.230
 6917.00    0.62552   0.66010   20.689
 6918.00    0.64393   0.66003   20.678
 6919.00    0.66411   0.66013   19.938
 6920.00    0.67396   0.66032   19.435
 6921.00    0.66860   0.66036   19.701
 6922.00    0.65760   0.66050   20.243
 6923.00    0.64924   0.66039   20.455
 6924.00    0.64233   0.66039   20.281
 6925.00    0.63629   0.66035   20.012
 6926.00    0.63554   0.66030   19.973
 6927.00    0.64073   0.66034   20.098
 6928.00    0.64544   0.66026   19.902
 6929.00    0.64419   0.66035   19.417
 6930.00    0.63670   0.66033   19.327
 6931.00    0.62797   0.66052   19.763
 6932.00    0.62558   0.66064   20.048
 6933.00    0.62882   0.66078   19.839
 6934.00    0.62816   0.66097   19.551
 6935.00    0.62229   0.66098   19.414
 6936.00    0.62050   0.66110   19.266
 6937.00    0.62475   0.66103   19.076
 6938.00    0.62739   0.66105   19.004
 6939.00    0.62706   0.66091   18.967
 6940.00    0.63120   0.66066   18.663
 6941.00    0.64494   0.66032   18.106
 6942.00    0.66651   0.65975   17.585
 6943.00    0.68508   0.65930   17.164
 6944.00    0.68690   0.65878   16.752
 6945.00    0.67413   0.65846   16.518
 6946.00    0.66234   0.65823   16.760
 6947.00    0.65956   0.65805   17.354
 6948.00    0.66288   0.65794   17.813
 6949.00    0.66487   0.65792   18.034
 6950.00    0.65884   0.65796   18.329
 6951.00    0.64714   0.65810   18.745
 6952.00    0.63791   0.65831   19.060
 6953.00    0.63423   0.65858   19.228
 6954.00    0.63322   0.65886   19.358
 6955.00    0.62965   0.65917   19.395
 6956.00    0.62017   0.65960   19.228
 6957.00    0.60967   0.66000   19.014
 6958.00    0.60603   0.66053   18.965
 6959.00    0.60887   0.66103   18.912
 6960.00    0.61167   0.66157   18.626
 6961.00    0.60883   0.66204   18.398
 6962.00    0.60044   0.66242   18.605
 6963.00    0.59734   0.66278   19.012
 6964.00    0.61073   0.66299   19.096
 6965.00    0.63641   0.66320   18.800
 6966.00    0.66029   0.66327   18.443
 6967.00    0.66911   0.66328   18.346
 6968.00    0.65766   0.66306   18.587
 6969.00    0.63515   0.66269   18.774
 6970.00    0.61418   0.66208   18.602
 6971.00    0.59714   0.66126   18.556
 6972.00    0.58357   0.66021   19.028
 6973.00    0.57908   0.65887   19.340
 6974.00    0.58604   0.65740   18.847
 6975.00    0.59417   0.65573   18.292
 6976.00    0.59472   0.65427   18.376
 6977.00    0.59386   0.65306   18.695
 6978.00    0.60055   0.65231   18.636
 6979.00    0.61471   0.65216   18.281
 6980.00    0.63045   0.65247   17.969
 6981.00    0.64041   0.65323   17.831
 6982.00    0.64165   0.65430   17.852
 6983.00    0.63947   0.65566   17.937
 6984.00    0.64182   0.65707   18.011
 6985.00    0.65424   0.65843   18.086
 6986.00    0.67513   0.65963   18.213
 6987.00    0.69404   0.66060   18.439
 6988.00    0.70119   0.66123   18.755
 6989.00    0.69387   0.66168   19.072
 6990.00    0.67627   0.66194   19.334
 6991.00    0.65780   0.66202   19.574
 6992.00    0.64553   0.66201   19.791
 6993.00    0.64003   0.66184   19.879
 6994.00    0.63677   0.66161   19.782
 6995.00    0.62866   0.66122   19.565
 6996.00    0.61417   0.66071   19.351
 6997.00    0.59996   0.66007   19.248
 6998.00    0.59414   0.65931   19.218
 6999.00    0.60127   0.65854   19.099
 7000.00    0.61533   0.65777   18.981
 7001.00    0.62179   0.65701   -2.000
 7002.00    0.61778   0.65637   -2.000
 7003.00    0.61486   0.65577   -2.000
 7004.00    0.61836   0.65538   -2.000
 7005.00    0.62255   0.65512   -2.000
 7006.00    0.62243   0.65500   -2.000
 7007.00    0.61799   0.65502   -2.000
 7008.00    0.61422   0.65500   -2.000
 7009.00    0.61773   0.65494   -2.000
 7010.00    0.62722   0.65474   -2.000
 7011.00    0.63483   0.65445   -2.000
 7012.00    0.63836   0.65406   -2.000
 7013.00    0.64150   0.65346   -2.000
 7014.00    0.64493   0.65289   -2.000
 7015.00    0.64607   0.65240   -2.000
 7016.00    0.64471   0.65205   -2.000
 7017.00    0.64318   0.65200   -2.000
 7018.00    0.64343   0.65204   -2.000
 7019.00    0.64598   0.65230   -2.000
 7020.00    0.64934   0.65259   -2.000
 7021.00    0.65129   0.65294   -2.000
 7022.00    0.65180   0.65337   -2.000
 7023.00    0.65185   0.65388   -2.000
 7024.00    0.65022   0.65453   -2.000
 7025.00    0.64652   0.65513   -2.000
 7026.00    0.64723   0.65567   -2.000
 7027.00    0.65830   0.65620   -2.000
 7028.00    0.67168   0.65676   -2.000
 7029.00    0.67482   0.65726   -2.000
 7030.00    0.66845   0.65777   -2.000
 7031.00    0.66196   0.65821   -2.000
 7032.00    0.66254   0.65862   -2.000
 7033.00    0.67102   0.65893   -2.000
 7034.00    0.67898   0.65916   -2.000
 7035.00    0.67783   0.65936   -2.000
 7036.00    0.67027   0.65972   -2.000
 7037.00    0.66241   0.66027   -2.000
 7038.00    0.65336   0.66105   -2.000
 7039.00    0.64040   0.66215   -2.000
 7040.00    0.62607   0.66336   -2.000
 7041.00    0.61688   0.66469   -2.000
 7042.00    0.62030   0.66598   -2.000
 7043.00    0.63541   0.66723   -2.000
 7044.00    0.64605   0.66820   -2.000
 7045.00    0.63993   0.66902   -2.000
 7046.00    0.62511   0.66953   -2.000
 7047.00    0.61418   0.66958   -2.000
 7048.00    0.61003   0.66913   -2.000
 7049.00    0.61056   0.66817   -2.000
 7050.00    0.61339   0.66685   -2.000
 7051.00    0.61635   0.66522   -2.000
 7052.00    0.61773   0.66345   -2.000
 7053.00    0.61736   0.66165   -2.000
 7054.00    0.61690   0.65985   -2.000
 7055.00    0.61751   0.65810   -2.000
 7056.00    0.61818   0.65644   -2.000
 7057.00    0.61565   0.65498   -2.000
 7058.00    0.60568   0.65370   -2.000
 7059.00    0.59061   0.65261   -2.000
 7060.00    0.58133   0.65180   -2.000
 7061.00    0.58436   0.65120   -2.000
 7062.00    0.59663   0.65070   -2.000
 7063.00    0.61449   0.65024   -2.000
 7064.00    0.63685   0.64992   -2.000
 7065.00    0.65812   0.64951   -2.000
 7066.00    0.66757   0.64936   -2.000
 7067.00    0.66156   0.64937   -2.000
 7068.00    0.64709   0.64962   -2.000
 7069.00    0.63430   0.65002   -2.000
 7070.00    0.63094   0.65055   -2.000
 7071.00    0.63384   0.65124   -2.000
 7072.00    0.63036   0.65185   -2.000
 7073.00    0.61441   0.65255   -2.000
 7074.00    0.59065   0.65308   -2.000
 7075.00    0.56884   0.65350   -2.000
 7076.00    0.55816   0.65367   -2.000
 7077.00    0.55603   0.65350   -2.000
 7078.00    0.55235   0.65290   -2.000
 7079.00    0.55072   0.65185   -2.000
 7080.00    0.56406   0.65038   -2.000
 7081.00    0.58680   0.64841   -2.000
 7082.00    0.59973   0.64614   -2.000
 7083.00    0.60077   0.64367   -2.000
 7084.00    0.60281   0.64104   -2.000
 7085.00    0.61041   0.63844   -2.000
 7086.00    0.61905   0.63584   -2.000
 7087.00    0.62547   0.63346   -2.000
 7088.00    0.62745   0.63128   -2.000
 7089.00    0.61884   0.62955   -2.000
 7090.00    0.59537   0.62802   -2.000
 7091.00    0.56708   0.62710   -2.000
 7092.00    0.55136   0.62649   -2.000
 7093.00    0.55619   0.62630   -2.000
 7094.00    0.57676   0.62651   -2.000
 7095.00    0.59531   0.62686   -2.000
 7096.00    0.59395   0.62794   -2.000
 7097.00    0.57387   0.62875   -2.000
 7098.00    0.54918   0.63026   -2.000
 7099.00    0.53359   0.63135   -2.000
 7100.00    0.53657   0.63273   -2.000
 7101.00    0.56064   0.63392   -2.000
 7102.00    0.59785   0.63495   -2.000
 7103.00    0.62689   0.63591   -2.000
 7104.00    0.62894   0.63639   -2.000
 7105.00    0.60640   0.63694   -2.000
 7106.00    0.57685   0.63701   -2.000
 7107.00    0.56246   0.63703   -2.000
 7108.00    0.57302   0.63681   -2.000
 7109.00    0.59172   0.63661   -2.000
 7110.00    0.60027   0.63643   -2.000
 7111.00    0.60294   0.63636   -2.000
 7112.00    0.60776   0.63632   -2.000
 7113.00    0.60886   0.63643   -2.000
 7114.00    0.60080   0.63659   -2.000
 7115.00    0.59092   0.63685   -2.000
 7116.00    0.58754   0.63706   -2.000
 7117.00    0.59037   0.63723   -2.000
 7118.00    0.59472   0.63732   -2.000
 7119.00    0.59577   0.63721   -2.000
 7120.00    0.59254   0.63706   -2.000
 7121.00    0.58929   0.63669   -2.000
 7122.00    0.58807   0.63616   -2.000
 7123.00    0.58518   0.63548   -2.000
 7124.00    0.58069   0.63466   -2.000
 7125.00    0.58271   0.63383   -2.000
 7126.00    0.59724   0.63291   -2.000
 7127.00    0.62335   0.63204   -2.000
 7128.00    0.65966   0.63118   -2.000
 7129.00    0.70583   0.63065   -2.000
 7130.00    0.75187   0.63029   -2.000
 7131.00    0.77659   0.63024   -2.000
 7132.00    0.76582   0.63046   -2.000
 7133.00    0.72218   0.63086   -2.000
 7134.00    0.66862   0.63163   -2.000
 7135.00    0.63939   0.63233   -2.000
 7136.00    0.63894   0.63320   -2.000
 7137.00    0.63729   0.63390   -2.000
 7138.00    0.61645   0.63468   -2.000
 7139.00    0.58243   0.63520   -2.000
 7140.00    0.54312   0.63554   -2.000
 7141.00    0.50211   0.63569   -2.000
 7142.00    0.46539   0.63553   -2.000
 7143.00    0.44268   0.63532   -2.000
 7144.00    0.44390   0.63487   -2.000
 7145.00    0.47331   0.63431   -2.000
 7146.00    0.51628   0.63395   -2.000
 7147.00    0.54678   0.63370   -2.000
 7148.00    0.55714   0.63372   -2.000
 7149.00    0.55828   0.63401   -2.000
 7150.00    0.55989   0.63461   -2.000
 7151.00    0.56525   0.63542   -2.000
 7152.00    0.57149   0.63642   -2.000
 7153.00    0.57297   0.63751   -2.000
 7154.00    0.56849   0.63865   -2.000
 7155.00    0.56230   0.63961   -2.000
 7156.00    0.56292   0.64037   -2.000
 7157.00    0.57531   0.64075   -2.000
 7158.00    0.58761   0.64077   -2.000
 7159.00    0.58357   0.64054   -2.000
 7160.00    0.56878   0.63974   -2.000
 7161.00    0.56273   0.63885   -2.000
 7162.00    0.57783   0.63761   -2.000
 7163.00    0.61598   0.63670   -2.000
 7164.00    0.66896   0.63583   -2.000
 7165.00    0.72264   0.63528   -2.000
 7166.00    0.76290   0.63502   -2.000
 7167.00    0.77494   0.63503   -2.000
 7168.00    0.74205   0.63546   -2.000
 7169.00    0.65998   0.63601   -2.000
 7170.00    0.55441   0.63675   -2.000
 7171.00    0.46774   0.63739   -2.000
 7172.00    0.43907   0.63799   -2.000
 7173.00    0.48161   0.63829   -2.000
 7174.00    0.56299   0.63843   -2.000
 7175.00    0.63968   0.63828   -2.000
 7176.00    0.69388   0.63785   -2.000
 7177.00    0.71892   0.63711   -2.000
 7178.00    0.70310   0.63626   -2.000
 7179.00    0.64601   0.63534   -2.000
 7180.00    0.57257   0.63456   -2.000
 7181.00    0.51201   0.63372   -2.000
 7182.00    0.47896   0.63293   -2.000
 7183.00    0.47539   0.63222   -2.000
 7184.00    0.49398   0.63142   -2.000
 7185.00    0.52348   0.63079   -2.000
 7186.00    0.55303   0.63020   -2.000
 7187.00    0.57525   0.62975   -2.000
 7188.00    0.58773   0.62951   -2.000
 7189.00    0.58970   0.62933   -2.000
 7190.00    0.58114   0.62940   -2.000
 7191.00    0.57150   0.62952   -2.000
 7192.00    0.58041   0.62997   -2.000
 7193.00    0.61051   0.63037   -2.000
 7194.00    0.63730   0.63083   -2.000
 7195.00    0.63991   0.63144   -2.000
 7196.00    0.61680   0.63192   -2.000
 7197.00    0.57867   0.63246   -2.000
 7198.00    0.54202   0.63272   -2.000
 7199.00    0.51844   0.63287   -2.000
 7200.00    0.51166   0.63290   -2.000
 7201.00    0.52676   0.63286   -2.000
 7202.00    0.57008   0.63264   -2.000
 7203.00    0.63235   0.63227   -2.000
 7204.00    0.68869   0.63167   -2.000
 7205.00    0.72456   0.63122   -2.000
 7206.00    0.74161   0.63084   -2.000
 7207.00    0.74209   0.63061   -2.000
 7208.00    0.72298   0.63064   -2.000
 7209.00    0.67575   0.63072   -2.000
 7210.00    0.59556   0.63112   -2.000
 7211.00    0.50850   0.63158   -2.000
 7212.00    0.46109   0.63233   -2.000
 7213.00    0.46674   0.63308   -2.000
 7214.00    0.50426   0.63395   -2.000
 7215.00    0.55624   0.63486   -2.000
 7216.00    0.61475   0.63563   -2.000
 7217.00    0.66889   0.63646   -2.000
 7218.00    0.70412   0.63708   -2.000
