###################################################################
## OUTPUT of StarlightChains_v04.for    [Cid@UFSC - 01/Apr/2007] ##
###################################################################

## Some input info
2011cj.txt                               [arq_obs]
Base.CB07.vall.4m                        [arq_base]
Masks.EmLines.NEW.gm                     [arq_masks]
StCv04.C11.config                        [arq_config]
   66                                    [N_base]
    0                                    [N_YAV_components = # of components with extra extinction!]
    0                                    [i_FitPowerLaw (1/0 = Yes/No)]
-9.99                                    [alpha_PowerLaw]
CCM                                      [red_law_option]
 1.458241                                [q_norm = A(l_norm)/A(V)]

## (Re)Sampling Parameters
 3741.00                                 [l_ini (A)]
 7218.00                                 [l_fin (A)]
    1.00                                 [dl    (A)]     (OBS: dl_cushion =    50.00 A)

## Normalization info
 4020.00                                 [l_norm (A) - for base]
 4010.00                                 [llow_norm (A) - window for f_obs]
 4060.00                                 [lupp_norm (A) - window for f_obs]
6.862701E-16                             [fobs_norm (in input units)]

## S/N
 3691.00                                 [llow_SN (A) - window for S/N]
 7268.00                                 [lupp_SN (A) - window for S/N]
   4.962                                 [S/N in S/N window]
   6.969                                 [S/N in norm. window]
  14.019                                 [S/N_err in S/N window]
  19.691                                 [S/N_err in norm. window]
  1.0000                                 [fscale_chi2]

## etc...
    -2007372                             [idum_orig]
  2388                                   [NOl_eff]
  2386                                   [Nl_eff]
     2    NSIGMA                         [Ntot_cliped & clip_method]
  1503600                                [Nglobal_steps]
   7                                     [N_chains]
  21                                     [NEX0s_base = N_base in EX0s-fits]
 0   0   1        1   2.0   4.212E+01    [Clip-Bug, RC-Crash & Burn-In warning-flags, n_censored_weights, wei_nsig_threshold & wei_limit]
    14     13.806     13.298      0.508  [idt_all, wdt_TotTime, wdt_UsrTime & wdt_SysTime (sec)]

## Synthesis Results - Best model ##

 2.04443E-01                             [chi2/Nl_eff]
     2.32130                             [adev (%)]

   103.05757                             [sum-of-x (%)]
 1.13503E-15                             [Flux_tot (units of input spectrum!)]
 1.32985E-12                             [Mini_tot (???)]
 8.44724E-13                             [Mcor_tot (???)]

  -4.03                                  [v0_min  (km/s)]
 181.30                                  [vd_min  (km/s)]
 0.3522                                  [AV_min  (mag)]
 0.0000                                  [YAV_min (mag)]

# j     x_j(%)      Mini_j(%)     Mcor_j(%)     age_j(yr)     Z_j      (L/M)_j    YAV?  Mstars   component_j        a/Fe...       SSP_chi2r SSP_adev(%)   SSP_AV   SSP_x(%)
  1      0.0000     0.0000E+00    0.0000E+00    1.000000E+06  0.00400  1.094E-02    0   1.0000   age020_m42            0.0000     8.1390E-01     5.0387   2.2291    85.5586
  2      0.0000     0.0000E+00    0.0000E+00    3.160000E+06  0.00400  4.007E-02    0   0.9999   age045_m42            0.0000     5.2096E-01     3.8152   1.4708    93.0452
  3      0.0000     0.0000E+00    0.0000E+00    5.010000E+06  0.00400  2.539E-02    0   0.9488   age055_m42            0.0000     5.8314E-01     4.1555   1.7997    90.3136
  4      0.0000     0.0000E+00    0.0000E+00    6.610000E+06  0.00400  2.620E-02    0   0.9220   age061_m42            0.0000     4.6407E-01     3.5696   1.3881    93.7003
  5      2.2066     1.3824E-01    1.9286E-01    1.000000E+07  0.00400  1.322E-02    0   0.8862   age070_m42            0.0000     2.9120E-01     2.8054   1.0738    97.3456
  6      0.7608     7.9926E-02    1.0785E-01    1.445000E+07  0.00400  7.883E-03    0   0.8571   age078_m42            0.0000     3.6369E-01     3.1777   1.4141    94.2125
  7      2.7528     4.3416E-01    5.5870E-01    2.512000E+07  0.00400  5.251E-03    0   0.8174   age090_m42            0.0000     2.8151E-01     2.7430   0.9344    98.3673
  8      2.7118     6.1547E-01    7.6071E-01    4.000000E+07  0.00400  3.649E-03    0   0.7851   age104_m42            0.0000     2.5545E-01     2.6167   0.7052    99.2904
  9      0.0000     0.0000E+00    0.0000E+00    5.500000E+07  0.00400  3.098E-03    0   0.7629   age110_m42            0.0000     2.9939E-01     2.8114   0.8686    98.7992
 10      0.0000     0.0000E+00    0.0000E+00    1.015200E+08  0.00400  2.228E-03    0   0.7207   age116_m42            0.0000     3.7188E-01     3.1063   0.8934    98.7662
 11      0.0000     0.0000E+00    0.0000E+00    2.861200E+08  0.00400  1.093E-03    0   0.6648   age125_m42            0.0000     3.7024E-01     3.1569   0.3074   102.7883
 12      0.0000     0.0000E+00    0.0000E+00    5.088000E+08  0.00400  6.597E-04    0   0.6365   age130_m42            0.0000     4.8922E-01     3.5348   0.3091   103.0282
 13      0.0000     0.0000E+00    0.0000E+00    1.434000E+09  0.00400  2.132E-04    0   0.5798   age139_m42            0.0000     5.0532E-01     3.7104  -0.6568   104.8274
 14      0.0000     0.0000E+00    0.0000E+00    4.250000E+09  0.00400  5.895E-05    0   0.5377   age158_m42            0.0000     7.0220E-01     4.4438  -1.0000    96.3887
 15      0.0000     0.0000E+00    0.0000E+00    7.500000E+09  0.00400  3.510E-05    0   0.5212   age171_m42            0.0000     1.1887E+00     6.0724  -1.0000    88.2318
 16      0.0000     0.0000E+00    0.0000E+00    1.300000E+10  0.00400  2.005E-05    0   0.5034   age193_m42            0.0000     1.9201E+00     7.8917  -1.0000    81.5437
 17      0.0000     0.0000E+00    0.0000E+00    1.800000E+10  0.00400  1.525E-05    0   0.4967   age213_m42            0.0000     2.0159E+00     8.1684  -1.0000    80.3347
 18      0.0000     0.0000E+00    0.0000E+00    1.000000E+06  0.00800  1.238E-02    0   1.0000   age020_m52            0.0000     8.1322E-01     5.0392   2.2254    85.7223
 19      0.0000     0.0000E+00    0.0000E+00    3.160000E+06  0.00800  3.074E-02    0   0.9966   age045_m52            0.0000     7.7606E-01     4.9419   2.1455    86.6233
 20      0.0780     2.4212E-03    3.5994E-03    5.010000E+06  0.00800  2.668E-02    0   0.9443   age055_m52            0.0000     5.9902E-01     4.2612   1.8846    89.3826
 21     25.4247     9.8578E-01    1.4242E+00    6.610000E+06  0.00800  2.136E-02    0   0.9177   age061_m52            0.0000     2.8216E-01     2.7601   0.5863    97.8250
 22      0.0000     0.0000E+00    0.0000E+00    1.000000E+07  0.00800  1.215E-02    0   0.8827   age070_m52            0.0000     3.2385E-01     2.9878   1.2506    97.2934
 23      0.6692     6.3579E-02    8.5598E-02    1.445000E+07  0.00800  8.717E-03    0   0.8552   age078_m52            0.0000     3.2716E-01     3.0110   1.3748    95.7601
 24      0.2102     3.1135E-02    4.0007E-02    2.512000E+07  0.00800  5.592E-03    0   0.8162   age090_m52            0.0000     2.7060E-01     2.7160   0.9948    99.7628
 25      2.1889     4.6530E-01    5.7437E-01    4.000000E+07  0.00800  3.896E-03    0   0.7841   age104_m52            0.0000     2.5502E-01     2.6386   0.9084   100.5052
 26      5.5492     2.1396E+00    2.4339E+00    1.015200E+08  0.00800  2.148E-03    0   0.7226   age116_m52            0.0000     2.9792E-01     2.7882   0.8556    99.8803
 27      0.0056     4.6350E-03    4.8764E-03    2.861200E+08  0.00800  9.925E-04    0   0.6683   age125_m52            0.0000     4.6888E-01     3.3953   0.3719   104.1092
 28      0.0000     0.0000E+00    0.0000E+00    9.047900E+08  0.00800  3.141E-04    0   0.6138   age135_m52            0.0000     7.0697E-01     4.3316  -0.4028   107.3172
 29      0.0000     0.0000E+00    0.0000E+00    1.434000E+09  0.00800  1.719E-04    0   0.5853   age139_m52            0.0000     6.9063E-01     4.3687  -0.9713   104.5656
 30      0.0000     0.0000E+00    0.0000E+00    2.500000E+09  0.00800  7.872E-05    0   0.5600   age150_m52            0.0000     1.2329E+00     6.1390  -1.0000    91.5620
 31      0.5964     1.1392E+01    9.7312E+00    4.250000E+09  0.00800  4.336E-05    0   0.5426   age158_m52            0.0000     1.2894E+00     6.2597  -1.0000    90.0619
 32      0.0000     0.0000E+00    0.0000E+00    6.250000E+09  0.00800  3.159E-05    0   0.5319   age166_m52            0.0000     2.2617E+00     8.5097  -1.0000    82.2931
 33      0.0000     0.0000E+00    0.0000E+00    1.300000E+10  0.00800  1.361E-05    0   0.5073   age193_m52            0.0000     5.6269E+00    14.5864  -1.0000    65.8087
 34      0.0000     0.0000E+00    0.0000E+00    1.800000E+10  0.00800  9.886E-06    0   0.4990   age213_m52            0.0000     6.6349E+00    15.8740  -1.0000    62.2405
 35      0.0000     0.0000E+00    0.0000E+00    1.000000E+06  0.02000  1.544E-02    0   1.0000   age020_m62            0.0000     8.2034E-01     5.0758   2.2226    85.8723
 36      0.0000     0.0000E+00    0.0000E+00    3.160000E+06  0.02000  3.762E-02    0   0.9858   age045_m62            0.0000     8.0737E-01     5.0702   2.1605    86.6827
 37      0.0000     0.0000E+00    0.0000E+00    5.010000E+06  0.02000  3.296E-02    0   0.9342   age055_m62            0.0000     5.5858E-01     4.0191   1.7562    91.5984
 38     22.6765     1.6274E+00    2.2702E+00    8.710000E+06  0.02000  1.154E-02    0   0.8861   age067_m62            0.0000     1.0738E+00     5.3896   0.6600   102.3772
 39      0.0018     1.8948E-04    2.5272E-04    1.445000E+07  0.02000  7.663E-03    0   0.8472   age078_m62            0.0000     4.2302E-01     3.3694   0.8828   100.3734
 40      0.0000     0.0000E+00    0.0000E+00    2.512000E+07  0.02000  4.532E-03    0   0.8099   age090_m62            0.0000     4.5499E-01     3.5247   0.8672   100.5412
 41      0.0000     0.0000E+00    0.0000E+00    5.500000E+07  0.02000  2.733E-03    0   0.7595   age110_m62            0.0000     2.5750E-01     2.6297   0.8929    99.6775
 42      0.0000     0.0000E+00    0.0000E+00    1.609000E+08  0.02000  1.369E-03    0   0.6985   age120_m62            0.0000     3.7997E-01     3.0535   0.7322   102.4182
 43      1.2098     1.1117E+00    1.1750E+00    2.861200E+08  0.02000  9.013E-04    0   0.6714   age125_m62            0.0000     5.5498E-01     3.5857   0.4808   105.4273
 44      0.0000     0.0000E+00    0.0000E+00    5.088000E+08  0.02000  5.028E-04    0   0.6449   age130_m62            0.0000     8.0702E-01     4.4394   0.1282   106.9721
 45      0.0000     0.0000E+00    0.0000E+00    9.047900E+08  0.02000  2.428E-04    0   0.6179   age135_m62            0.0000     8.1047E-01     4.5809  -0.4353   105.2546
 46      0.0556     3.6464E-01    3.3915E-01    1.434000E+09  0.02000  1.263E-04    0   0.5908   age139_m62            0.0000     9.0315E-01     4.9052  -0.8646   102.9699
 47      0.0000     0.0000E+00    0.0000E+00    2.500000E+09  0.02000  5.985E-05    0   0.5673   age150_m62            0.0000     1.5096E+00     6.7252  -1.0000    91.8350
 48      0.0000     0.0000E+00    0.0000E+00    4.250000E+09  0.02000  3.271E-05    0   0.5468   age158_m62            0.0000     3.0811E+00     9.9944  -1.0000    79.4213
 49      0.0000     0.0000E+00    0.0000E+00    1.000000E+10  0.02000  1.360E-05    0   0.5167   age181_m62            0.0000     5.7428E+00    14.2870  -1.0000    67.3435
 50      0.0000     0.0000E+00    0.0000E+00    1.800000E+10  0.02000  7.124E-06    0   0.5013   age213_m62            0.0000     7.6518E+00    16.8424  -1.0000    60.5204
 51      0.0000     0.0000E+00    0.0000E+00    1.000000E+06  0.05000  2.592E-02    0   0.9998   age020_m72            0.0000     8.4655E-01     5.1712   2.2144    85.8651
 52      0.0000     0.0000E+00    0.0000E+00    3.160000E+06  0.05000  4.845E-02    0   0.9577   age045_m72            0.0000     7.2054E-01     4.7191   2.0349    88.2338
 53      0.0000     0.0000E+00    0.0000E+00    5.010000E+06  0.05000  3.072E-02    0   0.9147   age055_m72            0.0000     4.9038E-01     3.8097   1.5100    94.6370
 54      0.0000     0.0000E+00    0.0000E+00    6.610000E+06  0.05000  1.455E-02    0   0.8877   age061_m72            0.0000     2.2483E+00     7.8593   0.7111   103.8357
 55      0.0000     0.0000E+00    0.0000E+00    1.000000E+07  0.05000  9.074E-03    0   0.8524   age070_m72            0.0000     7.3842E-01     4.6253   1.7096    93.9845
 56      0.0000     0.0000E+00    0.0000E+00    2.512000E+07  0.05000  4.250E-03    0   0.7902   age090_m72            0.0000     4.8389E-01     3.6510   1.3762    97.1229
 57      0.0000     0.0000E+00    0.0000E+00    4.000000E+07  0.05000  3.087E-03    0   0.7618   age104_m72            0.0000     4.9137E-01     3.6341   1.1314    99.5929
 58      0.0000     0.0000E+00    0.0000E+00    1.015200E+08  0.05000  1.700E-03    0   0.7096   age116_m72            0.0000     3.5663E-01     3.0578   0.8669   102.4438
 59     10.0762     1.1301E+01    1.1801E+01    2.861200E+08  0.05000  7.384E-04    0   0.6633   age125_m72            0.0000     6.7750E-01     3.9489   0.3588   106.3767
 60     21.1545     4.5875E+01    4.6019E+01    5.088000E+08  0.05000  3.819E-04    0   0.6372   age130_m72            0.0000     8.1067E-01     4.5658  -0.1081   106.7742
 61      4.7288     2.3367E+01    2.2477E+01    9.047900E+08  0.05000  1.676E-04    0   0.6110   age135_m72            0.0000     1.2035E+00     5.8530  -0.7539   102.4468
 62      0.0000     0.0000E+00    0.0000E+00    1.434000E+09  0.05000  8.837E-05    0   0.5874   age139_m72            0.0000     1.6448E+00     7.0239  -1.0000    93.1825
 63      0.0000     0.0000E+00    0.0000E+00    2.500000E+09  0.05000  4.233E-05    0   0.5598   age150_m72            0.0000     3.2174E+00    10.1867  -1.0000    80.0900
 64      0.0000     0.0000E+00    0.0000E+00    6.250000E+09  0.05000  1.435E-05    0   0.5249   age166_m72            0.0000     6.5962E+00    15.5383  -1.0000    64.0742
 65      0.0000     0.0000E+00    0.0000E+00    1.300000E+10  0.05000  6.513E-06    0   0.5036   age193_m72            0.0000     9.2883E+00    18.8539  -1.0000    56.6111
 66      0.0000     0.0000E+00    0.0000E+00    1.800000E+10  0.05000  4.527E-06    0   0.4945   age213_m72            0.0000     1.0941E+01    20.6548  -1.0000    52.2907


## Synthesis Results - Average & Chains ##

# j      x_j: min, <> & last-chain-values for 1 ...  7 chains
  1      0.0000      0.3081      0.0000      0.0000      0.0000      0.0000      0.4442      0.0000      0.5382
  2      0.0000      0.3652      0.7632      0.1423      0.0000      0.0559      0.5514      0.9525      0.0000
  3      0.0000      0.2643      0.0000      0.0000      0.0000      0.9860      0.2493      0.0000      0.0000
  4      0.0000      0.7339      0.0000      0.6916      0.0000      2.0094      0.0000      0.9966      0.7626
  5      2.2066      3.1551      3.3508      5.0981      3.0131      2.2789      3.0867      3.4516      0.0000
  6      0.7608      0.5160      0.0000      1.3359      1.6653      0.2918      0.0000      0.0000      1.3913
  7      2.7528      0.8187      3.7223      0.0000      2.2421      0.1541      2.2379      1.1056      0.0000
  8      2.7118      1.8226      3.8369      4.0557      3.8283      0.0000      0.0000      0.0000      0.8443
  9      0.0000      1.2445      0.0000      3.6918      0.0000      0.9574      3.6809      1.1261      0.2358
 10      0.0000      1.2195      0.0000      0.0000      0.0000      0.3470      0.0000      0.5436      0.0000
 11      0.0000      1.7227      0.0000      0.4997      0.0000      0.0000      0.0000      0.0000      2.5548
 12      0.0000      1.7415      0.0000      0.0000      0.0000      0.0000      0.0000      0.5619      0.0000
 13      0.0000      0.1682      0.0000      1.4234      0.0000      0.0000      0.0000      0.0000      0.0000
 14      0.0000      0.1835      0.1261      0.0000      0.0000      0.0000      0.0000      0.0000      0.0000
 15      0.0000      0.0693      0.0000      0.0000      0.0000      0.0000      0.0000      0.0000      0.0000
 16      0.0000      0.1032      0.0000      0.0000      0.0000      0.0000      0.3727      0.0000      0.2741
 17      0.0000      0.0330      0.0000      0.0000      0.0000      0.2819      0.0000      0.0000      0.0000
 18      0.0000      0.2165      0.0000      0.0000      0.0000      0.0000      0.0000      0.0000      0.2056
 19      0.0000      0.2275      0.0000      0.5803      0.2029      0.0000      0.5053      0.0000      0.3863
 20      0.0780      0.3707      0.0000      1.6444      0.9066      0.0000      0.0071      0.0000      0.0000
 21     25.4247     24.2853     26.2254     24.5397     22.0217     28.0155     29.1860     28.7297     28.9601
 22      0.0000      0.8549      1.7671      0.2926      0.0000      0.4153      3.7317      0.0000      0.3565
 23      0.6692      0.8756      0.6846      0.1890      2.4994      0.3569      0.0000      4.6417      1.9693
 24      0.2102      1.1671      1.5822      0.0000      4.8617      0.0000      0.0936      0.0000      0.0000
 25      2.1889      1.0016      0.0000      0.0000      1.6424      0.0000      0.0000      2.3868      1.9147
 26      5.5492      2.1447      0.0000      0.0000      6.0857      1.2520      3.4173      2.2178      5.8739
 27      0.0056      1.8893      0.4238      2.0127      2.4891      2.2962      2.6435      2.7914      0.0000
 28      0.0000      0.2133      0.2734      0.0000      0.0000      0.0000      0.0000      0.1796      0.0440
 29      0.0000      0.1159      0.0000      0.0000      0.0000      0.2166      0.0000      0.0000      0.0000
 30      0.0000      0.0576      0.5465      0.0000      0.0000      0.0000      0.0000      0.0000      0.3515
 31      0.5964      0.8177      0.8609      0.9072      1.3346      1.1011      1.0020      0.6043      0.4677
 32      0.0000      0.0600      0.0000      0.0000      0.3078      0.0000      0.0000      0.4273      0.0000
 33      0.0000      0.0161      0.0000      0.0000      0.0000      0.0000      0.0172      0.0000      0.0000
 34      0.0000      0.0955      0.0000      0.3401      0.0000      0.0000      0.2997      0.2035      0.0000
 35      0.0000      0.1968      0.0000      0.1750      0.0000      0.4476      0.0000      0.0000      0.0000
 36      0.0000      0.2017      0.0000      0.0000      0.0000      0.3183      0.0000      1.2196      0.0000
 37      0.0000      0.3575      0.0000      0.0000      0.0000      0.6237      1.2241      0.0000      0.0000
 38     22.6765     14.9888     17.3493     17.6084     15.4259     17.9102     16.3034     16.3187     18.8430
 39      0.0018      0.7596      0.9229      1.5204      1.2836      0.0000      0.0000      0.7832      0.0000
 40      0.0000      0.7961      0.0000      0.0000      0.0000      0.6039      0.2722      0.7800      0.0000
 41      0.0000      0.6878      0.8821      0.1584      0.0000      0.8242      0.0000      0.0000      0.9387
 42      0.0000      1.8635      4.4962      2.3637      0.0000      2.8966      0.0000      0.1348      0.8322
 43      1.2098      2.5086      0.0000      1.9659      2.4299      0.9062      0.4538      4.2173      0.0000
 44      0.0000      1.7223      2.1999      0.0000      2.1342      0.0000      0.0000      0.2808      2.0592
 45      0.0000      3.0233      2.5018      0.0000      0.0000      3.4593      3.0810      2.0405      3.8253
 46      0.0556      0.9444      1.0434      0.8744      1.1238      1.3377      0.0000      0.4983      0.8897
 47      0.0000      0.0259      0.0000      0.0000      0.0000      0.0000      0.0000      0.3292      0.0000
 48      0.0000      0.0743      0.3919      0.0000      0.4734      0.0190      0.0000      0.0000      0.0000
 49      0.0000      0.0276      0.0000      0.0000      0.0000      0.0000      0.0000      0.0000      0.0000
 50      0.0000      0.0105      0.0000      0.0000      0.0000      0.0000      0.0000      0.0000      0.1070
 51      0.0000      0.3408      0.0000      0.0000      0.0000      1.3070      0.0000      0.0000      0.0000
 52      0.0000      0.4927      0.0000      0.3160      1.0510      0.4924      0.0000      0.0000      0.0000
 53      0.0000      0.4270      0.0000      0.3004      0.0000      0.0000      0.0000      0.0000      0.7599
 54      0.0000      0.3733      0.0000      0.0000      0.0000      0.1228      0.0000      0.0000      0.0000
 55      0.0000      0.2230      0.0000      0.0000      0.0000      0.0000      0.0000      0.0000      0.0000
 56      0.0000      0.2343      0.0000      0.0000      0.0000      0.0000      0.0000      0.0000      0.0000
 57      0.0000      0.4216      1.6326      0.0000      0.0000      0.8906      0.0000      0.0027      0.0942
 58      0.0000      0.8115      1.2437      0.0000      0.6311      0.0000      2.5791      1.2864      0.7078
 59     10.0762      5.6141      9.7724     11.2594      3.8781     11.4372      8.3317      6.7986     11.8101
 60     21.1545     13.9777     13.6320     15.3703     16.9859     16.0139     15.7038     13.0245     12.6812
 61      4.7288      2.4689      2.3873      2.9278      4.1824      1.9499      2.4432      3.4124      2.1755
 62      0.0000      0.1049      0.0000      0.1245      0.0000      0.0000      0.4618      0.5466      0.0000
 63      0.0000      0.0279      0.0000      0.0000      0.0000      0.0000      0.0000      0.0000      0.0000
 64      0.0000      0.0657      0.0000      0.0593      0.0000      0.0000      0.0000      0.0000      0.0000
 65      0.0000      0.0053      0.0000      0.0000      0.0000      0.0000      0.0000      0.0000      0.0000
 66      0.0000      0.0126      0.0000      0.0000      0.0000      0.0000      0.0000      0.0000      0.0000

# j      m_j: min, <> & last-chain-values for 1 ...  7 chains
  1  0.0000E+00  2.8804E-02  0.0000E+00  0.0000E+00  0.0000E+00  0.0000E+00  4.0635E-02  0.0000E+00  5.6269E-02
  2  0.0000E+00  9.3190E-03  2.2255E-02  3.7250E-03  0.0000E+00  1.5271E-03  1.3769E-02  2.5891E-02  0.0000E+00
  3  0.0000E+00  1.0099E-02  0.0000E+00  0.0000E+00  0.0000E+00  4.0363E-02  9.3226E-03  0.0000E+00  0.0000E+00
  4  0.0000E+00  2.6413E-02  0.0000E+00  2.5541E-02  0.0000E+00  7.7458E-02  0.0000E+00  3.8202E-02  3.0692E-02
  5  1.9286E-01  2.1628E-01  2.6248E-01  3.5861E-01  2.1076E-01  1.6734E-01  2.0707E-01  2.5202E-01  0.0000E+00
  6  1.0785E-01  5.7373E-02  0.0000E+00  1.5242E-01  1.8894E-01  3.4754E-02  0.0000E+00  0.0000E+00  1.7301E-01
  7  5.5870E-01  1.3033E-01  6.7711E-01  0.0000E+00  3.6420E-01  2.6272E-02  3.4862E-01  1.8746E-01  0.0000E+00
  8  7.6071E-01  4.0102E-01  9.6468E-01  9.1568E-01  8.5948E-01  0.0000E+00  0.0000E+00  0.0000E+00  2.0775E-01
  9  0.0000E+00  3.1340E-01  0.0000E+00  9.5399E-01  0.0000E+00  2.5827E-01  9.0711E-01  3.0206E-01  6.6419E-02
 10  0.0000E+00  4.0340E-01  0.0000E+00  0.0000E+00  0.0000E+00  1.2296E-01  0.0000E+00  1.9155E-01  0.0000E+00
 11  0.0000E+00  1.0715E+00  0.0000E+00  3.1895E-01  0.0000E+00  0.0000E+00  0.0000E+00  0.0000E+00  1.7772E+00
 12  0.0000E+00  1.7183E+00  0.0000E+00  0.0000E+00  0.0000E+00  0.0000E+00  0.0000E+00  5.9053E-01  0.0000E+00
 13  0.0000E+00  4.6785E-01  0.0000E+00  4.0620E+00  0.0000E+00  0.0000E+00  0.0000E+00  0.0000E+00  0.0000E+00
 14  0.0000E+00  1.7114E+00  1.3446E+00  0.0000E+00  0.0000E+00  0.0000E+00  0.0000E+00  0.0000E+00  0.0000E+00
 15  0.0000E+00  1.0523E+00  0.0000E+00  0.0000E+00  0.0000E+00  0.0000E+00  0.0000E+00  0.0000E+00  0.0000E+00
 16  0.0000E+00  2.6504E+00  0.0000E+00  0.0000E+00  0.0000E+00  0.0000E+00  9.3641E+00  0.0000E+00  7.8718E+00
 17  0.0000E+00  1.0993E+00  0.0000E+00  0.0000E+00  0.0000E+00  1.0059E+01  0.0000E+00  0.0000E+00  0.0000E+00
 18  0.0000E+00  1.7885E-02  0.0000E+00  0.0000E+00  0.0000E+00  0.0000E+00  0.0000E+00  0.0000E+00  1.8991E-02
 19  0.0000E+00  7.5440E-03  0.0000E+00  1.9742E-02  6.8646E-03  0.0000E+00  1.6393E-02  0.0000E+00  1.4324E-02
 20  3.5994E-03  1.3416E-02  0.0000E+00  6.1075E-02  3.3484E-02  0.0000E+00  2.5300E-04  0.0000E+00  0.0000E+00
 21  1.4242E+00  1.0670E+00  1.3166E+00  1.1063E+00  9.8726E-01  1.3185E+00  1.2549E+00  1.3445E+00  1.4230E+00
 22  0.0000E+00  6.3512E-02  1.5002E-01  2.2310E-02  0.0000E+00  3.3050E-02  2.7131E-01  0.0000E+00  2.9620E-02
 23  8.5598E-02  8.7848E-02  7.8481E-02  1.9462E-02  2.5587E-01  3.8356E-02  0.0000E+00  4.9601E-01  2.2096E-01
 24  4.0007E-02  1.7420E-01  2.6985E-01  0.0000E+00  7.4045E-01  0.0000E+00  1.3672E-02  0.0000E+00  0.0000E+00
 25  5.7437E-01  2.0614E-01  0.0000E+00  0.0000E+00  3.4492E-01  0.0000E+00  0.0000E+00  5.2322E-01  4.4071E-01
 26  2.4339E+00  7.3782E-01  0.0000E+00  0.0000E+00  2.1362E+00  4.6135E-01  1.1504E+00  8.1267E-01  2.2600E+00
 27  4.8764E-03  1.3010E+00  3.3343E-01  1.4221E+00  1.7489E+00  1.6937E+00  1.7813E+00  2.0473E+00  0.0000E+00
 28  0.0000E+00  4.2619E-01  6.2434E-01  0.0000E+00  0.0000E+00  0.0000E+00  0.0000E+00  3.8223E-01  9.8234E-02
 29  0.0000E+00  4.0339E-01  0.0000E+00  0.0000E+00  0.0000E+00  8.0794E-01  0.0000E+00  0.0000E+00  0.0000E+00
 30  0.0000E+00  4.1907E-01  4.5430E+00  0.0000E+00  0.0000E+00  0.0000E+00  0.0000E+00  0.0000E+00  2.8595E+00
 31  9.7312E+00  1.0464E+01  1.2589E+01  1.1912E+01  1.7427E+01  1.5094E+01  1.2548E+01  8.2372E+00  6.6937E+00
 32  0.0000E+00  1.0329E+00  0.0000E+00  0.0000E+00  5.4080E+00  0.0000E+00  0.0000E+00  7.8372E+00  0.0000E+00
 33  0.0000E+00  6.1330E-01  0.0000E+00  0.0000E+00  0.0000E+00  0.0000E+00  6.4215E-01  0.0000E+00  0.0000E+00
 34  0.0000E+00  4.9297E+00  0.0000E+00  1.8012E+01  0.0000E+00  0.0000E+00  1.5136E+01  1.1188E+01  0.0000E+00
 35  0.0000E+00  1.3037E-02  0.0000E+00  1.1893E-02  0.0000E+00  3.1752E-02  0.0000E+00  0.0000E+00  0.0000E+00
 36  0.0000E+00  5.4056E-03  0.0000E+00  0.0000E+00  0.0000E+00  9.1367E-03  0.0000E+00  3.4809E-02  0.0000E+00
 37  0.0000E+00  1.0363E-02  0.0000E+00  0.0000E+00  0.0000E+00  1.9365E-02  3.4721E-02  0.0000E+00  0.0000E+00
 38  2.2702E+00  1.1769E+00  1.5567E+00  1.4188E+00  1.2360E+00  1.5065E+00  1.2528E+00  1.3648E+00  1.6548E+00
 39  2.5272E-04  8.5881E-02  1.1923E-01  1.7639E-01  1.4808E-01  0.0000E+00  0.0000E+00  9.4308E-02  0.0000E+00
 40  0.0000E+00  1.4548E-01  0.0000E+00  0.0000E+00  0.0000E+00  1.1822E-01  4.8683E-02  1.5182E-01  0.0000E+00
 41  0.0000E+00  1.9546E-01  2.8644E-01  4.6206E-02  0.0000E+00  2.5090E-01  0.0000E+00  0.0000E+00  2.9834E-01
 42  0.0000E+00  9.7230E-01  2.6807E+00  1.2655E+00  0.0000E+00  1.6189E+00  0.0000E+00  7.4903E-02  4.8565E-01
 43  1.1750E+00  1.9110E+00  0.0000E+00  1.5367E+00  1.8888E+00  7.3949E-01  3.3830E-01  3.4219E+00  0.0000E+00
 44  0.0000E+00  2.2591E+00  3.2972E+00  0.0000E+00  2.8564E+00  0.0000E+00  0.0000E+00  3.9233E-01  3.0207E+00
 45  0.0000E+00  7.8680E+00  7.4399E+00  0.0000E+00  0.0000E+00  9.6436E+00  7.8466E+00  5.6560E+00  1.1134E+01
 46  3.3915E-01  4.5177E+00  5.7036E+00  4.2922E+00  5.4855E+00  6.8543E+00  0.0000E+00  2.5388E+00  4.7597E+00
 47  0.0000E+00  2.5103E-01  0.0000E+00  0.0000E+00  0.0000E+00  0.0000E+00  0.0000E+00  3.3988E+00  0.0000E+00
 48  0.0000E+00  1.2701E+00  7.6561E+00  0.0000E+00  8.2576E+00  3.4798E-01  0.0000E+00  0.0000E+00  0.0000E+00
 49  0.0000E+00  1.0741E+00  0.0000E+00  0.0000E+00  0.0000E+00  0.0000E+00  0.0000E+00  0.0000E+00  0.0000E+00
 50  0.0000E+00  7.5217E-01  0.0000E+00  0.0000E+00  0.0000E+00  0.0000E+00  0.0000E+00  0.0000E+00  8.6114E+00
 51  0.0000E+00  1.3443E-02  0.0000E+00  0.0000E+00  0.0000E+00  5.5224E-02  0.0000E+00  0.0000E+00  0.0000E+00
 52  0.0000E+00  9.9602E-03  0.0000E+00  6.5548E-03  2.1679E-02  1.0662E-02  0.0000E+00  0.0000E+00  0.0000E+00
 53  0.0000E+00  1.3002E-02  0.0000E+00  9.3872E-03  0.0000E+00  0.0000E+00  0.0000E+00  0.0000E+00  2.5877E-02
 54  0.0000E+00  2.3288E-02  0.0000E+00  0.0000E+00  0.0000E+00  8.2052E-03  0.0000E+00  0.0000E+00  0.0000E+00
 55  0.0000E+00  2.1423E-02  0.0000E+00  0.0000E+00  0.0000E+00  0.0000E+00  0.0000E+00  0.0000E+00  0.0000E+00
 56  0.0000E+00  4.4543E-02  0.0000E+00  0.0000E+00  0.0000E+00  0.0000E+00  0.0000E+00  0.0000E+00  0.0000E+00
 57  0.0000E+00  1.0639E-01  4.7079E-01  0.0000E+00  0.0000E+00  2.4074E-01  0.0000E+00  7.2018E-04  2.6583E-02
 58  0.0000E+00  3.4641E-01  6.0666E-01  0.0000E+00  2.7489E-01  0.0000E+00  1.0773E+00  5.8487E-01  3.3789E-01
 59  1.1801E+01  5.1571E+00  1.0258E+01  1.0613E+01  3.6351E+00  1.1254E+01  7.4898E+00  6.6521E+00  1.2133E+01
 60  4.6019E+01  2.3849E+01  2.6579E+01  2.6911E+01  2.9573E+01  2.9269E+01  2.6221E+01  2.3670E+01  2.4199E+01
 61  2.2477E+01  9.2041E+00  1.0170E+01  1.1200E+01  1.5910E+01  7.7869E+00  8.9134E+00  1.3550E+01  9.0706E+00
 62  0.0000E+00  7.1309E-01  0.0000E+00  8.6847E-01  0.0000E+00  0.0000E+00  3.0722E+00  3.9574E+00  0.0000E+00
 63  0.0000E+00  3.7716E-01  0.0000E+00  0.0000E+00  0.0000E+00  0.0000E+00  0.0000E+00  0.0000E+00  0.0000E+00
 64  0.0000E+00  2.4562E+00  0.0000E+00  2.2769E+00  0.0000E+00  0.0000E+00  0.0000E+00  0.0000E+00  0.0000E+00
 65  0.0000E+00  4.1568E-01  0.0000E+00  0.0000E+00  0.0000E+00  0.0000E+00  0.0000E+00  0.0000E+00  0.0000E+00
 66  0.0000E+00  1.4082E+00  0.0000E+00  0.0000E+00  0.0000E+00  0.0000E+00  0.0000E+00  0.0000E+00  0.0000E+00

# AV, chi2 & Mass for <> & i_chain = 1 ...  7 solutions
AV       0.3522      0.3728      0.3681      0.3797      0.3693      0.3688      0.3761      0.3796      0.3704
chi2 2.0444E-01  2.0754E-01  2.0654E-01  2.0635E-01  2.0577E-01  2.0638E-01  2.0600E-01  2.0656E-01  2.0623E-01
Mass 8.4472E-13  1.1073E-12  9.6289E-13  1.0891E-12  1.0800E-12  1.0281E-12  1.1365E-12  1.0490E-12  9.8679E-13
  -4.03                                  [v0_min (km/s) before EX0s...]
 181.30                                  [vd_min (km/s) before EX0s...]


## Synthetic spectrum (Best Model) ##l_obs f_obs f_syn wei
 3478    [Nl_obs]
 3741.00    0.75932   0.77500    0.000
 3742.00    0.71169   0.77825    0.000
 3743.00    0.64032   0.76964    0.000
 3744.00    0.60506   0.75064    0.000
 3745.00    0.61813   0.72310   16.178
 3746.00    0.64932   0.68974   15.401
 3747.00    0.65596   0.65455   15.245
 3748.00    0.61578   0.62334   16.240
 3749.00    0.56831   0.60344   17.596
 3750.00    0.56936   0.60091   17.564
 3751.00    0.61300   0.61718   16.313
 3752.00    0.65942   0.64831   15.165
 3753.00    0.69332   0.68704   14.423
 3754.00    0.72016   0.72558   13.886
 3755.00    0.74799   0.75776   13.369
 3756.00    0.78224   0.78053   12.784
 3757.00    0.82168   0.79441   12.170
 3758.00    0.84965   0.80239   11.770
 3759.00    0.82640   0.80748   12.101
 3760.00    0.73852   0.81103   13.541
 3761.00    0.65873   0.81255   15.181
 3762.00    0.66164   0.81038   15.114
 3763.00    0.71324   0.80259   14.021
 3764.00    0.73722   0.78759   13.564
 3765.00    0.71117   0.76452   14.061
 3766.00    0.65675   0.73403   15.226
 3767.00    0.61243   0.69900   16.328
 3768.00    0.60110   0.66418   16.636
 3769.00    0.59983   0.63582   16.671
 3770.00    0.57983   0.62059   17.246
 3771.00    0.55196   0.62291   18.117
 3772.00    0.54243   0.64230   18.436
 3773.00    0.56201   0.67412   17.793
 3774.00    0.60828   0.71237   16.440
 3775.00    0.67136   0.75194   14.895
 3776.00    0.73594   0.78944   13.588
 3777.00    0.78415   0.82320   12.753
 3778.00    0.81035   0.85264   12.340
 3779.00    0.83249   0.87751   12.012
 3780.00    0.86456   0.89729   11.567
 3781.00    0.89276   0.91136   11.201
 3782.00    0.90296   0.91947   11.075
 3783.00    0.90538   0.92161   11.045
 3784.00    0.91422   0.91785   10.938
 3785.00    0.92879   0.90879   10.767
 3786.00    0.94173   0.89594   10.619
 3787.00    0.94676   0.88100   10.562
 3788.00    0.93503   0.86487   10.695
 3789.00    0.89441   0.84740   11.181
 3790.00    0.83270   0.82746   12.009
 3791.00    0.78985   0.80325   12.661
 3792.00    0.78747   0.77302   12.699
 3793.00    0.79546   0.73629   12.571
 3794.00    0.78052   0.69473   12.812
 3795.00    0.74189   0.65247   13.479
 3796.00    0.69514   0.61575   14.386
 3797.00    0.65753   0.59203   15.208
 3798.00    0.63886   0.58750   15.653
 3799.00    0.63750   0.60386   15.686
 3800.00    0.65330   0.63736   15.307
 3801.00    0.69345   0.68079   14.421
 3802.00    0.75304   0.72642   13.280
 3803.00    0.80773   0.76807   12.380
 3804.00    0.84908   0.80252   11.777
 3805.00    0.89914   0.82984   11.122
 3806.00    0.96066   0.85255   10.409
 3807.00    0.99677   0.87337   10.032
 3808.00    0.99356   0.89316   10.065
 3809.00    0.98683   0.91060   10.134
 3810.00    0.99917   0.92335   10.008
 3811.00    1.01037   0.92953    9.897
 3812.00    0.99791   0.92900   10.021
 3813.00    0.96034   0.92366   10.413
 3814.00    0.91672   0.91607   10.909
 3815.00    0.90036   0.90786   11.107
 3816.00    0.93104   0.89922   10.741
 3817.00    0.99976   0.88944   10.002
 3818.00    1.06534   0.87862    9.387
 3819.00    1.06739   0.86912    9.369
 3820.00    0.99277   0.86387   10.073
 3821.00    0.89343   0.86309   11.193
 3822.00    0.81993   0.86378   12.196
 3823.00    0.79007   0.86205   12.657
 3824.00    0.79093   0.85556   12.643
 3825.00    0.79020   0.84398   12.655
 3826.00    0.77740   0.82800   12.863
 3827.00    0.77135   0.80817   12.964
 3828.00    0.77659   0.78429   12.877
 3829.00    0.77233   0.75546   12.948
 3830.00    0.74262   0.72081   13.466
 3831.00    0.68934   0.68073   14.507
 3832.00    0.63282   0.63809   15.802
 3833.00    0.60179   0.59816   16.617
 3834.00    0.59642   0.56759   16.767
 3835.00    0.58910   0.55251   16.975
 3836.00    0.57710   0.55590   17.328
 3837.00    0.58896   0.57649   16.979
 3838.00    0.63912   0.61013   15.647
 3839.00    0.71508   0.65155   13.984
 3840.00    0.78992   0.69582   12.660
 3841.00    0.83445   0.73911   11.984
 3842.00    0.84155   0.77870   11.883
 3843.00    0.82903   0.81297   12.062
 3844.00    0.82359   0.84137   12.142
 3845.00    0.84468   0.86423   11.839
 3846.00    0.87343   0.88236   11.449
 3847.00    0.86743   0.89659    0.000
 3848.00    0.83058   0.90772    0.000
 3849.00    0.81068   0.91686    0.000
 3850.00    0.83370   0.92514    0.000
 3851.00    0.88931   0.93274    0.000
 3852.00    0.94455   0.93887    0.000
 3853.00    0.96415   0.94274    0.000
 3854.00    0.95202   0.94422    0.000
 3855.00    0.94352   0.94400    0.000
 3856.00    0.95757   0.94339    0.000
 3857.00    0.98688   0.94319    0.000
 3858.00    1.00548   0.94373    0.000
 3859.00    0.98928   0.94549    0.000
 3860.00    0.95841   0.94867    0.000
 3861.00    0.95778   0.95261    0.000
 3862.00    0.99010   0.95619    0.000
 3863.00    1.02259   0.95854    0.000
 3864.00    1.03665   0.95923    0.000
 3865.00    1.03489   0.95839    0.000
 3866.00    1.03108   0.95652    0.000
 3867.00    1.03437   0.95402    0.000
 3868.00    1.02272   0.95044    0.000
 3869.00    0.96932   0.94473    0.000
 3870.00    0.90465   0.93655    0.000
 3871.00    0.88702   0.92713    0.000
 3872.00    0.92235   0.91864    0.000
 3873.00    0.97433   0.91228    0.000
 3874.00    1.01291   0.90723    0.000
 3875.00    1.02027   0.90145    0.000
 3876.00    0.98470   0.89315    0.000
 3877.00    0.90753   0.88183    0.000
 3878.00    0.81627   0.86825    0.000
 3879.00    0.74992   0.85306    0.000
 3880.00    0.73006   0.83559    0.000
 3881.00    0.75158   0.81460   13.305
 3882.00    0.77710   0.78900   12.868
 3883.00    0.76808   0.75782   13.020
 3884.00    0.73396   0.72063   13.625
 3885.00    0.71270   0.67887   14.031
 3886.00    0.72842   0.63645   13.728
 3887.00    0.77483   0.59942   12.906
 3888.00    0.80328   0.57487   12.449
 3889.00    0.77312   0.56861   12.935
 3890.00    0.72238   0.58198   13.843
 3891.00    0.70930   0.61140   14.098
 3892.00    0.72075   0.65033   13.874
 3893.00    0.71812   0.69198   13.925
 3894.00    0.71312   0.73136   14.023
 3895.00    0.73559   0.76602   13.594
 3896.00    0.78020   0.79538   12.817
 3897.00    0.82323   0.81982   12.147
 3898.00    0.85217   0.84043   11.735
 3899.00    0.86699   0.85856   11.534
 3900.00    0.87655   0.87493   11.408
 3901.00    0.88605   0.88922   11.286
 3902.00    0.88475   0.90085   11.303
 3903.00    0.86977   0.90992   11.497
 3904.00    0.87120   0.91713   11.478
 3905.00    0.90958   0.92403   10.994
 3906.00    0.95056   0.93242   10.520
 3907.00    0.95761   0.94283   10.443
 3908.00    0.94918   0.95426   10.535
 3909.00    0.95522   0.96487   10.469
 3910.00    0.96912   0.97287   10.319
 3911.00    0.97732   0.97731   10.232
 3912.00    0.99038   0.97827   10.097
 3913.00    1.01178   0.97660    9.884
 3914.00    1.00983   0.97333    9.903
 3915.00    0.96695   0.96886   10.342
 3916.00    0.92201   0.96338   10.846
 3917.00    0.91276   0.95719   10.956
 3918.00    0.92504   0.95096   10.810
 3919.00    0.93458   0.94596   10.700
 3920.00    0.94468   0.94329   10.586
 3921.00    0.96252   0.94290   10.389
 3922.00    0.97824   0.94331   10.222
 3923.00    0.97926   0.94238   10.212
 3924.00    0.96325   0.93808   10.382
 3925.00    0.93807   0.92943   10.660
 3926.00    0.91873   0.91667   10.885
 3927.00    0.90966   0.90041   10.993
 3928.00    0.89454   0.88098   11.179
 3929.00    0.86241   0.85865   11.595
 3930.00    0.82462   0.83407   12.127
 3931.00    0.79400   0.80917   12.594
 3932.00    0.77058   0.78778   12.977
 3933.00    0.75372   0.77494   13.268
 3934.00    0.74972   0.77450   13.338
 3935.00    0.76220   0.78696   13.120
 3936.00    0.78621   0.80945   12.719
 3937.00    0.81432   0.83701   12.280
 3938.00    0.84081   0.86457   11.893
 3939.00    0.86112   0.88815   11.613
 3940.00    0.87231   0.90562   11.464
 3941.00    0.87827   0.91690   11.386
 3942.00    0.88990   0.92336   11.237
 3943.00    0.90739   0.92715   11.021
 3944.00    0.91399   0.93029   10.941
 3945.00    0.89988   0.93361   11.113
 3946.00    0.87360   0.93663   11.447
 3947.00    0.84846   0.93862   11.786
 3948.00    0.83383   0.93929   11.993
 3949.00    0.83066   0.93869   12.039
 3950.00    0.83211   0.93692   12.018
 3951.00    0.83786   0.93412   11.935
 3952.00    0.85715   0.93040   11.667
 3953.00    0.88779   0.92562   11.264
 3954.00    0.91017   0.91939   10.987
 3955.00    0.90955   0.91154   10.994
 3956.00    0.88674   0.90222   11.277
 3957.00    0.85628   0.89122   11.678
 3958.00    0.83908   0.87757   11.918
 3959.00    0.83504   0.85979   11.975
 3960.00    0.82008   0.83671    0.000
 3961.00    0.78540   0.80804    0.000
 3962.00    0.74711   0.77408    0.000
 3963.00    0.71438   0.73533    0.000
 3964.00    0.68145   0.69239    0.000
 3965.00    0.64990   0.64621    0.000
 3966.00    0.63252   0.59878    0.000
 3967.00    0.63260   0.55404    0.000
 3968.00    0.64110   0.51787    0.000
 3969.00    0.65644   0.49655    0.000
 3970.00    0.68446   0.49448    0.000
 3971.00    0.71184   0.51220    0.000
 3972.00    0.71170   0.54638    0.000
 3973.00    0.69591   0.59128    0.000
 3974.00    0.70995   0.64069    0.000
 3975.00    0.75500   0.68949    0.000
 3976.00    0.78703   0.73446    0.000
 3977.00    0.79950   0.77401    0.000
 3978.00    0.82825   0.80745    0.000
 3979.00    0.88078   0.83459    0.000
 3980.00    0.92886   0.85575    0.000
 3981.00    0.95492   0.87203   10.472
 3982.00    0.96240   0.88518   10.391
 3983.00    0.96325   0.89701   10.382
 3984.00    0.96971   0.90862   10.312
 3985.00    0.98257   0.92031   10.177
 3986.00    0.99237   0.93168   10.077
 3987.00    0.99181   0.94207   10.083
 3988.00    0.98030   0.95101   10.201
 3989.00    0.96621   0.95848   10.350
 3990.00    0.96152   0.96468   10.400
 3991.00    0.96700   0.96958   10.341
 3992.00    0.97360   0.97281   10.271
 3993.00    0.97523   0.97397   10.254
 3994.00    0.97256   0.97320   10.282
 3995.00    0.97419   0.97138   10.265
 3996.00    0.98976   0.97002   10.103
 3997.00    1.01444   0.97059    9.858
 3998.00    1.03332   0.97364    9.678
 3999.00    1.03943   0.97835    9.621
 4000.00    1.03601   0.98295    9.652
 4001.00    1.03270   0.98560    9.683
 4002.00    1.03771   0.98504    9.637
 4003.00    1.04420   0.98126    9.577
 4004.00    1.04185   0.97569    9.598
 4005.00    1.04440   0.97047    9.575
 4006.00    1.07039   0.96734    9.342
 4007.00    1.09678   0.96707    9.118
 4008.00    1.08453   0.96960    9.221
 4009.00    1.04182   0.97423    9.599
 4010.00    1.00665   0.97998    9.934
 4011.00    0.99413   0.98604   10.059
 4012.00    0.99699   0.99184   10.030
 4013.00    1.00336   0.99699    9.967
 4014.00    1.00448   1.00132    9.955
 4015.00    1.00201   1.00480    9.980
 4016.00    1.00323   1.00765    9.968
 4017.00    1.01136   1.00996    9.888
 4018.00    1.02379   1.01132    9.768
 4019.00    1.03219   1.01077    9.688
 4020.00    1.02831   1.00713    9.725
 4021.00    1.01267   0.99960    9.875
 4022.00    0.99187   0.98834   10.082
 4023.00    0.97281   0.97504   10.279
 4024.00    0.96229   0.96265   10.392
 4025.00    0.96735   0.95411   10.337
 4026.00    0.98933   0.95084   10.108
 4027.00    1.01612   0.95199    9.841
 4028.00    1.03081   0.95512    9.701
 4029.00    1.02475   0.95782    9.758
 4030.00    1.00000   0.95910   10.000
 4031.00    0.96974   0.95977   10.312
 4032.00    0.95058   0.96170   10.520
 4033.00    0.95270   0.96653   10.497
 4034.00    0.97664   0.97476   10.239
 4035.00    1.01139   0.98546    9.887
 4036.00    1.03927   0.99662    9.622
 4037.00    1.04308   1.00600    9.587
 4038.00    1.02002   1.01186    9.804
 4039.00    0.99435   1.01347   10.057
 4040.00    0.99025   1.01103   10.098
 4041.00    1.00204   1.00521    9.980
 4042.00    1.01074   0.99692    9.894
 4043.00    1.00521   0.98754    9.948
 4044.00    0.98629   0.97913   10.139
 4045.00    0.96775   0.97393   10.333
 4046.00    0.96436   0.97334   10.370
 4047.00    0.97976   0.97716   10.207
 4048.00    1.00404   0.98352    9.960
 4049.00    1.01499   0.98971    9.852
 4050.00    1.00269   0.99340    9.973
 4051.00    0.98884   0.99360   10.113
 4052.00    0.99309   0.99064   10.070
 4053.00    1.00394   0.98585    9.961
 4054.00    1.00435   0.98077    9.957
 4055.00    0.99500   0.97666   10.050
 4056.00    0.98381   0.97419   10.165
 4057.00    0.97535   0.97327   10.253
 4058.00    0.96911   0.97314   10.319
 4059.00    0.95976   0.97263   10.419
 4060.00    0.94548   0.97065   10.577
 4061.00    0.93333   0.96691   10.714
 4062.00    0.92896   0.96212   10.765
 4063.00    0.92968   0.95768   10.756
 4064.00    0.93297   0.95487   10.718
 4065.00    0.94198   0.95410   10.616
 4066.00    0.95635   0.95465   10.456
 4067.00    0.96718   0.95524   10.339
 4068.00    0.96909   0.95474   10.319
 4069.00    0.96755   0.95268   10.335
 4070.00    0.96977   0.94929   10.312
 4071.00    0.97794   0.94509   10.226
 4072.00    0.98766   0.94036   10.125
 4073.00    0.98945   0.93490   10.107
 4074.00    0.98283   0.92842   10.175
 4075.00    0.98151   0.92132   10.188
 4076.00    0.99098   0.91519   10.091
 4077.00    0.99860   0.91219   10.014
 4078.00    0.99638   0.91366   10.036
 4079.00    0.99190   0.91904   10.082
 4080.00    0.99175   0.92591   10.083
 4081.00    0.99272   0.93125   10.073
 4082.00    0.98666   0.93303   10.135
 4083.00    0.96579   0.93103   10.354
 4084.00    0.93471   0.92653   10.699
 4085.00    0.91245   0.92132   10.959
 4086.00    0.91114   0.91654   10.975
 4087.00    0.92598   0.91225   10.799
 4088.00    0.94110   0.90764   10.626
 4089.00    0.93714   0.90152   10.671
 4090.00    0.91156   0.89283   10.970
 4091.00    0.88285   0.88073   11.327
 4092.00    0.86553   0.86457    0.000
 4093.00    0.85893   0.84383    0.000
 4094.00    0.84991   0.81814    0.000
 4095.00    0.82184   0.78746    0.000
 4096.00    0.78534   0.75218    0.000
 4097.00    0.77793   0.71333    0.000
 4098.00    0.80889   0.67290    0.000
 4099.00    0.84855   0.63436    0.000
 4100.00    0.87830   0.60265    0.000
 4101.00    0.90250   0.58331    0.000
 4102.00    0.91517   0.58041    0.000
 4103.00    0.89587   0.59471    0.000
 4104.00    0.84299   0.62310    0.000
 4105.00    0.78122   0.65973    0.000
 4106.00    0.74249   0.69832    0.000
 4107.00    0.75060   0.73413    0.000
 4108.00    0.79429   0.76489    0.000
 4109.00    0.83392   0.79054    0.000
 4110.00    0.85432   0.81230    0.000
 4111.00    0.87069   0.83159    0.000
 4112.00    0.88949   0.84922    0.000
 4113.00    0.90209   0.86512   11.085
 4114.00    0.90594   0.87856   11.038
 4115.00    0.90742   0.88859   11.020
 4116.00    0.90994   0.89466   10.990
 4117.00    0.91139   0.89707   10.972
 4118.00    0.90783   0.89710   11.015
 4119.00    0.89686   0.89666   11.150
 4120.00    0.88387   0.89766   11.314
 4121.00    0.87885   0.90118   11.379
 4122.00    0.88314   0.90706   11.323
 4123.00    0.89059   0.91399   11.228
 4124.00    0.90004   0.92004   11.111
 4125.00    0.91395   0.92353   10.941
 4126.00    0.92689   0.92366   10.789
 4127.00    0.92892   0.92083   10.765
 4128.00    0.92094   0.91629   10.859
 4129.00    0.91329   0.91165   10.949
 4130.00    0.91342   0.90840   10.948
 4131.00    0.92098   0.90771   10.858
 4132.00    0.92414   0.91031   10.821
 4133.00    0.91101   0.91635   10.977
 4134.00    0.89581   0.92517   11.163
 4135.00    0.90585   0.93537   11.039
 4136.00    0.94197   0.94511   10.616
 4137.00    0.98189   0.95253   10.184
 4138.00    1.00495   0.95600    9.951
 4139.00    1.00089   0.95439    9.991
 4140.00    0.97645   0.94747   10.241
 4141.00    0.94875   0.93655   10.540
 4142.00    0.93022   0.92454   10.750
 4143.00    0.92565   0.91524   10.803
 4144.00    0.93233   0.91157   10.726
 4145.00    0.94084   0.91411   10.629
 4146.00    0.93681   0.92093   10.674
 4147.00    0.91268   0.92882   10.957
 4148.00    0.88636   0.93498   11.282
 4149.00    0.88258   0.93817   11.330
 4150.00    0.89700   0.93856   11.148
 4151.00    0.90919   0.93706   10.999
 4152.00    0.91341   0.93472   10.948
 4153.00    0.91582   0.93243   10.919
 4154.00    0.92223   0.93100   10.843
 4155.00    0.93308   0.93108   10.717
 4156.00    0.93935   0.93303   10.646
 4157.00    0.93241   0.93667   10.725
 4158.00    0.91875   0.94133   10.884
 4159.00    0.91224   0.94615   10.962
 4160.00    0.91987   0.95039   10.871
 4161.00    0.93935   0.95370   10.646
 4162.00    0.95905   0.95597   10.427
 4163.00    0.96698   0.95717   10.342
 4164.00    0.96244   0.95722   10.390
 4165.00    0.95358   0.95599   10.487
 4166.00    0.95140   0.95346   10.511
 4167.00    0.95738   0.94963   10.445
 4168.00    0.95102   0.94443   10.515
 4169.00    0.91719   0.93778   10.903
 4170.00    0.87865   0.92984   11.381
 4171.00    0.86525   0.92141   11.557
 4172.00    0.87496   0.91385   11.429
 4173.00    0.89003   0.90851   11.236
 4174.00    0.89996   0.90603   11.112
 4175.00    0.90123   0.90610   11.096
 4176.00    0.89421   0.90783   11.183
 4177.00    0.88339   0.91047   11.320
 4178.00    0.87731   0.91370   11.398
 4179.00    0.88193   0.91741   11.339
 4180.00    0.89418   0.92136   11.183
 4181.00    0.90566   0.92507   11.042
 4182.00    0.90786   0.92800   11.015
 4183.00    0.90149   0.92982   11.093
 4184.00    0.90265   0.93048   11.078
 4185.00    0.91942   0.93021   10.876
 4186.00    0.93268   0.92956   10.722
 4187.00    0.92586   0.92935   10.801
 4188.00    0.91078   0.93034   10.980
 4189.00    0.90551   0.93290   11.044
 4190.00    0.91382   0.93672   10.943
 4191.00    0.92956   0.94082   10.758
 4192.00    0.94259   0.94383   10.609
 4193.00    0.94708   0.94442   10.559
 4194.00    0.94671   0.94175   10.563
 4195.00    0.94496   0.93598   10.582
 4196.00    0.93832   0.92825   10.657
 4197.00    0.92604   0.92029   10.799
 4198.00    0.91605   0.91376   10.916
 4199.00    0.91168   0.90968   10.969
 4200.00    0.90388   0.90827   11.063
 4201.00    0.88874   0.90914   11.252
 4202.00    0.87791   0.91178   11.391
 4203.00    0.88064   0.91578   11.355
 4204.00    0.89267   0.92079   11.202
 4205.00    0.90721   0.92641   11.023
 4206.00    0.92202   0.93210   10.846
 4207.00    0.93352   0.93722   10.712
 4208.00    0.93482   0.94125   10.697
 4209.00    0.92807   0.94394   10.775
 4210.00    0.92804   0.94522   10.775
 4211.00    0.93714   0.94502   10.671
 4212.00    0.93601   0.94333   10.684
 4213.00    0.91861   0.94044   10.886
 4214.00    0.90659   0.93725   11.030
 4215.00    0.91332   0.93508   10.949
 4216.00    0.92749   0.93511   10.782
 4217.00    0.93781   0.93755   10.663
 4218.00    0.94484   0.94128   10.584
 4219.00    0.95003   0.94430   10.526
 4220.00    0.95084   0.94441   10.517
 4221.00    0.94762   0.94013   10.553
 4222.00    0.94516   0.93124   10.580
 4223.00    0.94269   0.91895   10.608
 4224.00    0.93242   0.90571   10.725
 4225.00    0.91557   0.89474   10.922
 4226.00    0.90552   0.88905   11.043
 4227.00    0.90690   0.89016   11.027
 4228.00    0.90982   0.89725   10.991
 4229.00    0.90735   0.90737   11.021
 4230.00    0.90238   0.91676   11.082
 4231.00    0.90216   0.92248   11.084
 4232.00    0.91288   0.92364   10.954
 4233.00    0.92772   0.92143   10.779
 4234.00    0.92881   0.91794   10.766
 4235.00    0.91379   0.91509   10.943
 4236.00    0.89960   0.91395   11.116
 4237.00    0.89592   0.91474   11.162
 4238.00    0.89786   0.91720   11.138
 4239.00    0.89787   0.92100   11.137
 4240.00    0.89223   0.92567   11.208
 4241.00    0.88751   0.93055   11.268
 4242.00    0.89615   0.93481   11.159
 4243.00    0.91437   0.93754   10.936
 4244.00    0.92225   0.93792   10.843
 4245.00    0.90995   0.93568   10.990
 4246.00    0.88427   0.93123   11.309
 4247.00    0.86043   0.92544   11.622
 4248.00    0.85385   0.91952   11.712
 4249.00    0.86376   0.91456   11.577
 4250.00    0.87557   0.91117   11.421
 4251.00    0.88315   0.90942   11.323
 4252.00    0.89096   0.90913   11.224
 4253.00    0.90051   0.91011   11.105
 4254.00    0.90818   0.91195   11.011
 4255.00    0.91050   0.91391   10.983
 4256.00    0.90614   0.91528   11.036
 4257.00    0.89695   0.91554   11.149
 4258.00    0.88756   0.91466   11.267
 4259.00    0.88380   0.91351   11.315
 4260.00    0.88972   0.91361   11.239
 4261.00    0.90160   0.91621   11.091
 4262.00    0.91050   0.92127   10.983
 4263.00    0.91213   0.92731   10.963
 4264.00    0.90726   0.93205   11.022
 4265.00    0.89685   0.93345   11.150
 4266.00    0.88329   0.93064   11.321
 4267.00    0.87562   0.92401   11.420
 4268.00    0.88294   0.91471   11.326
 4269.00    0.89784   0.90428   11.138
 4270.00    0.90438   0.89431   11.057
 4271.00    0.90219   0.88621   11.084
 4272.00    0.90074   0.88120   11.102
 4273.00    0.89725   0.88016   11.145
 4274.00    0.88403   0.88323   11.312
 4275.00    0.87167   0.88950   11.472
 4276.00    0.87759   0.89737   11.395
 4277.00    0.89612   0.90513   11.159
 4278.00    0.90788   0.91119   11.015
 4279.00    0.90762   0.91443   11.018
 4280.00    0.90123   0.91468   11.096
 4281.00    0.89101   0.91262   11.223
 4282.00    0.87585   0.90927   11.417
 4283.00    0.85636   0.90540   11.677
 4284.00    0.83666   0.90122   11.952
 4285.00    0.82564   0.89652   12.112
 4286.00    0.83227   0.89102   12.015
 4287.00    0.85769   0.88484   11.659
 4288.00    0.89278   0.87880   11.201
 4289.00    0.91731   0.87418   10.901
 4290.00    0.91543   0.87210   10.924
 4291.00    0.89822   0.87291   11.133
 4292.00    0.88797   0.87566   11.262
 4293.00    0.89067   0.87832   11.228
 4294.00    0.89975   0.87877   11.114
 4295.00    0.90734   0.87585   11.021
 4296.00    0.90865   0.86962   11.005
 4297.00    0.90529   0.86084   11.046
 4298.00    0.89898   0.85065   11.124
 4299.00    0.88321   0.84051   11.322
 4300.00    0.85263   0.83194   11.728
 4301.00    0.81618   0.82616   12.252
 4302.00    0.79128   0.82347   12.638
 4303.00    0.79366   0.82306   12.600
 4304.00    0.82376   0.82367   12.139
 4305.00    0.85387   0.82433   11.711
 4306.00    0.85538   0.82460   11.691
 4307.00    0.83136   0.82479   12.028
 4308.00    0.80455   0.82587   12.430
 4309.00    0.79840   0.82877   12.525
 4310.00    0.81892   0.83376   12.211
 4311.00    0.83986   0.84034   11.907
 4312.00    0.83634   0.84765   11.958
 4313.00    0.81968   0.85522   12.200
 4314.00    0.81391   0.86311   12.282
 4315.00    0.82817   0.87139   12.075
 4316.00    0.85540   0.87949   11.724
 4317.00    0.87573   0.88602   11.534
 4318.00    0.87846   0.88931   -2.000
 4319.00    0.87989   0.88832   -2.000
 4320.00    0.89468   0.88302   -2.000
 4321.00    0.90992   0.87396   -2.000
 4322.00    0.90421   0.86211   -2.000
 4323.00    0.86820   0.84888   -2.000
 4324.00    0.81752   0.83603   -2.000
 4325.00    0.79669   0.82557   -2.000
 4326.00    0.82815   0.81904   -2.000
 4327.00    0.87585   0.81657   -2.000
 4328.00    0.90321   0.81642   -2.000
 4329.00    0.91757   0.81565   -2.000
 4330.00    0.93112   0.81165   -2.000
 4331.00    0.93091   0.80312   -2.000
 4332.00    0.90436   0.78969   -2.000
 4333.00    0.85945   0.77103   -2.000
 4334.00    0.81838   0.74647    0.000
 4335.00    0.80914   0.71572    0.000
 4336.00    0.84491   0.67970    0.000
 4337.00    0.91212   0.64113    0.000
 4338.00    0.98771   0.60484    0.000
 4339.00    1.05197   0.57679    0.000
 4340.00    1.09074   0.56212    0.000
 4341.00    1.09585   0.56333    0.000
 4342.00    1.06075   0.57989    0.000
 4343.00    0.98166   0.60797    0.000
 4344.00    0.88178   0.64177    0.000
 4345.00    0.81580   0.67617    0.000
 4346.00    0.80634   0.70770    0.000
 4347.00    0.81663   0.73422    0.000
 4348.00    0.81612   0.75480    0.000
 4349.00    0.81347   0.76981    0.000
 4350.00    0.82139   0.78063    0.000
 4351.00    0.83742   0.78932   13.069
 4352.00    0.85326   0.79826   13.144
 4353.00    0.86154   0.80931   13.107
 4354.00    0.86214   0.82264   12.968
 4355.00    0.86311   0.83656   12.861
 4356.00    0.86912   0.84922   12.833
 4357.00    0.87718   0.85974   12.783
 4358.00    0.88446   0.86811   12.653
 4359.00    0.89159   0.87509   12.504
 4360.00    0.89937   0.88175   12.425
 4361.00    0.90683   0.88871   12.484
 4362.00    0.90964   0.89548   12.643
 4363.00    0.90244   0.90091   12.764
 4364.00    0.89154   0.90406   12.775
 4365.00    0.89401   0.90452   12.734
 4366.00    0.91080   0.90252   12.660
 4367.00    0.92194   0.89884   12.508
 4368.00    0.91476   0.89478   12.340
 4369.00    0.89415   0.89152   12.317
 4370.00    0.87551   0.88924   12.423
 4371.00    0.87572   0.88734   12.450
 4372.00    0.89141   0.88537   12.338
 4373.00    0.90029   0.88348   12.240
 4374.00    0.89694   0.88241   12.229
 4375.00    0.89738   0.88312   12.246
 4376.00    0.90748   0.88606   12.247
 4377.00    0.91547   0.89020   12.246
 4378.00    0.90620   0.89302   12.273
 4379.00    0.87232   0.89186   12.351
 4380.00    0.83339   0.88545   12.469
 4381.00    0.82543   0.87431   12.576
 4382.00    0.84846   0.86043   12.606
 4383.00    0.86707   0.84648   12.525
 4384.00    0.86504   0.83549   12.454
 4385.00    0.85352   0.82991   12.566
 4386.00    0.84361   0.83030   12.709
 4387.00    0.83968   0.83515   12.495
 4388.00    0.84520   0.84237   11.969
 4389.00    0.86232   0.85076   11.517
 4390.00    0.88585   0.85949   11.254
 4391.00    0.90578   0.86742   11.066
 4392.00    0.91846   0.87399   10.900
 4393.00    0.92529   0.87924   10.797
 4394.00    0.92140   0.88324   10.847
 4395.00    0.90092   0.88633   11.109
 4396.00    0.87702   0.88905   11.411
 4397.00    0.87372   0.89139   11.428
 4398.00    0.89421   0.89240   11.165
 4399.00    0.92142   0.89140   10.895
 4400.00    0.93799   0.88878   10.704
 4401.00    0.93431   0.88547   10.588
 4402.00    0.91511   0.88231   10.799
 4403.00    0.89505   0.87951   11.678
 4404.00    0.88580   0.87698   12.898
 4405.00    0.89080   0.87538   13.342
 4406.00    0.90062   0.87591   13.023
 4407.00    0.90141   0.87882   12.976
 4408.00    0.89357   0.88316   13.312
 4409.00    0.88799   0.88797   13.459
 4410.00    0.89104   0.89232   13.290
 4411.00    0.90256   0.89479   13.124
 4412.00    0.91788   0.89412   13.121
 4413.00    0.92903   0.89030   13.252
 4414.00    0.92648   0.88454   13.414
 4415.00    0.90753   0.87897   13.504
 4416.00    0.88964   0.87620   13.551
 4417.00    0.89523   0.87763   13.628
 4418.00    0.92191   0.88246   13.665
 4419.00    0.95052   0.88876   13.562
 4420.00    0.96724   0.89451   13.436
 4421.00    0.96751   0.89818   13.487
 4422.00    0.95610   0.89959   13.757
 4423.00    0.94384   0.89962   14.124
 4424.00    0.94202   0.89938   14.334
 4425.00    0.95502   0.89918   14.207
 4426.00    0.97115   0.89866   13.958
 4427.00    0.97458   0.89758   13.907
 4428.00    0.96422   0.89597   14.074
 4429.00    0.94750   0.89388   14.294
 4430.00    0.92809   0.89117   14.415
 4431.00    0.91027   0.88798   14.372
 4432.00    0.90612   0.88491   14.241
 4433.00    0.91832   0.88242   14.171
 4434.00    0.91859   0.88102   14.285
 4435.00    0.88435   0.88158   14.586
 4436.00    0.84607   0.88455   14.828
 4437.00    0.84320   0.88919   14.786
 4438.00    0.86488   0.89360   14.652
 4439.00    0.88148   0.89574   14.675
 4440.00    0.88968   0.89462   14.709
 4441.00    0.89806   0.89084   14.560
 4442.00    0.90519   0.88640   14.418
 4443.00    0.90723   0.88369   14.495
 4444.00    0.90843   0.88417   14.639
 4445.00    0.91233   0.88770   14.635
 4446.00    0.91211   0.89257   14.592
 4447.00    0.90351   0.89662   14.670
 4448.00    0.89786   0.89870   14.786
 4449.00    0.90285   0.89872   14.808
 4450.00    0.90389   0.89666   14.782
 4451.00    0.88814   0.89272   14.788
 4452.00    0.86776   0.88748   14.782
 4453.00    0.85855   0.88140   14.716
 4454.00    0.85881   0.87488   14.653
 4455.00    0.86158   0.86875   14.675
 4456.00    0.86690   0.86406   14.789
 4457.00    0.87507   0.86124   14.917
 4458.00    0.88051   0.85980   14.912
 4459.00    0.87868   0.85919   14.747
 4460.00    0.87209   0.85943   14.633
 4461.00    0.86767   0.86061    0.000
 4462.00    0.87310   0.86252    0.000
 4463.00    0.88780   0.86478    0.000
 4464.00    0.89802   0.86646    0.000
 4465.00    0.89420   0.86619    0.000
 4466.00    0.88325   0.86344    0.000
 4467.00    0.87611   0.85881    0.000
 4468.00    0.87749   0.85351    0.000
 4469.00    0.88512   0.84921    0.000
 4470.00    0.89096   0.84782    0.000
 4471.00    0.89152   0.85072    0.000
 4472.00    0.89340   0.85814    0.000
 4473.00    0.90206   0.86895    0.000
 4474.00    0.91451   0.88053    0.000
 4475.00    0.92412   0.88975    0.000
 4476.00    0.92511   0.89460    0.000
 4477.00    0.91801   0.89451    0.000
 4478.00    0.91118   0.88990    0.000
 4479.00    0.90816   0.88217    0.000
 4480.00    0.90214   0.87400    0.000
 4481.00    0.89009   0.86867    0.000
 4482.00    0.87930   0.86865   13.357
 4483.00    0.87472   0.87406   13.326
 4484.00    0.87299   0.88224   13.406
 4485.00    0.87180   0.88964   13.654
 4486.00    0.87454   0.89395   13.883
 4487.00    0.88589   0.89455   13.925
 4488.00    0.90715   0.89222   13.814
 4489.00    0.92594   0.88871   13.714
 4490.00    0.91789   0.88592   13.819
 4491.00    0.88166   0.88478   14.157
 4492.00    0.84754   0.88502   14.522
 4493.00    0.83291   0.88585   14.747
 4494.00    0.82701   0.88675   14.850
 4495.00    0.82384   0.88802   14.879
 4496.00    0.83326   0.89028   14.833
 4497.00    0.85888   0.89361   14.720
 4498.00    0.89000   0.89757   14.592
 4499.00    0.91205   0.90167   14.548
 4500.00    0.91460   0.90565   14.677
 4501.00    0.90445   0.90966   14.820
 4502.00    0.90359   0.91415   14.610
 4503.00    0.91898   0.91906   14.158
 4504.00    0.93553   0.92322   14.014
 4505.00    0.93773   0.92535   14.303
 4506.00    0.92105   0.92524   14.631
 4507.00    0.90047   0.92353   14.700
 4508.00    0.90314   0.92108   14.571
 4509.00    0.93053   0.91860   14.411
 4510.00    0.95556   0.91616   14.355
 4511.00    0.96209   0.91325   14.428
 4512.00    0.95455   0.90944   14.565
 4513.00    0.94124   0.90504   14.720
 4514.00    0.92825   0.90084   14.886
 4515.00    0.91950   0.89753   15.027
 4516.00    0.91569   0.89557   15.087
 4517.00    0.91086   0.89476   15.118
 4518.00    0.89771   0.89433   15.244
 4519.00    0.88665   0.89361   15.420
 4520.00    0.89710   0.89212   15.460
 4521.00    0.91525   0.88941   15.404
 4522.00    0.90359   0.88520   15.477
 4523.00    0.86429   0.87965   15.645
 4524.00    0.83560   0.87344   15.660
 4525.00    0.83075   0.86706   15.583
 4526.00    0.83373   0.86071   15.713
 4527.00    0.83484   0.85497   16.023
 4528.00    0.83609   0.85054   16.186
 4529.00    0.83965   0.84791   16.151
 4530.00    0.84566   0.84728   16.136
 4531.00    0.85491   0.84835   16.133
 4532.00    0.86688   0.85051   15.978
 4533.00    0.87391   0.85340   15.800
 4534.00    0.86791   0.85716   15.870
 4535.00    0.85882   0.86242   16.085
 4536.00    0.86531   0.86922   16.104
 4537.00    0.88453   0.87637   15.981
 4538.00    0.89908   0.88203   16.018
 4539.00    0.90698   0.88503   16.125
 4540.00    0.91774   0.88566   15.995
 4541.00    0.93043   0.88500   15.769
 4542.00    0.93642   0.88401   15.798
 4543.00    0.93451   0.88286   15.976
 4544.00    0.92875   0.88094   15.952
 4545.00    0.91827   0.87781   15.850
 4546.00    0.90096   0.87376   16.017
 4547.00    0.88393   0.86917   16.298
 4548.00    0.87653   0.86421   16.284
 4549.00    0.87416   0.85933   16.116
 4550.00    0.86569   0.85557    0.000
 4551.00    0.85169   0.85369    0.000
 4552.00    0.84206   0.85318    0.000
 4553.00    0.84614   0.85342    0.000
 4554.00    0.86499   0.85485    0.000
 4555.00    0.88233   0.85812    0.000
 4556.00    0.88086   0.86344    0.000
 4557.00    0.86981   0.87027    0.000
 4558.00    0.87008   0.87711    0.000
 4559.00    0.88461   0.88247    0.000
 4560.00    0.90282   0.88572    0.000
 4561.00    0.91449   0.88675    0.000
 4562.00    0.91423   0.88577    0.000
 4563.00    0.90472   0.88352    0.000
 4564.00    0.89401   0.88129    0.000
 4565.00    0.89065   0.88049    0.000
 4566.00    0.89849   0.88157    0.000
 4567.00    0.91076   0.88377    0.000
 4568.00    0.91610   0.88583    0.000
 4569.00    0.90763   0.88681    0.000
 4570.00    0.88624   0.88653    0.000
 4571.00    0.86291   0.88539    0.000
 4572.00    0.85119   0.88432    0.000
 4573.00    0.85739   0.88426    0.000
 4574.00    0.87700   0.88480    0.000
 4575.00    0.89309   0.88466    0.000
 4576.00    0.89321   0.88330    0.000
 4577.00    0.88756   0.88066    0.000
 4578.00    0.88927   0.87668    0.000
 4579.00    0.89157   0.87157    0.000
 4580.00    0.88407   0.86616    0.000
 4581.00    0.87208   0.86164    0.000
 4582.00    0.86557   0.85878    0.000
 4583.00    0.86592   0.85771    0.000
 4584.00    0.86895   0.85842    0.000
 4585.00    0.86956   0.86073    0.000
 4586.00    0.86513   0.86392    0.000
 4587.00    0.85820   0.86695    0.000
 4588.00    0.85469   0.86912    0.000
 4589.00    0.86104   0.87006    0.000
 4590.00    0.87509   0.86962    0.000
 4591.00    0.88037   0.86812    0.000
 4592.00    0.86885   0.86636    0.000
 4593.00    0.85832   0.86515    0.000
 4594.00    0.86235   0.86475    0.000
 4595.00    0.86650   0.86488    0.000
 4596.00    0.85774   0.86539    0.000
 4597.00    0.84764   0.86627    0.000
 4598.00    0.84826   0.86726    0.000
 4599.00    0.85340   0.86799    0.000
 4600.00    0.85508   0.86828    0.000
 4601.00    0.85634   0.86847    0.000
 4602.00    0.86234   0.86920    0.000
 4603.00    0.87319   0.87076    0.000
 4604.00    0.88493   0.87306    0.000
 4605.00    0.89162   0.87600    0.000
 4606.00    0.89221   0.87958    0.000
 4607.00    0.89417   0.88361    0.000
 4608.00    0.90502   0.88743    0.000
 4609.00    0.92584   0.89016    0.000
 4610.00    0.94701   0.89121    0.000
 4611.00    0.94954   0.89068    0.000
 4612.00    0.92938   0.88919    0.000
 4613.00    0.90804   0.88730    0.000
 4614.00    0.90157   0.88540    0.000
 4615.00    0.90358   0.88363    0.000
 4616.00    0.90156   0.88185    0.000
 4617.00    0.88847   0.88019    0.000
 4618.00    0.86950   0.87902    0.000
 4619.00    0.86152   0.87861    0.000
 4620.00    0.86999   0.87937    0.000
 4621.00    0.88022   0.88131    0.000
 4622.00    0.88072   0.88349    0.000
 4623.00    0.87431   0.88498    0.000
 4624.00    0.86930   0.88540    0.000
 4625.00    0.87272   0.88466    0.000
 4626.00    0.88171   0.88306    0.000
 4627.00    0.88389   0.88118    0.000
 4628.00    0.87883   0.87926    0.000
 4629.00    0.88236   0.87733    0.000
 4630.00    0.89730   0.87576    0.000
 4631.00    0.90626   0.87473    0.000
 4632.00    0.90190   0.87349    0.000
 4633.00    0.89570   0.87136    0.000
 4634.00    0.89463   0.86863    0.000
 4635.00    0.89367   0.86606    0.000
 4636.00    0.88832   0.86389    0.000
 4637.00    0.87923   0.86197    0.000
 4638.00    0.86843   0.86036    0.000
 4639.00    0.85854   0.85933    0.000
 4640.00    0.85614   0.85887    0.000
 4641.00    0.86859   0.85852    0.000
 4642.00    0.88758   0.85758    0.000
 4643.00    0.89138   0.85536    0.000
 4644.00    0.87597   0.85164    0.000
 4645.00    0.85849   0.84685    0.000
 4646.00    0.84863   0.84187    0.000
 4647.00    0.84278   0.83806    0.000
 4648.00    0.84001   0.83675    0.000
 4649.00    0.84454   0.83821    0.000
 4650.00    0.85571   0.84169    0.000
 4651.00    0.86703   0.84601    0.000
 4652.00    0.87421   0.85017    0.000
 4653.00    0.87684   0.85358    0.000
 4654.00    0.87563   0.85608    0.000
 4655.00    0.87277   0.85828    0.000
 4656.00    0.87555   0.86111    0.000
 4657.00    0.89131   0.86481    0.000
 4658.00    0.91047   0.86882    0.000
 4659.00    0.91183   0.87184    0.000
 4660.00    0.89066   0.87236    0.000
 4661.00    0.86162   0.86957    0.000
 4662.00    0.84510   0.86382    0.000
 4663.00    0.85456   0.85621    0.000
 4664.00    0.87491   0.84797    0.000
 4665.00    0.87577   0.84002    0.000
 4666.00    0.85778   0.83308    0.000
 4667.00    0.84604   0.82825    0.000
 4668.00    0.84661   0.82696    0.000
 4669.00    0.84745   0.82953    0.000
 4670.00    0.84553   0.83476    0.000
 4671.00    0.84631   0.84100    0.000
 4672.00    0.84827   0.84681    0.000
 4673.00    0.84539   0.85136    0.000
 4674.00    0.84015   0.85457    0.000
 4675.00    0.84000   0.85659    0.000
 4676.00    0.84444   0.85740    0.000
 4677.00    0.84716   0.85688    0.000
 4678.00    0.84616   0.85518    0.000
 4679.00    0.84427   0.85301    0.000
 4680.00    0.84570   0.85127    0.000
 4681.00    0.85254   0.85040    0.000
 4682.00    0.85945   0.85044    0.000
 4683.00    0.85917   0.85124    0.000
 4684.00    0.85408   0.85227    0.000
 4685.00    0.85204   0.85298    0.000
 4686.00    0.85538   0.85334    0.000
 4687.00    0.86134   0.85355    0.000
 4688.00    0.86620   0.85364    0.000
 4689.00    0.86694   0.85372    0.000
 4690.00    0.86274   0.85389    0.000
 4691.00    0.85609   0.85420    0.000
 4692.00    0.85388   0.85480    0.000
 4693.00    0.86048   0.85556    0.000
 4694.00    0.86742   0.85592    0.000
 4695.00    0.86298   0.85530    0.000
 4696.00    0.84858   0.85329    0.000
 4697.00    0.83340   0.84967    0.000
 4698.00    0.82320   0.84476    0.000
 4699.00    0.82000   0.83966    0.000
 4700.00    0.82390   0.83553    0.000
 4701.00    0.83170   0.83257    0.000
 4702.00    0.83524   0.83044    0.000
 4703.00    0.82960   0.82916    0.000
 4704.00    0.82328   0.82898    0.000
 4705.00    0.82474   0.82958    0.000
 4706.00    0.82489   0.83021    0.000
 4707.00    0.81262   0.83049    0.000
 4708.00    0.79574   0.83063    0.000
 4709.00    0.78796   0.83100    0.000
 4710.00    0.79122   0.83180    0.000
 4711.00    0.80241   0.83292    0.000
 4712.00    0.82283   0.83393    0.000
 4713.00    0.84999   0.83498    0.000
 4714.00    0.86885   0.83709    0.000
 4715.00    0.86945   0.84106    0.000
 4716.00    0.86504   0.84657    0.000
 4717.00    0.86921   0.85259    0.000
 4718.00    0.87231   0.85812    0.000
 4719.00    0.86361   0.86263    0.000
 4720.00    0.85419   0.86580    0.000
 4721.00    0.85667   0.86735    0.000
 4722.00    0.86461   0.86723    0.000
 4723.00    0.86553   0.86567    0.000
 4724.00    0.85508   0.86291    0.000
 4725.00    0.83854   0.85881    0.000
 4726.00    0.82952   0.85324    0.000
 4727.00    0.83551   0.84670    0.000
 4728.00    0.84657   0.84052    0.000
 4729.00    0.84843   0.83609    0.000
 4730.00    0.83504   0.83387    0.000
 4731.00    0.81324   0.83361    0.000
 4732.00    0.80305   0.83503    0.000
 4733.00    0.81557   0.83751    0.000
 4734.00    0.83760   0.84015    0.000
 4735.00    0.85207   0.84240    0.000
 4736.00    0.85442   0.84399    0.000
 4737.00    0.84887   0.84523    0.000
 4738.00    0.84387   0.84677    0.000
 4739.00    0.84465   0.84842    0.000
 4740.00    0.84885   0.84962    0.000
 4741.00    0.85283   0.85053    0.000
 4742.00    0.85582   0.85162    0.000
 4743.00    0.85683   0.85294    0.000
 4744.00    0.85330   0.85412    0.000
 4745.00    0.84732   0.85500    0.000
 4746.00    0.84766   0.85575    0.000
 4747.00    0.85518   0.85620    0.000
 4748.00    0.85709   0.85594    0.000
 4749.00    0.84854   0.85493    0.000
 4750.00    0.84226   0.85332    0.000
 4751.00    0.84502   0.85101    0.000
 4752.00    0.84675   0.84811    0.000
 4753.00    0.84127   0.84517    0.000
 4754.00    0.83571   0.84269    0.000
 4755.00    0.83458   0.84092    0.000
 4756.00    0.83269   0.83987    0.000
 4757.00    0.82669   0.83934    0.000
 4758.00    0.82025   0.83882    0.000
 4759.00    0.81826   0.83767    0.000
 4760.00    0.82262   0.83540    0.000
 4761.00    0.82771   0.83183   21.165
 4762.00    0.82203   0.82744   21.395
 4763.00    0.80654   0.82342   21.596
 4764.00    0.79840   0.82071   21.707
 4765.00    0.80679   0.81967   21.687
 4766.00    0.82404   0.82042   21.517
 4767.00    0.83808   0.82292   21.322
 4768.00    0.83966   0.82654   21.328
 4769.00    0.82823   0.83047   21.501
 4770.00    0.81276   0.83401   21.522
 4771.00    0.80498   0.83677   21.327
 4772.00    0.81337   0.83908   21.218
 4773.00    0.83114   0.84152   21.315
 4774.00    0.83886   0.84406   21.438
 4775.00    0.83305   0.84604   21.408
 4776.00    0.82927   0.84698   21.204
 4777.00    0.83123   0.84705   21.006
 4778.00    0.82684   0.84626   21.076
 4779.00    0.81701   0.84439   21.323
 4780.00    0.81803   0.84179   21.328
 4781.00    0.83249   0.83900   21.078
 4782.00    0.84505   0.83608   20.981
 4783.00    0.84418   0.83304   21.060
 4784.00    0.82954   0.83044   20.946
 4785.00    0.81079   0.82855   20.694
 4786.00    0.80192   0.82715   20.756
 4787.00    0.80542   0.82655   21.158
 4788.00    0.81199   0.82724   21.446
 4789.00    0.81526   0.82903   21.415
 4790.00    0.81521   0.83175   21.259
 4791.00    0.81428   0.83535   21.154
 4792.00    0.81553   0.83928   21.147
 4793.00    0.82062   0.84293   21.195
 4794.00    0.82886   0.84570   21.220
 4795.00    0.83597   0.84691   21.194
 4796.00    0.83695   0.84625   21.141
 4797.00    0.83388   0.84419   21.087
 4798.00    0.83356   0.84147   21.045
 4799.00    0.83586   0.83886   21.024
 4800.00    0.83453   0.83699   21.044
 4801.00    0.82681   0.83603   21.149
 4802.00    0.81545   0.83552   21.363
 4803.00    0.80741   0.83468   21.552
 4804.00    0.80912   0.83314   21.518
 4805.00    0.81647   0.83121   21.308
 4806.00    0.81965   0.82961   21.147
 4807.00    0.81884   0.82859   21.132
 4808.00    0.82109   0.82807   21.234
 4809.00    0.82622   0.82812   21.402
 4810.00    0.82885   0.82875   21.548
 4811.00    0.82906   0.82972   21.477
 4812.00    0.83010   0.83092   21.084
 4813.00    0.82916   0.83241   20.736
 4814.00    0.82249   0.83420   20.873
 4815.00    0.81827   0.83606   21.287
 4816.00    0.82620   0.83761   21.429
 4817.00    0.83383   0.83841   21.367
 4818.00    0.82191   0.83804   21.531
 4819.00    0.79981   0.83628   21.845
 4820.00    0.79156   0.83319   21.951
 4821.00    0.80021   0.82908   21.947
 4822.00    0.81405   0.82434   22.143
 4823.00    0.82775   0.81946   22.398
 4824.00    0.84041   0.81566   22.380
 4825.00    0.84636   0.81390   22.220
 4826.00    0.84002   0.81354   22.240
 4827.00    0.82565   0.81328   22.362
 4828.00    0.81228   0.81256   22.330
 4829.00    0.80363   0.81159   22.193
 4830.00    0.79904   0.81075   22.140
 4831.00    0.79731   0.80985   22.145
 4832.00    0.79806   0.80876   22.068
 4833.00    0.80259   0.80782   21.875
 4834.00    0.81073   0.80703   21.665
 4835.00    0.81638   0.80577   21.661
 4836.00    0.81288   0.80369   21.955
 4837.00    0.80077   0.80102   22.198
 4838.00    0.78608   0.79785   22.024
 4839.00    0.77641   0.79423   21.721
 4840.00    0.77637   0.79067   21.698
 4841.00    0.78278   0.78763   21.802
 4842.00    0.79040   0.78481   21.721
 4843.00    0.79909   0.78171   21.537
 4844.00    0.80724   0.77836   21.487
 4845.00    0.80416   0.77468   21.612
 4846.00    0.78367   0.77006   21.817
 4847.00    0.75934   0.76397   21.973
 4848.00    0.74657   0.75649    0.000
 4849.00    0.74194   0.74820    0.000
 4850.00    0.73493   0.73923    0.000
 4851.00    0.72264   0.72872    0.000
 4852.00    0.70852   0.71580    0.000
 4853.00    0.69942   0.70016    0.000
 4854.00    0.70522   0.68142    0.000
 4855.00    0.73884   0.65970    0.000
 4856.00    0.81789   0.63635    0.000
 4857.00    0.96362   0.61270    0.000
 4858.00    1.17329   0.58943    0.000
 4859.00    1.39736   0.56795    0.000
 4860.00    1.57010   0.55085    0.000
 4861.00    1.64074   0.54162    0.000
 4862.00    1.58721   0.54344    0.000
 4863.00    1.42538   0.55608    0.000
 4864.00    1.20230   0.57556    0.000
 4865.00    0.98585   0.59798    0.000
 4866.00    0.82925   0.62080    0.000
 4867.00    0.74428   0.64194    0.000
 4868.00    0.71651   0.65998    0.000
 4869.00    0.72065   0.67459    0.000
 4870.00    0.73176   0.68591    0.000
 4871.00    0.73390   0.69483    0.000
 4872.00    0.72463   0.70339    0.000
 4873.00    0.71606   0.71305    0.000
 4874.00    0.71938   0.72332    0.000
 4875.00    0.73429   0.73323   22.385
 4876.00    0.75357   0.74260   22.202
 4877.00    0.76790   0.75137   22.210
 4878.00    0.77338   0.75909   22.324
 4879.00    0.77495   0.76537   22.412
 4880.00    0.77650   0.76955   22.465
 4881.00    0.77556   0.77120   22.665
 4882.00    0.77256   0.77113   23.031
 4883.00    0.77451   0.77035   23.235
 4884.00    0.78142   0.76893   23.096
 4885.00    0.78088   0.76703   22.865
 4886.00    0.76714   0.76544   22.796
 4887.00    0.74996   0.76488   22.920
 4888.00    0.73960   0.76548   23.097
 4889.00    0.73865   0.76716   23.086
 4890.00    0.74665   0.76991   22.840
 4891.00    0.76254   0.77438   22.594
 4892.00    0.78346   0.78161   22.485
 4893.00    0.80429   0.79093   22.433
 4894.00    0.81955   0.80013   22.451
 4895.00    0.82517   0.80769   22.725
 4896.00    0.82266   0.81286   23.195
 4897.00    0.81930   0.81537   23.423
 4898.00    0.81947   0.81551   23.203
 4899.00    0.82132   0.81383   22.831
 4900.00    0.82071   0.81140   22.611
 4901.00    0.81421   0.80963   22.646
 4902.00    0.80313   0.80871   22.862
 4903.00    0.79397   0.80807   23.052
 4904.00    0.79230   0.80776   23.100
 4905.00    0.79961   0.80789   23.059
 4906.00    0.81147   0.80771   22.995
 4907.00    0.81902   0.80635   22.929
 4908.00    0.81804   0.80385   22.872
 4909.00    0.81148   0.80103   22.843
 4910.00    0.80499   0.79874   22.870
 4911.00    0.80404   0.79778   22.961
 4912.00    0.81023   0.79810   23.016
 4913.00    0.81984   0.79847   22.890
 4914.00    0.82391   0.79754   22.769
 4915.00    0.81257   0.79448   23.026
 4916.00    0.78948   0.78871   23.297
 4917.00    0.77056   0.78003   22.795
 4918.00    0.76262   0.76931   22.600
 4919.00    0.76044   0.75861   24.674
 4920.00    0.76160   0.75040   25.922
 4921.00    0.76851   0.74638   19.945
 4922.00    0.77909   0.74744   14.115
 4923.00    0.78647   0.75287   12.132
 4924.00    0.78732   0.76128   12.393
 4925.00    0.78360   0.77185   12.981
 4926.00    0.77984   0.78356   12.938
 4927.00    0.78091   0.79415   12.722
 4928.00    0.78805   0.80202   12.644
 4929.00    0.79839   0.80695   12.569
 4930.00    0.80678   0.80883   12.429
 4931.00    0.80849   0.80778   12.314
 4932.00    0.80457   0.80423   12.367
 4933.00    0.80024   0.79880   12.632
 4934.00    0.79682   0.79326   12.715
 4935.00    0.79157   0.78937   12.259
 4936.00    0.78248   0.78688   12.314
 4937.00    0.77097   0.78500   14.710
 4938.00    0.76506   0.78419   20.491
 4939.00    0.77364   0.78554   24.748
 4940.00    0.79187   0.78946    0.000
 4941.00    0.80630   0.79492    0.000
 4942.00    0.81367   0.80026    0.000
 4943.00    0.81971   0.80488    0.000
 4944.00    0.82745   0.80879    0.000
 4945.00    0.83538   0.81166    0.000
 4946.00    0.83932   0.81361    0.000
 4947.00    0.83565   0.81515    0.000
 4948.00    0.82672   0.81626    0.000
 4949.00    0.81833   0.81661    0.000
 4950.00    0.81258   0.81596    0.000
 4951.00    0.80894   0.81397    0.000
 4952.00    0.80884   0.81027    0.000
 4953.00    0.81769   0.80529    0.000
 4954.00    0.84658   0.79996    0.000
 4955.00    0.90490   0.79479    0.000
 4956.00    0.98700   0.78989    0.000
 4957.00    1.07280   0.78591    0.000
 4958.00    1.13340   0.78498    0.000
 4959.00    1.14568   0.78800    0.000
 4960.00    1.11385   0.79267    0.000
 4961.00    1.05819   0.79644    0.000
 4962.00    0.99179   0.79868    0.000
 4963.00    0.92242   0.79960    0.000
 4964.00    0.86077   0.79911    0.000
 4965.00    0.81674   0.79720    0.000
 4966.00    0.79199   0.79483    0.000
 4967.00    0.78275   0.79321    0.000
 4968.00    0.78513   0.79274    0.000
 4969.00    0.79379   0.79346    0.000
 4970.00    0.79939   0.79518    0.000
 4971.00    0.79578   0.79761    0.000
 4972.00    0.78936   0.80022    0.000
 4973.00    0.78908   0.80217    0.000
 4974.00    0.79220   0.80285    0.000
 4975.00    0.79183   0.80184    0.000
 4976.00    0.78841   0.79875    0.000
 4977.00    0.78557   0.79358    0.000
 4978.00    0.78370   0.78671    0.000
 4979.00    0.78138   0.77899    0.000
 4980.00    0.77810   0.77136    0.000
 4981.00    0.77454   0.76429    0.000
 4982.00    0.77246   0.75843    0.000
 4983.00    0.77212   0.75513    0.000
 4984.00    0.77001   0.75529    0.000
 4985.00    0.76507   0.75835    0.000
 4986.00    0.76466   0.76312    0.000
 4987.00    0.77307   0.76848    0.000
 4988.00    0.78041   0.77311    0.000
 4989.00    0.77747   0.77631    0.000
 4990.00    0.77058   0.77823    0.000
 4991.00    0.76987   0.77936    0.000
 4992.00    0.77683   0.78029    0.000
 4993.00    0.78663   0.78085    0.000
 4994.00    0.79203   0.78069    0.000
 4995.00    0.78878   0.78008    0.000
 4996.00    0.77976   0.77871    0.000
 4997.00    0.76964   0.77610    0.000
 4998.00    0.76065   0.77227    0.000
 4999.00    0.76007   0.76728    0.000
 5000.00    0.78602   0.76160    0.000
 5001.00    0.86038   0.75626    0.000
 5002.00    1.00065   0.75215    0.000
 5003.00    1.20527   0.74965    0.000
 5004.00    1.44325   0.74816    0.000
 5005.00    1.66261   0.74707    0.000
 5006.00    1.80145   0.74676    0.000
 5007.00    1.81741   0.74784    0.000
 5008.00    1.70842   0.74965    0.000
 5009.00    1.50476   0.75039    0.000
 5010.00    1.25992   0.74900    0.000
 5011.00    1.03267   0.74582    0.000
 5012.00    0.87141   0.74139    0.000
 5013.00    0.79138   0.73649    0.000
 5014.00    0.76523   0.73217    0.000
 5015.00    0.75875   0.72928    0.000
 5016.00    0.75434   0.72834    0.000
 5017.00    0.74803   0.72885    0.000
 5018.00    0.74468   0.73046    0.000
 5019.00    0.74533   0.73376    0.000
 5020.00    0.74224   0.73859    0.000
 5021.00    0.73459   0.74347    0.000
 5022.00    0.73440   0.74755    0.000
 5023.00    0.74618   0.75136    0.000
 5024.00    0.75868   0.75525    0.000
 5025.00    0.76458   0.75857    0.000
 5026.00    0.76899   0.76091    0.000
 5027.00    0.77490   0.76256    0.000
 5028.00    0.77747   0.76456    0.000
 5029.00    0.77624   0.76736   25.656
 5030.00    0.77854   0.76979   25.574
 5031.00    0.78471   0.77113   25.111
 5032.00    0.78418   0.77164   24.899
 5033.00    0.77241   0.77100   25.130
 5034.00    0.75681   0.76823   25.311
 5035.00    0.74527   0.76278   25.302
 5036.00    0.74092   0.75587   25.603
 5037.00    0.74307   0.74967   26.250
 5038.00    0.74805   0.74456   26.504
 5039.00    0.75049   0.74010   26.121
 5040.00    0.74570   0.73695   25.749
 5041.00    0.73730   0.73658   25.772
 5042.00    0.73656   0.74004   26.021
 5043.00    0.74772   0.74617   26.204
 5044.00    0.76397   0.75220   26.109
 5045.00    0.77565   0.75684   25.739
 5046.00    0.77551   0.75962   25.307
 5047.00    0.76585   0.76009   25.071
 5048.00    0.75739   0.75877   25.213
 5049.00    0.75609   0.75710   25.556
 5050.00    0.75973   0.75612   25.645
 5051.00    0.76363   0.75609   25.509
 5052.00    0.76367   0.75727   25.657
 5053.00    0.75950   0.75993   26.061
 5054.00    0.75428   0.76358   26.139
 5055.00    0.75039   0.76722   25.915
 5056.00    0.74855   0.77060   26.027
 5057.00    0.74982   0.77398   26.486
 5058.00    0.75522   0.77707   26.629
 5059.00    0.76283   0.77877   26.333
 5060.00    0.76833   0.77882   26.112
 5061.00    0.76904   0.77762   26.177
 5062.00    0.76487   0.77513   26.353
 5063.00    0.75733   0.77111   26.526
 5064.00    0.74896   0.76592   26.701
 5065.00    0.74272   0.76108   26.781
 5066.00    0.74085   0.75779   26.649
 5067.00    0.74240   0.75556   26.517
 5068.00    0.74474   0.75380   26.635
 5069.00    0.74881   0.75284   26.361
 5070.00    0.75843   0.75266   24.811
 5071.00    0.77483   0.75236   22.752
 5072.00    0.79467   0.75150   21.480
 5073.00    0.80856   0.75055   21.303
 5074.00    0.80631   0.74925   21.864
 5075.00    0.78923   0.74699   22.155
 5076.00    0.76774   0.74416   21.464
 5077.00    0.74959   0.74126   21.715
 5078.00    0.73783   0.73795   25.392
 5079.00    0.73218   0.73417   27.957
 5080.00    0.73025   0.73154   20.735
 5081.00    0.72925   0.73144   14.592
 5082.00    0.72808   0.73327   12.938
 5083.00    0.73052   0.73593   13.460
 5084.00    0.74047   0.73937   13.788
 5085.00    0.75188   0.74360   13.368
 5086.00    0.75538   0.74784   13.165
 5087.00    0.75398   0.75147   13.257
 5088.00    0.75662   0.75466   13.178
 5089.00    0.76135   0.75760   13.093
 5090.00    0.76033   0.75983   13.350
 5091.00    0.75380   0.76101   13.400
 5092.00    0.74739   0.76117   12.796
 5093.00    0.74339   0.76012   13.067
 5094.00    0.74062   0.75745   16.583
 5095.00    0.73666   0.75334   25.098
 5096.00    0.72964   0.74856   31.043
 5097.00    0.72048   0.74386   28.006
 5098.00    0.71235   0.73988   26.007
 5099.00    0.70940   0.73729   26.640
 5100.00    0.71371   0.73679   27.514
 5101.00    0.72149   0.73807   27.559
 5102.00    0.72691   0.73969   27.177
 5103.00    0.72852   0.74072   26.939
 5104.00    0.72936   0.74103   27.054
 5105.00    0.73538   0.74074   27.061
 5106.00    0.74765   0.74002   26.562
 5107.00    0.75319   0.73900   26.188
 5108.00    0.74057   0.73837   26.566
 5109.00    0.72063   0.73871   27.103
 5110.00    0.71161   0.73996   26.919
 5111.00    0.71755   0.74234   26.412
 5112.00    0.73181   0.74570   26.303
 5113.00    0.74500   0.74919   26.383
 5114.00    0.75076   0.75234   26.190
 5115.00    0.75096   0.75482   25.872
 5116.00    0.75070   0.75638   25.788
 5117.00    0.75170   0.75679   25.990
 5118.00    0.75261   0.75546   26.289
 5119.00    0.75019   0.75219   26.385
 5120.00    0.74245   0.74748   26.211
 5121.00    0.73164   0.74197   26.235
 5122.00    0.72216   0.73616   26.790
 5123.00    0.71788   0.73039   27.419
 5124.00    0.71958   0.72547   27.581
 5125.00    0.72325   0.72221   27.557
 5126.00    0.72552   0.72058   27.758
 5127.00    0.72844   0.72006   27.985
 5128.00    0.73325   0.72038   27.981
 5129.00    0.73498   0.72166   27.999
 5130.00    0.72993   0.72400   28.258
 5131.00    0.72227   0.72686   28.464
 5132.00    0.71740   0.72922   28.378
 5133.00    0.71601   0.73065   28.325
 5134.00    0.71624   0.73144   28.520
 5135.00    0.71622   0.73185   28.562
 5136.00    0.71624   0.73114   28.169
 5137.00    0.71981   0.72889   27.745
 5138.00    0.72869   0.72602   27.619
 5139.00    0.73932   0.72355   27.582
 5140.00    0.74654   0.72212   27.474
 5141.00    0.74674   0.72111   27.572
 5142.00    0.73944   0.71950   28.056
 5143.00    0.72768   0.71820   28.639
 5144.00    0.71506   0.71815   28.987
 5145.00    0.70369   0.71830   29.081
 5146.00    0.69604   0.71777   29.005
 5147.00    0.69564   0.71702   28.767
 5148.00    0.70271   0.71670   28.398
 5149.00    0.71205   0.71680   28.020
 5150.00    0.71868   0.71674   27.801
 5151.00    0.72138   0.71661   27.905
 5152.00    0.72179   0.71716   28.286
 5153.00    0.72315   0.71860   28.596
 5154.00    0.72718   0.72083   28.607
 5155.00    0.73248   0.72397   28.465
 5156.00    0.73571   0.72777   28.325
 5157.00    0.73342   0.73130   28.158
 5158.00    0.72835   0.73365   27.922
 5159.00    0.73024   0.73420   27.653
 5160.00    0.74081   0.73269   27.377
 5161.00    0.74869   0.72850   27.092
 5162.00    0.74625   0.72115   26.879
 5163.00    0.73656   0.71154   26.925
 5164.00    0.72200   0.70079   27.376
 5165.00    0.70018   0.68941   28.245
 5166.00    0.67392   0.67773   29.222
 5167.00    0.65364   0.66669   29.656
 5168.00    0.64430   0.65850   29.486
 5169.00    0.64129   0.65526   29.462
 5170.00    0.64064   0.65638   29.756
 5171.00    0.64303   0.65920   29.651
 5172.00    0.65002   0.66294   29.035
 5173.00    0.66201   0.66978   28.714
 5174.00    0.67706   0.68024   28.956
 5175.00    0.69101   0.69102   29.225
 5176.00    0.69994   0.69897   29.163
 5177.00    0.70183   0.70376   28.931
 5178.00    0.69889   0.70561   28.654
 5179.00    0.69656   0.70412   28.282
 5180.00    0.69611   0.69993   27.927
 5181.00    0.69360   0.69448   27.857
 5182.00    0.68685   0.68862   28.074
 5183.00    0.67797   0.68331   28.274
 5184.00    0.67285   0.68133   28.281
 5185.00    0.67810   0.68444   28.167
 5186.00    0.69133   0.69016   28.065
 5187.00    0.70164   0.69513   28.080
 5188.00    0.70270   0.69870   28.277
 5189.00    0.69622   0.70204   28.629
 5190.00    0.68831   0.70474    0.000
 5191.00    0.68603   0.70485    0.000
 5192.00    0.69076   0.70327    0.000
 5193.00    0.69860   0.70292    0.000
 5194.00    0.70775   0.70439    0.000
 5195.00    0.71964   0.70626    0.000
 5196.00    0.73552   0.70829    0.000
 5197.00    0.75403   0.71098    0.000
 5198.00    0.76777   0.71395    0.000
 5199.00    0.76718   0.71604    0.000
 5200.00    0.75375   0.71604    0.000
 5201.00    0.73772   0.71389    0.000
 5202.00    0.72266   0.71024    0.000
 5203.00    0.70565   0.70548    0.000
 5204.00    0.68802   0.69965    0.000
 5205.00    0.67544   0.69380    0.000
 5206.00    0.67097   0.69003    0.000
 5207.00    0.67348   0.68912    0.000
 5208.00    0.67808   0.69029    0.000
 5209.00    0.67952   0.69341    0.000
 5210.00    0.67947   0.69845    0.000
 5211.00    0.68397   0.70434   27.990
 5212.00    0.69412   0.71009   27.859
 5213.00    0.70596   0.71508   31.094
 5214.00    0.71488   0.71895   30.891
 5215.00    0.71819   0.72151   21.323
 5216.00    0.71841   0.72347   14.816
 5217.00    0.72041   0.72582   13.068
 5218.00    0.72452   0.72837   13.564
 5219.00    0.72758   0.73008   14.072
 5220.00    0.72760   0.73002   13.845
 5221.00    0.72446   0.72793   13.618
 5222.00    0.71937   0.72372   13.815
 5223.00    0.71354   0.71788   14.295
 5224.00    0.70598   0.71150   14.340
 5225.00    0.69596   0.70539   13.680
 5226.00    0.68774   0.70031   14.060
 5227.00    0.68705   0.69773   18.185
 5228.00    0.69357   0.69876   28.494
 5229.00    0.70224   0.70195   35.422
 5230.00    0.70747   0.70531   31.245
 5231.00    0.70663   0.70845   29.443
 5232.00    0.70431   0.71119   30.967
 5233.00    0.70729   0.71351   31.450
 5234.00    0.71611   0.71601   30.405
 5235.00    0.72663   0.71922   29.977
 5236.00    0.73439   0.72329   29.979
 5237.00    0.73714   0.72750   29.366
 5238.00    0.73736   0.73124   28.755
 5239.00    0.73876   0.73455   29.074
 5240.00    0.74126   0.73741   29.676
 5241.00    0.74207   0.73930   29.462
 5242.00    0.73843   0.73941   28.906
 5243.00    0.73043   0.73807   28.883
 5244.00    0.72381   0.73643   28.995
 5245.00    0.72286   0.73415   28.623
 5246.00    0.72172   0.73025   28.350
 5247.00    0.71384   0.72572   28.885
 5248.00    0.70392   0.72255   29.738
 5249.00    0.69940   0.72056   30.011
 5250.00    0.69913   0.71857   29.768
 5251.00    0.69842   0.71740   29.498
 5252.00    0.69619   0.71831   29.218
 5253.00    0.69452   0.72060   28.817
 5254.00    0.69714   0.72266   28.456
 5255.00    0.70504   0.72430   28.246
 5256.00    0.71272   0.72623   27.950
 5257.00    0.71635   0.72760   27.497
 5258.00    0.72138   0.72662   27.416
 5259.00    0.73133   0.72262   28.029
 5260.00    0.73701   0.71592   28.732
 5261.00    0.72986   0.70719   28.843
 5262.00    0.71479   0.69734   28.686
 5263.00    0.69972   0.68756   28.704
 5264.00    0.68549   0.67845   28.588
 5265.00    0.67254   0.67030   28.153
 5266.00    0.66678   0.66468   28.017
 5267.00    0.67238   0.66298   28.470
 5268.00    0.68539   0.66338   28.632
 5269.00    0.69841   0.66366   27.925
 5270.00    0.70515   0.66542   27.249
 5271.00    0.70353   0.67062   27.080
 5272.00    0.69749   0.67776   26.514
 5273.00    0.69359   0.68453   25.884
 5274.00    0.69749   0.69063   27.879
 5275.00    0.70848   0.69653   31.945
 5276.00    0.71703   0.70262   26.970
 5277.00    0.71717   0.70860   17.690
 5278.00    0.71416   0.71307   13.676
 5279.00    0.71279   0.71512   13.337
 5280.00    0.70994   0.71572   14.205
 5281.00    0.70357   0.71662   14.466
 5282.00    0.69831   0.71817   14.280
 5283.00    0.69878   0.71977   14.260
 5284.00    0.70516   0.72212   14.176
 5285.00    0.71595   0.72663   13.882
 5286.00    0.72945   0.73252   13.769
 5287.00    0.74042   0.73760   13.808
 5288.00    0.74011   0.74103   13.325
 5289.00    0.72887   0.74336   12.876
 5290.00    0.72065   0.74482   14.625
 5291.00    0.72420   0.74442   21.413
 5292.00    0.73370   0.74148   32.349
 5293.00    0.73960   0.73666   32.625
 5294.00    0.73592   0.73145   28.503
 5295.00    0.72450   0.72651   28.564
 5296.00    0.71500   0.72134   30.078
 5297.00    0.71330   0.71613   30.048
 5298.00    0.71663   0.71280   29.550
 5299.00    0.72087   0.71280   29.760
 5300.00    0.72426   0.71505   30.045
 5301.00    0.72643   0.71773   29.818
 5302.00    0.72758   0.72089   29.372
 5303.00    0.72722   0.72526   28.976
 5304.00    0.72415   0.73026   28.536
 5305.00    0.71921   0.73445   27.999
 5306.00    0.71606   0.73718   27.455
 5307.00    0.71877   0.73899   26.900
 5308.00    0.72956   0.74045   26.235
 5309.00    0.74421   0.74142   25.579
 5310.00    0.75294   0.74140   25.224
 5311.00    0.75177   0.74015   25.130
 5312.00    0.74524   0.73785   24.922
 5313.00    0.73774   0.73515   24.513
 5314.00    0.73060   0.73266   24.193
 5315.00    0.72429   0.73009   24.086
 5316.00    0.71937   0.72719   24.058
 5317.00    0.71641   0.72501   24.063
 5318.00    0.71588   0.72404   24.188
 5319.00    0.71772   0.72290   24.423
 5320.00    0.72093   0.72053   24.631
 5321.00    0.72277   0.71759   24.804
 5322.00    0.72003   0.71412   25.061
 5323.00    0.71418   0.70866   25.334
 5324.00    0.70996   0.70132   25.396
 5325.00    0.70531   0.69500   25.408
 5326.00    0.69299   0.69088   25.822
 5327.00    0.67558   0.68719   26.524
 5328.00    0.66452   0.68409   26.818
 5329.00    0.66306   0.68483   26.547
 5330.00    0.66528   0.69007   26.241
 5331.00    0.66873   0.69648   26.217
 5332.00    0.67580   0.70174   26.412
 5333.00    0.68693   0.70645   26.533
 5334.00    0.69948   0.71115   26.270
 5335.00    0.71028   0.71420   25.791
 5336.00    0.71676   0.71441   25.564
 5337.00    0.71776   0.71318   25.707
 5338.00    0.71408   0.71218   25.994
 5339.00    0.70898   0.71100   26.192
 5340.00    0.70655   0.70933   26.183
 5341.00    0.70769   0.70848   26.044
 5342.00    0.71021   0.70938   25.994
 5343.00    0.71148   0.71098   26.236
 5344.00    0.70995   0.71195   26.764
 5345.00    0.70683   0.71224   26.968
 5346.00    0.70510   0.71301   26.443
 5347.00    0.70627   0.71476   26.916
 5348.00    0.70941   0.71650   30.036
 5349.00    0.71071   0.71809   29.756
 5350.00    0.70678   0.72097   21.206
 5351.00    0.70119   0.72546   15.134
 5352.00    0.70109   0.73010   13.468
 5353.00    0.70769   0.73408   13.908
 5354.00    0.71712   0.73796   14.222
 5355.00    0.72579   0.74165   13.845
 5356.00    0.73130   0.74403   13.604
 5357.00    0.73214   0.74453   13.654
 5358.00    0.72801   0.74349   13.694
 5359.00    0.72029   0.74139   13.839
 5360.00    0.71136   0.73809   14.277
 5361.00    0.70313   0.73346   14.368
 5362.00    0.69652   0.72815   13.709
 5363.00    0.69101   0.72308   14.049
 5364.00    0.68573   0.71836   18.092
 5365.00    0.68133   0.71354   28.183
 5366.00    0.67868   0.70870   35.304
 5367.00    0.67668   0.70445   31.504
 5368.00    0.67382   0.70144   29.413
 5369.00    0.67129   0.69962   30.420
 5370.00    0.67198   0.69865   31.009
 5371.00    0.67822   0.69931   30.421
 5372.00    0.68984   0.70253   29.962
 5373.00    0.70204   0.70763   29.754
 5374.00    0.70967   0.71299   29.317
 5375.00    0.71339   0.71767   28.767
 5376.00    0.71641   0.72129   28.463
 5377.00    0.71910   0.72371   28.446
 5378.00    0.71995   0.72496   28.550
 5379.00    0.71756   0.72486   28.598
 5380.00    0.71223   0.72377   28.525
 5381.00    0.70726   0.72258   28.490
 5382.00    0.70604   0.72156   28.607
 5383.00    0.70833   0.72060   28.632
 5384.00    0.71158   0.71994   28.378
 5385.00    0.71311   0.71953   28.187
 5386.00    0.71207   0.71859   28.388
 5387.00    0.71114   0.71699   28.716
 5388.00    0.71266   0.71490   28.761
 5389.00    0.71459   0.71214   28.566
 5390.00    0.71400   0.70888   28.369
 5391.00    0.71130   0.70564   28.239
 5392.00    0.70875   0.70214   28.182
 5393.00    0.70852   0.69839   28.259
 5394.00    0.71061   0.69563   28.485
 5395.00    0.71142   0.69395   28.710
 5396.00    0.70796   0.69194   28.734
 5397.00    0.70182   0.68997   28.458
 5398.00    0.69645   0.68979   28.059
 5399.00    0.69422   0.69037   28.033
 5400.00    0.69496   0.68938   28.567
 5401.00    0.69523   0.68720   29.056
 5402.00    0.69243   0.68537   28.958
 5403.00    0.68786   0.68346   28.675
 5404.00    0.68327   0.68054   28.728
 5405.00    0.67805   0.67739   29.089
 5406.00    0.67230   0.67577   29.482
 5407.00    0.66891   0.67656   29.668
 5408.00    0.66974   0.67876   29.655
 5409.00    0.67292   0.68116   29.779
 5410.00    0.67702   0.68405   30.151
 5411.00    0.68378   0.68858   30.307
 5412.00    0.69316   0.69423   30.019
 5413.00    0.70024   0.69923   -2.000
 5414.00    0.70006   0.70293   -2.000
 5415.00    0.69115   0.70619   -2.000
 5416.00    0.67479   0.70927   -2.000
 5417.00    0.65492   0.71151   -2.000
 5418.00    0.64206   0.71241   -2.000
 5419.00    0.65307   0.71203   -2.000
 5420.00    0.69264   0.71069   -2.000
 5421.00    0.74366   0.70942   -2.000
 5422.00    0.78304   0.70868   -2.000
 5423.00    0.79362   0.70751   -2.000
 5424.00    0.77482   0.70529   -2.000
 5425.00    0.74511   0.70300   -2.000
 5426.00    0.72172   0.70173   -2.000
 5427.00    0.70941   0.70070   -2.000
 5428.00    0.70542   0.69811   28.520
 5429.00    0.70365   0.69414   28.583
 5430.00    0.69984   0.69128   28.468
 5431.00    0.69390   0.69035   28.554
 5432.00    0.68757   0.68963   28.945
 5433.00    0.68286   0.68900   29.344
 5434.00    0.68076   0.69021   29.522
 5435.00    0.68078   0.69357   29.552
 5436.00    0.68218   0.69799   29.567
 5437.00    0.68461   0.70275   29.606
 5438.00    0.68879   0.70766   29.596
 5439.00    0.69609   0.71196   29.390
 5440.00    0.70587   0.71470   28.975
 5441.00    0.71476   0.71529   28.518
 5442.00    0.71963   0.71374   28.197
 5443.00    0.71895   0.71078   28.121
 5444.00    0.71327   0.70728   28.255
 5445.00    0.70485   0.70354   28.448
 5446.00    0.69558   0.69990   28.645
 5447.00    0.68648   0.69765   28.924
 5448.00    0.67944   0.69766   29.204
 5449.00    0.67722   0.69864   29.227
 5450.00    0.68090   0.69895   28.994
 5451.00    0.68889   0.69841   28.821
 5452.00    0.69683   0.69788   28.921
 5453.00    0.69940   0.69750   29.270
 5454.00    0.69646   0.69651   29.657
 5455.00    0.69344   0.69498   29.792
 5456.00    0.69495   0.69459   29.724
 5457.00    0.70221   0.69595   29.801
 5458.00    0.71227   0.69734   30.027
 5459.00    0.71962   0.69769   30.067
 5460.00    0.72198   0.69794   29.999
 5461.00    0.72115   0.69844   30.279
 5462.00    0.71955   0.69804   30.887
 5463.00    0.71845   0.69709   31.291
 5464.00    0.71594   0.69721   31.340
 5465.00    0.70879   0.69805   31.375
 5466.00    0.69918   0.69821   31.553
 5467.00    0.69360   0.69826   31.743
 5468.00    0.69430   0.69866   31.848
 5469.00    0.69846   0.69806   31.887
 5470.00    0.70289   0.69612   31.950
 5471.00    0.70532   0.69379   32.113
 5472.00    0.70442   0.69061   32.282
 5473.00    0.69997   0.68633   32.280
 5474.00    0.69335   0.68285   32.191
 5475.00    0.68685   0.68068   32.262
 5476.00    0.68197   0.67817   32.465
 5477.00    0.67921   0.67614   32.513
 5478.00    0.67874   0.67687   32.185
 5479.00    0.68033   0.67933   31.517
 5480.00    0.68295   0.68130   30.940
 5481.00    0.68509   0.68321   30.925
 5482.00    0.68567   0.68615   31.351
 5483.00    0.68480   0.68916   31.682
 5484.00    0.68510   0.69140   31.667
 5485.00    0.68955   0.69319   31.403
 5486.00    0.69698   0.69433   31.045
 5487.00    0.70296   0.69466   30.717
 5488.00    0.70358   0.69499   30.489
 5489.00    0.69732   0.69546   30.382
 5490.00    0.68691   0.69548   30.363
 5491.00    0.67742   0.69556   30.404
 5492.00    0.67199   0.69583   30.584
 5493.00    0.67182   0.69547   30.919
 5494.00    0.67746   0.69496   31.032
 5495.00    0.68724   0.69521   30.566
 5496.00    0.69438   0.69506   29.984
 5497.00    0.69263   0.69362   29.944
 5498.00    0.68623   0.69238   30.279
 5499.00    0.68382   0.69209   30.393
 5500.00    0.68619   0.69117   30.159
 5501.00    0.68899   0.68899   29.827
 5502.00    0.69004   0.68681   29.597
 5503.00    0.68907   0.68555   29.566
 5504.00    0.68565   0.68474   29.757
 5505.00    0.68039   0.68349   30.092
 5506.00    0.67712   0.68198   30.340
 5507.00    0.67956   0.68127   30.340
 5508.00    0.68633   0.68128   30.345
 5509.00    0.69288   0.68085   30.665
 5510.00    0.69524   0.68022   31.140
 5511.00    0.69224   0.68015   31.466
 5512.00    0.68778   0.68053   31.782
 5513.00    0.68700   0.68138   32.295
 5514.00    0.69124   0.68322   32.672
 5515.00    0.69871   0.68584   32.494
 5516.00    0.70631   0.68863   31.993
 5517.00    0.71123   0.69152   31.707
 5518.00    0.71265   0.69450   31.958
 5519.00    0.71122   0.69680   32.416
 5520.00    0.70814   0.69782   31.727
 5521.00    0.70323   0.69768   30.190
 5522.00    0.69336   0.69673   31.443
 5523.00    0.67885   0.69483   36.303
 5524.00    0.66944   0.69191   31.953
 5525.00    0.66970   0.68875   -2.000
 5526.00    0.66598   0.68622   -2.000
 5527.00    0.65985   0.68407   -2.000
 5528.00    0.69754   0.68225   -2.000
 5529.00    0.80347   0.68178   -2.000
 5530.00    0.91695   0.68257   -2.000
 5531.00    0.94649   0.68330   -2.000
 5532.00    0.83319   0.68397   -2.000
 5533.00    0.61005   0.68521   -2.000
 5534.00    0.43717   0.68637   -2.000
 5535.00    0.46144   0.68721   -2.000
 5536.00    0.68993   0.68862   -2.000
 5537.00    1.01002   0.69042   -2.000
 5538.00    1.23259   0.69166   -2.000
 5539.00    1.24156   0.69254   -2.000
 5540.00    1.10234   0.69361   -2.000
 5541.00    0.93613   0.69437   -2.000
 5542.00    0.81131   0.69423   -2.000
 5543.00    0.74665   0.69380   -2.000
 5544.00    0.72351   0.69403   -2.000
 5545.00    0.71519   0.69471   -2.000
 5546.00    0.70857   0.69527   -2.000
 5547.00    0.70224   0.69617   -2.000
 5548.00    0.70239   0.69760   14.242
 5549.00    0.71085   0.69865   14.009
 5550.00    0.71844   0.69890   13.960
 5551.00    0.71729   0.69882   14.225
 5552.00    0.70877   0.69843   13.960
 5553.00    0.69796   0.69735   13.492
 5554.00    0.68933   0.69587   15.103
 5555.00    0.68528   0.69466   21.732
 5556.00    0.68548   0.69371   33.184
 5557.00    0.68822   0.69252   34.872
 5558.00    0.69142   0.69113   30.788
 5559.00    0.69290   0.68988   30.603
 5560.00    0.69100   0.68864   31.960
 5561.00    0.68695   0.68704   31.757
 5562.00    0.68506   0.68499   31.007
 5563.00    0.68603   0.68309   31.016
 5564.00    0.68479   0.68167   31.381
 5565.00    0.67920   0.68015   31.600
 5566.00    0.67353   0.67859   31.844
 5567.00    0.67128   0.67797   32.278
 5568.00    0.67180   0.67781   32.716
 5569.00    0.67313   0.67719   32.917
 5570.00    0.67375   0.67725   32.805
 5571.00    0.67388   0.67846   32.590
 5572.00    0.67544   0.67906   32.663
 5573.00    0.67957   0.67933   33.016
 5574.00    0.68576   0.68089   33.119
 5575.00    0.69301   0.68263   32.762
 5576.00    0.70044   0.68340   32.308
 5577.00    0.70697   0.68420   31.967
 5578.00    0.71139   0.68504   31.624
 5579.00    0.71276   0.68502   31.363
 5580.00    0.71073   0.68429   31.423
 5581.00    0.70577   0.68275   31.281
 5582.00    0.69898   0.67991   30.106
 5583.00    0.69090   0.67623   29.614
 5584.00    0.68160   0.67219   32.822
 5585.00    0.67285   0.66768   35.267
 5586.00    0.66792   0.66306   25.838
 5587.00    0.66761   0.65931   17.085
 5588.00    0.66990   0.65702   14.187
 5589.00    0.67369   0.65606   14.373
 5590.00    0.67932   0.65627   14.982
 5591.00    0.68545   0.65763   14.742
 5592.00    0.68897   0.66001   14.440
 5593.00    0.68820   0.66250   14.507
 5594.00    0.68372   0.66422   14.605
 5595.00    0.67754   0.66570   14.685
 5596.00    0.67229   0.66728   15.029
 5597.00    0.66977   0.66760   15.194
 5598.00    0.67011   0.66649   14.462
 5599.00    0.67073   0.66592   14.184
 5600.00    0.66777   0.66653   16.999
 5601.00    0.66082   0.66728   25.668
 5602.00    0.65334   0.66849   35.489
 5603.00    0.64992   0.67127   33.595
 5604.00    0.65395   0.67550   30.445
 5605.00    0.66370   0.67984   30.938
 5606.00    0.67375   0.68369   32.226
 5607.00    0.68134   0.68694   32.473
 5608.00    0.68671   0.68932   32.272
 5609.00    0.68949   0.69033   32.263
 5610.00    0.68866   0.68971   32.501
 5611.00    0.68443   0.68741   32.765
 5612.00    0.67830   0.68410   32.793
 5613.00    0.67194   0.68076   32.690
 5614.00    0.66681   0.67706   32.776
 5615.00    0.66397   0.67292   33.035
 5616.00    0.66381   0.67017   33.187
 5617.00    0.66555   0.66947   33.140
 5618.00    0.66775   0.66920   32.978
 5619.00    0.66943   0.66870   32.707
 5620.00    0.67102   0.66870   32.281
 5621.00    0.67570   0.66920   31.766
 5622.00    0.68596   0.66963   31.305
 5623.00    0.69669   0.66958   31.000
 5624.00    0.69928   0.66916   30.872
 5625.00    0.69223   0.66961   30.809
 5626.00    0.68068   0.67147   30.636
 5627.00    0.67188   0.67350   30.284
 5628.00    0.67102   0.67523   29.797
 5629.00    0.67574   0.67738   29.303
 5630.00    0.68029   0.67945   28.933
 5631.00    0.68435   0.68045   28.741
 5632.00    0.69010   0.68039   28.707
 5633.00    0.69512   0.67953   28.751
 5634.00    0.69485   0.67794   28.779
 5635.00    0.68846   0.67608   28.745
 5636.00    0.67906   0.67410   28.597
 5637.00    0.67214   0.67190   28.189
 5638.00    0.67250   0.67019   27.434
 5639.00    0.68000   0.66944   26.499
 5640.00    0.69071   0.66896   25.644
 5641.00    0.69957   0.66850   25.016
 5642.00    0.70292   0.66893   24.624
 5643.00    0.70127   0.67005   24.320
 5644.00    0.69749   0.67102   23.996
 5645.00    0.69376   0.67190   23.801
 5646.00    0.69160   0.67296   23.882
 5647.00    0.69231   0.67395   24.047
 5648.00    0.69657   0.67463   24.093
 5649.00    0.70382   0.67494   24.275
 5650.00    0.71205   0.67468   24.938
 5651.00    0.71779   0.67384   25.974
 5652.00    0.71853   0.67274   27.017
 5653.00    0.71530   0.67109   27.867
 5654.00    0.70991   0.66803   28.532
 5655.00    0.70147   0.66436   29.138
 5656.00    0.68927   0.66185   29.775
 5657.00    0.67623   0.65955   30.312
 5658.00    0.66617   0.65624   30.629
 5659.00    0.66047   0.65422   30.902
 5660.00    0.65826   0.65485   31.294
 5661.00    0.65725   0.65582   31.579
 5662.00    0.65614   0.65616   31.535
 5663.00    0.65678   0.65762   31.396
 5664.00    0.66101   0.66029   31.467
 5665.00    0.66756   0.66256   31.737
 5666.00    0.67467   0.66417   31.957
 5667.00    0.68245   0.66573   31.789
 5668.00    0.69059   0.66764   31.236
 5669.00    0.69633   0.66978   30.870
 5670.00    0.69741   0.67177   30.985
 5671.00    0.69472   0.67339   31.029
 5672.00    0.69012   0.67511   30.604
 5673.00    0.68454   0.67698   30.259
 5674.00    0.67898   0.67809   30.403
 5675.00    0.67526   0.67804   30.564
 5676.00    0.67467   0.67770   30.350
 5677.00    0.67685   0.67722   30.184
 5678.00    0.68006   0.67562   30.413
 5679.00    0.68181   0.67308   30.687
 5680.00    0.68111   0.67091   30.664
 5681.00    0.67971   0.66900   30.554
 5682.00    0.67875   0.66655   30.616
 5683.00    0.67659   0.66424   30.795
 5684.00    0.67205   0.66302   30.979
 5685.00    0.66659   0.66247   31.177
 5686.00    0.66284   0.66212   31.369
 5687.00    0.66316   0.66234   31.418
 5688.00    0.66744   0.66347   31.322
 5689.00    0.67226   0.66529   31.328
 5690.00    0.67469   0.66722   31.567
 5691.00    0.67468   0.66883   31.865
 5692.00    0.67486   0.67038   32.081
 5693.00    0.67939   0.67158   32.299
 5694.00    0.68828   0.67168   32.533
 5695.00    0.69523   0.67087   32.602
 5696.00    0.69456   0.66982   32.472
 5697.00    0.68536   0.66813   32.400
 5698.00    0.67131   0.66556   32.554
 5699.00    0.65946   0.66315   32.832
 5700.00    0.65419   0.66117   33.043
 5701.00    0.65474   0.65885   33.032
 5702.00    0.65877   0.65633   32.794
 5703.00    0.66415   0.65439   32.488
 5704.00    0.66772   0.65256   32.229
 5705.00    0.66550   0.65008   32.022
 5706.00    0.65698   0.64763   31.919
 5707.00    0.64627   0.64601   32.024
 5708.00    0.63769   0.64468   32.221
 5709.00    0.63357   0.64387   32.153
 5710.00    0.63393   0.64478   31.814
 5711.00    0.63701   0.64672   31.620
 5712.00    0.64169   0.64913   31.652
 5713.00    0.64813   0.65283   31.523
 5714.00    0.65587   0.65704   31.134
 5715.00    0.66352   0.66073   30.818
 5716.00    0.67070   0.66437   30.649
 5717.00    0.67826   0.66785   30.363
 5718.00    0.68603   0.67060   29.988
 5719.00    0.69234   0.67292   29.844
 5720.00    0.69573   0.67478   29.719
 5721.00    0.69544   0.67601   28.937
 5722.00    0.69097   0.67685   27.629
 5723.00    0.68242   0.67705   26.581
 5724.00    0.67267   0.67648   25.907
 5725.00    0.66664   0.67585   25.183
 5726.00    0.66637   0.67504   24.519
 5727.00    0.67023   0.67363   24.471
 5728.00    0.67589   0.67243   25.129
 5729.00    0.68154   0.67205   26.063
 5730.00    0.68612   0.67177   27.025
 5731.00    0.68914   0.67126   28.131
 5732.00    0.68975   0.67136   29.366
 5733.00    0.68723   0.67207   30.427
 5734.00    0.68333   0.67253   31.029
 5735.00    0.68128   0.67266   31.131
 5736.00    0.68114   0.67275   31.033
 5737.00    0.68008   0.67277   31.143
 5738.00    0.67702   0.67255   31.402
 5739.00    0.67305   0.67215   31.396
 5740.00    0.66908   0.67171    0.000
 5741.00    0.66544   0.67144    0.000
 5742.00    0.66256   0.67133    0.000
 5743.00    0.66107   0.67102    0.000
 5744.00    0.66164   0.67060    0.000
 5745.00    0.66469   0.67022    0.000
 5746.00    0.66988   0.66973    0.000
 5747.00    0.67587   0.66870    0.000
 5748.00    0.68026   0.66729    0.000
 5749.00    0.68106   0.66608    0.000
 5750.00    0.68013   0.66492    0.000
 5751.00    0.68123   0.66361    0.000
 5752.00    0.68419   0.66256    0.000
 5753.00    0.68586   0.66202    0.000
 5754.00    0.68489   0.66189    0.000
 5755.00    0.68255   0.66229    0.000
 5756.00    0.68217   0.66289    0.000
 5757.00    0.68628   0.66321    0.000
 5758.00    0.69147   0.66328    0.000
 5759.00    0.69181   0.66308    0.000
 5760.00    0.68730   0.66272    0.000
 5761.00    0.68247   0.66261    0.000
 5762.00    0.68078   0.66267    0.000
 5763.00    0.68314   0.66315    0.000
 5764.00    0.68719   0.66463    0.000
 5765.00    0.68950   0.66637    0.000
 5766.00    0.68934   0.66774    0.000
 5767.00    0.68770   0.66902    0.000
 5768.00    0.68463   0.66997    0.000
 5769.00    0.67996   0.67012    0.000
 5770.00    0.67518   0.66978    0.000
 5771.00    0.67185   0.66901    0.000
 5772.00    0.66889   0.66783    0.000
 5773.00    0.66481   0.66666    0.000
 5774.00    0.66168   0.66522    0.000
 5775.00    0.66186   0.66337    0.000
 5776.00    0.66272   0.66139    0.000
 5777.00    0.65987   0.65887    0.000
 5778.00    0.65278   0.65561    0.000
 5779.00    0.64450   0.65235    0.000
 5780.00    0.63995   0.64911    0.000
 5781.00    0.64243   0.64563    0.000
 5782.00    0.64966   0.64301    0.000
 5783.00    0.65715   0.64194    0.000
 5784.00    0.66314   0.64154    0.000
 5785.00    0.66811   0.64172    0.000
 5786.00    0.67336   0.64336    0.000
 5787.00    0.67943   0.64571    0.000
 5788.00    0.68453   0.64782    0.000
 5789.00    0.68618   0.65024    0.000
 5790.00    0.68332   0.65259    0.000
 5791.00    0.67663   0.65440    0.000
 5792.00    0.66852   0.65632    0.000
 5793.00    0.66199   0.65807    0.000
 5794.00    0.65929   0.65911    0.000
 5795.00    0.66088   0.66022    0.000
 5796.00    0.66460   0.66161    0.000
 5797.00    0.66843   0.66240    0.000
 5798.00    0.67297   0.66298    0.000
 5799.00    0.67929   0.66416    0.000
 5800.00    0.68658   0.66506    0.000
 5801.00    0.69196   0.66511    0.000
 5802.00    0.69110   0.66515    0.000
 5803.00    0.68259   0.66514    0.000
 5804.00    0.67146   0.66451    0.000
 5805.00    0.66337   0.66380    0.000
 5806.00    0.65955   0.66349    0.000
 5807.00    0.65939   0.66339    0.000
 5808.00    0.66292   0.66337    0.000
 5809.00    0.66953   0.66343    0.000
 5810.00    0.67681   0.66367    0.000
 5811.00    0.68178   0.66386    0.000
 5812.00    0.68203   0.66369    0.000
 5813.00    0.67746   0.66336    0.000
 5814.00    0.67120   0.66333    0.000
 5815.00    0.66696   0.66343    0.000
 5816.00    0.66688   0.66348    0.000
 5817.00    0.67089   0.66410    0.000
 5818.00    0.67669   0.66527    0.000
 5819.00    0.68222   0.66625    0.000
 5820.00    0.68716   0.66706    0.000
 5821.00    0.69162   0.66799    0.000
 5822.00    0.69521   0.66869    0.000
 5823.00    0.69724   0.66892    0.000
 5824.00    0.69710   0.66901    0.000
 5825.00    0.69516   0.66920    0.000
 5826.00    0.69298   0.66922    0.000
 5827.00    0.69172   0.66901    0.000
 5828.00    0.69107   0.66879    0.000
 5829.00    0.68981   0.66864    0.000
 5830.00    0.68641   0.66827    0.000
 5831.00    0.68105   0.66752    0.000
 5832.00    0.67615   0.66685    0.000
 5833.00    0.67347   0.66645    0.000
 5834.00    0.67252   0.66578    0.000
 5835.00    0.67113   0.66506    0.000
 5836.00    0.66659   0.66504    0.000
 5837.00    0.65928   0.66530    0.000
 5838.00    0.65355   0.66525    0.000
 5839.00    0.65235   0.66547    0.000
 5840.00    0.65467   0.66600   -2.000
 5841.00    0.65630   0.66607   -2.000
 5842.00    0.65179   0.66570   -2.000
 5843.00    0.64148   0.66517   -2.000
 5844.00    0.63360   0.66418   -2.000
 5845.00    0.63875   0.66277   -2.000
 5846.00    0.66469   0.66114   -2.000
 5847.00    0.70531   0.65926   -2.000
 5848.00    0.74019   0.65727   -2.000
 5849.00    0.75285   0.65512   -2.000
 5850.00    0.73984   0.65265   -2.000
 5851.00    0.71522   0.65024   -2.000
 5852.00    0.70445   0.64792   -2.000
 5853.00    0.71456   0.64526   -2.000
 5854.00    0.72863   0.64276   -2.000
 5855.00    0.73038   0.64116   -2.000
 5856.00    0.71431   0.63993   -2.000
 5857.00    0.68687   0.63888   -2.000
 5858.00    0.66270   0.63886   -2.000
 5859.00    0.65027   0.63965   -2.000
 5860.00    0.64850   0.64071    0.000
 5861.00    0.65278   0.64225    0.000
 5862.00    0.65802   0.64388    0.000
 5863.00    0.66102   0.64528    0.000
 5864.00    0.66126   0.64681    0.000
 5865.00    0.66073   0.64832    0.000
 5866.00    0.66238   0.64929    0.000
 5867.00    0.66574   0.65006    0.000
 5868.00    0.66778   0.65088    0.000
 5869.00    0.66918   0.65115    0.000
 5870.00    0.67477   0.65085    0.000
 5871.00    0.68891   0.65013    0.000
 5872.00    0.71278   0.64883    0.000
 5873.00    0.74094   0.64717    0.000
 5874.00    0.76310   0.64542    0.000
 5875.00    0.77167   0.64377    0.000
 5876.00    0.76462   0.64205    0.000
 5877.00    0.74747   0.64071    0.000
 5878.00    0.72931   0.64004    0.000
 5879.00    0.71207   0.63907    0.000
 5880.00    0.69265   0.63762    0.000
 5881.00    0.67444   0.63602    0.000
 5882.00    0.66536   0.63367    0.000
 5883.00    0.66663   0.62953    0.000
 5884.00    0.67230   0.62401    0.000
 5885.00    0.67418   0.61726    0.000
 5886.00    0.66624   0.60830    0.000
 5887.00    0.65139   0.59858    0.000
 5888.00    0.63801   0.58998    0.000
 5889.00    0.62971   0.58117    0.000
 5890.00    0.62500   0.57337    0.000
 5891.00    0.62115   0.56963    0.000
 5892.00    0.61598   0.56741    0.000
 5893.00    0.60964   0.56606    0.000
 5894.00    0.60388   0.56864    0.000
 5895.00    0.59986   0.57259    0.000
 5896.00    0.59798   0.57644    0.000
 5897.00    0.59832   0.58330    0.000
 5898.00    0.60106   0.59173    0.000
 5899.00    0.60707   0.59904    0.000
 5900.00    0.61698   0.60681    0.000
 5901.00    0.62952   0.61498   28.392
 5902.00    0.64216   0.62138   28.013
 5903.00    0.65265   0.62646   27.663
 5904.00    0.65944   0.63103   27.859
 5905.00    0.66188   0.63436   28.153
 5906.00    0.66076   0.63644   27.784
 5907.00    0.65891   0.63803   27.041
 5908.00    0.65988   0.63918   26.613
 5909.00    0.66560   0.63952   26.513
 5910.00    0.67478   0.63919   26.488
 5911.00    0.68134   0.63864   26.669
 5912.00    0.67922   0.63796   27.257
 5913.00    0.66927   0.63690   27.943
 5914.00    0.65682   0.63598   28.252
 5915.00    0.64694   0.63564   28.278
 5916.00    0.64266   0.63555   28.368
 5917.00    0.64351   0.63595   28.502
 5918.00    0.64654   0.63675   28.506
 5919.00    0.64819   0.63752   28.433
 5920.00    0.64613   0.63852   28.467
 5921.00    0.64130   0.63947   28.746
 5922.00    0.63629   0.63996   29.208
 5923.00    0.63321   0.64037   29.436
 5924.00    0.63297   0.64054   29.123
 5925.00    0.63483   0.64033   28.640
 5926.00    0.63786   0.63989   28.453
 5927.00    0.64248   0.63919   28.537
 5928.00    0.64878   0.63859   28.649
 5929.00    0.65469   0.63808   28.639
 5930.00    0.65759   0.63745   28.507
 5931.00    0.65616   0.63710   28.391
 5932.00    0.65128   0.63722   28.406
 5933.00    0.64638   0.63752   28.503
 5934.00    0.64400   0.63761   28.603
 5935.00    0.64269   0.63786   28.729
 5936.00    0.64074   0.63853   28.957
 5937.00    0.63961   0.63873   29.334
 5938.00    0.64100   0.63846   29.729
 5939.00    0.64410   0.63861   29.743
 5940.00    0.64715   0.63859   29.356
 5941.00    0.64906   0.63808   29.329
 5942.00    0.65001   0.63786   29.805
 5943.00    0.65147   0.63786   29.429
 5944.00    0.65395   0.63763   28.336
 5945.00    0.65546   0.63720   29.554
 5946.00    0.65388   0.63675   32.826
 5947.00    0.64910   0.63638   28.462
 5948.00    0.64277   0.63576   19.559
 5949.00    0.63779   0.63469   15.378
 5950.00    0.63571   0.63395   14.984
 5951.00    0.63514   0.63367   15.857
 5952.00    0.63421   0.63306   16.049
 5953.00    0.63240   0.63236   15.769
 5954.00    0.63014   0.63246   15.769
 5955.00    0.62839   0.63282   15.932
 5956.00    0.62801   0.63301   15.965
 5957.00    0.62931   0.63368   15.881
 5958.00    0.63194   0.63485   15.796
 5959.00    0.63495   0.63600   15.761
 5960.00    0.63742   0.63719   15.736
 5961.00    0.63887   0.63849   15.626
 5962.00    0.63909   0.63950   15.528
 5963.00    0.63819   0.64022   15.747
 5964.00    0.63708   0.64103   16.034
 5965.00    0.63745   0.64153   15.462
 5966.00    0.63948   0.64180   14.753
 5967.00    0.64106   0.64236   16.436
 5968.00    0.64041   0.64280   23.187
 5969.00    0.63749   0.64288   33.319
 5970.00    0.63387   0.64290   33.819
 5971.00    0.63209   0.64263   30.145
 5972.00    0.63316   0.64166   29.885
 5973.00    0.63563   0.64031   30.965
 5974.00    0.63715   0.63883   31.122
 5975.00    0.63572   0.63695   31.069
 5976.00    0.63193   0.63507   31.451
 5977.00    0.62908   0.63360   31.511
 5978.00    0.62870   0.63217   30.974
 5979.00    0.62906   0.63098   30.639
 5980.00    0.62811   0.63009   30.813
 5981.00    0.62495   0.62901   30.970
 5982.00    0.62038   0.62826   30.929
 5983.00    0.61661   0.62784   31.138
 5984.00    0.61517   0.62715   31.527
 5985.00    0.61620   0.62694   31.330
 5986.00    0.61917   0.62753   30.599
 5987.00    0.62320   0.62808   30.307
 5988.00    0.62714   0.62861   30.667
 5989.00    0.62999   0.62969   30.943
 5990.00    0.63248   0.63091   30.838
 5991.00    0.63651   0.63154   30.817
 5992.00    0.64134   0.63203   31.082
 5993.00    0.64340   0.63261   31.343
 5994.00    0.64066   0.63258   31.382
 5995.00    0.63391   0.63214   31.268
 5996.00    0.62565   0.63169   31.284
 5997.00    0.61897   0.63099   31.723
 5998.00    0.61520   0.63020   32.322
 5999.00    0.61373   0.62930   32.360
 6000.00    0.61408   0.62837   31.907
 6001.00    0.61647   0.62775   31.765
 6002.00    0.62168   0.62687   32.101
 6003.00    0.63020   0.62584   32.394
 6004.00    0.63991   0.62519   32.389
 6005.00    0.64675   0.62428   32.262
 6006.00    0.64847   0.62348   32.109
 6007.00    0.64567   0.62322   31.901
 6008.00    0.64168   0.62281   31.777
 6009.00    0.64072   0.62253   31.930
 6010.00    0.64360   0.62256   32.103
 6011.00    0.64743   0.62253   31.804
 6012.00    0.64802   0.62243   31.239
 6013.00    0.64228   0.62192   31.038
 6014.00    0.63237   0.62139   31.171
 6015.00    0.62374   0.62114   31.148
 6016.00    0.61816   0.62032   31.020
 6017.00    0.61407   0.61935   31.224
 6018.00    0.61131   0.61909   31.663
 6019.00    0.61121   0.61888   31.846
 6020.00    0.61425   0.61850   31.768
 6021.00    0.62003   0.61868   31.796
 6022.00    0.62828   0.61962   31.920
 6023.00    0.63789   0.62061   31.864
 6024.00    0.64461   0.62159   31.687
 6025.00    0.64402   0.62335   31.661
 6026.00    0.63842   0.62533   31.795
 6027.00    0.63434   0.62682   31.917
 6028.00    0.63501   0.62849   32.018
 6029.00    0.63957   0.63036   32.190
 6030.00    0.64455   0.63176   32.370
 6031.00    0.64604   0.63284   32.434
 6032.00    0.64304   0.63392   32.475
 6033.00    0.63730   0.63474   32.659
 6034.00    0.63156   0.63513   32.901
 6035.00    0.62814   0.63539   33.011
 6036.00    0.62695   0.63542   33.067
 6037.00    0.62631   0.63519   33.235
 6038.00    0.62494   0.63496   33.374
 6039.00    0.62241   0.63457   33.249
 6040.00    0.61944   0.63430   32.979
 6041.00    0.61737   0.63433   32.810
 6042.00    0.61740   0.63428   32.693
 6043.00    0.62006   0.63444   32.498
 6044.00    0.62483   0.63498   32.396
 6045.00    0.63058   0.63528   32.568
 6046.00    0.63637   0.63540   32.743
 6047.00    0.64097   0.63564   32.560
 6048.00    0.64232   0.63552   32.181
 6049.00    0.63946   0.63487   31.983
 6050.00    0.63516   0.63408   32.060
 6051.00    0.63310   0.63317   32.234
 6052.00    0.63377   0.63192   32.136
 6053.00    0.63527   0.63055   31.664
 6054.00    0.63512   0.62950   31.428
 6055.00    0.63142   0.62865   31.739
 6056.00    0.62414   0.62784   31.533
 6057.00    0.61532   0.62740   30.576
 6058.00    0.60889   0.62722   31.585
 6059.00    0.60748   0.62681   35.186
 6060.00    0.60898   0.62645   31.795
 6061.00    0.60974   0.62619   21.810
 6062.00    0.60843   0.62543   16.504
 6063.00    0.60636   0.62497   15.629
 6064.00    0.60702   0.62522   16.465
 6065.00    0.61330   0.62529   16.628
 6066.00    0.62463   0.62595   16.008
 6067.00    0.63773   0.62759   15.564
 6068.00    0.64780   0.62912   15.439
 6069.00    0.65196   0.63065   15.412
 6070.00    0.65202   0.63234   15.332
 6071.00    0.65080   0.63348   15.247
 6072.00    0.64856   0.63394   15.433
 6073.00    0.64465   0.63387   15.826
 6074.00    0.63916   0.63324   15.595
 6075.00    0.63281   0.63180   14.952
 6076.00    0.62658   0.62991   16.170
 6077.00    0.62157   0.62815   22.042
 6078.00    0.61878   0.62596   32.606
 6079.00    0.61801   0.62360   35.122
 6080.00    0.61727   0.62206   31.142
 6081.00    0.61506   0.62069   30.548
 6082.00    0.61213   0.61919   31.814
 6083.00    0.61025   0.61846   31.773
 6084.00    0.61098   0.61810   31.171
 6085.00    0.61469   0.61766   31.341
 6086.00    0.62005   0.61744   31.558
 6087.00    0.62507   0.61728   31.036
 6088.00    0.62808   0.61726   30.348
 6089.00    0.62900   0.61734   30.053
 6090.00    0.62974   0.61715   29.926
 6091.00    0.63134   0.61735   29.680
 6092.00    0.63239   0.61796   29.399
 6093.00    0.63173   0.61813   29.325
 6094.00    0.63004   0.61841   29.682
 6095.00    0.62795   0.61896   30.423
 6096.00    0.62510   0.61869   31.095
 6097.00    0.62171   0.61791   31.437
 6098.00    0.61929   0.61722   31.751
 6099.00    0.61837   0.61553   32.195
 6100.00    0.61762   0.61347   32.405
 6101.00    0.61597   0.61232   32.256
 6102.00    0.61371   0.61092   32.201
 6103.00    0.61127   0.60981   32.445
 6104.00    0.60878   0.61033   32.607
 6105.00    0.60688   0.61107   32.365
 6106.00    0.60684   0.61208   31.807
 6107.00    0.60833   0.61395   31.196
 6108.00    0.60905   0.61549   30.772
 6109.00    0.60820   0.61684   30.519
 6110.00    0.60750   0.61820   30.183
 6111.00    0.60745   0.61892   29.735
 6112.00    0.60640   0.61932   29.450
 6113.00    0.60445   0.61934   29.401
 6114.00    0.60435   0.61890   29.357
 6115.00    0.60696   0.61813   29.257
 6116.00    0.60998   0.61654   29.337
 6117.00    0.61145   0.61477   29.728
 6118.00    0.61116   0.61304   30.335
 6119.00    0.60969   0.61044   31.026
 6120.00    0.60777   0.60831   31.700
 6121.00    0.60540   0.60711   32.200
 6122.00    0.60212   0.60552   32.326
 6123.00    0.59978   0.60484   32.061
 6124.00    0.60202   0.60549   31.611
 6125.00    0.60869   0.60583   31.195
 6126.00    0.61508   0.60654   30.976
 6127.00    0.61748   0.60796   31.115
 6128.00    0.61515   0.60878   31.734
 6129.00    0.61024   0.60914   32.651
 6130.00    0.60640   0.60931   33.370
 6131.00    0.60452   0.60850   33.684
 6132.00    0.60260   0.60685   33.823
 6133.00    0.60006   0.60474   33.916
 6134.00    0.59833   0.60186   33.876
 6135.00    0.59797   0.59904   33.696
 6136.00    0.59795   0.59693   33.503
 6137.00    0.59638   0.59524   33.413
 6138.00    0.59182   0.59454   33.453
 6139.00    0.58619   0.59532   33.447
 6140.00    0.58371   0.59697   33.136
 6141.00    0.58528   0.59888   32.598
 6142.00    0.58823   0.60114   32.169
 6143.00    0.59026   0.60370   31.961
 6144.00    0.59037   0.60561   31.850
 6145.00    0.58854   0.60674   31.695
 6146.00    0.58570   0.60771   31.461
 6147.00    0.58384   0.60819   31.377
 6148.00    0.58526   0.60798   31.725
 6149.00    0.59049   0.60772   32.247
 6150.00    0.59816   0.60751   32.361
 6151.00    0.60579   0.60692   32.193
 6152.00    0.61106   0.60614   32.336
 6153.00    0.61394   0.60549   32.671
 6154.00    0.61596   0.60420   32.601
 6155.00    0.61750   0.60208   32.268
 6156.00    0.61760   0.59986   32.291
 6157.00    0.61512   0.59695   32.669
 6158.00    0.60956   0.59304   32.967
 6159.00    0.60218   0.58925   33.171
 6160.00    0.59515   0.58572   33.563
 6161.00    0.58950   0.58228   34.015
 6162.00    0.58493   0.57976   34.166
 6163.00    0.58052   0.57831   34.147
 6164.00    0.57584   0.57784   34.332
 6165.00    0.57286   0.57838   34.574
 6166.00    0.57436   0.57911   34.433
 6167.00    0.58051   0.58030   33.897
 6168.00    0.58873   0.58224   33.346
 6169.00    0.59486   0.58367   33.209
 6170.00    0.59575   0.58497   33.631
 6171.00    0.59304   0.58717   33.981
 6172.00    0.59060   0.58929   33.476
 6173.00    0.58916   0.59090   32.512
 6174.00    0.58718   0.59297   31.960
 6175.00    0.58359   0.59530   31.993
 6176.00    0.57904   0.59699   32.334
 6177.00    0.57705   0.59837   32.682
 6178.00    0.58069   0.60007   32.878
 6179.00    0.58766   0.60139   33.094
 6180.00    0.59346   0.60188   33.554
 6181.00    0.59684   0.60244   34.078
 6182.00    0.59831   0.60268   34.359
 6183.00    0.59704   0.60187   34.493
 6184.00    0.59212   0.60076   34.603
 6185.00    0.58465   0.59930   34.233
 6186.00    0.57765   0.59716   32.998
 6187.00    0.57529   0.59508   31.398
 6188.00    0.57978   0.59284   30.122
 6189.00    0.58786   0.59092   29.412
 6190.00    0.59454   0.59006   29.280
 6191.00    0.59806   0.58933   29.700
 6192.00    0.59864   0.58936   30.509
 6193.00    0.59633   0.59069   31.243
 6194.00    0.59160   0.59189   31.578
 6195.00    0.58621   0.59318   31.967
 6196.00    0.58270   0.59481   32.823
 6197.00    0.58353   0.59597   33.492
 6198.00    0.58880   0.59693   33.261
 6199.00    0.59425   0.59774   32.763
 6200.00    0.59593   0.59841   32.798
 6201.00    0.59496   0.59927   33.155
 6202.00    0.59467   0.60009   33.298
 6203.00    0.59724   0.60086   33.151
 6204.00    0.60283   0.60157   32.969
 6205.00    0.60920   0.60196   33.068
 6206.00    0.61322   0.60196   33.449
 6207.00    0.61248   0.60128   33.496
 6208.00    0.60666   0.59993   32.680
 6209.00    0.59851   0.59819   31.263
 6210.00    0.59199   0.59563   29.857
 6211.00    0.59033   0.59268   28.962
 6212.00    0.59398   0.58993   28.798
 6213.00    0.59928   0.58691   29.288
 6214.00    0.60220   0.58426   30.296
 6215.00    0.60137   0.58249   31.751
 6216.00    0.59789   0.58089   33.288
 6217.00    0.59461   0.58001   33.957
 6218.00    0.59343   0.57993   33.438
 6219.00    0.59347   0.57995   32.910
 6220.00    0.59284   0.58039   33.260
 6221.00    0.59005   0.58106   34.132
 6222.00    0.58479   0.58165   34.882
 6223.00    0.57834   0.58221   35.321
 6224.00    0.57237   0.58224   35.425
 6225.00    0.56812   0.58205   35.102
 6226.00    0.56547   0.58163   34.509
 6227.00    0.56280   0.58033   34.127
 6228.00    0.55936   0.57913   34.127
 6229.00    0.55642   0.57833   34.131
 6230.00    0.55477   0.57714   34.003
 6231.00    0.55337   0.57667   34.197
 6232.00    0.55169   0.57719   34.799
 6233.00    0.55081   0.57745   35.086
 6234.00    0.55160   0.57796   34.769
 6235.00    0.55368   0.57884   34.569
 6236.00    0.55550   0.57893   34.681
 6237.00    0.55494   0.57829   34.217
 6238.00    0.55201   0.57763   32.882
 6239.00    0.54958   0.57652   31.549
 6240.00    0.55003   0.57459   30.910
 6241.00    0.55337   0.57328   31.067
 6242.00    0.55774   0.57248   31.569
 6243.00    0.56032   0.57109   31.677
 6244.00    0.56026   0.57074   32.407
 6245.00    0.55958   0.57131   36.667
 6246.00    0.56014   0.57112   40.907
 6247.00    0.56106   0.57147   31.572
 6248.00    0.55375   0.57226   -2.000
 6249.00    0.52314   0.57188   -2.000
 6250.00    0.46354   0.57128   -2.000
 6251.00    0.38602   0.57068   -2.000
 6252.00    0.31897   0.56908   -2.000
 6253.00    0.29977   0.56741   -2.000
 6254.00    0.34081   0.56620   -2.000
 6255.00    0.42042   0.56487   -2.000
 6256.00    0.50511   0.56410   -2.000
 6257.00    0.56366   0.56445   -2.000
 6258.00    0.58522   0.56511   -2.000
 6259.00    0.58154   0.56634   -2.000
 6260.00    0.56926   0.56870   16.846
 6261.00    0.56158   0.57086   19.222
 6262.00    0.56351   0.57281   25.588
 6263.00    0.57170   0.57532   32.850
 6264.00    0.57992   0.57722   34.137
 6265.00    0.58263   0.57833   33.280
 6266.00    0.57986   0.57965   34.059
 6267.00    0.57665   0.58075   35.102
 6268.00    0.57575   0.58122   35.273
 6269.00    0.57596   0.58181   35.243
 6270.00    0.57490   0.58260   35.455
 6271.00    0.57064   0.58301   35.646
 6272.00    0.56411   0.58336   35.638
 6273.00    0.55853   0.58383   35.508
 6274.00    0.55592   0.58385   35.288
 6275.00    0.55621   0.58369   34.997
 6276.00    0.55786   0.58356   34.947
 6277.00    0.55870   0.58295   35.489
 6278.00    0.55774   0.58247   36.079
 6279.00    0.55548   0.58230   35.545
 6280.00    0.55334   0.58193    0.000
 6281.00    0.55316   0.58218    0.000
 6282.00    0.55624   0.58285    0.000
 6283.00    0.56274   0.58349    0.000
 6284.00    0.57081   0.58466    0.000
 6285.00    0.57750   0.58574    0.000
 6286.00    0.58154   0.58660    0.000
 6287.00    0.58322   0.58741    0.000
 6288.00    0.58271   0.58761    0.000
 6289.00    0.58023   0.58751    0.000
 6290.00    0.57718   0.58695    0.000
 6291.00    0.57563   0.58588    0.000
 6292.00    0.57664   0.58475    0.000
 6293.00    0.58021   0.58315    0.000
 6294.00    0.58609   0.58147    0.000
 6295.00    0.59435   0.58001    0.000
 6296.00    0.60628   0.57833    0.000
 6297.00    0.62340   0.57691    0.000
 6298.00    0.64523   0.57589    0.000
 6299.00    0.66805   0.57502    0.000
 6300.00    0.68373   0.57468    0.000
 6301.00    0.68371   0.57481    0.000
 6302.00    0.66643   0.57525    0.000
 6303.00    0.63761   0.57623    0.000
 6304.00    0.60792   0.57756    0.000
 6305.00    0.58754   0.57878    0.000
 6306.00    0.57796   0.57997    0.000
 6307.00    0.57469   0.58115    0.000
 6308.00    0.57408   0.58163    0.000
 6309.00    0.57441   0.58143    0.000
 6310.00    0.57567   0.58104    0.000
 6311.00    0.57768   0.57999    0.000
 6312.00    0.57737   0.57824    0.000
 6313.00    0.57139   0.57675    0.000
 6314.00    0.56057   0.57521    0.000
 6315.00    0.55134   0.57330    0.000
 6316.00    0.55605   0.57243    0.000
 6317.00    0.58058   0.57218    0.000
 6318.00    0.60817   0.57178    0.000
 6319.00    0.61720   0.57256    0.000
 6320.00    0.60739   0.57415    0.000
 6321.00    0.59183   0.57553   15.960
 6322.00    0.58189   0.57729   16.915
 6323.00    0.58229   0.57942   22.485
 6324.00    0.58791   0.58113   34.626
 6325.00    0.59127   0.58244   41.000
 6326.00    0.59184   0.58369   36.488
 6327.00    0.59204   0.58433   34.777
 6328.00    0.59150   0.58448   36.213
 6329.00    0.58881   0.58451   36.933
 6330.00    0.58427   0.58376   36.471
 6331.00    0.57946   0.58275   36.289
 6332.00    0.57629   0.58166   36.516
 6333.00    0.57529   0.58003   36.614
 6334.00    0.57421   0.57857   36.380
 6335.00    0.57119   0.57722   35.880
 6336.00    0.56808   0.57585   35.246
 6337.00    0.56827   0.57520   34.588
 6338.00    0.57402   0.57472   33.953
 6339.00    0.58389   0.57413   33.444
 6340.00    0.59113   0.57413   33.290
 6341.00    0.58998   0.57412   33.611
 6342.00    0.58151   0.57380   34.205
 6343.00    0.57082   0.57368   34.775
 6344.00    0.56388   0.57359   35.161
 6345.00    0.56390   0.57380   35.297
 6346.00    0.56887   0.57421   35.158
 6347.00    0.57497   0.57463   34.918
 6348.00    0.57962   0.57560   35.016
 6349.00    0.58190   0.57655   35.653
 6350.00    0.58243   0.57695   36.429
 6351.00    0.58155   0.57724   36.887
 6352.00    0.57810   0.57707   37.048
 6353.00    0.57207   0.57615   37.097
 6354.00    0.56614   0.57474   37.079
 6355.00    0.56248   0.57282   37.079
 6356.00    0.56049   0.57071   37.317
 6357.00    0.55890   0.56856   37.781
 6358.00    0.55739   0.56620   38.015
 6359.00    0.55645   0.56431   37.755
 6360.00    0.55705   0.56315   37.340
 6361.00    0.55971   0.56226   37.066
 6362.00    0.56391   0.56201   36.826
 6363.00    0.56900   0.56275   36.473
 6364.00    0.57464   0.56398   36.035
 6365.00    0.58041   0.56551   35.626
 6366.00    0.58564   0.56744   35.352
 6367.00    0.58995   0.56948   35.225
 6368.00    0.59344   0.57147   35.133
 6369.00    0.59525   0.57335   34.965
 6370.00    0.59333   0.57496   34.698
 6371.00    0.58795   0.57646   34.433
 6372.00    0.58295   0.57778   34.366
 6373.00    0.58161   0.57874   34.562
 6374.00    0.58441   0.57942   34.881
 6375.00    0.58936   0.57975   35.232
 6376.00    0.59275   0.57989   35.690
 6377.00    0.59149   0.57972   36.296
 6378.00    0.58455   0.57908   36.955
 6379.00    0.57412   0.57860   37.500
 6380.00    0.56508   0.57826   37.773
 6381.00    0.56051   0.57770   37.814
 6382.00    0.55993   0.57749   37.872
 6383.00    0.56122   0.57763   38.026
 6384.00    0.56208   0.57757   38.109
 6385.00    0.56171   0.57763   38.163
 6386.00    0.56115   0.57781   38.421
 6387.00    0.56113   0.57756   38.299
 6388.00    0.56145   0.57696   36.861
 6389.00    0.56202   0.57636   36.051
 6390.00    0.56300   0.57534   39.230
 6391.00    0.56329   0.57412   41.341
 6392.00    0.56073   0.57314   30.643
 6393.00    0.55551   0.57199   20.620
 6394.00    0.55046   0.57110   17.300
 6395.00    0.54759   0.57079   17.689
 6396.00    0.54680   0.57029   18.556
 6397.00    0.54628   0.56990   18.404
 6398.00    0.54374   0.57029   18.454
 6399.00    0.53977   0.57056   18.799
 6400.00    0.53772   0.57044   18.113
 6401.00    0.53896   0.57127   17.623
 6402.00    0.54208   0.57203   20.606
 6403.00    0.54539   0.57200   30.099
 6404.00    0.54800   0.57261   40.926
 6405.00    0.55054   0.57294   39.157
 6406.00    0.55435   0.57256   35.601
 6407.00    0.55886   0.57230   36.115
 6408.00    0.56187   0.57156   37.662
 6409.00    0.56290   0.57101   37.893
 6410.00    0.56332   0.57076   37.258
 6411.00    0.56364   0.56990   36.770
 6412.00    0.56331   0.56966   36.778
 6413.00    0.56201   0.56990   36.176
 6414.00    0.56006   0.56941   33.944
 6415.00    0.55853   0.56920   32.618
 6416.00    0.55860   0.56938   34.782
 6417.00    0.56021   0.56915   34.956
 6418.00    0.56196   0.56916   26.280
 6419.00    0.56215   0.56954   19.090
 6420.00    0.55980   0.57001   16.972
 6421.00    0.55669   0.57080   17.626
 6422.00    0.55619   0.57195   18.306
 6423.00    0.55967   0.57325   17.974
 6424.00    0.56590   0.57423   17.587
 6425.00    0.57156   0.57494   17.488
 6426.00    0.57284   0.57550   17.409
 6427.00    0.56851   0.57528   17.519
 6428.00    0.56033   0.57447   18.100
 6429.00    0.55232   0.57372   18.343
 6430.00    0.54869   0.57263   17.470
 6431.00    0.54991   0.57149   17.514
 6432.00    0.55340   0.57098   21.740
 6433.00    0.55637   0.57044   32.914
 6434.00    0.55702   0.57003   42.120
 6435.00    0.55561   0.57016   39.496
 6436.00    0.55383   0.57023   36.773
 6437.00    0.55326   0.57057   37.594
 6438.00    0.55498   0.57103   38.352
 6439.00    0.55930   0.57141   37.814
 6440.00    0.56572   0.57251   37.166
 6441.00    0.57293   0.57350   36.825
 6442.00    0.57925   0.57401   36.570
 6443.00    0.58324   0.57474   36.487
 6444.00    0.58347   0.57488   36.707
 6445.00    0.57812   0.57419   36.800
 6446.00    0.56664   0.57300   36.130
 6447.00    0.55244   0.57122   34.639
 6448.00    0.54076   0.56940   32.791
 6449.00    0.53512   0.56739   31.185
 6450.00    0.53661   0.56549   30.241
 6451.00    0.54375   0.56467   30.065
 6452.00    0.55289   0.56402   30.599
 6453.00    0.55911   0.56359   31.667
 6454.00    0.55914   0.56419   32.970
 6455.00    0.55502   0.56476   34.119
 6456.00    0.55170   0.56514   34.814
 6457.00    0.55300   0.56581   35.160
 6458.00    0.55978   0.56625   35.459
 6459.00    0.56831   0.56619   35.836
 6460.00    0.57337   0.56616   36.308
 6461.00    0.57228   0.56634   36.950
 6462.00    0.56597   0.56603   37.695
 6463.00    0.55942   0.56590   38.075
 6464.00    0.55732   0.56659   37.724
 6465.00    0.55927   0.56696   37.004
 6466.00    0.56223   0.56731   36.509
 6467.00    0.56382   0.56827   36.516
 6468.00    0.56339   0.56895   36.940
 6469.00    0.56257   0.56915   37.294
 6470.00    0.56216   0.56955   37.095
 6471.00    0.55923   0.56973   36.364
 6472.00    0.55182   0.56960   35.476
 6473.00    0.54360   0.56980   34.865
 6474.00    0.53989   0.56979   34.705
 6475.00    0.54330   0.56944   34.734
 6476.00    0.55257   0.56928   34.723
 6477.00    0.56215   0.56896   34.869
 6478.00    0.56669   0.56811   35.360
 6479.00    0.56492   0.56720   35.948
 6480.00    0.55833   0.56648   36.157
 6481.00    0.54973   0.56553   35.606
 6482.00    0.54269   0.56457   34.395
 6483.00    0.54090   0.56406   33.174
 6484.00    0.54566   0.56361   32.460
 6485.00    0.55408   0.56291   32.347
 6486.00    0.56184   0.56199   32.827
 6487.00    0.56547   0.56066   33.946
 6488.00    0.56326   0.55853   35.507
 6489.00    0.55561   0.55545   36.748
 6490.00    0.54391   0.55165   37.030
 6491.00    0.52974   0.54718   36.612
 6492.00    0.51525   0.54262   36.011
 6493.00    0.50328   0.53839   35.437
 6494.00    0.49642   0.53444   34.940
 6495.00    0.49619   0.53213   34.549
 6496.00    0.50210   0.53134   34.416
 6497.00    0.51142   0.53160   34.824
 6498.00    0.52135   0.53380   35.697
 6499.00    0.53039   0.53688   36.288
 6500.00    0.53728   0.54061   35.974
 6501.00    0.54070   0.54502   34.901
 6502.00    0.54085   0.54895   33.530
 6503.00    0.54018   0.55261   32.237
 6504.00    0.54153   0.55587   31.283
 6505.00    0.54657   0.55830   30.860
 6506.00    0.55381   0.56018   31.174
 6507.00    0.55846   0.56145   32.462
 6508.00    0.55783   0.56210   34.501
 6509.00    0.55360   0.56238   36.161
 6510.00    0.54832   0.56229   36.527
 6511.00    0.54344   0.56181   35.978
 6512.00    0.53964   0.56104   35.221
 6513.00    0.53713   0.56013   34.616
 6514.00    0.53618   0.55922   34.327
 6515.00    0.53737   0.55820   34.424
 6516.00    0.54091   0.55736   34.821
 6517.00    0.54646   0.55703   35.255
 6518.00    0.55309   0.55680   35.396
 6519.00    0.55941   0.55681   35.019
 6520.00    0.56379   0.55737   34.401
 6521.00    0.56473   0.55783   34.224
 6522.00    0.56185   0.55818   34.778
 6523.00    0.55607   0.55849   35.740
 6524.00    0.54879   0.55851   36.281
 6525.00    0.54148   0.55838   35.485
 6526.00    0.53586   0.55788   33.840
 6527.00    0.53376   0.55723   32.794
 6528.00    0.53686   0.55672    0.000
 6529.00    0.54565   0.55603    0.000
 6530.00    0.55675   0.55539    0.000
 6531.00    0.56368   0.55492    0.000
 6532.00    0.56356   0.55447    0.000
 6533.00    0.55870   0.55416    0.000
 6534.00    0.55380   0.55392    0.000
 6535.00    0.55334   0.55369    0.000
 6536.00    0.55667   0.55343    0.000
 6537.00    0.55857   0.55289    0.000
 6538.00    0.55636   0.55213    0.000
 6539.00    0.55177   0.55115    0.000
 6540.00    0.54919   0.54963    0.000
 6541.00    0.55408   0.54762    0.000
 6542.00    0.56976   0.54540    0.000
 6543.00    0.59668   0.54282    0.000
 6544.00    0.63314   0.54012    0.000
 6545.00    0.67511   0.53736    0.000
 6546.00    0.71524   0.53435    0.000
 6547.00    0.74388   0.53160    0.000
 6548.00    0.75247   0.52882    0.000
 6549.00    0.73613   0.52557    0.000
 6550.00    0.69764   0.52208    0.000
 6551.00    0.64628   0.51800    0.000
 6552.00    0.59237   0.51321    0.000
 6553.00    0.54905   0.50759    0.000
 6554.00    0.53983   0.50067    0.000
 6555.00    0.59557   0.49283    0.000
 6556.00    0.74310   0.48423    0.000
 6557.00    1.00913   0.47448    0.000
 6558.00    1.43436   0.46431    0.000
 6559.00    2.03775   0.45460    0.000
 6560.00    2.73282   0.44585    0.000
 6561.00    3.34969   0.43917    0.000
 6562.00    3.72316   0.43479    0.000
 6563.00    3.73909   0.43355    0.000
 6564.00    3.38854   0.43687    0.000
 6565.00    2.76641   0.44275    0.000
 6566.00    2.04408   0.45005    0.000
 6567.00    1.40857   0.45969    0.000
 6568.00    0.95789   0.46970    0.000
 6569.00    0.69869   0.47857    0.000
 6570.00    0.58161   0.48688    0.000
 6571.00    0.53597   0.49423    0.000
 6572.00    0.51919   0.50022    0.000
 6573.00    0.51555   0.50550    0.000
 6574.00    0.51800   0.51017    0.000
 6575.00    0.52482   0.51424    0.000
 6576.00    0.53955   0.51808    0.000
 6577.00    0.57192   0.52159    0.000
 6578.00    0.63883   0.52469    0.000
 6579.00    0.75292   0.52753    0.000
 6580.00    0.90447   0.53008    0.000
 6581.00    1.06411   0.53206    0.000
 6582.00    1.19194   0.53392    0.000
 6583.00    1.25082   0.53560    0.000
 6584.00    1.22389   0.53672    0.000
 6585.00    1.11845   0.53781    0.000
 6586.00    0.96674   0.53848    0.000
 6587.00    0.81182   0.53874    0.000
 6588.00    0.68742   0.53878    0.000
 6589.00    0.61006   0.53829    0.000
 6590.00    0.57304   0.53766    0.000
 6591.00    0.55789   0.53699    0.000
 6592.00    0.55050   0.53624    0.000
 6593.00    0.54380   0.53560    0.000
 6594.00    0.53839   0.53568    0.000
 6595.00    0.53762   0.53631    0.000
 6596.00    0.54163   0.53702    0.000
 6597.00    0.54812   0.53824    0.000
 6598.00    0.55396   0.53970    0.000
 6599.00    0.55673   0.54099    0.000
 6600.00    0.55598   0.54221    0.000
 6601.00    0.55305   0.54305    0.000
 6602.00    0.55032   0.54345    0.000
 6603.00    0.54895   0.54359    0.000
 6604.00    0.54687   0.54329    0.000
 6605.00    0.54225   0.54282    0.000
 6606.00    0.53704   0.54242    0.000
 6607.00    0.53405   0.54208    0.000
 6608.00    0.53379   0.54197    0.000
 6609.00    0.53544   0.54211   19.119
 6610.00    0.53814   0.54279   18.563
 6611.00    0.54141   0.54383   18.198
 6612.00    0.54533   0.54484   18.364
 6613.00    0.54958   0.54599   18.642
 6614.00    0.55275   0.54720   18.019
 6615.00    0.55443   0.54838   16.993
 6616.00    0.55667   0.54923   18.236
 6617.00    0.56101   0.54971   24.841
 6618.00    0.56606   0.55007   36.956
 6619.00    0.56968   0.55005   40.151
 6620.00    0.57096   0.54967   35.782
 6621.00    0.56989   0.54911   35.226
 6622.00    0.56697   0.54826   36.864
 6623.00    0.56260   0.54732   37.081
 6624.00    0.55676   0.54629   36.685
 6625.00    0.55007   0.54513   37.184
 6626.00    0.54442   0.54427   37.667
 6627.00    0.54096   0.54330   37.229
 6628.00    0.53893   0.54220   36.742
 6629.00    0.53709   0.54137   36.863
 6630.00    0.53488   0.54053   36.938
 6631.00    0.53277   0.53977   36.497
 6632.00    0.53221   0.53926   36.117
 6633.00    0.53408   0.53888   36.168
 6634.00    0.53777   0.53878   36.206
 6635.00    0.54215   0.53908   35.951
 6636.00    0.54623   0.53956   35.790
 6637.00    0.54897   0.54001   35.920
 6638.00    0.54932   0.54046   35.973
 6639.00    0.54708   0.54082   35.787
 6640.00    0.54320   0.54103   35.749
 6641.00    0.53919   0.54124   36.109
 6642.00    0.53644   0.54128   36.655
 6643.00    0.53549   0.54111   37.074
 6644.00    0.53571   0.54122   37.190
 6645.00    0.53650   0.54157   37.089
 6646.00    0.53774   0.54182   37.062
 6647.00    0.53951   0.54210   37.095
 6648.00    0.54170   0.54252   36.780
 6649.00    0.54319   0.54298   36.145
 6650.00    0.54201   0.54331   35.778
 6651.00    0.53820   0.54343   35.808
 6652.00    0.53436   0.54347   35.692
 6653.00    0.53191   0.54344   35.208
 6654.00    0.53010   0.54314   34.683
 6655.00    0.52885   0.54271   34.033
 6656.00    0.52950   0.54209   32.706
 6657.00    0.53201   0.54125   30.864
 6658.00    0.53425   0.54026   29.339
 6659.00    0.53412   0.53913   28.672
 6660.00    0.53085   0.53795   28.990
 6661.00    0.52651   0.53677   29.789
 6662.00    0.52524   0.53577   30.063
 6663.00    0.52835   0.53484   30.107
 6664.00    0.53331   0.53438   31.584
 6665.00    0.53748   0.53447   34.702
 6666.00    0.53953   0.53458   36.956
 6667.00    0.53978   0.53504   36.942
 6668.00    0.53986   0.53575   36.634
 6669.00    0.54151   0.53634   36.970
 6670.00    0.54557   0.53680   37.013
 6671.00    0.55021   0.53689   36.539
 6672.00    0.55191   0.53633   36.370
 6673.00    0.55043   0.53543   36.539
 6674.00    0.54907   0.53424   36.275
 6675.00    0.55051   0.53285   35.666
 6676.00    0.55528   0.53149   35.545
 6677.00    0.56145   0.53012   35.792
 6678.00    0.56543   0.52934   35.492
 6679.00    0.56474   0.52946   34.797
 6680.00    0.55903   0.53017   34.702
 6681.00    0.55063   0.53118   35.189
 6682.00    0.54344   0.53257   35.379
 6683.00    0.53952   0.53431   35.242
 6684.00    0.53856   0.53592   35.501
 6685.00    0.53895   0.53724   35.974
 6686.00    0.53884   0.53830   35.794
 6687.00    0.53799   0.53904   35.232
 6688.00    0.53739   0.53947   35.306
 6689.00    0.53716   0.53965   35.895
 6690.00    0.53661   0.53948   36.014
 6691.00    0.53571   0.53901   35.639
 6692.00    0.53494   0.53849   35.560
 6693.00    0.53427   0.53781   35.946
 6694.00    0.53310   0.53709   36.397
 6695.00    0.53092   0.53643   36.717
 6696.00    0.52773   0.53570    0.000
 6697.00    0.52491   0.53527    0.000
 6698.00    0.52452   0.53500    0.000
 6699.00    0.52775   0.53470    0.000
 6700.00    0.53436   0.53471    0.000
 6701.00    0.54237   0.53470    0.000
 6702.00    0.54883   0.53463    0.000
 6703.00    0.55135   0.53459    0.000
 6704.00    0.54917   0.53442    0.000
 6705.00    0.54438   0.53423    0.000
 6706.00    0.54034   0.53406    0.000
 6707.00    0.53843   0.53368    0.000
 6708.00    0.53993   0.53315    0.000
 6709.00    0.55025   0.53259    0.000
 6710.00    0.58094   0.53170    0.000
 6711.00    0.65113   0.53070    0.000
 6712.00    0.77540   0.52957    0.000
 6713.00    0.94393   0.52827    0.000
 6714.00    1.12452   0.52729    0.000
 6715.00    1.27155   0.52635    0.000
 6716.00    1.34091   0.52560    0.000
 6717.00    1.31075   0.52524    0.000
 6718.00    1.18777   0.52529    0.000
 6719.00    1.01083   0.52593    0.000
 6720.00    0.83206   0.52664    0.000
 6721.00    0.68916   0.52740    0.000
 6722.00    0.59949   0.52841    0.000
 6723.00    0.55824   0.52942    0.000
 6724.00    0.55337   0.53030    0.000
 6725.00    0.58527   0.53098    0.000
 6726.00    0.65857   0.53150    0.000
 6727.00    0.76823   0.53203    0.000
 6728.00    0.89688   0.53241    0.000
 6729.00    1.01450   0.53262    0.000
 6730.00    1.08899   0.53279    0.000
 6731.00    1.09931   0.53284    0.000
 6732.00    1.04070   0.53272    0.000
 6733.00    0.92854   0.53240    0.000
 6734.00    0.79246   0.53197    0.000
 6735.00    0.66791   0.53149    0.000
 6736.00    0.58138   0.53093    0.000
 6737.00    0.53594   0.53017    0.000
 6738.00    0.52025   0.52933    0.000
 6739.00    0.52021   0.52862    0.000
 6740.00    0.52435   0.52795    0.000
 6741.00    0.52797   0.52730    0.000
 6742.00    0.53018   0.52664    0.000
 6743.00    0.53054   0.52596    0.000
 6744.00    0.52925   0.52551    0.000
 6745.00    0.52744   0.52501    0.000
 6746.00    0.52550   0.52454    0.000
 6747.00    0.52186   0.52417    0.000
 6748.00    0.51582   0.52377    0.000
 6749.00    0.50997   0.52372    0.000
 6750.00    0.50737   0.52370    0.000
 6751.00    0.50894   0.52393    0.000
 6752.00    0.51372   0.52448    0.000
 6753.00    0.51952   0.52501   35.304
 6754.00    0.52474   0.52601   35.498
 6755.00    0.52958   0.52703   35.571
 6756.00    0.53395   0.52797   35.471
 6757.00    0.53617   0.52898   35.396
 6758.00    0.53531   0.52980   35.520
 6759.00    0.53297   0.53043   35.804
 6760.00    0.53135   0.53074   36.125
 6761.00    0.53165   0.53068   36.386
 6762.00    0.53322   0.53023   36.558
 6763.00    0.53348   0.52966   36.691
 6764.00    0.53098   0.52895   36.772
 6765.00    0.52716   0.52803   36.663
 6766.00    0.52363   0.52709   36.374
 6767.00    0.52053   0.52631   36.183
 6768.00    0.51775   0.52587   36.272
 6769.00    0.51580   0.52579   36.536
 6770.00    0.51529   0.52593   36.696
 6771.00    0.51658   0.52631   36.425
 6772.00    0.51919   0.52703   35.651
 6773.00    0.52171   0.52795   34.600
 6774.00    0.52309   0.52888   33.172
 6775.00    0.52349   0.52963   30.980
 6776.00    0.52483   0.53020   28.510
 6777.00    0.53022   0.53042   26.824
 6778.00    0.53959   0.53024   26.143
 6779.00    0.54832   0.52974   25.898
 6780.00    0.55272   0.52890   25.753
 6781.00    0.55271   0.52780   25.887
 6782.00    0.55041   0.52663   26.374
 6783.00    0.54868   0.52549   26.947
 6784.00    0.54821   0.52446   27.556
 6785.00    0.54690   0.52378   28.596
 6786.00    0.54365   0.52337   30.260
 6787.00    0.53979   0.52322   32.143
 6788.00    0.53701   0.52326   33.536
 6789.00    0.53594   0.52335   33.880
 6790.00    0.53477   0.52354   33.429
 6791.00    0.52998   0.52370   33.133
 6792.00    0.52206   0.52386   33.434
 6793.00    0.51622   0.52387   34.040
 6794.00    0.51545   0.52386   34.578
 6795.00    0.51832   0.52402   34.889
 6796.00    0.52199   0.52409   35.061
 6797.00    0.52402   0.52428   35.317
 6798.00    0.52426   0.52448   35.530
 6799.00    0.52441   0.52458   35.274
 6800.00    0.52394   0.52484   34.730
 6801.00    0.52014   0.52493   34.626
 6802.00    0.51396   0.52488   35.051
 6803.00    0.51024   0.52490   35.383
 6804.00    0.51165   0.52464   35.390
 6805.00    0.51700   0.52442   35.447
 6806.00    0.52288   0.52423   35.747
 6807.00    0.52554   0.52383   35.959
 6808.00    0.52464   0.52363   35.067
 6809.00    0.52336   0.52335   32.270
 6810.00    0.52487   0.52298   28.778
 6811.00    0.53090   0.52294   26.172
 6812.00    0.54092   0.52286   24.525
 6813.00    0.55223   0.52278   23.345
 6814.00    0.56093   0.52284   22.811
 6815.00    0.56326   0.52282   23.484
 6816.00    0.55880   0.52311   25.285
 6817.00    0.55101   0.52347   27.194
 6818.00    0.54633   0.52367   28.033
 6819.00    0.55114   0.52399   27.461
 6820.00    0.56474   0.52424   26.379
 6821.00    0.57997   0.52455   25.964
 6822.00    0.58939   0.52479   26.443
 6823.00    0.58853   0.52476   27.344
 6824.00    0.57972   0.52472   28.193
 6825.00    0.56948   0.52457   28.715
 6826.00    0.56022   0.52431   28.948
 6827.00    0.55073   0.52397   29.157
 6828.00    0.54161   0.52351   29.520
 6829.00    0.53531   0.52321   30.034
 6830.00    0.53364   0.52299   30.506
 6831.00    0.53615   0.52265   30.784
 6832.00    0.53832   0.52223   31.331
 6833.00    0.53537   0.52170   32.605
 6834.00    0.53047   0.52106   33.281
 6835.00    0.53032   0.52025   31.694
 6836.00    0.53325   0.51914   29.981
 6837.00    0.53241   0.51787   30.272
 6838.00    0.52649   0.51668   29.462
 6839.00    0.51974   0.51553   24.455
 6840.00    0.51795   0.51464   19.924
 6841.00    0.52459   0.51403   18.381
 6842.00    0.53559   0.51382   18.532
 6843.00    0.54340   0.51413   18.563
 6844.00    0.54546   0.51473   18.335
 6845.00    0.54453   0.51554   18.507
 6846.00    0.54627   0.51640   18.420
 6847.00    0.55443   0.51720   17.457
 6848.00    0.56413   0.51790   17.389
 6849.00    0.56837   0.51824   20.415
 6850.00    0.56938   0.51820   26.571
 6851.00    0.57174   0.51797   30.172
 6852.00    0.56968   0.51744   29.305
 6853.00    0.55678   0.51671   29.552
 6854.00    0.54208   0.51589   31.589
 6855.00    0.53792   0.51491   32.809
 6856.00    0.53993   0.51416   32.428
 6857.00    0.53699   0.51364   31.567
 6858.00    0.52839   0.51322   30.687
 6859.00    0.52037   0.51311   29.735
 6860.00    0.51834   0.51307   28.781
 6861.00    0.52443   0.51310   28.088
 6862.00    0.53578   0.51332   28.113
 6863.00    0.54665   0.51359   29.128
 6864.00    0.55155   0.51385   30.693
 6865.00    0.54833   0.51393   31.990
 6866.00    0.54108   0.51382   32.719
 6867.00    0.53504   0.51364   32.720
 6868.00    0.53074   0.51350   31.279
 6869.00    0.52781   0.51343   28.523
 6870.00    0.52967   0.51334   26.011
 6871.00    0.53774   0.51325   24.719
 6872.00    0.54529   0.51325   24.570
 6873.00    0.54554   0.51345   25.288
 6874.00    0.54024   0.51372   26.750
 6875.00    0.53462   0.51396   28.799
 6876.00    0.53120   0.51412   30.954
 6877.00    0.53030   0.51423   32.587
 6878.00    0.53105   0.51432   33.517
 6879.00    0.53187   0.51427   33.972
 6880.00    0.53104   0.51418   34.229
 6881.00    0.52777   0.51400   34.474
 6882.00    0.52308   0.51398   34.711
 6883.00    0.51806   0.51421   34.647
 6884.00    0.51253   0.51457   33.716
 6885.00    0.50794   0.51518   31.951
 6886.00    0.50928   0.51580   30.275
 6887.00    0.51877   0.51659   29.263
 6888.00    0.53122   0.51748   28.721
 6889.00    0.53981   0.51821   28.491
 6890.00    0.54126   0.51881   28.851
 6891.00    0.53662   0.51921   29.849
 6892.00    0.53112   0.51944   30.716
 6893.00    0.52946   0.51950   30.463
 6894.00    0.53252   0.51947   28.845
 6895.00    0.53903   0.51927   26.571
 6896.00    0.54703   0.51912   24.684
 6897.00    0.55424   0.51906   23.710
 6898.00    0.55843   0.51898   23.703
 6899.00    0.55880   0.51897   24.609
 6900.00    0.55654   0.51899   26.342
 6901.00    0.55232   0.51912   28.738
 6902.00    0.54519   0.51938   31.396
 6903.00    0.53616   0.51952   33.306
 6904.00    0.52961   0.51961   33.152
 6905.00    0.52740   0.51969   32.141
 6906.00    0.52617   0.51962   33.736
 6907.00    0.52383   0.51951   36.696
 6908.00    0.52260   0.51917   31.315
 6909.00    0.52386   0.51859   22.422
 6910.00    0.52566   0.51801   18.471
 6911.00    0.52645   0.51729   18.336
 6912.00    0.52673   0.51649   19.159
 6913.00    0.52661   0.51590   19.140
 6914.00    0.52486   0.51527   19.060
 6915.00    0.52150   0.51495   19.374
 6916.00    0.51872   0.51489   19.059
 6917.00    0.51883   0.51478   18.507
 6918.00    0.52278   0.51498   20.037
 6919.00    0.52870   0.51508   25.145
 6920.00    0.53214   0.51516   31.036
 6921.00    0.53063   0.51524   31.871
 6922.00    0.52556   0.51506   30.674
 6923.00    0.52097   0.51488   30.680
 6924.00    0.52169   0.51452   30.395
 6925.00    0.52793   0.51427   29.066
 6926.00    0.53429   0.51409   28.143
 6927.00    0.53575   0.51405   28.339
 6928.00    0.53047   0.51407   29.200
 6929.00    0.52036   0.51409   30.172
 6930.00    0.51001   0.51429   30.974
 6931.00    0.50151   0.51441   31.530
 6932.00    0.49377   0.51466   31.914
 6933.00    0.48751   0.51479   32.209
 6934.00    0.48603   0.51498   32.416
 6935.00    0.49093   0.51523   32.438
 6936.00    0.50054   0.51530   32.134
 6937.00    0.51032   0.51534   31.574
 6938.00    0.51465   0.51519   31.045
 6939.00    0.51254   0.51502   30.840
 6940.00    0.50781   0.51468   31.135
 6941.00    0.50327   0.51420   31.693
 6942.00    0.49926   0.51361   31.967
 6943.00    0.49522   0.51286   31.946
 6944.00    0.49081   0.51228   32.164
 6945.00    0.48767   0.51168   32.685
 6946.00    0.48873   0.51127   33.006
 6947.00    0.49487   0.51105   32.836
 6948.00    0.50328   0.51080   32.371
 6949.00    0.50620   0.51064   32.156
 6950.00    0.49820   0.51059   32.532
 6951.00    0.49653   0.51054   32.322
 6952.00    0.52131   0.51069   30.297
 6953.00    0.52917   0.51087   29.269
 6954.00    0.45381   0.51112   32.839
 6955.00    0.35455   0.51150   -1.000
 6956.00    0.36451   0.51193   -1.000
 6957.00    0.46634   0.51250   21.646
 6958.00    0.52643   0.51295   18.904
 6959.00    0.51504   0.51345   19.382
 6960.00    0.50040   0.51384   20.017
 6961.00    0.50701   0.51419   19.736
 6962.00    0.51040   0.51454   19.581
 6963.00    0.50288   0.51468   19.881
 6964.00    0.49663   0.51478   20.140
 6965.00    0.49696   0.51482   20.124
 6966.00    0.50039   0.51470   19.983
 6967.00    0.50327   0.51460   19.870
 6968.00    0.50360   0.51436   19.857
 6969.00    0.50082   0.51378   19.968
 6970.00    0.49551   0.51301   20.181
 6971.00    0.48906   0.51186   20.447
 6972.00    0.48279   0.51056   20.713
 6973.00    0.47666   0.50912   20.979
 6974.00    0.47060   0.50738   21.250
 6975.00    0.46728   0.50573   21.400
 6976.00    0.46996   0.50420   21.279
 6977.00    0.47767   0.50304   20.935
 6978.00    0.48638   0.50243   20.560
 6979.00    0.49247   0.50228   20.306
 6980.00    0.49419   0.50290   20.235
 6981.00    0.49321   0.50395   20.275
 6982.00    0.49305   0.50518   20.282
 6983.00    0.49628   0.50659   20.150
 6984.00    0.50313   0.50792   19.875
 6985.00    0.51021   0.50923   19.600
 6986.00    0.51303   0.51033   19.492
 6987.00    0.51015   0.51104   19.602
 6988.00    0.50300   0.51155   19.881
 6989.00    0.49467   0.51182   20.216
 6990.00    0.48869   0.51197   20.463
 6991.00    0.48762   0.51209   20.508
 6992.00    0.49181   0.51198   20.333
 6993.00    0.49818   0.51175   20.073
 6994.00    0.50287   0.51134   19.886
 6995.00    0.50477   0.51083   19.811
 6996.00    0.50471   0.51036   19.813
 6997.00    0.50366   0.50966   19.855
 6998.00    0.50204   0.50889   19.919
 6999.00    0.49930   0.50804   20.028
 7000.00    0.49556   0.50727   20.179
 7001.00    0.49351   0.50678   -2.000
 7002.00    0.49536   0.50635   -2.000
 7003.00    0.49922   0.50600   -2.000
 7004.00    0.50180   0.50564   -2.000
 7005.00    0.50180   0.50549   -2.000
 7006.00    0.49927   0.50556   -2.000
 7007.00    0.49458   0.50568   -2.000
 7008.00    0.48920   0.50571   -2.000
 7009.00    0.48629   0.50551   -2.000
 7010.00    0.48736   0.50525   -2.000
 7011.00    0.48916   0.50486   -2.000
 7012.00    0.48770   0.50440   -2.000
 7013.00    0.48223   0.50394   -2.000
 7014.00    0.47389   0.50335   -2.000
 7015.00    0.46404   0.50281   -2.000
 7016.00    0.45515   0.50232   -2.000
 7017.00    0.45134   0.50214   -2.000
 7018.00    0.45466   0.50237   -2.000
 7019.00    0.46221   0.50257   -2.000
 7020.00    0.47014   0.50271   -2.000
 7021.00    0.47701   0.50280   -2.000
 7022.00    0.48004   0.50295   -2.000
 7023.00    0.47357   0.50321   -2.000
 7024.00    0.46288   0.50348   -2.000
 7025.00    0.46982   0.50377   -2.000
 7026.00    0.48664   0.50421   -2.000
 7027.00    0.45319   0.50464   -2.000
 7028.00    0.36447   0.50508   -2.000
 7029.00    0.33091   0.50562   -2.000
 7030.00    0.40900   0.50609   -2.000
 7031.00    0.49780   0.50656   -2.000
 7032.00    0.51105   0.50683   -2.000
 7033.00    0.48823   0.50704   -2.000
 7034.00    0.48300   0.50733   -2.000
 7035.00    0.48897   0.50765   -2.000
 7036.00    0.48748   0.50808   -2.000
 7037.00    0.48003   0.50862   -2.000
 7038.00    0.47374   0.50921   -2.000
 7039.00    0.47118   0.51013   -2.000
 7040.00    0.47172   0.51134   -2.000
 7041.00    0.47321   0.51255   -2.000
 7042.00    0.47473   0.51361   -2.000
 7043.00    0.47766   0.51436   -2.000
 7044.00    0.48242   0.51501   -2.000
 7045.00    0.48709   0.51544   -2.000
 7046.00    0.48991   0.51557   -2.000
 7047.00    0.49065   0.51537   -2.000
 7048.00    0.48988   0.51470   -2.000
 7049.00    0.48836   0.51381   -2.000
 7050.00    0.48655   0.51250   -2.000
 7051.00    0.48424   0.51112   -2.000
 7052.00    0.48084   0.50966   -2.000
 7053.00    0.47580   0.50810   -2.000
 7054.00    0.47061   0.50685   -2.000
 7055.00    0.46877   0.50565   -2.000
 7056.00    0.47102   0.50471   -2.000
 7057.00    0.47404   0.50390   -2.000
 7058.00    0.47478   0.50314   -2.000
 7059.00    0.47259   0.50258   -2.000
 7060.00    0.47015   0.50205   -2.000
 7061.00    0.47215   0.50161   -2.000
 7062.00    0.47868   0.50130   -2.000
 7063.00    0.48421   0.50092   -2.000
 7064.00    0.48513   0.50056   -2.000
 7065.00    0.48229   0.50029   -2.000
 7066.00    0.47843   0.50000   -2.000
 7067.00    0.47653   0.49999   -2.000
 7068.00    0.47743   0.50015   -2.000
 7069.00    0.47958   0.50057   -2.000
 7070.00    0.48125   0.50128   -2.000
 7071.00    0.48142   0.50198   -2.000
 7072.00    0.47966   0.50268   -2.000
 7073.00    0.47636   0.50337   -2.000
 7074.00    0.47320   0.50399   -2.000
 7075.00    0.47237   0.50440   -2.000
 7076.00    0.47360   0.50452   -2.000
 7077.00    0.47421   0.50416   -2.000
 7078.00    0.47288   0.50351   -2.000
 7079.00    0.47070   0.50252   -2.000
 7080.00    0.47074   0.50109   -2.000
 7081.00    0.47579   0.49941   -2.000
 7082.00    0.48239   0.49735   -2.000
 7083.00    0.48285   0.49516   -2.000
 7084.00    0.47599   0.49300   -2.000
 7085.00    0.46752   0.49094   -2.000
 7086.00    0.46235   0.48923   -2.000
 7087.00    0.46180   0.48774   -2.000
 7088.00    0.46223   0.48639   -2.000
 7089.00    0.45847   0.48549   -2.000
 7090.00    0.45302   0.48488   -2.000
 7091.00    0.45324   0.48461   -2.000
 7092.00    0.45836   0.48477   -2.000
 7093.00    0.46102   0.48486   -2.000
 7094.00    0.45891   0.48534   -2.000
 7095.00    0.45516   0.48589   -2.000
 7096.00    0.45243   0.48649   -2.000
 7097.00    0.45159   0.48742   -2.000
 7098.00    0.45225   0.48807   -2.000
 7099.00    0.45353   0.48896   -2.000
 7100.00    0.45556   0.48951   -2.000
 7101.00    0.45872   0.48997   -2.000
 7102.00    0.46134   0.49033   -2.000
 7103.00    0.46057   0.49043   -2.000
 7104.00    0.45507   0.49049   -2.000
 7105.00    0.44642   0.49027   -2.000
 7106.00    0.44057   0.48992   -2.000
 7107.00    0.44242   0.48943   -2.000
 7108.00    0.44548   0.48892   -2.000
 7109.00    0.44036   0.48851   -2.000
 7110.00    0.43344   0.48809   -2.000
 7111.00    0.43758   0.48775   -2.000
 7112.00    0.44987   0.48758   -2.000
 7113.00    0.45915   0.48758   -2.000
 7114.00    0.46518   0.48776   -2.000
 7115.00    0.47336   0.48780   -2.000
 7116.00    0.48062   0.48794   -2.000
 7117.00    0.48128   0.48804   -2.000
 7118.00    0.47995   0.48802   -2.000
 7119.00    0.48471   0.48798   -2.000
 7120.00    0.49396   0.48764   -2.000
 7121.00    0.50145   0.48742   -2.000
 7122.00    0.50685   0.48695   -2.000
 7123.00    0.51182   0.48639   -2.000
 7124.00    0.51240   0.48587   -2.000
 7125.00    0.50431   0.48519   -2.000
 7126.00    0.49158   0.48460   -2.000
 7127.00    0.48140   0.48403   -2.000
 7128.00    0.47582   0.48362   -2.000
 7129.00    0.47503   0.48336   -2.000
 7130.00    0.48284   0.48327   -2.000
 7131.00    0.50130   0.48338   -2.000
 7132.00    0.52366   0.48389   -2.000
 7133.00    0.54243   0.48456   -2.000
 7134.00    0.55945   0.48534   -2.000
 7135.00    0.57233   0.48613   -2.000
 7136.00    0.55939   0.48677   -2.000
 7137.00    0.51261   0.48746   -2.000
 7138.00    0.47339   0.48789   -2.000
 7139.00    0.47881   0.48816   -2.000
 7140.00    0.50152   0.48820   -2.000
 7141.00    0.50149   0.48802   -2.000
 7142.00    0.48611   0.48774   -2.000
 7143.00    0.47830   0.48722   -2.000
 7144.00    0.47814   0.48669   -2.000
 7145.00    0.47661   0.48613   -2.000
 7146.00    0.47281   0.48561   -2.000
 7147.00    0.46895   0.48531   -2.000
 7148.00    0.46418   0.48503   -2.000
 7149.00    0.45800   0.48521   -2.000
 7150.00    0.45369   0.48579   -2.000
 7151.00    0.45401   0.48642   -2.000
 7152.00    0.45735   0.48726   -2.000
 7153.00    0.46122   0.48801   -2.000
 7154.00    0.46527   0.48878   -2.000
 7155.00    0.46910   0.48947   -2.000
 7156.00    0.47042   0.48986   -2.000
 7157.00    0.46789   0.49010   -2.000
 7158.00    0.46331   0.48995   -2.000
 7159.00    0.45975   0.48956   -2.000
 7160.00    0.45959   0.48907   -2.000
 7161.00    0.46291   0.48851   -2.000
 7162.00    0.46661   0.48803   -2.000
 7163.00    0.46721   0.48756   -2.000
 7164.00    0.46319   0.48730   -2.000
 7165.00    0.45633   0.48741   -2.000
 7166.00    0.45172   0.48797   -2.000
 7167.00    0.45159   0.48882   -2.000
 7168.00    0.45230   0.48976   -2.000
 7169.00    0.45454   0.49066   -2.000
 7170.00    0.46742   0.49156   -2.000
 7171.00    0.48849   0.49240   -2.000
 7172.00    0.49559   0.49301   -2.000
 7173.00    0.48022   0.49324   -2.000
 7174.00    0.46349   0.49304   -2.000
 7175.00    0.46090   0.49261   -2.000
 7176.00    0.46369   0.49198   -2.000
 7177.00    0.46196   0.49122   -2.000
 7178.00    0.45784   0.49038   -2.000
 7179.00    0.45713   0.48940   -2.000
 7180.00    0.46393   0.48833   -2.000
 7181.00    0.47902   0.48741   -2.000
 7182.00    0.49931   0.48665   -2.000
 7183.00    0.51860   0.48603   -2.000
 7184.00    0.52954   0.48541   -2.000
 7185.00    0.53149   0.48454   -2.000
 7186.00    0.53201   0.48387   -2.000
 7187.00    0.53406   0.48322   -2.000
 7188.00    0.53175   0.48284   -2.000
 7189.00    0.52113   0.48284   -2.000
 7190.00    0.50518   0.48278   -2.000
 7191.00    0.49130   0.48316   -2.000
 7192.00    0.48762   0.48347   -2.000
 7193.00    0.49220   0.48401   -2.000
 7194.00    0.49236   0.48467   -2.000
 7195.00    0.48278   0.48527   -2.000
 7196.00    0.47072   0.48600   -2.000
 7197.00    0.46426   0.48642   -2.000
 7198.00    0.46667   0.48685   -2.000
 7199.00    0.47471   0.48708   -2.000
 7200.00    0.48024   0.48702   -2.000
 7201.00    0.47828   0.48693   -2.000
 7202.00    0.46974   0.48659   -2.000
 7203.00    0.45902   0.48626   -2.000
 7204.00    0.45146   0.48589   -2.000
 7205.00    0.44799   0.48524   -2.000
 7206.00    0.44556   0.48479   -2.000
 7207.00    0.44563   0.48426   -2.000
 7208.00    0.45315   0.48416   -2.000
 7209.00    0.46270   0.48441   -2.000
 7210.00    0.46106   0.48469   -2.000
 7211.00    0.45078   0.48525   -2.000
 7212.00    0.44893   0.48564   -2.000
 7213.00    0.45788   0.48619   -2.000
 7214.00    0.46455   0.48673   -2.000
 7215.00    0.46691   0.48732   -2.000
 7216.00    0.47536   0.48791   -2.000
 7217.00    0.49220   0.48834   -2.000
 7218.00    0.50961   0.48878   -2.000
