###################################################################
## OUTPUT of StarlightChains_v04.for    [Cid@UFSC - 01/Apr/2007] ##
###################################################################

## Some input info
2011aq.txt                               [arq_obs]
Base.CB07.vall.4m                        [arq_base]
Masks.EmLines.NEW.gm                     [arq_masks]
StCv04.C11.config                        [arq_config]
   66                                    [N_base]
    0                                    [N_YAV_components = # of components with extra extinction!]
    0                                    [i_FitPowerLaw (1/0 = Yes/No)]
-9.99                                    [alpha_PowerLaw]
CCM                                      [red_law_option]
 1.458241                                [q_norm = A(l_norm)/A(V)]

## (Re)Sampling Parameters
 3741.00                                 [l_ini (A)]
 7218.00                                 [l_fin (A)]
    1.00                                 [dl    (A)]     (OBS: dl_cushion =    50.00 A)

## Normalization info
 4020.00                                 [l_norm (A) - for base]
 4010.00                                 [llow_norm (A) - window for f_obs]
 4060.00                                 [lupp_norm (A) - window for f_obs]
8.692659E-15                             [fobs_norm (in input units)]

## S/N
 3691.00                                 [llow_SN (A) - window for S/N]
 7268.00                                 [lupp_SN (A) - window for S/N]
   7.407                                 [S/N in S/N window]
   6.392                                 [S/N in norm. window]
  49.080                                 [S/N_err in S/N window]
  42.357                                 [S/N_err in norm. window]
  1.0000                                 [fscale_chi2]

## etc...
    -2007369                             [idum_orig]
  2394                                   [NOl_eff]
  2279                                   [Nl_eff]
   115    NSIGMA                         [Ntot_cliped & clip_method]
  2549470                                [Nglobal_steps]
   7                                     [N_chains]
  37                                     [NEX0s_base = N_base in EX0s-fits]
 0   0   1       17   2.0   2.070E+02    [Clip-Bug, RC-Crash & Burn-In warning-flags, n_censored_weights, wei_nsig_threshold & wei_limit]
    23     22.407     21.897      0.511  [idt_all, wdt_TotTime, wdt_UsrTime & wdt_SysTime (sec)]

## Synthesis Results - Best model ##

 1.08628E+00                             [chi2/Nl_eff]
     1.11701                             [adev (%)]

   103.63256                             [sum-of-x (%)]
 2.68662E-14                             [Flux_tot (units of input spectrum!)]
 7.29937E-10                             [Mini_tot (???)]
 3.69359E-10                             [Mcor_tot (???)]

  23.29                                  [v0_min  (km/s)]
 201.63                                  [vd_min  (km/s)]
 0.8136                                  [AV_min  (mag)]
 0.0000                                  [YAV_min (mag)]

# j     x_j(%)      Mini_j(%)     Mcor_j(%)     age_j(yr)     Z_j      (L/M)_j    YAV?  Mstars   component_j        a/Fe...       SSP_chi2r SSP_adev(%)   SSP_AV   SSP_x(%)
  1      1.8795     6.1015E-03    1.2058E-02    1.000000E+06  0.00400  1.094E-02    0   1.0000   age020_m42            0.0000     2.0726E+01     4.6519   3.5336    90.5773
  2      1.4373     1.2740E-03    2.5174E-03    3.160000E+06  0.00400  4.007E-02    0   0.9999   age045_m42            0.0000     1.4489E+01     3.7472   2.8493    94.8090
  3      0.0000     0.0000E+00    0.0000E+00    5.010000E+06  0.00400  2.539E-02    0   0.9488   age055_m42            0.0000     1.6210E+01     3.9079   3.1486    93.4350
  4      0.0000     0.0000E+00    0.0000E+00    6.610000E+06  0.00400  2.620E-02    0   0.9220   age061_m42            0.0000     1.3079E+01     3.5796   2.7745    95.0508
  5      0.1451     3.8982E-04    6.8270E-04    1.000000E+07  0.00400  1.322E-02    0   0.8862   age070_m42            0.0000     8.0880E+00     2.4688   2.4707    97.8297
  6      1.6063     7.2369E-03    1.2258E-02    1.445000E+07  0.00400  7.883E-03    0   0.8571   age078_m42            0.0000     1.0074E+01     2.7588   2.7909    95.7381
  7      0.5719     3.8679E-03    6.2481E-03    2.512000E+07  0.00400  5.251E-03    0   0.8174   age090_m42            0.0000     7.7304E+00     2.3981   2.3414    98.2776
  8      2.3486     2.2859E-02    3.5467E-02    4.000000E+07  0.00400  3.649E-03    0   0.7851   age104_m42            0.0000     6.8748E+00     2.3437   2.1204    98.7953
  9      2.3181     2.6575E-02    4.0066E-02    5.500000E+07  0.00400  3.098E-03    0   0.7629   age110_m42            0.0000     8.4208E+00     2.7826   2.2912    98.0969
 10      0.0000     0.0000E+00    0.0000E+00    1.015200E+08  0.00400  2.228E-03    0   0.7207   age116_m42            0.0000     9.8148E+00     3.1516   2.3231    97.7968
 11      0.0000     0.0000E+00    0.0000E+00    2.861200E+08  0.00400  1.093E-03    0   0.6648   age125_m42            0.0000     8.4106E+00     3.0242   1.7553   100.5730
 12      0.0002     1.0075E-05    1.2674E-05    5.088000E+08  0.00400  6.597E-04    0   0.6365   age130_m42            0.0000     9.5744E+00     3.3313   1.7613   100.7508
 13      0.3832     6.3843E-02    7.3152E-02    1.434000E+09  0.00400  2.132E-04    0   0.5798   age139_m42            0.0000     6.8332E+00     2.7527   0.7994   102.2430
 14      0.0000     0.0000E+00    0.0000E+00    4.250000E+09  0.00400  5.895E-05    0   0.5377   age158_m42            0.0000     9.9978E+00     3.7430   0.3525    98.9062
 15      0.0000     2.0117E-05    2.0721E-05    7.500000E+09  0.00400  3.510E-05    0   0.5212   age171_m42            0.0000     1.3706E+01     4.3003   0.1690    98.1715
 16      8.6257     1.5279E+01    1.5200E+01    1.300000E+10  0.00400  2.005E-05    0   0.5034   age193_m42            0.0000     1.8199E+01     4.8330   0.0079    97.5898
 17      7.0908     1.6514E+01    1.6210E+01    1.800000E+10  0.00400  1.525E-05    0   0.4967   age213_m42            0.0000     1.7416E+01     4.7364  -0.0180    97.2409
 18      2.4079     6.9079E-03    1.3652E-02    1.000000E+06  0.00800  1.238E-02    0   1.0000   age020_m52            0.0000     2.0768E+01     4.6645   3.5300    90.7567
 19      2.5987     3.0025E-03    5.9135E-03    3.160000E+06  0.00800  3.074E-02    0   0.9966   age045_m52            0.0000     2.0533E+01     4.5974   3.4560    91.4440
 20      0.0000     0.0000E+00    0.0000E+00    5.010000E+06  0.00800  2.668E-02    0   0.9443   age055_m52            0.0000     1.6625E+01     3.9846   3.2239    92.9058
 21      0.0000     0.0000E+00    0.0000E+00    6.610000E+06  0.00800  2.136E-02    0   0.9177   age061_m52            0.0000     4.8388E+00     1.9836   1.9631    99.3919
 22      1.5737     4.6003E-03    8.0248E-03    1.000000E+07  0.00800  1.215E-02    0   0.8827   age070_m52            0.0000     8.3091E+00     2.4225   2.6401    98.0139
 23      1.3538     5.5160E-03    9.3224E-03    1.445000E+07  0.00800  8.717E-03    0   0.8552   age078_m52            0.0000     9.0732E+00     2.5772   2.7575    96.9508
 24      0.4478     2.8439E-03    4.5871E-03    2.512000E+07  0.00800  5.592E-03    0   0.8162   age090_m52            0.0000     7.1537E+00     2.2929   2.4072    99.2831
 25      1.2791     1.1660E-02    1.8068E-02    4.000000E+07  0.00800  3.896E-03    0   0.7841   age104_m52            0.0000     7.0597E+00     2.4103   2.3318    99.5134
 26      0.0000     0.0000E+00    0.0000E+00    1.015200E+08  0.00800  2.148E-03    0   0.7226   age116_m52            0.0000     8.0161E+00     2.7485   2.2852    98.7815
 27      0.0000     0.0000E+00    0.0000E+00    2.861200E+08  0.00800  9.925E-04    0   0.6683   age125_m52            0.0000     8.8444E+00     3.1165   1.8279   101.5798
 28      2.8143     3.1822E-01    3.8601E-01    9.047900E+08  0.00800  3.141E-04    0   0.6138   age135_m52            0.0000     1.0486E+01     3.4992   1.0588   104.4386
 29      0.0000     0.0000E+00    0.0000E+00    1.434000E+09  0.00800  1.719E-04    0   0.5853   age139_m52            0.0000     8.9295E+00     3.4530   0.4638   103.0837
 30      0.0000     0.0000E+00    0.0000E+00    2.500000E+09  0.00800  7.872E-05    0   0.5600   age150_m52            0.0000     1.5215E+01     4.5504   0.2016   100.3258
 31      0.0000     0.0000E+00    0.0000E+00    4.250000E+09  0.00800  4.336E-05    0   0.5426   age158_m52            0.0000     1.6281E+01     4.6573   0.1838    99.5397
 32      0.0000     0.0000E+00    0.0000E+00    6.250000E+09  0.00800  3.159E-05    0   0.5319   age166_m52            0.0000     2.3485E+01     5.4794  -0.0093    99.2474
 33      7.3610     1.9209E+01    1.9258E+01    1.300000E+10  0.00800  1.361E-05    0   0.5073   age193_m52            0.0000     3.5640E+01     6.6340  -0.4645    98.1134
 34      7.5235     2.7029E+01    2.6654E+01    1.800000E+10  0.00800  9.886E-06    0   0.4990   age213_m52            0.0000     4.5669E+01     7.5137  -0.5613    97.2555
 35      2.1167     4.8691E-03    9.6224E-03    1.000000E+06  0.02000  1.544E-02    0   1.0000   age020_m62            0.0000     2.1017E+01     4.7080   3.5254    91.0093
 36      2.1094     1.9914E-03    3.8797E-03    3.160000E+06  0.02000  3.762E-02    0   0.9858   age045_m62            0.0000     2.1313E+01     4.7348   3.4642    91.8363
 37      0.0248     2.6729E-05    4.9347E-05    5.010000E+06  0.02000  3.296E-02    0   0.9342   age055_m62            0.0000     1.5842E+01     3.9716   3.1160    94.2576
 38     11.9163     3.6674E-02    6.4221E-02    8.710000E+06  0.02000  1.154E-02    0   0.8861   age067_m62            0.0000     1.6840E+01     4.5298   2.0385   102.7695
 39      0.4810     2.2291E-03    3.7321E-03    1.445000E+07  0.02000  7.663E-03    0   0.8472   age078_m62            0.0000     7.9907E+00     2.5348   2.2734   100.7122
 40      0.0091     7.1072E-05    1.1375E-04    2.512000E+07  0.02000  4.532E-03    0   0.8099   age090_m62            0.0000     9.2939E+00     2.7677   2.2669   100.3232
 41      0.0000     0.0000E+00    0.0000E+00    5.500000E+07  0.02000  2.733E-03    0   0.7595   age110_m62            0.0000     6.5156E+00     2.2913   2.3076    99.1340
 42      0.0000     0.0000E+00    0.0000E+00    1.609000E+08  0.02000  1.369E-03    0   0.6985   age120_m62            0.0000     8.5389E+00     2.9268   2.1765   100.5149
 43      0.0000     0.0000E+00    0.0000E+00    2.861200E+08  0.02000  9.013E-04    0   0.6714   age125_m62            0.0000     1.0419E+01     3.2582   1.9440   102.5278
 44      3.2664     2.3073E-01    2.9406E-01    5.088000E+08  0.02000  5.028E-04    0   0.6449   age130_m62            0.0000     1.3763E+01     3.9207   1.5941   104.0496
 45      0.0000     0.0000E+00    0.0000E+00    9.047900E+08  0.02000  2.428E-04    0   0.6179   age135_m62            0.0000     1.2222E+01     3.9506   1.0084   103.5662
 46      0.0000     0.0000E+00    0.0000E+00    1.434000E+09  0.02000  1.263E-04    0   0.5908   age139_m62            0.0000     1.3856E+01     4.2840   0.5569   102.4840
 47      0.0000     0.0000E+00    0.0000E+00    2.500000E+09  0.02000  5.985E-05    0   0.5673   age150_m62            0.0000     2.2431E+01     5.4725   0.1950   101.1052
 48      0.0000     0.0000E+00    0.0000E+00    4.250000E+09  0.02000  3.271E-05    0   0.5468   age158_m62            0.0000     3.5952E+01     6.8136  -0.0963    99.7559
 49      0.0000     0.0000E+00    0.0000E+00    1.000000E+10  0.02000  1.360E-05    0   0.5167   age181_m62            0.0000     5.5184E+01     8.2811  -0.4231    98.5155
 50      0.0000     0.0000E+00    0.0000E+00    1.800000E+10  0.02000  7.124E-06    0   0.5013   age213_m62            0.0000     7.1365E+01     9.4094  -0.6157    97.1143
 51      7.4546     1.0214E-02    2.0182E-02    1.000000E+06  0.05000  2.592E-02    0   0.9998   age020_m72            0.0000     2.1764E+01     4.8281   3.5122    91.2415
 52      0.7442     5.4552E-04    1.0325E-03    3.160000E+06  0.05000  4.845E-02    0   0.9577   age045_m72            0.0000     2.0065E+01     4.4676   3.3591    92.5010
 53      2.0507     2.3708E-03    4.2857E-03    5.010000E+06  0.05000  3.072E-02    0   0.9147   age055_m72            0.0000     1.1374E+01     3.1242   2.8654    96.9915
 54      1.2071     2.9464E-03    5.1688E-03    6.610000E+06  0.05000  1.455E-02    0   0.8877   age061_m72            0.0000     4.5061E+01     7.1417   2.0746   104.3883
 55      0.0000     0.0000E+00    0.0000E+00    1.000000E+07  0.05000  9.074E-03    0   0.8524   age070_m72            0.0000     1.9043E+01     4.0594   3.0568    96.5951
 56      0.0000     0.0000E+00    0.0000E+00    2.512000E+07  0.05000  4.250E-03    0   0.7902   age090_m72            0.0000     1.3003E+01     3.2951   2.7671    97.6045
 57      0.0000     0.0000E+00    0.0000E+00    4.000000E+07  0.05000  3.087E-03    0   0.7618   age104_m72            0.0000     1.2938E+01     3.3431   2.5419    98.9651
 58      0.0000     0.0000E+00    0.0000E+00    1.015200E+08  0.05000  1.700E-03    0   0.7096   age116_m72            0.0000     8.9333E+00     2.8932   2.3104   100.4115
 59      0.2500     1.2023E-02    1.5760E-02    2.861200E+08  0.05000  7.384E-04    0   0.6633   age125_m72            0.0000     1.1776E+01     3.4925   1.8276   103.1904
 60      8.4309     7.8406E-01    9.8733E-01    5.088000E+08  0.05000  3.819E-04    0   0.6372   age130_m72            0.0000     1.3044E+01     4.0604   1.3497   104.3076
 61      5.8870     1.2475E+00    1.5063E+00    9.047900E+08  0.05000  1.676E-04    0   0.6110   age135_m72            0.0000     2.1073E+01     5.5112   0.6551   102.7784
 62      0.0000     0.0000E+00    0.0000E+00    1.434000E+09  0.05000  8.837E-05    0   0.5874   age139_m72            0.0000     2.5188E+01     5.7082   0.1989   102.3198
 63      0.0000     0.0000E+00    0.0000E+00    2.500000E+09  0.05000  4.233E-05    0   0.5598   age150_m72            0.0000     4.0680E+01     7.2468  -0.0923   100.4231
 64      0.7442     1.8419E+00    1.9106E+00    6.250000E+09  0.05000  1.435E-05    0   0.5249   age166_m72            0.0000     6.0627E+01     8.7258  -0.5166    97.9770
 65      3.1736     1.7306E+01    1.7224E+01    1.300000E+10  0.05000  6.513E-06    0   0.5036   age193_m72            0.0000     8.2515E+01    10.1354  -0.7744    98.0736
 66      0.0000     0.0000E+00    0.0000E+00    1.800000E+10  0.05000  4.527E-06    0   0.4945   age213_m72            0.0000     9.7309E+01    10.9912  -0.9211    97.3339


## Synthesis Results - Average & Chains ##

# j      x_j: min, <> & last-chain-values for 1 ...  7 chains
  1      1.8795      0.7405      0.7512      0.8015      0.8098      0.8225      0.7944      0.9426      0.6871
  2      1.4373      1.0021      0.9724      0.9813      1.0991      1.0273      1.0874      1.1150      1.2633
  3      0.0000      0.0980      0.0000      0.0000      0.0478      0.0000      0.0000      0.1097      0.0186
  4      0.0000      0.0404      0.0758      0.0000      0.0000      0.0000      0.0376      0.1361      0.0000
  5      0.1451      0.4443      0.5002      0.3377      0.5057      0.3763      0.6279      0.6466      0.2830
  6      1.6063      1.7283      1.4604      1.3856      1.9136      1.5797      2.0566      1.7504      1.6651
  7      0.5719      0.7177      0.9027      1.0203      0.5754      0.7465      0.9003      0.9925      0.7944
  8      2.3486      2.5139      2.5634      2.7436      2.6445      2.4278      2.7536      2.4644      2.6425
  9      2.3181      2.3353      2.3858      2.3235      2.1974      2.4676      2.1904      2.4137      2.2910
 10      0.0000      0.1450      0.0611      0.0494      0.3236      0.2657      0.0000      0.2525      0.2741
 11      0.0000      0.0851      0.0000      0.0000      0.0000      0.0000      0.0000      0.0000      0.0300
 12      0.0002      0.0712      0.4140      0.1466      0.0000      0.2068      0.0000      0.0586      0.3932
 13      0.3832      0.8984      0.7584      1.1330      1.3000      0.8535      1.4260      0.6035      0.1336
 14      0.0000      0.1072      0.1163      0.5484      0.0000      0.0000      0.1654      0.1457      0.3627
 15      0.0000      1.1159      0.6686      1.2321      1.2647      1.1282      0.9644      1.1782      1.0349
 16      8.6257     10.4187     10.4333     10.3627     10.4530     10.7065     10.2052     10.0187     10.5066
 17      7.0908      8.5592      8.6414      8.3892      8.1934      8.3759      8.6213      8.3866      8.6087
 18      2.4079      1.2458      1.3512      1.2698      1.4098      1.2287      1.6213      1.2439      1.2626
 19      2.5987      1.9398      1.9306      1.9464      1.9491      2.1017      1.9020      1.7494      2.1144
 20      0.0000      0.2481      0.1930      0.2520      0.0231      0.2246      0.2610      0.4254      0.2253
 21      0.0000      0.2327      0.0000      0.1557      0.7085      0.3183      0.0989      0.1782      0.0625
 22      1.5737      1.9927      1.8362      1.8350      1.8829      1.9319      2.1963      1.6183      1.5530
 23      1.3538      1.6319      0.9644      1.8043      1.6416      1.5024      1.7496      1.4953      1.6575
 24      0.4478      0.7702      1.0722      0.8203      0.7365      0.7497      1.0463      0.7405      0.7594
 25      1.2791      1.9590      1.9971      1.7546      1.9068      1.8133      1.8133      1.8364      1.9196
 26      0.0000      0.3532      0.2535      0.0224      0.0059      0.4240      0.2591      0.3127      0.0000
 27      0.0000      0.0810      0.0639      0.0561      0.2644      0.0000      0.0000      0.0000      0.0438
 28      2.8143      3.4987      3.4662      3.3365      4.1240      3.2542      3.4639      4.4192      3.1750
 29      0.0000      0.0468      0.0000      0.0000      0.0000      0.0000      0.0000      0.0000      0.0000
 30      0.0000      0.0500      0.0000      0.0000      0.0000      0.0214      0.0000      0.0000      0.0000
 31      0.0000      0.0575      0.2260      0.0000      0.0000      0.0000      0.0000      0.0000      0.0000
 32      0.0000      0.0317      0.1246      0.0000      0.0000      0.0000      0.0000      0.0000      0.0000
 33      7.3610      5.7732      5.8644      5.9383      5.6681      5.9964      5.6862      5.9636      5.8065
 34      7.5235      6.7578      6.5231      6.8187      6.7716      6.9223      6.8232      6.7790      6.7291
 35      2.1167      0.8142      1.0191      1.0035      0.8700      0.9693      0.5514      0.7257      1.1142
 36      2.1094      1.5400      1.4650      1.4192      1.6672      1.4754      1.4206      1.6525      1.4955
 37      0.0248      0.6125      0.6153      0.7848      0.8022      0.5391      0.4390      0.5637      0.7769
 38     11.9163      6.9775      7.6110      7.5771      7.8852      7.4891      7.1530      7.0941      6.8639
 39      0.4810      0.5719      0.8544      0.7286      0.1676      0.5139      0.5603      0.5885      0.9525
 40      0.0091      1.6728      1.8998      1.7757      1.5115      1.5822      1.6449      1.9982      1.7768
 41      0.0000      0.0617      0.0000      0.0000      0.0000      0.1108      0.0000      0.0000      0.0000
 42      0.0000      0.0790      0.0651      0.0683      0.0000      0.2583      0.0549      0.0000      0.0000
 43      0.0000      0.0808      0.0000      0.0000      0.1945      0.1565      0.1601      0.0000      0.0000
 44      3.2664      2.1880      2.0335      2.2250      1.9239      2.2161      2.0197      2.3284      2.2470
 45      0.0000      0.4773      0.0885      0.6928      0.5064      0.4863      0.2247      0.5733      0.5023
 46      0.0000      0.1832      0.0385      0.0743      0.0000      0.0223      0.1266      0.0000      0.0295
 47      0.0000      0.0777      0.0000      0.0000      0.0000      0.0000      0.0000      0.0185      0.2752
 48      0.0000      0.0508      0.1596      0.0000      0.0000      0.0061      0.0622      0.0738      0.0000
 49      0.0000      0.0365      0.1345      0.0000      0.0000      0.0000      0.0000      0.0000      0.1597
 50      0.0000      0.2942      0.0000      0.3116      0.2854      0.1021      0.3144      0.2750      0.0632
 51      7.4546      5.9275      5.9607      6.0252      5.9593      5.9399      6.0332      5.9977      5.7914
 52      0.7442      1.0203      1.0016      1.1688      1.0694      1.1256      0.8655      1.1166      1.2073
 53      2.0507      3.1685      3.2067      3.1241      2.9622      3.3475      3.1381      2.8964      3.2619
 54      1.2071      6.3325      6.0106      5.4748      5.6983      6.0612      6.1728      6.1079      6.3677
 55      0.0000      0.0310      0.1666      0.0331      0.0000      0.0081      0.0032      0.0045      0.0000
 56      0.0000      0.0650      0.0544      0.1892      0.0000      0.0000      0.0136      0.1667      0.0000
 57      0.0000      0.2659      0.0805      0.0000      0.1876      0.0000      0.0224      0.2257      0.0445
 58      0.0000      0.0664      0.0053      0.1243      0.1281      0.1428      0.0000      0.0000      0.0000
 59      0.2500      0.2728      0.5669      0.2588      0.3212      0.1591      0.3388      0.1392      0.3785
 60      8.4309      3.8861      4.3568      4.6188      3.6197      4.3445      4.1192      3.9603      4.4628
 61      5.8870      2.6026      3.2821      1.9412      2.8668      2.8651      2.8145      2.8370      3.2046
 62      0.0000      0.1151      0.0000      0.1211      0.0000      0.0000      0.1177      0.0000      0.0144
 63      0.0000      0.0348      0.0000      0.0222      0.0000      0.0000      0.0000      0.0000      0.0000
 64      0.7442      1.9319      1.8430      1.8582      2.1020      1.7309      1.9091      1.9418      1.9028
 65      3.1736      4.3855      4.4501      4.4009      4.4262      4.4229      4.4737      4.2999      4.2629
 66      0.0000      0.0066      0.0000      0.0000      0.0000      0.0000      0.0000      0.0000      0.0545

# j      m_j: min, <> & last-chain-values for 1 ...  7 chains
  1  1.2058E-02  4.2663E-03  4.3932E-03  4.6142E-03  4.6928E-03  4.7593E-03  4.5803E-03  5.4927E-03  3.9939E-03
  2  2.5174E-03  1.5761E-03  1.5525E-03  1.5423E-03  1.7388E-03  1.6228E-03  1.7116E-03  1.7736E-03  2.0047E-03
  3  0.0000E+00  2.3076E-04  0.0000E+00  0.0000E+00  1.1329E-04  0.0000E+00  0.0000E+00  2.6133E-04  4.4292E-05
  4  0.0000E+00  8.9600E-05  1.7063E-04  0.0000E+00  0.0000E+00  0.0000E+00  8.3374E-05  3.0523E-04  0.0000E+00
  5  6.8270E-04  1.8772E-03  2.1453E-03  1.4257E-03  2.1493E-03  1.5969E-03  2.6549E-03  2.7630E-03  1.2063E-03
  6  1.2258E-02  1.1844E-02  1.0159E-02  9.4883E-03  1.3191E-02  1.0873E-02  1.4104E-02  1.2132E-02  1.1513E-02
  7  6.2481E-03  7.0412E-03  8.9901E-03  1.0003E-02  5.6786E-03  7.3558E-03  8.8399E-03  9.8491E-03  7.8637E-03
  8  3.5467E-02  3.4091E-02  3.5285E-02  3.7177E-02  3.6073E-02  3.3065E-02  3.7370E-02  3.3800E-02  3.6155E-02
  9  4.0066E-02  3.6246E-02  3.7587E-02  3.6036E-02  3.4306E-02  3.8466E-02  3.4024E-02  3.7889E-02  3.5877E-02
 10  0.0000E+00  2.9562E-03  1.2642E-03  1.0056E-03  6.6367E-03  5.4406E-03  0.0000E+00  5.2063E-03  5.6389E-03
 11  0.0000E+00  3.2617E-03  0.0000E+00  0.0000E+00  0.0000E+00  0.0000E+00  0.0000E+00  0.0000E+00  1.1620E-03
 12  1.2674E-05  4.3270E-03  2.5557E-02  8.9075E-03  0.0000E+00  1.2631E-02  0.0000E+00  3.6054E-03  2.4123E-02
 13  7.3152E-02  1.5400E-01  1.3196E-01  1.9406E-01  2.2414E-01  1.4693E-01  2.4461E-01  1.0462E-01  2.3099E-02
 14  0.0000E+00  6.1633E-02  6.7891E-02  3.1506E-01  0.0000E+00  0.0000E+00  9.5176E-02  8.4733E-02  2.1039E-01
 15  2.0721E-05  1.0444E+00  6.3518E-01  1.1523E+00  1.1906E+00  1.0604E+00  9.0330E-01  1.1153E+00  9.7721E-01
 16  1.5200E+01  1.6487E+01  1.6759E+01  1.6386E+01  1.6639E+01  1.7016E+01  1.6162E+01  1.6035E+01  1.6775E+01
 17  1.6210E+01  1.7571E+01  1.8007E+01  1.7209E+01  1.6919E+01  1.7269E+01  1.7712E+01  1.7413E+01  1.7831E+01
 18  1.3652E-02  6.3424E-03  6.9826E-03  6.4599E-03  7.2200E-03  6.2827E-03  8.2608E-03  6.4051E-03  6.4855E-03
 19  5.9135E-03  3.9638E-03  4.0043E-03  3.9742E-03  4.0063E-03  4.3132E-03  3.8894E-03  3.6154E-03  4.3593E-03
 20  0.0000E+00  5.5357E-04  4.3693E-04  5.6172E-04  5.1866E-05  5.0323E-04  5.8262E-04  9.5968E-04  5.0708E-04
 21  0.0000E+00  6.3025E-04  0.0000E+00  4.2117E-04  1.9298E-03  8.6568E-04  2.6799E-04  4.8804E-04  1.7075E-04
 22  8.0248E-03  9.1247E-03  8.5345E-03  8.3963E-03  8.6729E-03  8.8847E-03  1.0065E-02  7.4946E-03  7.1751E-03
 23  9.3224E-03  1.0091E-02  6.0530E-03  1.1149E-02  1.0211E-02  9.3307E-03  1.0827E-02  9.3513E-03  1.0341E-02
 24  4.5871E-03  7.0851E-03  1.0012E-02  7.5403E-03  6.8155E-03  6.9266E-03  9.6324E-03  6.8896E-03  7.0491E-03
 25  1.8068E-02  2.4850E-02  2.5714E-02  2.2240E-02  2.4330E-02  2.3101E-02  2.3019E-02  2.3560E-02  2.4568E-02
 26  0.0000E+00  7.4894E-03  5.4567E-03  4.7405E-04  1.2687E-04  9.0287E-03  5.4969E-03  6.7063E-03  0.0000E+00
 27  0.0000E+00  3.4372E-03  2.7510E-03  2.3802E-03  1.1285E-02  0.0000E+00  0.0000E+00  0.0000E+00  1.8768E-03
 28  3.8601E-01  4.3093E-01  4.3334E-01  4.1064E-01  5.1094E-01  4.0255E-01  4.2696E-01  5.5050E-01  3.9455E-01
 29  0.0000E+00  1.0039E-02  0.0000E+00  0.0000E+00  0.0000E+00  0.0000E+00  0.0000E+00  0.0000E+00  0.0000E+00
 30  0.0000E+00  2.2409E-02  0.0000E+00  0.0000E+00  0.0000E+00  9.6462E-03  0.0000E+00  0.0000E+00  0.0000E+00
 31  0.0000E+00  4.5389E-02  1.8094E-01  0.0000E+00  0.0000E+00  0.0000E+00  0.0000E+00  0.0000E+00  0.0000E+00
 32  0.0000E+00  3.3621E-02  1.3422E-01  0.0000E+00  0.0000E+00  0.0000E+00  0.0000E+00  0.0000E+00  0.0000E+00
 33  1.9258E+01  1.3563E+01  1.3985E+01  1.3941E+01  1.3395E+01  1.4149E+01  1.3369E+01  1.4170E+01  1.3763E+01
 34  2.6654E+01  2.1499E+01  2.1065E+01  2.1677E+01  2.1670E+01  2.2118E+01  2.1724E+01  2.1812E+01  2.1599E+01
 35  9.6224E-03  3.3237E-03  4.2228E-03  4.0934E-03  3.5725E-03  3.9740E-03  2.2528E-03  2.9960E-03  4.5890E-03
 36  3.8797E-03  2.5435E-03  2.4560E-03  2.3422E-03  2.7697E-03  2.4474E-03  2.3481E-03  2.7604E-03  2.4921E-03
 37  4.9347E-05  1.0942E-03  1.1157E-03  1.4010E-03  1.4416E-03  9.6717E-04  7.8489E-04  1.0185E-03  1.4003E-03
 38  6.4221E-02  3.3769E-02  3.7389E-02  3.6643E-02  3.8387E-02  3.6402E-02  3.4644E-02  3.4724E-02  3.3516E-02
 39  3.7321E-03  3.9850E-03  6.0432E-03  5.0735E-03  1.1747E-03  3.5964E-03  3.9075E-03  4.1477E-03  6.6969E-03
 40  1.1375E-04  1.8842E-02  2.1721E-02  1.9985E-02  1.7125E-02  1.7898E-02  1.8541E-02  2.2763E-02  2.0192E-02
 41  0.0000E+00  1.0808E-03  0.0000E+00  0.0000E+00  0.0000E+00  1.9495E-03  0.0000E+00  0.0000E+00  0.0000E+00
 42  0.0000E+00  2.5402E-03  2.1237E-03  2.1952E-03  0.0000E+00  8.3436E-03  1.7659E-03  0.0000E+00  0.0000E+00
 43  0.0000E+00  3.7926E-03  0.0000E+00  0.0000E+00  9.1843E-03  7.3774E-03  7.5206E-03  0.0000E+00  0.0000E+00
 44  2.9406E-01  1.7688E-01  1.6687E-01  1.7973E-01  1.5645E-01  1.7993E-01  1.6340E-01  1.9037E-01  1.8327E-01
 45  0.0000E+00  7.6556E-02  1.4403E-02  1.1104E-01  8.1698E-02  7.8344E-02  3.6077E-02  9.3002E-02  8.1294E-02
 46  0.0000E+00  5.4006E-02  1.1534E-02  2.1903E-02  0.0000E+00  6.6020E-03  3.7351E-02  0.0000E+00  8.7680E-03
 47  0.0000E+00  4.6433E-02  0.0000E+00  0.0000E+00  0.0000E+00  0.0000E+00  0.0000E+00  1.1175E-02  1.6586E-01
 48  0.0000E+00  5.3521E-02  1.7071E-01  0.0000E+00  0.0000E+00  6.4135E-03  6.5560E-02  7.8691E-02  0.0000E+00
 49  0.0000E+00  8.7472E-02  3.2695E-01  0.0000E+00  0.0000E+00  0.0000E+00  0.0000E+00  0.0000E+00  3.8579E-01
 50  0.0000E+00  1.3047E+00  0.0000E+00  1.3811E+00  1.2733E+00  4.5491E-01  1.3953E+00  1.2337E+00  2.8280E-01
 51  2.0182E-02  1.4411E-02  1.4710E-02  1.4637E-02  1.4573E-02  1.4503E-02  1.4679E-02  1.4747E-02  1.4206E-02
 52  1.0325E-03  1.2712E-03  1.2667E-03  1.4550E-03  1.3402E-03  1.4084E-03  1.0792E-03  1.4069E-03  1.5176E-03
 53  4.2857E-03  5.9463E-03  6.1085E-03  5.8586E-03  5.5919E-03  6.3094E-03  5.8937E-03  5.4976E-03  6.1763E-03
 54  5.1688E-03  2.4351E-02  2.3461E-02  2.1037E-02  2.2041E-02  2.3409E-02  2.3755E-02  2.3755E-02  2.4706E-02
 55  0.0000E+00  1.8351E-04  1.0013E-03  1.9590E-04  0.0000E+00  4.8212E-05  1.8913E-05  2.6849E-05  0.0000E+00
 56  0.0000E+00  7.6179E-04  6.4755E-04  2.2161E-03  0.0000E+00  0.0000E+00  1.5990E-04  1.9757E-03  0.0000E+00
 57  0.0000E+00  4.1358E-03  1.2714E-03  0.0000E+00  2.9355E-03  0.0000E+00  3.4821E-04  3.5500E-03  6.9815E-04
 58  0.0000E+00  1.7476E-03  1.4045E-04  3.2675E-03  3.3897E-03  3.7738E-03  0.0000E+00  0.0000E+00  0.0000E+00
 59  1.5760E-02  1.5444E-02  3.2578E-02  1.4640E-02  1.8293E-02  9.0462E-03  1.9196E-02  7.9689E-03  2.1625E-02
 60  9.8733E-01  4.0867E-01  4.6507E-01  4.8537E-01  3.8290E-01  4.5886E-01  4.3351E-01  4.2121E-01  4.7353E-01
 61  1.5063E+00  5.9801E-01  7.6551E-01  4.4570E-01  6.6260E-01  6.6119E-01  6.4721E-01  6.5930E-01  7.4294E-01
 62  0.0000E+00  4.8210E-02  0.0000E+00  5.0677E-02  0.0000E+00  0.0000E+00  4.9358E-02  0.0000E+00  6.0770E-03
 63  0.0000E+00  2.9029E-02  0.0000E+00  1.8509E-02  0.0000E+00  0.0000E+00  0.0000E+00  0.0000E+00  0.0000E+00
 64  1.9106E+00  4.4541E+00  4.3129E+00  4.2807E+00  4.8746E+00  4.0078E+00  4.4046E+00  4.5277E+00  4.4261E+00
 65  1.7224E+01  2.1373E+01  2.2014E+01  2.1432E+01  2.1699E+01  2.1648E+01  2.1819E+01  2.1194E+01  2.0961E+01
 66  0.0000E+00  4.5419E-02  0.0000E+00  0.0000E+00  0.0000E+00  0.0000E+00  0.0000E+00  0.0000E+00  3.7835E-01

# AV, chi2 & Mass for <> & i_chain = 1 ...  7 solutions
AV       0.8136      0.7290      0.7405      0.7296      0.7335      0.7349      0.7332      0.7393      0.7370
chi2 1.0863E+00  1.2403E+00  1.2230E+00  1.2295E+00  1.2277E+00  1.2255E+00  1.2292E+00  1.2235E+00  1.2281E+00
Mass 3.6936E-10  3.6715E-10  3.6733E-10  3.6774E-10  3.6722E-10  3.6847E-10  3.6893E-10  3.6809E-10  3.6783E-10
  23.29                                  [v0_min (km/s) before EX0s...]
 201.63                                  [vd_min (km/s) before EX0s...]


## Synthetic spectrum (Best Model) ##l_obs f_obs f_syn wei
 3478    [Nl_obs]
 3741.00    0.72711   0.73737    0.000
 3742.00    0.73652   0.74187    0.000
 3743.00    0.73538   0.73513    0.000
 3744.00    0.72318   0.71905    0.000
 3745.00    0.70247   0.69639   36.173
 3746.00    0.67917   0.67037   36.504
 3747.00    0.65849   0.64480   37.614
 3748.00    0.64326   0.62410   38.925
 3749.00    0.63585   0.61288   39.662
 3750.00    0.63865   0.61453   39.517
 3751.00    0.65197   0.62966   38.750
 3752.00    0.67323   0.65546   37.949
 3753.00    0.69833   0.68632   37.412
 3754.00    0.72269   0.71573   37.060
 3755.00    0.74290   0.73849   36.940
 3756.00    0.75742   0.75224   37.311
 3757.00    0.76603   0.75791   38.055
 3758.00    0.76973   0.75868   38.537
 3759.00    0.77076   0.75821   38.503
 3760.00    0.77212   0.75880   38.400
 3761.00    0.77485   0.76061   38.620
 3762.00    0.77736   0.76206   39.170
 3763.00    0.77717   0.76093   39.578
 3764.00    0.77209   0.75539   39.174
 3765.00    0.76170   0.74468   38.470
 3766.00    0.74746   0.72930   38.954
 3767.00    0.73114   0.71107   40.867
 3768.00    0.71452   0.69300   42.658
 3769.00    0.70090   0.67877   43.090
 3770.00    0.69445   0.67186   42.561
 3771.00    0.69579   0.67451   41.996
 3772.00    0.70180   0.68688   42.038
 3773.00    0.71109   0.70707   42.543
 3774.00    0.72510   0.73192   42.725
 3775.00    0.74447   0.75828   42.439
 3776.00    0.76813   0.78394   42.319
 3777.00    0.79468   0.80773   42.475
 3778.00    0.82267   0.82915   42.377
 3779.00    0.84974   0.84784   41.984
 3780.00    0.87297   0.86319   41.831
 3781.00    0.89067   0.87440   42.048
 3782.00    0.90255   0.88056   42.291
 3783.00    0.90799   0.88100   42.502
 3784.00    0.90609   0.87553   42.984
 3785.00    0.89757   0.86481   43.726
 3786.00    0.88481   0.85032   44.322
 3787.00    0.86970   0.83407   44.519
 3788.00    0.85321   0.81785   44.439
 3789.00    0.83583   0.80249   44.498
 3790.00    0.81772   0.78747   45.116
 3791.00    0.79842   0.77121   45.947
 3792.00    0.77719   0.75181   46.091
 3793.00    0.75397   0.72807   45.686
 3794.00    0.72966   0.70042   45.810
 3795.00    0.70613   0.67134   46.843
 3796.00    0.68594   0.64513   48.282
 3797.00    0.67162   0.62701   49.364
 3798.00    0.66526   0.62157   49.558
 3799.00    0.66799   0.63105   49.417
 3800.00    0.67973   0.65428   50.001
 3801.00    0.69895   0.68694   50.929
 3802.00    0.72329   0.72302   50.683
 3803.00    0.75112   0.75688   49.215
 3804.00    0.78108   0.78489   47.914
 3805.00    0.80965   0.80618   47.798
 3806.00    0.83289   0.82204   48.991
 3807.00    0.85160   0.83465   49.776
 3808.00    0.86957   0.84551   47.914
 3809.00    0.88623   0.85453   45.161
 3810.00    0.89752   0.86033   44.578
 3811.00    0.90180   0.86129   45.775
 3812.00    0.90011   0.85677   46.262
 3813.00    0.89341   0.84767   45.889
 3814.00    0.88257   0.83597   46.507
 3815.00    0.86989   0.82362   48.293
 3816.00    0.85827   0.81175   49.822
 3817.00    0.84893   0.80062   50.387
 3818.00    0.84139   0.79031   50.451
 3819.00    0.83460   0.78135   -1.000
 3820.00    0.82753   0.77457   -1.000
 3821.00    0.81993   0.77030   -1.000
 3822.00    0.81185   0.76767   51.504
 3823.00    0.80237   0.76487   50.963
 3824.00    0.79028   0.76011   50.998
 3825.00    0.77571   0.75257   51.838
 3826.00    0.75982   0.74243   53.077
 3827.00    0.74349   0.73012   54.138
 3828.00    0.72676   0.71555   54.607
 3829.00    0.70827   0.69794   54.775
 3830.00    0.68663   0.67640   55.310
 3831.00    0.66294   0.65091   56.438
 3832.00    0.64038   0.62310   57.856
 3833.00    0.62241   0.59629   58.830
 3834.00    0.61141   0.57468   58.775
 3835.00    0.60686   0.56210   58.325
 3836.00    0.60663   0.56079   58.613
 3837.00    0.60979   0.57101   59.904
 3838.00    0.61692   0.59130   61.587
 3839.00    0.62987   0.61923   62.426
 3840.00    0.65053   0.65201   61.447
 3841.00    0.67887   0.68684   59.403
 3842.00    0.71261   0.72105   57.723
 3843.00    0.74726   0.75231   56.955
 3844.00    0.77813   0.77889   57.007
 3845.00    0.80336   0.79992   57.520
 3846.00    0.82316   0.81539   57.967
 3847.00    0.83792   0.82604    0.000
 3848.00    0.84826   0.83306    0.000
 3849.00    0.85541   0.83778    0.000
 3850.00    0.86092   0.84132    0.000
 3851.00    0.86604   0.84421    0.000
 3852.00    0.87120   0.84622    0.000
 3853.00    0.87550   0.84666    0.000
 3854.00    0.87732   0.84494    0.000
 3855.00    0.87537   0.84104    0.000
 3856.00    0.86973   0.83569    0.000
 3857.00    0.86294   0.83024    0.000
 3858.00    0.85836   0.82629    0.000
 3859.00    0.85788   0.82528    0.000
 3860.00    0.86193   0.82792    0.000
 3861.00    0.86991   0.83385    0.000
 3862.00    0.88044   0.84161    0.000
 3863.00    0.89168   0.84917    0.000
 3864.00    0.90242   0.85479    0.000
 3865.00    0.91335   0.85753    0.000
 3866.00    0.92506   0.85729    0.000
 3867.00    0.93564   0.85442    0.000
 3868.00    0.94161   0.84932    0.000
 3869.00    0.93962   0.84247    0.000
 3870.00    0.92824   0.83472    0.000
 3871.00    0.90967   0.82737    0.000
 3872.00    0.88828   0.82175    0.000
 3873.00    0.86858   0.81846    0.000
 3874.00    0.85357   0.81687    0.000
 3875.00    0.84320   0.81535    0.000
 3876.00    0.83536   0.81226    0.000
 3877.00    0.82724   0.80678    0.000
 3878.00    0.81689   0.79912    0.000
 3879.00    0.80457   0.78992    0.000
 3880.00    0.79099   0.77953    0.000
 3881.00    0.77548   0.76755   65.061
 3882.00    0.75756   0.75284   66.594
 3883.00    0.73872   0.73417   67.404
 3884.00    0.72196   0.71092   66.626
 3885.00    0.71117   0.68394   66.026
 3886.00    0.70973   0.65602   -1.000
 3887.00    0.71904   0.63165   -1.000
 3888.00    0.73634   0.61587   -1.000
 3889.00    0.75336   0.61252   -1.000
 3890.00    0.76222   0.62273   -1.000
 3891.00    0.76083   0.64447   -1.000
 3892.00    0.75223   0.67337   -1.000
 3893.00    0.74306   0.70445   68.581
 3894.00    0.73957   0.73374   68.817
 3895.00    0.74433   0.75905   67.775
 3896.00    0.75647   0.77985   67.036
 3897.00    0.77252   0.79663   66.903
 3898.00    0.78879   0.81030   67.129
 3899.00    0.80338   0.82163   67.540
 3900.00    0.81552   0.83110   67.930
 3901.00    0.82505   0.83880   67.996
 3902.00    0.83223   0.84473   67.728
 3903.00    0.83779   0.84915   67.621
 3904.00    0.84292   0.85292   67.932
 3905.00    0.84923   0.85739   68.206
 3906.00    0.85800   0.86387   68.205
 3907.00    0.86944   0.87293   68.507
 3908.00    0.88225   0.88402   69.261
 3909.00    0.89349   0.89567   69.407
 3910.00    0.90034   0.90605   68.512
 3911.00    0.90158   0.91366   67.902
 3912.00    0.89806   0.91770   68.626
 3913.00    0.89274   0.91809   70.281
 3914.00    0.88819   0.91515   71.640
 3915.00    0.88504   0.90936   71.326
 3916.00    0.88270   0.90120   69.481
 3917.00    0.88011   0.89123   68.142
 3918.00    0.87635   0.88024   68.391
 3919.00    0.87121   0.86935   69.264
 3920.00    0.86547   0.85966   69.544
 3921.00    0.86079   0.85180   69.011
 3922.00    0.85744   0.84547   68.269
 3923.00    0.85321   0.83939   68.284
 3924.00    0.84521   0.83172   69.236
 3925.00    0.83118   0.82072   70.091
 3926.00    0.81003   0.80537   70.375
 3927.00    0.78191   0.78551   71.110
 3928.00    0.74743   0.76182   72.819
 3929.00    0.70727   0.73558   74.496
 3930.00    0.66302   0.70861   75.535
 3931.00    0.61779   0.68329   -1.000
 3932.00    0.57724   0.66258   -1.000
 3933.00    0.54943   0.64951   -1.000
 3934.00    0.54099   0.64651   -1.000
 3935.00    0.55470   0.65448   -1.000
 3936.00    0.58793   0.67234   -1.000
 3937.00    0.63270   0.69723   -1.000
 3938.00    0.68034   0.72525   76.198
 3939.00    0.72411   0.75259   75.396
 3940.00    0.76004   0.77646   75.321
 3941.00    0.78704   0.79567   75.331
 3942.00    0.80558   0.81053   75.181
 3943.00    0.81706   0.82239   75.125
 3944.00    0.82375   0.83286   75.410
 3945.00    0.82842   0.84305   76.050
 3946.00    0.83275   0.85316   76.891
 3947.00    0.83694   0.86275   77.635
 3948.00    0.84134   0.87120   77.790
 3949.00    0.84686   0.87811   76.902
 3950.00    0.85336   0.88325   75.461
 3951.00    0.85917   0.88650   74.711
 3952.00    0.86275   0.88783   74.796
 3953.00    0.86332   0.88726   74.546
 3954.00    0.86059   0.88470   73.562
 3955.00    0.85457   0.87999   72.736
 3956.00    0.84536   0.87279   72.689
 3957.00    0.83305   0.86254   73.288
 3958.00    0.81751   0.84847   73.953
 3959.00    0.79837   0.82975   74.069
 3960.00    0.77469   0.80578    0.000
 3961.00    0.74532   0.77660    0.000
 3962.00    0.71047   0.74274    0.000
 3963.00    0.67204   0.70494    0.000
 3964.00    0.63227   0.66406    0.000
 3965.00    0.59374   0.62134    0.000
 3966.00    0.56111   0.57896    0.000
 3967.00    0.54073   0.54043    0.000
 3968.00    0.53666   0.51028    0.000
 3969.00    0.54889   0.49310    0.000
 3970.00    0.57229   0.49213    0.000
 3971.00    0.59816   0.50815    0.000
 3972.00    0.62046   0.53910    0.000
 3973.00    0.63796   0.58086    0.000
 3974.00    0.65416   0.62846    0.000
 3975.00    0.67516   0.67726    0.000
 3976.00    0.70333   0.72372    0.000
 3977.00    0.73616   0.76547    0.000
 3978.00    0.76957   0.80117    0.000
 3979.00    0.79965   0.83034    0.000
 3980.00    0.82433   0.85318    0.000
 3981.00    0.84360   0.87057   77.146
 3982.00    0.85822   0.88394   76.789
 3983.00    0.86942   0.89499   76.492
 3984.00    0.87902   0.90518   76.236
 3985.00    0.88895   0.91522   75.622
 3986.00    0.89967   0.92517   74.430
 3987.00    0.91037   0.93475   72.885
 3988.00    0.92093   0.94355   71.868
 3989.00    0.93173   0.95123   72.313
 3990.00    0.94167   0.95757   73.675
 3991.00    0.94854   0.96236   74.240
 3992.00    0.95155   0.96532   73.678
 3993.00    0.95147   0.96617   73.188
 3994.00    0.94921   0.96512   73.547
 3995.00    0.94579   0.96315   74.725
 3996.00    0.94330   0.96161   76.026
 3997.00    0.94436   0.96184   76.430
 3998.00    0.95000   0.96466   75.679
 3999.00    0.95923   0.96974   74.405
 4000.00    0.96903   0.97545   73.481
 4001.00    0.97565   0.97957   73.498
 4002.00    0.97734   0.98053   74.045
 4003.00    0.97471   0.97800   74.214
 4004.00    0.96963   0.97292   74.249
 4005.00    0.96463   0.96735   75.086
 4006.00    0.96214   0.96359   76.324
 4007.00    0.96372   0.96321   76.641
 4008.00    0.96888   0.96647   76.144
 4009.00    0.97571   0.97258   75.985
 4010.00    0.98268   0.98023   76.248
 4011.00    0.98915   0.98818   76.247
 4012.00    0.99532   0.99553   76.113
 4013.00    1.00170   1.00172   76.407
 4014.00    1.00810   1.00665   76.653
 4015.00    1.01380   1.01051   75.877
 4016.00    1.01844   1.01341   74.404
 4017.00    1.02209   1.01535   73.345
 4018.00    1.02502   1.01618   73.111
 4019.00    1.02717   1.01550   73.386
 4020.00    1.02727   1.01261   73.402
 4021.00    1.02400   1.00710   72.627
 4022.00    1.01846   0.99935   71.892
 4023.00    1.01314   0.99067   71.700
 4024.00    1.00934   0.98286   69.249
 4025.00    1.00708   0.97735   63.180
 4026.00    1.00604   0.97445   59.248
 4027.00    1.00517   0.97323   62.342
 4028.00    1.00190   0.97209   70.279
 4029.00    0.99409   0.96961   74.488
 4030.00    0.98354   0.96549   74.183
 4031.00    0.97446   0.96104   75.981
 4032.00    0.96979   0.95860   78.247
 4033.00    0.97104   0.96049   76.118
 4034.00    0.97902   0.96783   75.984
 4035.00    0.99304   0.97993   83.620
 4036.00    1.00952   0.99450   80.178
 4037.00    1.02376   1.00853   61.674
 4038.00    1.03302   1.01929   67.200
 4039.00    1.03622   1.02493  206.956
 4040.00    1.03275   1.02442  113.911
 4041.00    1.02276   1.01768   20.773
 4042.00    1.00792   1.00593   10.489
 4043.00    0.99114   0.99180    9.093
 4044.00    0.97597   0.97861   10.083
 4045.00    0.96592   0.96945   10.782
 4046.00    0.96358   0.96656   10.437
 4047.00    0.96939   0.97051   10.157
 4048.00    0.98030   0.97970   10.177
 4049.00    0.99165   0.99097   10.176
 4050.00    1.00000   1.00095   10.019
 4051.00    1.00358   1.00714    9.836
 4052.00    1.00225   1.00863    9.941
 4053.00    0.99717   1.00602   10.364
 4054.00    0.99028   1.00073   10.190
 4055.00    0.98375   0.99466    9.311
 4056.00    0.97932   0.98953    9.959
 4057.00    0.97761   0.98614   16.701
 4058.00    0.97743   0.98410   64.936
 4059.00    0.97700   0.98205  206.956
 4060.00    0.97556   0.97869   80.595
 4061.00    0.97297   0.97378   61.255
 4062.00    0.96904   0.96804   79.246
 4063.00    0.96461   0.96252   91.008
 4064.00    0.96254   0.95871   79.835
 4065.00    0.96575   0.95785   73.778
 4066.00    0.97463   0.95990   79.303
 4067.00    0.98690   0.96334   90.451
 4068.00    0.99791   0.96631   80.506
 4069.00    1.00324   0.96783   61.581
 4070.00    1.00150   0.96783   77.080
 4071.00    0.99382   0.96631   -1.000
 4072.00    0.98297   0.96327   83.073
 4073.00    0.97185   0.95876   18.116
 4074.00    0.96218   0.95301   10.400
 4075.00    0.95472   0.94697    9.820
 4076.00    0.94961   0.94229   10.531
 4077.00    0.94711   0.94075    9.921
 4078.00    0.94811   0.94353   10.596
 4079.00    0.95259   0.95032   18.570
 4080.00    0.95828   0.95945   84.082
 4081.00    0.96297   0.96863  206.956
 4082.00    0.96653   0.97597   77.136
 4083.00    0.96927   0.98081   61.885
 4084.00    0.97026   0.98380   78.502
 4085.00    0.96937   0.98610   86.473
 4086.00    0.96874   0.98855   79.291
 4087.00    0.96970   0.99124   77.956
 4088.00    0.97016   0.99333   80.976
 4089.00    0.96752   0.99346   81.406
 4090.00    0.96127   0.99055   -1.000
 4091.00    0.95143   0.98373   -1.000
 4092.00    0.93724   0.97212    0.000
 4093.00    0.91858   0.95545    0.000
 4094.00    0.89698   0.93402    0.000
 4095.00    0.87447   0.90817    0.000
 4096.00    0.85281   0.87825    0.000
 4097.00    0.83562   0.84472    0.000
 4098.00    0.82946   0.80904    0.000
 4099.00    0.83913   0.77465    0.000
 4100.00    0.86387   0.74619    0.000
 4101.00    0.89639   0.72789    0.000
 4102.00    0.92344   0.72285    0.000
 4103.00    0.93403   0.73203    0.000
 4104.00    0.92544   0.75339    0.000
 4105.00    0.90286   0.78271    0.000
 4106.00    0.87786   0.81482    0.000
 4107.00    0.86072   0.84521    0.000
 4108.00    0.85528   0.87124    0.000
 4109.00    0.86044   0.89232    0.000
 4110.00    0.87197   0.90941    0.000
 4111.00    0.88609   0.92390    0.000
 4112.00    0.90152   0.93682    0.000
 4113.00    0.91729   0.94860   -1.000
 4114.00    0.93148   0.95873   -1.000
 4115.00    0.94235   0.96602   83.663
 4116.00    0.94924   0.96986   83.543
 4117.00    0.95252   0.97071   83.699
 4118.00    0.95347   0.96949   84.583
 4119.00    0.95345   0.96764   85.951
 4120.00    0.95348   0.96676   86.318
 4121.00    0.95477   0.96804   85.286
 4122.00    0.95867   0.97167   84.537
 4123.00    0.96471   0.97664   85.002
 4124.00    0.96999   0.98132   85.721
 4125.00    0.97238   0.98427   85.857
 4126.00    0.97198   0.98469   85.765
 4127.00    0.96929   0.98230   85.878
 4128.00    0.96433   0.97730   86.135
 4129.00    0.95782   0.97053   86.483
 4130.00    0.95163   0.96362   87.075
 4131.00    0.94788   0.95844   87.716
 4132.00    0.94830   0.95667   87.717
 4133.00    0.95347   0.95927   86.823
 4134.00    0.96262   0.96593   85.588
 4135.00    0.97450   0.97568   84.709
 4136.00    0.98771   0.98677   84.622
 4137.00    0.99994   0.99674   85.108
 4138.00    1.00809   1.00298   85.325
 4139.00    1.01005   1.00318   85.059
 4140.00    1.00565   0.99651   85.034
 4141.00    0.99625   0.98488   85.373
 4142.00    0.98447   0.97215   85.260
 4143.00    0.97370   0.96186   84.738
 4144.00    0.96737   0.95639   84.982
 4145.00    0.96696   0.95656   85.909
 4146.00    0.97127   0.96120   85.739
 4147.00    0.97761   0.96809   84.157
 4148.00    0.98281   0.97497   82.987
 4149.00    0.98534   0.98001   83.175
 4150.00    0.98570   0.98227   84.151
 4151.00    0.98444   0.98199   85.362
 4152.00    0.98155   0.98020   86.748
 4153.00    0.97767   0.97815   87.993
 4154.00    0.97436   0.97707   88.411
 4155.00    0.97320   0.97800   87.997
 4156.00    0.97532   0.98139   87.542
 4157.00    0.98082   0.98695   87.349
 4158.00    0.98876   0.99392   87.036
 4159.00    0.99779   1.00155   86.550
 4160.00    1.00647   1.00895   86.303
 4161.00    1.01346   1.01501   86.325
 4162.00    1.01768   1.01897   86.230
 4163.00    1.01865   1.02052   86.178
 4164.00    1.01662   1.01953   86.859
 4165.00    1.01248   1.01637   88.238
 4166.00    1.00741   1.01188   89.362
 4167.00    1.00181   1.00649   89.496
 4168.00    0.99523   0.99989   88.680
 4169.00    0.98738   0.99158   87.723
 4170.00    0.97845   0.98183   87.720
 4171.00    0.96888   0.97188   88.899
 4172.00    0.95939   0.96316   90.494
 4173.00    0.95161   0.95665   91.427
 4174.00    0.94759   0.95288   90.978
 4175.00    0.94790   0.95198   89.988
 4176.00    0.95134   0.95392   90.163
 4177.00    0.95606   0.95824   91.403
 4178.00    0.96038   0.96377   91.962
 4179.00    0.96434   0.96929   91.448
 4180.00    0.96913   0.97429   91.048
 4181.00    0.97438   0.97867   91.170
 4182.00    0.97830   0.98237   91.215
 4183.00    0.98036   0.98499   90.795
 4184.00    0.98147   0.98594   90.076
 4185.00    0.98222   0.98554   89.672
 4186.00    0.98272   0.98498   90.170
 4187.00    0.98348   0.98505   91.022
 4188.00    0.98545   0.98604   90.944
 4189.00    0.98941   0.98835   89.963
 4190.00    0.99549   0.99228   89.283
 4191.00    1.00213   0.99687   89.521
 4192.00    1.00668   1.00006   90.421
 4193.00    1.00723   1.00018   91.024
 4194.00    1.00309   0.99659   90.403
 4195.00    0.99458   0.98923   89.424
 4196.00    0.98303   0.97896   89.843
 4197.00    0.97068   0.96791   91.596
 4198.00    0.96024   0.95813   93.111
 4199.00    0.95394   0.95087   93.677
 4200.00    0.95290   0.94725   93.652
 4201.00    0.95641   0.94796   93.154
 4202.00    0.96267   0.95259   92.165
 4203.00    0.97077   0.96035   91.456
 4204.00    0.98043   0.97041   91.939
 4205.00    0.99065   0.98167   93.055
 4206.00    0.99996   0.99275   93.318
 4207.00    1.00762   1.00230   92.462
 4208.00    1.01354   1.00973   91.372
 4209.00    1.01768   1.01500   90.779
 4210.00    1.01982   1.01784   90.895
 4211.00    1.01940   1.01792   91.206
 4212.00    1.01615   1.01523   91.093
 4213.00    1.01131   1.01065   91.137
 4214.00    1.00712   1.00644   92.325
 4215.00    1.00527   1.00466   94.063
 4216.00    1.00690   1.00581   94.738
 4217.00    1.01283   1.00948   93.954
 4218.00    1.02252   1.01446   92.523
 4219.00    1.03190   1.01840   91.297
 4220.00    1.03531   1.01836   90.795
 4221.00    1.02952   1.01222   91.055
 4222.00    1.01427   0.99913   91.797
 4223.00    0.99204   0.97976   92.702
 4224.00    0.96735   0.95719   93.639
 4225.00    0.94579   0.93718   94.973
 4226.00    0.93282   0.92516   96.893
 4227.00    0.93196   0.92312   98.080
 4228.00    0.94333   0.93020   96.922
 4229.00    0.96207   0.94371   94.216
 4230.00    0.98099   0.95932   91.903
 4231.00    0.99525   0.97320   90.801
 4232.00    1.00276   0.98324   90.904
 4233.00    1.00363   0.98828   91.977
 4234.00    0.99985   0.98879   93.465
 4235.00    0.99499   0.98709   94.245
 4236.00    0.99244   0.98547   93.637
 4237.00    0.99311   0.98553   92.926
 4238.00    0.99632   0.98838   93.554
 4239.00    1.00173   0.99410   94.536
 4240.00    1.00904   1.00161   94.179
 4241.00    1.01721   1.00995   93.193
 4242.00    1.02482   1.01828   93.005
 4243.00    1.03071   1.02467   93.044
 4244.00    1.03378   1.02717   92.260
 4245.00    1.03272   1.02535   91.474
 4246.00    1.02685   1.01993   91.936
 4247.00    1.01731   1.01171   93.273
 4248.00    1.00650   1.00199   94.379
 4249.00    0.99711   0.99321   94.958
 4250.00    0.99109   0.98687   95.216
 4251.00    0.98858   0.98254   95.127
 4252.00    0.98865   0.98008   94.673
 4253.00    0.99049   0.98017   94.227
 4254.00    0.99327   0.98275   94.198
 4255.00    0.99599   0.98622   94.585
 4256.00    0.99756   0.98853   95.075
 4257.00    0.99711   0.98893   95.242
 4258.00    0.99480   0.98798   95.057
 4259.00    0.99274   0.98758   95.355
 4260.00    0.99351   0.98991   96.545
 4261.00    0.99838   0.99545   97.193
 4262.00    1.00713   1.00334   96.042
 4263.00    1.01803   1.01231   94.423
 4264.00    1.02830   1.02024   94.021
 4265.00    1.03465   1.02455   94.689
 4266.00    1.03450   1.02384   95.498
 4267.00    1.02706   1.01737   95.924
 4268.00    1.01337   1.00473   96.002
 4269.00    0.99608   0.98745   96.283
 4270.00    0.97851   0.96951   97.149
 4271.00    0.96383   0.95450   98.173
 4272.00    0.95463   0.94397   98.795
 4273.00    0.95258   0.93963   99.081
 4274.00    0.95799   0.94274   99.232
 4275.00    0.96946   0.95210   99.060
 4276.00    0.98402   0.96496   98.379
 4277.00    0.99760   0.97808   97.405
 4278.00    1.00698   0.98879   96.661
 4279.00    1.01150   0.99606   96.792
 4280.00    1.01189   0.99976   97.901
 4281.00    1.00910   1.00029   99.023
 4282.00    1.00417   0.99808   99.293
 4283.00    0.99812   0.99330   99.074
 4284.00    0.99168   0.98699   98.951
 4285.00    0.98498   0.97997   98.840
 4286.00    0.97769   0.97182   98.642
 4287.00    0.96925   0.96215   98.776
 4288.00    0.96012   0.95266   99.540
 4289.00    0.95252   0.94606  100.590
 4290.00    0.94847   0.94354  101.193
 4291.00    0.94819   0.94422  100.601
 4292.00    0.95046   0.94620   98.945
 4293.00    0.95307   0.94819   97.558
 4294.00    0.95353   0.94864   97.345
 4295.00    0.94970   0.94551   97.903
 4296.00    0.94030   0.93745   98.576
 4297.00    0.92547   0.92418   99.242
 4298.00    0.90715   0.90800  100.230
 4299.00    0.88906   0.89215  102.100
 4300.00    0.87446   0.87836  104.606
 4301.00    0.86459   0.86768  106.021
 4302.00    0.85935   0.86085  105.430
 4303.00    0.85779   0.85705  104.309
 4304.00    0.85812   0.85486  104.005
 4305.00    0.85803   0.85304  104.297
 4306.00    0.85668   0.85115  104.720
 4307.00    0.85574   0.85038  105.356
 4308.00    0.85752   0.85252  106.144
 4309.00    0.86366   0.85869  106.460
 4310.00    0.87493   0.86929  105.703
 4311.00    0.89111   0.88446  103.813
 4312.00    0.91136   0.90409  101.643
 4313.00    0.93442   0.92830  100.674
 4314.00    0.95885   0.95631  101.124
 4315.00    0.98315   0.98462  101.360
 4316.00    1.00524   1.00963  100.464
 4317.00    1.02240   1.02922   99.469
 4318.00    1.03223   1.04164   99.134
 4319.00    1.03320   1.04576   98.989
 4320.00    1.02488   1.04160   98.777
 4321.00    1.00811   1.02909   99.055
 4322.00    0.98558   1.00963  100.096
 4323.00    0.96185   0.98731  101.381
 4324.00    0.94178   0.96792  102.359
 4325.00    0.92942   0.95636  102.886
 4326.00    0.92668   0.95370  102.971
 4327.00    0.93274   0.95800  102.634
 4328.00    0.94439   0.96636   -2.000
 4329.00    0.95673   0.97676   -2.000
 4330.00    0.96590   0.98681   -2.000
 4331.00    0.97022   0.99321   -2.000
 4332.00    0.96880   0.99344   -2.000
 4333.00    0.96123   0.98577   -2.000
 4334.00    0.94925   0.96851   -2.000
 4335.00    0.93787   0.94118   -2.000
 4336.00    0.93703   0.90646   -2.000
 4337.00    0.95991   0.86781   -2.000
 4338.00    1.01260   0.82928   -2.000
 4339.00    1.08876   0.79836   -2.000
 4340.00    1.16750   0.78128   -2.000
 4341.00    1.21775   0.77874   -2.000
 4342.00    1.21995   0.78988   -2.000
 4343.00    1.17505   0.81343   -2.000
 4344.00    1.10160   0.84465    0.000
 4345.00    1.02918   0.87796    0.000
 4346.00    0.97746   0.91000    0.000
 4347.00    0.94946   0.93735    0.000
 4348.00    0.93963   0.95610    0.000
 4349.00    0.93879   0.96545    0.000
 4350.00    0.94017   0.96914    0.000
 4351.00    0.94150   0.97172   -1.000
 4352.00    0.94418   0.97523   -1.000
 4353.00    0.95158   0.98054   -1.000
 4354.00    0.96446   0.98864   78.140
 4355.00    0.98018   0.99917   -1.000
 4356.00    0.99631   1.01042   -1.000
 4357.00    1.01173   1.02149   38.818
 4358.00    1.02573   1.03253   12.910
 4359.00    1.03790   1.04312    8.421
 4360.00    1.04859   1.05263    8.233
 4361.00    1.05862   1.06106   12.053
 4362.00    1.06771   1.06886   34.143
 4363.00    1.07433   1.07567  206.956
 4364.00    1.07710   1.07975  206.956
 4365.00    1.07545   1.07994   76.432
 4366.00    1.06995   1.07679   84.970
 4367.00    1.06213   1.07164  114.497
 4368.00    1.05351   1.06527  109.630
 4369.00    1.04525   1.05849   98.652
 4370.00    1.03789   1.05173  100.278
 4371.00    1.03136   1.04459  104.005
 4372.00    1.02539   1.03717  103.516
 4373.00    1.01999   1.03098  102.901
 4374.00    1.01665   1.02788  104.359
 4375.00    1.01761   1.02835  105.925
 4376.00    1.02294   1.03094  105.863
 4377.00    1.03014   1.03334  104.063
 4378.00    1.03567   1.03382  101.480
 4379.00    1.03590   1.03100   99.419
 4380.00    1.02841   1.02239   98.795
 4381.00    1.01298   1.00662  100.023
 4382.00    0.99299   0.98702  102.812
 4383.00    0.97439   0.96967  106.070
 4384.00    0.96213   0.95843  108.116
 4385.00    0.95878   0.95354  107.572
 4386.00    0.96360   0.95447  105.367
 4387.00    0.97334   0.96099  103.734
 4388.00    0.98486   0.97190  103.222
 4389.00    0.99589   0.98550  103.043
 4390.00    1.00515   0.99971  102.927
 4391.00    1.01231   1.01202  103.123
 4392.00    1.01775   1.02119  103.426
 4393.00    1.02227   1.02855  103.402
 4394.00    1.02658   1.03631  103.461
 4395.00    1.03104   1.04463  104.231
 4396.00    1.03541   1.05146  104.632
 4397.00    1.03884   1.05498  103.097
 4398.00    1.03995   1.05479  101.212
 4399.00    1.03748   1.05263  101.678
 4400.00    1.03145   1.05018  103.477
 4401.00    1.02307   1.04545  103.462
 4402.00    1.01389   1.03641  102.300
 4403.00    1.00554   1.02614  102.947
 4404.00    0.99950   1.01927  105.079
 4405.00    0.99698   1.01644  106.088
 4406.00    0.99890   1.01667  105.690
 4407.00    1.00552   1.02047  105.368
 4408.00    1.01588   1.02850  104.934
 4409.00    1.02809   1.03985  103.537
 4410.00    1.04006   1.05228  102.575
 4411.00    1.04964   1.06227  103.894
 4412.00    1.05463   1.06652  105.968
 4413.00    1.05391   1.06555  105.765
 4414.00    1.04929   1.06271  104.320
 4415.00    1.04439   1.06011  104.586
 4416.00    1.04209   1.05915  106.127
 4417.00    1.04388   1.06117  106.472
 4418.00    1.04965   1.06556  105.164
 4419.00    1.05767   1.07079  103.559
 4420.00    1.06470   1.07574  102.908
 4421.00    1.06776   1.07980  103.734
 4422.00    1.06703   1.08259  105.316
 4423.00    1.06482   1.08355  106.378
 4424.00    1.06326   1.08252  106.560
 4425.00    1.06344   1.08051  106.211
 4426.00    1.06478   1.07912  105.510
 4427.00    1.06585   1.07849  104.645
 4428.00    1.06579   1.07718  104.265
 4429.00    1.06435   1.07522  104.835
 4430.00    1.06165   1.07331  105.657
 4431.00    1.05808   1.07069  105.857
 4432.00    1.05425   1.06670  106.099
 4433.00    1.05126   1.06229  107.372
 4434.00    1.05090   1.05995  108.893
 4435.00    1.05481   1.06190  109.218
 4436.00    1.06315   1.06750  108.481
 4437.00    1.07429   1.07440  107.597
 4438.00    1.08473   1.08045  106.674
 4439.00    1.09093   1.08431  105.597
 4440.00    1.09168   1.08559  104.964
 4441.00    1.08807   1.08485  105.383
 4442.00    1.08299   1.08373  106.523
 4443.00    1.07993   1.08425  107.517
 4444.00    1.08159   1.08662  107.680
 4445.00    1.08867   1.09013  106.903
 4446.00    1.09879   1.09516  105.908
 4447.00    1.10831   1.10104  105.502
 4448.00    1.11472   1.10537  105.766
 4449.00    1.11685   1.10678  106.206
 4450.00    1.11475   1.10478  106.045
 4451.00    1.10911   1.09887  105.111
 4452.00    1.10067   1.08936  104.670
 4453.00    1.09024   1.07738  105.831
 4454.00    1.07885   1.06535  107.861
 4455.00    1.06790   1.05537  109.239
 4456.00    1.05911   1.04721  109.272
 4457.00    1.05359   1.04043  108.238
 4458.00    1.05073   1.03582  107.057
 4459.00    1.04960   1.03385  106.403
 4460.00    1.05033   1.03483  106.014
 4461.00    1.05334   1.03908    0.000
 4462.00    1.05832   1.04523    0.000
 4463.00    1.06454   1.05146    0.000
 4464.00    1.07113   1.05709    0.000
 4465.00    1.07718   1.06164    0.000
 4466.00    1.08177   1.06469    0.000
 4467.00    1.08495   1.06603    0.000
 4468.00    1.08855   1.06593    0.000
 4469.00    1.09497   1.06598    0.000
 4470.00    1.10584   1.06886    0.000
 4471.00    1.12075   1.07618    0.000
 4472.00    1.13645   1.08701    0.000
 4473.00    1.14931   1.09916    0.000
 4474.00    1.15748   1.11152    0.000
 4475.00    1.16028   1.12313    0.000
 4476.00    1.15747   1.13189    0.000
 4477.00    1.14942   1.13504    0.000
 4478.00    1.13730   1.13143    0.000
 4479.00    1.12319   1.12331    0.000
 4480.00    1.11017   1.11521    0.000
 4481.00    1.10174   1.11065    0.000
 4482.00    1.10118   1.11010  107.793
 4483.00    1.10923   1.11270  105.935
 4484.00    1.12253   1.11782  103.259
 4485.00    1.13597   1.12411  100.968
 4486.00    1.14482   1.12905  100.201
 4487.00    1.14681   1.13073  101.240
 4488.00    1.14342   1.12914  103.048
 4489.00    1.13779   1.12609  104.314
 4490.00    1.13305   1.12302  104.441
 4491.00    1.13083   1.11979  103.551
 4492.00    1.13057   1.11602  102.292
 4493.00    1.13121   1.11307  101.440
 4494.00    1.13236   1.11264  101.586
 4495.00    1.13437   1.11499  102.531
 4496.00    1.13802   1.11947  103.020
 4497.00    1.14338   1.12522  102.419
 4498.00    1.14920   1.13168  101.752
 4499.00    1.15446   1.13893  102.094
 4500.00    1.15942   1.14771  103.559
 4501.00    1.16512   1.15859  105.306
 4502.00    1.17277   1.16997  105.698
 4503.00    1.18248   1.17947  104.196
 4504.00    1.19267   1.18622  102.270
 4505.00    1.20124   1.19063  101.055
 4506.00    1.20655   1.19357  100.340
 4507.00    1.20835   1.19502   99.922
 4508.00    1.20802   1.19418  100.221
 4509.00    1.20657   1.19111  101.348
 4510.00    1.20361   1.18620  102.638
 4511.00    1.19896   1.18008  103.468
 4512.00    1.19333   1.17360  103.760
 4513.00    1.18750   1.16743  103.637
 4514.00    1.18187   1.16211  103.205
 4515.00    1.17703   1.15734  102.767
 4516.00    1.17389   1.15306  102.781
 4517.00    1.17273   1.15051  103.012
 4518.00    1.17279   1.15007  102.442
 4519.00    1.17301   1.15045  101.230
 4520.00    1.17244   1.14932  101.102
 4521.00    1.16994   1.14504  102.465
 4522.00    1.16425   1.13871  103.558
 4523.00    1.15504   1.13097  103.644
 4524.00    1.14318   1.12067  104.234
 4525.00    1.12995   1.10799  105.762
 4526.00    1.11661   1.09431  106.462
 4527.00    1.10489   1.08218  105.742
 4528.00    1.09681   1.07345  105.325
 4529.00    1.09317   1.06788  105.955
 4530.00    1.09301   1.06559  106.458
 4531.00    1.09497   1.06593  106.356
 4532.00    1.09802   1.06758   -1.000
 4533.00    1.10221   1.07102   -1.000
 4534.00    1.10869   1.07771   -1.000
 4535.00    1.11824   1.08810   -1.000
 4536.00    1.13064   1.10008   -1.000
 4537.00    1.14433   1.11028   -1.000
 4538.00    1.15668   1.11810   -1.000
 4539.00    1.16577   1.12459   -1.000
 4540.00    1.17100   1.13045   -1.000
 4541.00    1.17282   1.13474   -1.000
 4542.00    1.17234   1.13523   -1.000
 4543.00    1.17046   1.13251   -1.000
 4544.00    1.16755   1.12954   -1.000
 4545.00    1.16351   1.12761   -1.000
 4546.00    1.15792   1.12547  104.015
 4547.00    1.15079   1.12125  105.235
 4548.00    1.14274   1.11598  106.592
 4549.00    1.13498   1.11267  107.636
 4550.00    1.12889   1.11113    0.000
 4551.00    1.12464   1.10928    0.000
 4552.00    1.12135   1.10744    0.000
 4553.00    1.11952   1.10755    0.000
 4554.00    1.12109   1.11161    0.000
 4555.00    1.12677   1.11938    0.000
 4556.00    1.13560   1.12858    0.000
 4557.00    1.14641   1.13811    0.000
 4558.00    1.15807   1.14752    0.000
 4559.00    1.16846   1.15620    0.000
 4560.00    1.17479   1.16307    0.000
 4561.00    1.17593   1.16610    0.000
 4562.00    1.17285   1.16471    0.000
 4563.00    1.16776   1.16143    0.000
 4564.00    1.16341   1.15903    0.000
 4565.00    1.16171   1.15872    0.000
 4566.00    1.16329   1.15990    0.000
 4567.00    1.16739   1.16155    0.000
 4568.00    1.17220   1.16356    0.000
 4569.00    1.17604   1.16506    0.000
 4570.00    1.17791   1.16587    0.000
 4571.00    1.17845   1.16749    0.000
 4572.00    1.17922   1.16939    0.000
 4573.00    1.18026   1.16986    0.000
 4574.00    1.18034   1.16909    0.000
 4575.00    1.17941   1.16817    0.000
 4576.00    1.17808   1.16712    0.000
 4577.00    1.17444   1.16386    0.000
 4578.00    1.16549   1.15701    0.000
 4579.00    1.15266   1.14886    0.000
 4580.00    1.14147   1.14207    0.000
 4581.00    1.13685   1.13682    0.000
 4582.00    1.14017   1.13276    0.000
 4583.00    1.14536   1.13076    0.000
 4584.00    1.14382   1.13163    0.000
 4585.00    1.13798   1.13531    0.000
 4586.00    1.13753   1.14084    0.000
 4587.00    1.14303   1.14653    0.000
 4588.00    1.14778   1.15099    0.000
 4589.00    1.15053   1.15327    0.000
 4590.00    1.15473   1.15339    0.000
 4591.00    1.16035   1.15235    0.000
 4592.00    1.16377   1.15051    0.000
 4593.00    1.16156   1.14764    0.000
 4594.00    1.15327   1.14452    0.000
 4595.00    1.14523   1.14259    0.000
 4596.00    1.14578   1.14248    0.000
 4597.00    1.15397   1.14365    0.000
 4598.00    1.16210   1.14464    0.000
 4599.00    1.16545   1.14498    0.000
 4600.00    1.16381   1.14598    0.000
 4601.00    1.16037   1.14806    0.000
 4602.00    1.15915   1.15068    0.000
 4603.00    1.16077   1.15354    0.000
 4604.00    1.16414   1.15717    0.000
 4605.00    1.17099   1.16291    0.000
 4606.00    1.18310   1.17078    0.000
 4607.00    1.19589   1.17935    0.000
 4608.00    1.20267   1.18687    0.000
 4609.00    1.20417   1.19236    0.000
 4610.00    1.20562   1.19616    0.000
 4611.00    1.20881   1.19852    0.000
 4612.00    1.21238   1.19929    0.000
 4613.00    1.21484   1.19883    0.000
 4614.00    1.21546   1.19745    0.000
 4615.00    1.21508   1.19602    0.000
 4616.00    1.21500   1.19534    0.000
 4617.00    1.21522   1.19482    0.000
 4618.00    1.21465   1.19468    0.000
 4619.00    1.21207   1.19573    0.000
 4620.00    1.20747   1.19754    0.000
 4621.00    1.20378   1.19918    0.000
 4622.00    1.20457   1.20034    0.000
 4623.00    1.21004   1.20111    0.000
 4624.00    1.21754   1.20148    0.000
 4625.00    1.22318   1.20117    0.000
 4626.00    1.22443   1.19996    0.000
 4627.00    1.22322   1.19754    0.000
 4628.00    1.22272   1.19450    0.000
 4629.00    1.22219   1.19254    0.000
 4630.00    1.21963   1.19151    0.000
 4631.00    1.21626   1.18911    0.000
 4632.00    1.21396   1.18499    0.000
 4633.00    1.21123   1.18106    0.000
 4634.00    1.20572   1.17784    0.000
 4635.00    1.19821   1.17380    0.000
 4636.00    1.19123   1.16842    0.000
 4637.00    1.18655   1.16350    0.000
 4638.00    1.18516   1.16035    0.000
 4639.00    1.18737   1.15879    0.000
 4640.00    1.19148   1.15814    0.000
 4641.00    1.19251   1.15723    0.000
 4642.00    1.18665   1.15540    0.000
 4643.00    1.17658   1.15245    0.000
 4644.00    1.16713   1.14777    0.000
 4645.00    1.15963   1.14146    0.000
 4646.00    1.15383   1.13534    0.000
 4647.00    1.15071   1.13147    0.000
 4648.00    1.15144   1.13029    0.000
 4649.00    1.15584   1.13132    0.000
 4650.00    1.16261   1.13468    0.000
 4651.00    1.16970   1.14044    0.000
 4652.00    1.17487   1.14675    0.000
 4653.00    1.17644   1.15176    0.000
 4654.00    1.17580   1.15616    0.000
 4655.00    1.17928   1.16134    0.000
 4656.00    1.19051   1.16795    0.000
 4657.00    1.20310   1.17552    0.000
 4658.00    1.21044   1.18281    0.000
 4659.00    1.21539   1.18843    0.000
 4660.00    1.22074   1.19076    0.000
 4661.00    1.22003   1.18903    0.000
 4662.00    1.20855   1.18339    0.000
 4663.00    1.19345   1.17416    0.000
 4664.00    1.18210   1.16145    0.000
 4665.00    1.17118   1.14625    0.000
 4666.00    1.15663   1.13226    0.000
 4667.00    1.14275   1.12357    0.000
 4668.00    1.13537   1.12085    0.000
 4669.00    1.13531   1.12239    0.000
 4670.00    1.14127   1.12727    0.000
 4671.00    1.15265   1.13517    0.000
 4672.00    1.16734   1.14492    0.000
 4673.00    1.18014   1.15465    0.000
 4674.00    1.18723   1.16294    0.000
 4675.00    1.18963   1.16865    0.000
 4676.00    1.19025   1.17075    0.000
 4677.00    1.19110   1.16993    0.000
 4678.00    1.19277   1.16774    0.000
 4679.00    1.19428   1.16490    0.000
 4680.00    1.19420   1.16152    0.000
 4681.00    1.19174   1.15858    0.000
 4682.00    1.18891   1.15730    0.000
 4683.00    1.19125   1.15727    0.000
 4684.00    1.20060   1.15783    0.000
 4685.00    1.21082   1.15928    0.000
 4686.00    1.21532   1.16159    0.000
 4687.00    1.21264   1.16400    0.000
 4688.00    1.20456   1.16593    0.000
 4689.00    1.19442   1.16760    0.000
 4690.00    1.18666   1.16973    0.000
 4691.00    1.18579   1.17289    0.000
 4692.00    1.19148   1.17640    0.000
 4693.00    1.19670   1.17941    0.000
 4694.00    1.19733   1.18181    0.000
 4695.00    1.19734   1.18295    0.000
 4696.00    1.19944   1.18109    0.000
 4697.00    1.19985   1.17597    0.000
 4698.00    1.19456   1.17000    0.000
 4699.00    1.18342   1.16426    0.000
 4700.00    1.16975   1.15742    0.000
 4701.00    1.15905   1.14967    0.000
 4702.00    1.15397   1.14402    0.000
 4703.00    1.15199   1.14224    0.000
 4704.00    1.14984   1.14206    0.000
 4705.00    1.14646   1.14130    0.000
 4706.00    1.14398   1.14060    0.000
 4707.00    1.14700   1.14145    0.000
 4708.00    1.15522   1.14364    0.000
 4709.00    1.16128   1.14661    0.000
 4710.00    1.16132   1.15018    0.000
 4711.00    1.15950   1.15352    0.000
 4712.00    1.16008   1.15664    0.000
 4713.00    1.16355   1.16091    0.000
 4714.00    1.16962   1.16745    0.000
 4715.00    1.17833   1.17510    0.000
 4716.00    1.18761   1.18242    0.000
 4717.00    1.19318   1.18987    0.000
 4718.00    1.19492   1.19856    0.000
 4719.00    1.19831   1.20737    0.000
 4720.00    1.20586   1.21372    0.000
 4721.00    1.21388   1.21666    0.000
 4722.00    1.21710   1.21761    0.000
 4723.00    1.21189   1.21711    0.000
 4724.00    1.19986   1.21369    0.000
 4725.00    1.18753   1.20621    0.000
 4726.00    1.17744   1.19608    0.000
 4727.00    1.16636   1.18631    0.000
 4728.00    1.15504   1.17811    0.000
 4729.00    1.15004   1.17091    0.000
 4730.00    1.15271   1.16518    0.000
 4731.00    1.15676   1.16302    0.000
 4732.00    1.15886   1.16493    0.000
 4733.00    1.16135   1.16907    0.000
 4734.00    1.16464   1.17346    0.000
 4735.00    1.16589   1.17706    0.000
 4736.00    1.16598   1.18099    0.000
 4737.00    1.16993   1.18603    0.000
 4738.00    1.17695   1.19016    0.000
 4739.00    1.18003   1.19191    0.000
 4740.00    1.17931   1.19381    0.000
 4741.00    1.18307   1.19791    0.000
 4742.00    1.19195   1.20214    0.000
 4743.00    1.19721   1.20461    0.000
 4744.00    1.19591   1.20689    0.000
 4745.00    1.19368   1.21066    0.000
 4746.00    1.19417   1.21440    0.000
 4747.00    1.19639   1.21616    0.000
 4748.00    1.19887   1.21665    0.000
 4749.00    1.20094   1.21694    0.000
 4750.00    1.20177   1.21575    0.000
 4751.00    1.20030   1.21225    0.000
 4752.00    1.19632   1.20783    0.000
 4753.00    1.19086   1.20353    0.000
 4754.00    1.18639   1.19943    0.000
 4755.00    1.18530   1.19538    0.000
 4756.00    1.18528   1.19191    0.000
 4757.00    1.18072   1.18922    0.000
 4758.00    1.17147   1.18709    0.000
 4759.00    1.16283   1.18427    0.000
 4760.00    1.15724   1.17930    0.000
 4761.00    1.15288   1.17279   49.078
 4762.00    1.14697   1.16665   49.360
 4763.00    1.13807   1.16122   49.515
 4764.00    1.12944   1.15596   49.459
 4765.00    1.12713   1.15245   49.087
 4766.00    1.13216   1.15283   48.684
 4767.00    1.14049   1.15670   48.698
 4768.00    1.14911   1.16260   48.923
 4769.00    1.15737   1.16924   48.722
 4770.00    1.16619   1.17567   48.216
 4771.00    1.17642   1.18223   48.084
 4772.00    1.18558   1.18959   48.309
 4773.00    1.18992   1.19649   48.317
 4774.00    1.19149   1.20096   48.079
 4775.00    1.19602   1.20409   48.033
 4776.00    1.20308   1.20758   48.192
 4777.00    1.20692   1.20974   48.204
 4778.00    1.20431   1.20872   48.026
 4779.00    1.19641   1.20590   47.917
 4780.00    1.18859   1.20265   48.007
 4781.00    1.18661   1.19780   48.252
 4782.00    1.18830   1.19164   48.541
 4783.00    1.18654   1.18675   48.759
 4784.00    1.17993   1.18290   48.869
 4785.00    1.17227   1.17844   48.908
 4786.00    1.16592   1.17540   48.913
 4787.00    1.16139   1.17542   48.909
 4788.00    1.15967   1.17697   48.905
 4789.00    1.16194   1.17970   48.914
 4790.00    1.16798   1.18499   48.990
 4791.00    1.17656   1.19227   49.026
 4792.00    1.18682   1.20012   48.393
 4793.00    1.19743   1.20809   47.041
 4794.00    1.20412   1.21467   47.322
 4795.00    1.20295   1.21845   50.788
 4796.00    1.19697   1.21995   50.215
 4797.00    1.19294   1.21937   42.066
 4798.00    1.19253   1.21683   43.583
 4799.00    1.19305   1.21372   84.274
 4800.00    1.19209   1.21162   72.482
 4801.00    1.18908   1.21037   18.269
 4802.00    1.18651   1.20886    9.154
 4803.00    1.18722   1.20693    7.644
 4804.00    1.18945   1.20529    8.213
 4805.00    1.18911   1.20406    8.748
 4806.00    1.18528   1.20187    8.523
 4807.00    1.18018   1.19905    8.283
 4808.00    1.17727   1.19766    8.420
 4809.00    1.17946   1.19831    8.769
 4810.00    1.18658   1.19965    8.575
 4811.00    1.19571   1.20164    7.732
 4812.00    1.20248   1.20512    7.944
 4813.00    1.20396   1.20943   12.203
 4814.00    1.20270   1.21365   36.608
 4815.00    1.20327   1.21787  122.064
 4816.00    1.20610   1.22195   54.623
 4817.00    1.20882   1.22485   40.542
 4818.00    1.20972   1.22586   47.201
 4819.00    1.20789   1.22510   52.906
 4820.00    1.20263   1.22287   49.856
 4821.00    1.19449   1.21820   48.056
 4822.00    1.18644   1.21106   48.986
 4823.00    1.18128   1.20464   49.492
 4824.00    1.17776   1.20104   49.128
 4825.00    1.17364   1.19816   49.188
 4826.00    1.17045   1.19418   49.734
 4827.00    1.17014   1.19146   50.122
 4828.00    1.17017   1.19170   50.218
 4829.00    1.16752   1.19240   50.209
 4830.00    1.16457   1.19085   50.104
 4831.00    1.16483   1.18866   49.878
 4832.00    1.16679   1.18895   49.723
 4833.00    1.16752   1.19052   49.795
 4834.00    1.16798   1.19018   49.905
 4835.00    1.16934   1.18885   49.814
 4836.00    1.16815   1.18892   49.633
 4837.00    1.16154   1.18812   49.611
 4838.00    1.15373   1.18445   49.812
 4839.00    1.15009   1.18049   50.109
 4840.00    1.14966   1.17855   50.215
 4841.00    1.14890   1.17650   50.036
 4842.00    1.14680   1.17322   50.016
 4843.00    1.14401   1.17163   50.464
 4844.00    1.14134   1.17257   50.840
 4845.00    1.13923   1.17261   50.637
 4846.00    1.13741   1.16966   50.423
 4847.00    1.13424   1.16571   50.811
 4848.00    1.12649   1.16250    0.000
 4849.00    1.11352   1.15796    0.000
 4850.00    1.10097   1.14960    0.000
 4851.00    1.09289   1.13875    0.000
 4852.00    1.08417   1.12727    0.000
 4853.00    1.07046   1.11248    0.000
 4854.00    1.05834   1.09210    0.000
 4855.00    1.06242   1.06908    0.000
 4856.00    1.10112   1.04500    0.000
 4857.00    1.19239   1.01768    0.000
 4858.00    1.34837   0.98784    0.000
 4859.00    1.55989   0.95955    0.000
 4860.00    1.78458   0.93763    0.000
 4861.00    1.96668   0.92644    0.000
 4862.00    2.05750   0.92569    0.000
 4863.00    2.03027   0.93208    0.000
 4864.00    1.89154   0.94722    0.000
 4865.00    1.67856   0.97183    0.000
 4866.00    1.45256   0.99890    0.000
 4867.00    1.26605   1.02214    0.000
 4868.00    1.13702   1.04219    0.000
 4869.00    1.06246   1.05762    0.000
 4870.00    1.03168   1.06724    0.000
 4871.00    1.02894   1.07576    0.000
 4872.00    1.03610   1.08607    0.000
 4873.00    1.04269   1.09500    0.000
 4874.00    1.05203   1.10293    0.000
 4875.00    1.06773   1.11418   -1.000
 4876.00    1.08424   1.12754   51.647
 4877.00    1.09649   1.13909   51.265
 4878.00    1.10683   1.14928   50.800
 4879.00    1.11746   1.15731   50.522
 4880.00    1.12531   1.16092   50.563
 4881.00    1.12770   1.16220   50.838
 4882.00    1.12619   1.16336   51.041
 4883.00    1.12296   1.16110   51.000
 4884.00    1.11825   1.15472   50.903
 4885.00    1.11287   1.14897   50.928
 4886.00    1.10937   1.14564   51.011
 4887.00    1.10879   1.14281   51.009
 4888.00    1.10909   1.14032   50.837
 4889.00    1.11014   1.13969   50.584
 4890.00    1.11583   1.14313   50.515
 4891.00    1.12673   1.15275   50.776
 4892.00    1.13693   1.16636   51.221
 4893.00    1.14469   1.18051   51.536
 4894.00    1.15708   1.19514   51.378
 4895.00    1.17704   1.21090   50.781
 4896.00    1.19689   1.22465   50.257
 4897.00    1.20906   1.23281   50.192
 4898.00    1.21219   1.23497   50.515
 4899.00    1.20799   1.23386   50.539
 4900.00    1.19923   1.23254   49.214
 4901.00    1.19009   1.22981   46.965
 4902.00    1.18547   1.22473   45.653
 4903.00    1.18600   1.22139   45.757
 4904.00    1.18666   1.22183   45.914
 4905.00    1.18476   1.22178   45.624
 4906.00    1.18319   1.21907   46.247
 4907.00    1.18404   1.21630   48.275
 4908.00    1.18572   1.21385   50.073
 4909.00    1.18593   1.21021   50.403
 4910.00    1.18339   1.20688   50.177
 4911.00    1.17869   1.20532   50.208
 4912.00    1.17428   1.20398   50.185
 4913.00    1.17240   1.20223   49.958
 4914.00    1.17369   1.20078   50.001
 4915.00    1.17497   1.19725   50.525
 4916.00    1.16996   1.18870   51.167
 4917.00    1.15710   1.17602   51.647
 4918.00    1.14175   1.16174   52.040
 4919.00    1.12881   1.14754   52.391
 4920.00    1.11984   1.13634   52.582
 4921.00    1.11579   1.13121   52.601
 4922.00    1.11791   1.13137   52.608
 4923.00    1.12648   1.13647   52.608
 4924.00    1.14010   1.14862   52.406
 4925.00    1.15586   1.16652   52.009
 4926.00    1.17016   1.18388   51.680
 4927.00    1.18224   1.19870   51.498
 4928.00    1.19421   1.21219   51.295
 4929.00    1.20547   1.22276   51.099
 4930.00    1.21180   1.22833   51.175
 4931.00    1.21099   1.22836   51.474
 4932.00    1.20451   1.22282   51.595
 4933.00    1.19465   1.21482   51.486
 4934.00    1.18349   1.20816   51.548
 4935.00    1.17307   1.20112   51.940
 4936.00    1.16531   1.19224   52.406
 4937.00    1.16104   1.18569   52.642
 4938.00    1.16006   1.18548   52.490
 4939.00    1.16260   1.18998   52.073
 4940.00    1.16933   1.19559    0.000
 4941.00    1.17981   1.20196    0.000
 4942.00    1.19213   1.21213    0.000
 4943.00    1.20373   1.22462    0.000
 4944.00    1.21229   1.23428    0.000
 4945.00    1.21806   1.24101    0.000
 4946.00    1.22331   1.24839    0.000
 4947.00    1.22826   1.25465    0.000
 4948.00    1.23093   1.25721    0.000
 4949.00    1.23109   1.25820    0.000
 4950.00    1.23077   1.25888    0.000
 4951.00    1.23196   1.25577    0.000
 4952.00    1.23564   1.24760    0.000
 4953.00    1.24130   1.23791    0.000
 4954.00    1.24883   1.22824    0.000
 4955.00    1.26433   1.21547    0.000
 4956.00    1.29652   1.20032    0.000
 4957.00    1.34187   1.19111    0.000
 4958.00    1.38532   1.19030    0.000
 4959.00    1.41482   1.19071    0.000
 4960.00    1.42427   1.19049    0.000
 4961.00    1.40993   1.19511    0.000
 4962.00    1.37167   1.20340    0.000
 4963.00    1.31881   1.20748    0.000
 4964.00    1.26705   1.20633    0.000
 4965.00    1.22652   1.20490    0.000
 4966.00    1.19997   1.20454    0.000
 4967.00    1.18657   1.20315    0.000
 4968.00    1.18317   1.20186    0.000
 4969.00    1.18499   1.20326    0.000
 4970.00    1.18745   1.20732    0.000
 4971.00    1.19002   1.21232    0.000
 4972.00    1.19491   1.21716    0.000
 4973.00    1.20187   1.22126    0.000
 4974.00    1.20770   1.22352    0.000
 4975.00    1.20837   1.22301    0.000
 4976.00    1.20114   1.21882    0.000
 4977.00    1.18830   1.21031    0.000
 4978.00    1.17530   1.19926    0.000
 4979.00    1.16500   1.18744    0.000
 4980.00    1.15649   1.17393    0.000
 4981.00    1.14578   1.15965    0.000
 4982.00    1.13069   1.14963    0.000
 4983.00    1.12035   1.14529    0.000
 4984.00    1.12691   1.14379    0.000
 4985.00    1.14472   1.14566    0.000
 4986.00    1.15771   1.15280    0.000
 4987.00    1.16268   1.16247    0.000
 4988.00    1.16642   1.17084    0.000
 4989.00    1.17085   1.17778    0.000
 4990.00    1.17347   1.18442    0.000
 4991.00    1.17403   1.19011    0.000
 4992.00    1.17443   1.19278    0.000
 4993.00    1.17608   1.19347    0.000
 4994.00    1.17897   1.19470    0.000
 4995.00    1.18091   1.19498    0.000
 4996.00    1.17957   1.19229    0.000
 4997.00    1.17618   1.18785    0.000
 4998.00    1.17338   1.18215    0.000
 4999.00    1.17060   1.17476    0.000
 5000.00    1.17036   1.16648    0.000
 5001.00    1.18990   1.15822    0.000
 5002.00    1.25137   1.15115    0.000
 5003.00    1.36231   1.14583    0.000
 5004.00    1.51257   1.14112    0.000
 5005.00    1.67512   1.13758    0.000
 5006.00    1.81379   1.13768    0.000
 5007.00    1.89561   1.13957    0.000
 5008.00    1.89816   1.13949    0.000
 5009.00    1.81805   1.13802    0.000
 5010.00    1.67334   1.13694    0.000
 5011.00    1.50420   1.13410    0.000
 5012.00    1.35443   1.12817    0.000
 5013.00    1.24430   1.12126    0.000
 5014.00    1.17442   1.11656    0.000
 5015.00    1.13735   1.11448    0.000
 5016.00    1.12244   1.11315    0.000
 5017.00    1.12022   1.11338    0.000
 5018.00    1.12360   1.11811    0.000
 5019.00    1.12853   1.12561    0.000
 5020.00    1.13320   1.13152    0.000
 5021.00    1.13679   1.13662    0.000
 5022.00    1.13952   1.14386    0.000
 5023.00    1.14286   1.15173    0.000
 5024.00    1.14744   1.15762    0.000
 5025.00    1.15073   1.16256    0.000
 5026.00    1.15135   1.16746    0.000
 5027.00    1.15444   1.17337    0.000
 5028.00    1.16455   1.18044    0.000
 5029.00    1.17667   1.18622   54.549
 5030.00    1.18377   1.19012   55.065
 5031.00    1.18668   1.19435   55.448
 5032.00    1.18895   1.19818   54.681
 5033.00    1.18960   1.19731   53.546
 5034.00    1.18621   1.19061   53.168
 5035.00    1.17929   1.18144   53.446
 5036.00    1.17011   1.17194   53.884
 5037.00    1.15782   1.16035   54.543
 5038.00    1.14247   1.14738   55.559
 5039.00    1.12830   1.13649   56.486
 5040.00    1.12058   1.13053   56.841
 5041.00    1.12184   1.13163   56.862
 5042.00    1.13101   1.13774   56.911
 5043.00    1.14334   1.14516   56.792
 5044.00    1.15473   1.15556   56.394
 5045.00    1.16584   1.16875   56.306
 5046.00    1.17693   1.17825   56.563
 5047.00    1.18299   1.18156   55.665
 5048.00    1.18040   1.18325   53.992
 5049.00    1.17336   1.18464   55.837
 5050.00    1.16813   1.18366   61.097
 5051.00    1.16699   1.18260   55.707
 5052.00    1.16933   1.18556   45.472
 5053.00    1.17333   1.19170   57.878
 5054.00    1.17841   1.19825   -1.000
 5055.00    1.18693   1.20542   51.132
 5056.00    1.19966   1.21396   13.726
 5057.00    1.21214   1.22197    8.114
 5058.00    1.21986   1.22691    7.508
 5059.00    1.22274   1.22907    8.232
 5060.00    1.22217   1.22955    8.488
 5061.00    1.21831   1.22788    8.179
 5062.00    1.21085   1.22264    8.066
 5063.00    1.19996   1.21357    8.368
 5064.00    1.18760   1.20435    8.765
 5065.00    1.17813   1.19810    8.403
 5066.00    1.17427   1.19141    7.721
 5067.00    1.17431   1.18344    8.821
 5068.00    1.17534   1.17987   16.557
 5069.00    1.17592   1.18109   71.136
 5070.00    1.17605   1.18024  134.288
 5071.00    1.17684   1.17746   52.660
 5072.00    1.17868   1.17839   46.778
 5073.00    1.18014   1.17991   57.475
 5074.00    1.17928   1.17601   59.966
 5075.00    1.17485   1.17048   55.276
 5076.00    1.16708   1.16768   55.035
 5077.00    1.15798   1.16283   57.398
 5078.00    1.14900   1.15284   58.184
 5079.00    1.13988   1.14515   57.701
 5080.00    1.13242   1.14326   57.459
 5081.00    1.13194   1.14188   57.293
 5082.00    1.13944   1.14040   56.870
 5083.00    1.14809   1.14464   56.622
 5084.00    1.15419   1.15396   56.800
 5085.00    1.16272   1.16263   56.976
 5086.00    1.17542   1.17035   56.800
 5087.00    1.18498   1.17982   56.450
 5088.00    1.18793   1.18962   56.230
 5089.00    1.19073   1.19656   56.291
 5090.00    1.19689   1.20127   56.545
 5091.00    1.20086   1.20557   56.685
 5092.00    1.19978   1.20832   56.618
 5093.00    1.19874   1.20730   56.640
 5094.00    1.19952   1.20296   56.844
 5095.00    1.19599   1.19741   56.890
 5096.00    1.18568   1.19098   56.689
 5097.00    1.17459   1.18270   56.669
 5098.00    1.16679   1.17436   57.052
 5099.00    1.15998   1.16984   57.538
 5100.00    1.15358   1.16829   57.728
 5101.00    1.15175   1.16697   57.448
 5102.00    1.15613   1.16631   57.033
 5103.00    1.16276   1.16732   57.188
 5104.00    1.16723   1.16830   57.871
 5105.00    1.16746   1.16706   58.020
 5106.00    1.16398   1.16428   57.342
 5107.00    1.15959   1.16301   56.891
 5108.00    1.15722   1.16292   57.251
 5109.00    1.15858   1.16232   57.938
 5110.00    1.16281   1.16466   58.360
 5111.00    1.16686   1.17060   58.306
 5112.00    1.16997   1.17679   57.912
 5113.00    1.17482   1.18381   57.526
 5114.00    1.18278   1.19197   57.412
 5115.00    1.19210   1.19885   57.619
 5116.00    1.19963   1.20382   57.964
 5117.00    1.20230   1.20655   58.095
 5118.00    1.20013   1.20542   57.892
 5119.00    1.19611   1.20058   57.583
 5120.00    1.19051   1.19349   57.441
 5121.00    1.18018   1.18412   57.629
 5122.00    1.16596   1.17210   58.085
 5123.00    1.15360   1.16034   58.532
 5124.00    1.14531   1.15144   58.746
 5125.00    1.13817   1.14406   58.701
 5126.00    1.13179   1.13832   58.598
 5127.00    1.12966   1.13635   58.732
 5128.00    1.13266   1.13734   58.995
 5129.00    1.13776   1.13992   58.934
 5130.00    1.14284   1.14503   58.719
 5131.00    1.14805   1.15115   59.096
 5132.00    1.15388   1.15608   59.894
 5133.00    1.15995   1.16101   59.965
 5134.00    1.16370   1.16582   59.181
 5135.00    1.16170   1.16698   58.660
 5136.00    1.15560   1.16561   58.912
 5137.00    1.15140   1.16347   59.544
 5138.00    1.14979   1.15862   60.080
 5139.00    1.14605   1.15453   60.272
 5140.00    1.14058   1.15181   60.221
 5141.00    1.13911   1.14601   60.254
 5142.00    1.14225   1.14179   60.429
 5143.00    1.14467   1.14251   60.508
 5144.00    1.14364   1.14157   60.415
 5145.00    1.14079   1.13852   60.294
 5146.00    1.13879   1.13830   60.259
 5147.00    1.13928   1.13929   60.323
 5148.00    1.14013   1.13905   60.425
 5149.00    1.13713   1.13812   60.445
 5150.00    1.13134   1.13785   60.226
 5151.00    1.12855   1.13929   59.694
 5152.00    1.13171   1.14184   59.153
 5153.00    1.13966   1.14514   59.078
 5154.00    1.15003   1.15086   59.421
 5155.00    1.16049   1.15909   59.660
 5156.00    1.16980   1.16798   59.456
 5157.00    1.17765   1.17581   58.844
 5158.00    1.18340   1.18138   58.140
 5159.00    1.18576   1.18485   57.751
 5160.00    1.18286   1.18362   57.852
 5161.00    1.17297   1.17478   58.244
 5162.00    1.15642   1.16082   58.144
 5163.00    1.13525   1.14279   57.222
 5164.00    1.11101   1.11874   58.008
 5165.00    1.08445   1.09122   63.020
 5166.00    1.05593   1.06402   64.027
 5167.00    1.02696   1.03898   53.694
 5168.00    1.00334   1.01891   53.561
 5169.00    0.99189   1.00648  102.749
 5170.00    0.99148   0.99890  108.785
 5171.00    0.99596   0.99516   24.222
 5172.00    1.00525   1.00132   11.218
 5173.00    1.02350   1.01714    8.901
 5174.00    1.04954   1.03384    9.231
 5175.00    1.07723   1.04966    9.620
 5176.00    1.10088   1.06840    9.205
 5177.00    1.11648   1.08507    8.784
 5178.00    1.12185   1.09215    8.815
 5179.00    1.11686   1.09202    9.212
 5180.00    1.10394   1.08941    9.266
 5181.00    1.08720   1.08208    8.583
 5182.00    1.07067   1.06936    8.778
 5183.00    1.05850   1.06099   13.109
 5184.00    1.05587   1.06213   38.822
 5185.00    1.06597   1.06723  190.152
 5186.00    1.08408   1.07486   74.431
 5187.00    1.10156   1.08654   49.858
 5188.00    1.11519   1.10128   57.960
 5189.00    1.12580   1.11498   66.270
 5190.00    1.13267   1.12190    0.000
 5191.00    1.13472   1.12490    0.000
 5192.00    1.13419   1.13067    0.000
 5193.00    1.13496   1.13538    0.000
 5194.00    1.13851   1.13553    0.000
 5195.00    1.14504   1.13926    0.000
 5196.00    1.15641   1.14762    0.000
 5197.00    1.17342   1.15353    0.000
 5198.00    1.19091   1.15829    0.000
 5199.00    1.20192   1.16356    0.000
 5200.00    1.20560   1.16462    0.000
 5201.00    1.20441   1.16075    0.000
 5202.00    1.19775   1.15521    0.000
 5203.00    1.18341   1.14559    0.000
 5204.00    1.16133   1.13179    0.000
 5205.00    1.13517   1.12098    0.000
 5206.00    1.11352   1.11375    0.000
 5207.00    1.10406   1.10648    0.000
 5208.00    1.10528   1.10499    0.000
 5209.00    1.11150   1.11177    0.000
 5210.00    1.12164   1.12103    0.000
 5211.00    1.13615   1.13224    8.823
 5212.00    1.15104   1.14671    8.699
 5213.00    1.16135   1.16095    8.516
 5214.00    1.16675   1.17179    8.538
 5215.00    1.17012   1.18118    8.831
 5216.00    1.17435   1.19004    8.601
 5217.00    1.18072   1.19703    7.759
 5218.00    1.18751   1.20160    8.192
 5219.00    1.19201   1.20412   13.523
 5220.00    1.19332   1.20507   50.354
 5221.00    1.19129   1.20255  206.956
 5222.00    1.18493   1.19534   64.187
 5223.00    1.17336   1.18581   48.083
 5224.00    1.15740   1.17599   59.630
 5225.00    1.14057   1.16463   67.045
 5226.00    1.12964   1.15480   60.932
 5227.00    1.12950   1.15270   58.318
 5228.00    1.13737   1.15400   60.051
 5229.00    1.14737   1.15590   61.146
 5230.00    1.15645   1.16345   60.624
 5231.00    1.16344   1.17260   60.046
 5232.00    1.16745   1.17894   59.926
 5233.00    1.16883   1.18667   60.083
 5234.00    1.17024   1.19557   60.378
 5235.00    1.17436   1.20320   60.680
 5236.00    1.18149   1.21107   60.768
 5237.00    1.19084   1.21961   60.601
 5238.00    1.20212   1.22687   60.554
 5239.00    1.21403   1.23312   60.850
 5240.00    1.22298   1.23913   61.033
 5241.00    1.22639   1.24220   60.741
 5242.00    1.22580   1.24154   60.459
 5243.00    1.22362   1.24028   60.622
 5244.00    1.21991   1.23792   60.794
 5245.00    1.21378   1.23038   60.496
 5246.00    1.20523   1.22045   60.022
 5247.00    1.19564   1.21416   59.825
 5248.00    1.18785   1.20792   59.926
 5249.00    1.18335   1.19894   60.157
 5250.00    1.18016   1.19415   60.404
 5251.00    1.17707   1.19466   60.630
 5252.00    1.17706   1.19588   60.865
 5253.00    1.18262   1.19800   61.110
 5254.00    1.19170   1.20259   61.263
 5255.00    1.20066   1.20963   61.262
 5256.00    1.20705   1.21568   61.204
 5257.00    1.20959   1.21803   61.229
 5258.00    1.20789   1.21732   61.404
 5259.00    1.20211   1.21300   61.692
 5260.00    1.19258   1.20279   61.954
 5261.00    1.17893   1.18659   62.223
 5262.00    1.15985   1.16781   62.838
 5263.00    1.13643   1.14908   63.576
 5264.00    1.11414   1.12925   63.162
 5265.00    1.09830   1.10982   61.322
 5266.00    1.09058   1.09823   59.827
 5267.00    1.08961   1.09217   59.744
 5268.00    1.09206   1.08456   60.235
 5269.00    1.09532   1.08365   60.546
 5270.00    1.09945   1.09422   61.277
 5271.00    1.10685   1.10469   62.730
 5272.00    1.12112   1.11468   63.762
 5273.00    1.14100   1.13251   63.573
 5274.00    1.15796   1.15096   63.033
 5275.00    1.16810   1.16554   62.955
 5276.00    1.17832   1.18200   63.066
 5277.00    1.19259   1.19713   62.991
 5278.00    1.20460   1.20675   62.848
 5279.00    1.20960   1.21366   62.741
 5280.00    1.21112   1.21909   62.492
 5281.00    1.21261   1.22258   62.137
 5282.00    1.21282   1.22471   62.108
 5283.00    1.21176   1.22763   62.471
 5284.00    1.21351   1.23408   62.609
 5285.00    1.22076   1.24247   62.197
 5286.00    1.23203   1.25055   61.674
 5287.00    1.24500   1.25933   61.328
 5288.00    1.25825   1.26831   60.932
 5289.00    1.26891   1.27481   60.551
 5290.00    1.27226   1.27780   60.731
 5291.00    1.26731   1.27745   61.102
 5292.00    1.25872   1.27335   60.243
 5293.00    1.25029   1.26616   59.348
 5294.00    1.24182   1.25674   61.984
 5295.00    1.23194   1.24564   63.253
 5296.00    1.21998   1.23369   51.804
 5297.00    1.20786   1.22351   44.519
 5298.00    1.20016   1.21827   70.046
 5299.00    1.19989   1.21630   -1.000
 5300.00    1.20661   1.21644   32.216
 5301.00    1.21760   1.22180   11.122
 5302.00    1.22899   1.23133    7.612
 5303.00    1.23803   1.24129    7.570
 5304.00    1.24419   1.25147    8.225
 5305.00    1.24917   1.26180    8.184
 5306.00    1.25594   1.27023    7.908
 5307.00    1.26451   1.27696    7.879
 5308.00    1.27116   1.28244    7.854
 5309.00    1.27396   1.28530    7.774
 5310.00    1.27440   1.28634    7.944
 5311.00    1.27347   1.28636    8.126
 5312.00    1.27045   1.28407    7.582
 5313.00    1.26522   1.28085    7.184
 5314.00    1.25904   1.27756    9.198
 5315.00    1.25365   1.27239   21.650
 5316.00    1.25039   1.26717   -1.000
 5317.00    1.24835   1.26360  116.045
 5318.00    1.24489   1.25896   49.365
 5319.00    1.24072   1.25293   50.822
 5320.00    1.23976   1.24691   63.373
 5321.00    1.24068   1.24027   61.706
 5322.00    1.23630   1.23106   56.791
 5323.00    1.22359   1.21841   57.724
 5324.00    1.20616   1.20588   59.595
 5325.00    1.18912   1.19547   59.003
 5326.00    1.17641   1.18337   58.368
 5327.00    1.16887   1.17162   59.039
 5328.00    1.16498   1.16832   59.733
 5329.00    1.16541   1.17123   59.734
 5330.00    1.17295   1.17559   59.712
 5331.00    1.18630   1.18420   60.078
 5332.00    1.20001   1.19698   60.575
 5333.00    1.21150   1.21013   60.889
 5334.00    1.22179   1.22117   60.902
 5335.00    1.23032   1.22881   60.771
 5336.00    1.23449   1.23331   60.820
 5337.00    1.23398   1.23614   61.143
 5338.00    1.23121   1.23579   61.561
 5339.00    1.22855   1.23187   61.851
 5340.00    1.22730   1.22974   61.887
 5341.00    1.22766   1.22978   61.816
 5342.00    1.22890   1.22855   61.920
 5343.00    1.23003   1.22902   62.101
 5344.00    1.23028   1.23122   61.955
 5345.00    1.22971   1.23277   61.476
 5346.00    1.22898   1.23602   61.053
 5347.00    1.22812   1.23956   60.900
 5348.00    1.22719   1.24220   60.965
 5349.00    1.22920   1.24764   61.054
 5350.00    1.23829   1.25573   60.984
 5351.00    1.25270   1.26350   60.876
 5352.00    1.26612   1.27186   61.001
 5353.00    1.27595   1.28258   61.192
 5354.00    1.28373   1.29280   61.001
 5355.00    1.29072   1.30013   60.526
 5356.00    1.29660   1.30625   60.301
 5357.00    1.29949   1.31029   60.527
 5358.00    1.29733   1.31050   61.004
 5359.00    1.29116   1.30803   61.371
 5360.00    1.28418   1.30273   61.332
 5361.00    1.27741   1.29464   61.062
 5362.00    1.26994   1.28604   61.006
 5363.00    1.26173   1.27616   61.215
 5364.00    1.25349   1.26493   61.470
 5365.00    1.24477   1.25504   61.878
 5366.00    1.23468   1.24526   62.705
 5367.00    1.22420   1.23545   63.640
 5368.00    1.21567   1.22826   63.991
 5369.00    1.21033   1.22274   63.651
 5370.00    1.20829   1.21893   63.110
 5371.00    1.20942   1.22052   62.903
 5372.00    1.21410   1.22630   63.262
 5373.00    1.22412   1.23315   63.673
 5374.00    1.24025   1.24321   63.423
 5375.00    1.25728   1.25465   62.970
 5376.00    1.26779   1.26338   63.243
 5377.00    1.27145   1.27107   63.882
 5378.00    1.27247   1.27691   63.846
 5379.00    1.27133   1.27844   63.359
 5380.00    1.26661   1.27871   63.371
 5381.00    1.26140   1.27869   63.881
 5382.00    1.26017   1.27616   64.251
 5383.00    1.26090   1.27396   64.348
 5384.00    1.25842   1.27319   64.469
 5385.00    1.25272   1.27068   64.763
 5386.00    1.24750   1.26761   65.165
 5387.00    1.24499   1.26511   65.485
 5388.00    1.24469   1.26060   65.555
 5389.00    1.24309   1.25434   65.473
 5390.00    1.23687   1.24813   65.475
 5391.00    1.22814   1.24151   65.647
 5392.00    1.22137   1.23345   65.944
 5393.00    1.21702   1.22558   66.295
 5394.00    1.21298   1.22052   66.618
 5395.00    1.20853   1.21544   66.817
 5396.00    1.20445   1.20948   66.833
 5397.00    1.20228   1.20829   66.721
 5398.00    1.20328   1.20917   66.587
 5399.00    1.20720   1.20680   66.492
 5400.00    1.21190   1.20560   66.451
 5401.00    1.21321   1.20592   66.454
 5402.00    1.20787   1.20228   66.485
 5403.00    1.19761   1.19674   66.532
 5404.00    1.18688   1.19220   66.605
 5405.00    1.17894   1.18704   66.729
 5406.00    1.17547   1.18324   66.905
 5407.00    1.17694   1.18276   67.042
 5408.00    1.18231   1.18399   67.037
 5409.00    1.18879   1.18804   66.890
 5410.00    1.19451   1.19627   66.670
 5411.00    1.20189   1.20599   66.438
 5412.00    1.21359   1.21636   66.180
 5413.00    1.22688   1.22779   65.747
 5414.00    1.23731   1.23868   65.106
 5415.00    1.24406   1.24870   64.602
 5416.00    1.24864   1.25677   64.510
 5417.00    1.25246   1.26228   64.531
 5418.00    1.25546   1.26673   64.348
 5419.00    1.25512   1.26855   64.311
 5420.00    1.25041   1.26781   64.750
 5421.00    1.24598   1.26772   65.128
 5422.00    1.24604   1.26598   64.917
 5423.00    1.24724   1.26240   64.694
 5424.00    1.24491   1.26042   65.128
 5425.00    1.24066   1.25694   65.800
 5426.00    1.23771   1.25239   -2.000
 5427.00    1.23513   1.24888   -2.000
 5428.00    1.23032   1.24195   -2.000
 5429.00    1.22250   1.23510   -2.000
 5430.00    1.21375   1.23143   -2.000
 5431.00    1.20947   1.22542   -2.000
 5432.00    1.21285   1.22076   -2.000
 5433.00    1.21978   1.22144   -2.000
 5434.00    1.22524   1.22363   -2.000
 5435.00    1.22996   1.22807   -2.000
 5436.00    1.23701   1.23652   -2.000
 5437.00    1.24773   1.24689   -2.000
 5438.00    1.26089   1.25750   -2.000
 5439.00    1.27253   1.26746   -2.000
 5440.00    1.27946   1.27525   64.164
 5441.00    1.28219   1.27963   64.647
 5442.00    1.28112   1.27965   65.157
 5443.00    1.27339   1.27587   65.894
 5444.00    1.25874   1.27007   66.769
 5445.00    1.24414   1.26179   67.230
 5446.00    1.23586   1.25319   66.981
 5447.00    1.23275   1.24787   66.584
 5448.00    1.23223   1.24346   66.635
 5449.00    1.23527   1.24003   67.115
 5450.00    1.24142   1.23950   67.720
 5451.00    1.24498   1.23849   68.173
 5452.00    1.24179   1.23706   68.349
 5453.00    1.23437   1.23648   68.335
 5454.00    1.22737   1.23428   68.230
 5455.00    1.22351   1.23280   67.996
 5456.00    1.22339   1.23378   67.673
 5457.00    1.22575   1.23459   67.508
 5458.00    1.22925   1.23589   67.624
 5459.00    1.23354   1.23833   67.810
 5460.00    1.23786   1.24105   67.845
 5461.00    1.24012   1.24288   67.749
 5462.00    1.23952   1.24300   67.661
 5463.00    1.23808   1.24438   67.718
 5464.00    1.23814   1.24656   67.880
 5465.00    1.24050   1.24644   67.857
 5466.00    1.24463   1.24705   67.512
 5467.00    1.24902   1.24935   67.080
 5468.00    1.25194   1.24921   66.807
 5469.00    1.25204   1.24648   66.722
 5470.00    1.24889   1.24447   66.776
 5471.00    1.24322   1.24139   66.928
 5472.00    1.23654   1.23383   67.117
 5473.00    1.23055   1.22687   67.263
 5474.00    1.22580   1.22273   67.330
 5475.00    1.22118   1.21599   67.373
 5476.00    1.21666   1.21012   67.498
 5477.00    1.21444   1.20965   67.818
 5478.00    1.21515   1.21005   68.302
 5479.00    1.21632   1.21066   68.718
 5480.00    1.21697   1.21465   68.785
 5481.00    1.21972   1.22088   68.347
 5482.00    1.22632   1.22635   67.651
 5483.00    1.23532   1.23118   67.321
 5484.00    1.24370   1.23751   67.582
 5485.00    1.24838   1.24315   67.985
 5486.00    1.24923   1.24569   68.083
 5487.00    1.24980   1.24879   67.829
 5488.00    1.25214   1.25248   67.487
 5489.00    1.25465   1.25277   67.466
 5490.00    1.25558   1.25330   67.840
 5491.00    1.25483   1.25595   68.217
 5492.00    1.25331   1.25593   68.357
 5493.00    1.25231   1.25484   68.438
 5494.00    1.25195   1.25619   68.683
 5495.00    1.25103   1.25638   69.155
 5496.00    1.24987   1.25401   69.740
 5497.00    1.25091   1.25306   70.190
 5498.00    1.25447   1.25301   70.381
 5499.00    1.25759   1.25022   70.402
 5500.00    1.25773   1.24727   70.324
 5501.00    1.25458   1.24608   70.127
 5502.00    1.24987   1.24300   69.905
 5503.00    1.24658   1.23958   69.883
 5504.00    1.24548   1.23817   70.101
 5505.00    1.24455   1.23525   70.330
 5506.00    1.24237   1.23284   70.336
 5507.00    1.23935   1.23264   70.029
 5508.00    1.23642   1.23032   69.568
 5509.00    1.23436   1.22855   69.273
 5510.00    1.23331   1.22892   69.206
 5511.00    1.23297   1.22773   69.104
 5512.00    1.23411   1.22757   68.791
 5513.00    1.23832   1.22989   68.308
 5514.00    1.24505   1.23293   67.795
 5515.00    1.25155   1.23766   67.405
 5516.00    1.25712   1.24398   67.192
 5517.00    1.26372   1.25127   67.112
 5518.00    1.27187   1.25849   67.151
 5519.00    1.27975   1.26435   67.327
 5520.00    1.28600   1.26905   67.530
 5521.00    1.29030   1.27141   67.568
 5522.00    1.29191   1.27111   67.536
 5523.00    1.28957   1.26894   67.782
 5524.00    1.28284   1.26439   68.341
 5525.00    1.27273   1.25929   68.841
 5526.00    1.26194   1.25454   68.936
 5527.00    1.25399   1.24912   68.613
 5528.00    1.25007   1.24586   68.593
 5529.00    1.24903   1.24539   69.640
 5530.00    1.25054   1.24490   69.937
 5531.00    1.25504   1.24580   66.947
 5532.00    1.26024   1.24929   65.468
 5533.00    1.26210   1.25213   72.498
 5534.00    1.26105   1.25410   76.260
 5535.00    1.26165   1.25797   58.335
 5536.00    1.26593   1.26172   53.661
 5537.00    1.27224   1.26406   -2.000
 5538.00    1.27818   1.26768   -2.000
 5539.00    1.28204   1.27122   -2.000
 5540.00    1.28427   1.27346   -2.000
 5541.00    1.28745   1.27579   -2.000
 5542.00    1.29496   1.27714   -2.000
 5543.00    1.30657   1.27825   -2.000
 5544.00    1.30816   1.27982   -2.000
 5545.00    1.28320   1.28047   -2.000
 5546.00    1.24970   1.28199   -2.000
 5547.00    1.24758   1.28471   -2.000
 5548.00    1.28119   1.28633   -2.000
 5549.00    1.32223   1.28785   -2.000
 5550.00    1.35549   1.28944   -2.000
 5551.00    1.38109   1.28954   -2.000
 5552.00    1.39083   1.28861   -2.000
 5553.00    1.37291   1.28690   -2.000
 5554.00    1.33744   1.28474   -2.000
 5555.00    1.30930   1.28254   -2.000
 5556.00    1.29699   1.27965   -2.000
 5557.00    1.29285   1.27723   -2.000
 5558.00    1.29091   1.27530   -2.000
 5559.00    1.28954   1.27230   -2.000
 5560.00    1.28768   1.26964   -2.000
 5561.00    1.28446   1.26695    7.811
 5562.00    1.28013   1.26286    7.837
 5563.00    1.27576   1.25966    7.766
 5564.00    1.27220   1.25670    7.792
 5565.00    1.26965   1.25246    8.088
 5566.00    1.26757   1.24998    8.081
 5567.00    1.26530   1.24911    7.353
 5568.00    1.26357   1.24662    7.400
 5569.00    1.26374   1.24556   11.113
 5570.00    1.26563   1.24784   36.789
 5571.00    1.26780   1.24795   -1.000
 5572.00    1.26878   1.24804   92.384
 5573.00    1.26810   1.25275   51.837
 5574.00    1.26766   1.25528   62.619
 5575.00    1.27011   1.25608   76.405
 5576.00    1.27558   1.26112   69.593
 5577.00    1.28205   1.26396   65.038
 5578.00    1.28734   1.26366   67.664
 5579.00    1.28993   1.26566   70.416
 5580.00    1.28976   1.26496   70.112
 5581.00    1.28747   1.26058   68.913
 5582.00    1.28294   1.25659   68.757
 5583.00    1.27558   1.25001   69.838
 5584.00    1.26515   1.24097   69.940
 5585.00    1.25243   1.23224   68.072
 5586.00    1.23986   1.22322   70.074
 5587.00    1.23009   1.21508   79.781
 5588.00    1.22359   1.20896   76.035
 5589.00    1.21975   1.20544   56.526
 5590.00    1.21927   1.20469   63.169
 5591.00    1.22308   1.20596  206.956
 5592.00    1.23032   1.20987  120.421
 5593.00    1.23875   1.21432   17.289
 5594.00    1.24601   1.21812    8.482
 5595.00    1.25037   1.22307    7.231
 5596.00    1.25150   1.22591    7.869
 5597.00    1.25013   1.22619    8.308
 5598.00    1.24732   1.22776    8.059
 5599.00    1.24415   1.22820    7.931
 5600.00    1.24148   1.22762    8.041
 5601.00    1.24031   1.22990    8.102
 5602.00    1.24234   1.23385    8.054
 5603.00    1.24873   1.23930    7.993
 5604.00    1.25844   1.24712    7.944
 5605.00    1.26957   1.25590    7.886
 5606.00    1.28118   1.26520    7.807
 5607.00    1.29242   1.27357    7.724
 5608.00    1.30114   1.27957    7.683
 5609.00    1.30516   1.28350    7.695
 5610.00    1.30402   1.28445    7.676
 5611.00    1.29874   1.28150    7.611
 5612.00    1.29112   1.27685    7.727
 5613.00    1.28277   1.27087    8.062
 5614.00    1.27408   1.26233    7.894
 5615.00    1.26506   1.25535    7.216
 5616.00    1.25648   1.25077    7.839
 5617.00    1.25024   1.24542   13.683
 5618.00    1.24934   1.24296   62.871
 5619.00    1.25465   1.24367  206.956
 5620.00    1.26162   1.24317   71.733
 5621.00    1.26531   1.24358   53.179
 5622.00    1.26598   1.24555   70.121
 5623.00    1.26574   1.24585   80.420
 5624.00    1.26459   1.24662   71.481
 5625.00    1.26272   1.24950   68.559
 5626.00    1.26311   1.25163   71.392
 5627.00    1.26836   1.25460   72.451
 5628.00    1.27747   1.25998   71.096
 5629.00    1.28699   1.26425   70.224
 5630.00    1.29294   1.26753   70.386
 5631.00    1.29360   1.27112   70.911
 5632.00    1.29183   1.27252   71.246
 5633.00    1.29043   1.27168   71.139
 5634.00    1.28807   1.27001   70.714
 5635.00    1.28332   1.26711   70.313
 5636.00    1.27844   1.26311   70.287
 5637.00    1.27537   1.25908   70.627
 5638.00    1.27226   1.25604   70.708
 5639.00    1.26739   1.25340   70.212
 5640.00    1.26250   1.25119   69.854
 5641.00    1.25999   1.25131   70.173
 5642.00    1.26028   1.25225   70.625
 5643.00    1.26250   1.25303   70.649
 5644.00    1.26530   1.25588   70.582
 5645.00    1.26754   1.25899   70.785
 5646.00    1.26886   1.26135   70.919
 5647.00    1.26985   1.26453   70.639
 5648.00    1.27187   1.26699   70.153
 5649.00    1.27498   1.26853   69.798
 5650.00    1.27679   1.26957   69.659
 5651.00    1.27603   1.26884   69.431
 5652.00    1.27485   1.26718   68.468
 5653.00    1.27477   1.26410   66.855
 5654.00    1.27386   1.25849   65.799
 5655.00    1.26971   1.25317   65.851
 5656.00    1.26173   1.24746   66.061
 5657.00    1.25109   1.23967   65.724
 5658.00    1.24034   1.23471   65.495
 5659.00    1.23252   1.23236   65.846
 5660.00    1.23016   1.22895   66.138
 5661.00    1.23350   1.22853   65.893
 5662.00    1.23970   1.23200   65.627
 5663.00    1.24628   1.23469   65.939
 5664.00    1.25315   1.23773   66.920
 5665.00    1.26037   1.24292   68.163
 5666.00    1.26668   1.24761   68.869
 5667.00    1.27056   1.25145   68.855
 5668.00    1.27123   1.25607   69.029
 5669.00    1.27019   1.26076   69.817
 5670.00    1.27131   1.26525   70.372
 5671.00    1.27599   1.27022   70.203
 5672.00    1.28100   1.27528   70.060
 5673.00    1.28388   1.27972   70.509
 5674.00    1.28568   1.28330   71.189
 5675.00    1.28774   1.28628   71.635
 5676.00    1.28977   1.28793   71.781
 5677.00    1.29031   1.28737   71.796
 5678.00    1.28748   1.28562   71.923
 5679.00    1.28165   1.28328   72.219
 5680.00    1.27607   1.27943   72.482
 5681.00    1.27264   1.27442   72.632
 5682.00    1.27009   1.27016   72.856
 5683.00    1.26709   1.26649   73.206
 5684.00    1.26384   1.26259   73.450
 5685.00    1.26126   1.26013   73.468
 5686.00    1.26036   1.25960   73.406
 5687.00    1.26138   1.25994   73.332
 5688.00    1.26356   1.26174   73.127
 5689.00    1.26671   1.26498   72.834
 5690.00    1.27157   1.26864   72.718
 5691.00    1.27807   1.27289   72.734
 5692.00    1.28467   1.27697   72.444
 5693.00    1.28934   1.27953   71.839
 5694.00    1.29040   1.28092   71.491
 5695.00    1.28814   1.28109   71.627
 5696.00    1.28483   1.27925   71.881
 5697.00    1.28173   1.27533   72.019
 5698.00    1.27813   1.27123   72.165
 5699.00    1.27324   1.26663   72.333
 5700.00    1.26715   1.26036   72.310
 5701.00    1.26096   1.25518   72.094
 5702.00    1.25635   1.25052   71.971
 5703.00    1.25334   1.24502   72.055
 5704.00    1.24993   1.24018   72.192
 5705.00    1.24436   1.23521   72.333
 5706.00    1.23625   1.23103   72.616
 5707.00    1.22741   1.22733   73.074
 5708.00    1.22121   1.22332   73.538
 5709.00    1.21917   1.22306   73.750
 5710.00    1.22040   1.22448   73.502
 5711.00    1.22485   1.22617   72.953
 5712.00    1.23362   1.23322   72.562
 5713.00    1.24571   1.24130   72.544
 5714.00    1.25781   1.24853   72.768
 5715.00    1.26783   1.25937   73.069
 5716.00    1.27588   1.26918   73.349
 5717.00    1.28292   1.27665   73.522
 5718.00    1.29003   1.28536   73.517
 5719.00    1.29748   1.29216   73.355
 5720.00    1.30464   1.29655   73.144
 5721.00    1.31061   1.30107   73.015
 5722.00    1.31447   1.30369   73.066
 5723.00    1.31553   1.30415   73.255
 5724.00    1.31357   1.30447   73.418
 5725.00    1.30945   1.30349   73.411
 5726.00    1.30493   1.30104   73.194
 5727.00    1.30138   1.29922   72.912
 5728.00    1.29942   1.29768   72.801
 5729.00    1.29905   1.29576   72.863
 5730.00    1.29970   1.29480   72.869
 5731.00    1.30048   1.29540   72.658
 5732.00    1.30057   1.29631   72.227
 5733.00    1.30029   1.29676   71.711
 5734.00    1.30074   1.29825   71.230
 5735.00    1.30212   1.30012   70.530
 5736.00    1.30360   1.30081   69.240
 5737.00    1.30426   1.30159   67.738
 5738.00    1.30357   1.30209   66.824
 5739.00    1.30169   1.30189   66.625
 5740.00    1.29949   1.30200    0.000
 5741.00    1.29818   1.30190    0.000
 5742.00    1.29874   1.30152    0.000
 5743.00    1.30066   1.30160    0.000
 5744.00    1.30217   1.30139    0.000
 5745.00    1.30146   1.30080    0.000
 5746.00    1.29740   1.30009    0.000
 5747.00    1.29038   1.29865    0.000
 5748.00    1.28220   1.29720    0.000
 5749.00    1.27520   1.29522    0.000
 5750.00    1.27129   1.29225    0.000
 5751.00    1.27023   1.29027    0.000
 5752.00    1.27066   1.28886    0.000
 5753.00    1.27327   1.28717    0.000
 5754.00    1.27970   1.28669    0.000
 5755.00    1.28843   1.28697    0.000
 5756.00    1.29573   1.28702    0.000
 5757.00    1.29956   1.28810    0.000
 5758.00    1.29992   1.28906    0.000
 5759.00    1.29786   1.28878    0.000
 5760.00    1.29479   1.28902    0.000
 5761.00    1.29172   1.28913    0.000
 5762.00    1.28935   1.28900    0.000
 5763.00    1.28851   1.29072    0.000
 5764.00    1.28981   1.29284    0.000
 5765.00    1.29276   1.29496    0.000
 5766.00    1.29623   1.29890    0.000
 5767.00    1.29966   1.30234    0.000
 5768.00    1.30296   1.30413    0.000
 5769.00    1.30588   1.30592    0.000
 5770.00    1.30812   1.30671    0.000
 5771.00    1.30957   1.30561    0.000
 5772.00    1.31021   1.30444    0.000
 5773.00    1.30979   1.30239    0.000
 5774.00    1.30783   1.29885    0.000
 5775.00    1.30395   1.29555    0.000
 5776.00    1.29771   1.29105    0.000
 5777.00    1.28858   1.28501    0.000
 5778.00    1.27656   1.27910    0.000
 5779.00    1.26340   1.27216    0.000
 5780.00    1.25155   1.26456    0.000
 5781.00    1.24222   1.25821    0.000
 5782.00    1.23615   1.25289    0.000
 5783.00    1.23523   1.24878    0.000
 5784.00    1.24083   1.24700    0.000
 5785.00    1.25098   1.24842    0.000
 5786.00    1.26200   1.25167    0.000
 5787.00    1.27160   1.25500    0.000
 5788.00    1.27935   1.26097    0.000
 5789.00    1.28663   1.26772    0.000
 5790.00    1.29467   1.27274    0.000
 5791.00    1.30176   1.27906    0.000
 5792.00    1.30534   1.28453    0.000
 5793.00    1.30530   1.28825    0.000
 5794.00    1.30349   1.29298    0.000
 5795.00    1.30236   1.29695    0.000
 5796.00    1.30353   1.29967    0.000
 5797.00    1.30634   1.30271    0.000
 5798.00    1.30970   1.30600    0.000
 5799.00    1.31463   1.30814    0.000
 5800.00    1.32211   1.30965    0.000
 5801.00    1.32995   1.31208    0.000
 5802.00    1.33492   1.31342    0.000
 5803.00    1.33585   1.31315    0.000
 5804.00    1.33327   1.31336    0.000
 5805.00    1.32845   1.31308    0.000
 5806.00    1.32306   1.31193    0.000
 5807.00    1.31873   1.31146    0.000
 5808.00    1.31679   1.31116    0.000
 5809.00    1.31783   1.31100    0.000
 5810.00    1.32097   1.31095    0.000
 5811.00    1.32335   1.31058    0.000
 5812.00    1.32280   1.31044    0.000
 5813.00    1.32091   1.31022    0.000
 5814.00    1.32012   1.30983    0.000
 5815.00    1.32043   1.30988    0.000
 5816.00    1.32119   1.31064    0.000
 5817.00    1.32319   1.31200    0.000
 5818.00    1.32729   1.31359    0.000
 5819.00    1.33268   1.31600    0.000
 5820.00    1.33758   1.31907    0.000
 5821.00    1.34020   1.32153    0.000
 5822.00    1.33995   1.32369    0.000
 5823.00    1.33837   1.32579    0.000
 5824.00    1.33769   1.32743    0.000
 5825.00    1.33925   1.32843    0.000
 5826.00    1.34300   1.32931    0.000
 5827.00    1.34727   1.33012    0.000
 5828.00    1.35016   1.33037    0.000
 5829.00    1.35076   1.33040    0.000
 5830.00    1.34872   1.33010    0.000
 5831.00    1.34391   1.32958    0.000
 5832.00    1.33772   1.32899    0.000
 5833.00    1.33384   1.32789    0.000
 5834.00    1.33453   1.32688    0.000
 5835.00    1.33771   1.32658    0.000
 5836.00    1.34030   1.32613    0.000
 5837.00    1.34129   1.32566    0.000
 5838.00    1.34148   1.32631    0.000
 5839.00    1.34264   1.32716    0.000
 5840.00    1.34511   1.32730    0.000
 5841.00    1.34623   1.32746    0.000
 5842.00    1.34411   1.32753    0.000
 5843.00    1.34037   1.32641    0.000
 5844.00    1.33711   1.32428    0.000
 5845.00    1.33454   1.32156    0.000
 5846.00    1.33159   1.31757   -2.000
 5847.00    1.32683   1.31298    0.000
 5848.00    1.32047   1.30801    0.000
 5849.00    1.31527   1.30215    0.000
 5850.00    1.31266   1.29631    0.000
 5851.00    1.31027   1.29038    0.000
 5852.00    1.30565   1.28404    0.000
 5853.00    1.29857   1.27835   -2.000
 5854.00    1.28853   1.27326   -2.000
 5855.00    1.27343   1.26845   -2.000
 5856.00    1.25373   1.26473   -2.000
 5857.00    1.23465   1.26313   -2.000
 5858.00    1.22220   1.26289   -2.000
 5859.00    1.21998   1.26286   -2.000
 5860.00    1.22699   1.26475   -2.000
 5861.00    1.23723   1.26793   -2.000
 5862.00    1.24485   1.27110   -2.000
 5863.00    1.24759   1.27494   -2.000
 5864.00    1.24664   1.27841   -2.000
 5865.00    1.24597   1.28140   -2.000
 5866.00    1.24944   1.28476   -2.000
 5867.00    1.25887   1.28807   -2.000
 5868.00    1.27329   1.29025   -2.000
 5869.00    1.28926   1.29199   -2.000
 5870.00    1.30540   1.29383   -2.000
 5871.00    1.32428   1.29440   -2.000
 5872.00    1.34857   1.29409   -2.000
 5873.00    1.37854   1.29298    0.000
 5874.00    1.41132   1.29078    0.000
 5875.00    1.44093   1.28811    0.000
 5876.00    1.46071   1.28504   -2.000
 5877.00    1.46515   1.28180    0.000
 5878.00    1.45256   1.27801    0.000
 5879.00    1.42617   1.27394    0.000
 5880.00    1.39266   1.26973    0.000
 5881.00    1.36032   1.26421    0.000
 5882.00    1.33410   1.25684    0.000
 5883.00    1.31341   1.24696    0.000
 5884.00    1.29406   1.23480    0.000
 5885.00    1.27003   1.21979    0.000
 5886.00    1.23714   1.20097    0.000
 5887.00    1.19506   1.18090    0.000
 5888.00    1.14861   1.16014    0.000
 5889.00    1.10693   1.13878    0.000
 5890.00    1.07749   1.12239    0.000
 5891.00    1.06317   1.10901    0.000
 5892.00    1.06175   1.09755    0.000
 5893.00    1.06707   1.09585    0.000
 5894.00    1.07492   1.09820    0.000
 5895.00    1.08514   1.10200    0.000
 5896.00    1.09951   1.11412    0.000
 5897.00    1.12023   1.12765    0.000
 5898.00    1.14780   1.14143    0.000
 5899.00    1.18030   1.16140    0.000
 5900.00    1.21402   1.18124    0.000
 5901.00    1.24448   1.19840   -1.000
 5902.00    1.26879   1.21554   -1.000
 5903.00    1.28622   1.23042   -1.000
 5904.00    1.29674   1.24224   51.886
 5905.00    1.30073   1.25187   -1.000
 5906.00    1.30061   1.25907   -1.000
 5907.00    1.30031   1.26404   28.118
 5908.00    1.30134   1.26714    9.783
 5909.00    1.30224   1.26897    7.037
 5910.00    1.30156   1.26967    7.258
 5911.00    1.29891   1.26924    7.949
 5912.00    1.29435   1.26793    7.887
 5913.00    1.28850   1.26629    7.674
 5914.00    1.28347   1.26544    7.739
 5915.00    1.28213   1.26429    7.826
 5916.00    1.28458   1.26356    7.793
 5917.00    1.28820   1.26460    7.770
 5918.00    1.29143   1.26569    7.770
 5919.00    1.29444   1.26783    7.675
 5920.00    1.29716   1.27029    7.622
 5921.00    1.29914   1.27201    7.854
 5922.00    1.30068   1.27446    7.942
 5923.00    1.30260   1.27620    7.261
 5924.00    1.30433   1.27676    7.017
 5925.00    1.30409   1.27772    9.687
 5926.00    1.30108   1.27789   27.527
 5927.00    1.29599   1.27734   -1.000
 5928.00    1.29078   1.27695  135.539
 5929.00    1.28774   1.27597   55.061
 5930.00    1.28755   1.27569   62.915
 5931.00    1.28913   1.27562   82.489
 5932.00    1.29079   1.27520   76.740
 5933.00    1.29128   1.27592   69.301
 5934.00    1.29119   1.27681   70.847
 5935.00    1.29226   1.27781   73.570
 5936.00    1.29452   1.27866   73.135
 5937.00    1.29647   1.27918   72.129
 5938.00    1.29766   1.28050   72.206
 5939.00    1.29872   1.28118   72.836
 5940.00    1.29984   1.28109   73.320
 5941.00    1.30062   1.28168   73.324
 5942.00    1.30058   1.28180   73.018
 5943.00    1.29953   1.28127   72.765
 5944.00    1.29822   1.28137   72.379
 5945.00    1.29766   1.28123   71.520
 5946.00    1.29724   1.28035   70.885
 5947.00    1.29541   1.27923   71.516
 5948.00    1.29216   1.27799   72.927
 5949.00    1.28894   1.27669   73.620
 5950.00    1.28701   1.27503   73.543
 5951.00    1.28664   1.27318   73.807
 5952.00    1.28612   1.27216   74.548
 5953.00    1.28345   1.27218   75.045
 5954.00    1.28021   1.27204   74.986
 5955.00    1.27982   1.27202   74.584
 5956.00    1.28245   1.27364   74.129
 5957.00    1.28590   1.27604   73.825
 5958.00    1.28933   1.27843   73.698
 5959.00    1.29307   1.28132   73.661
 5960.00    1.29679   1.28454   73.680
 5961.00    1.29956   1.28804   73.735
 5962.00    1.30057   1.29111   73.701
 5963.00    1.29979   1.29369   73.468
 5964.00    1.29874   1.29598   73.191
 5965.00    1.29942   1.29759   73.122
 5966.00    1.30218   1.29942   73.240
 5967.00    1.30594   1.30069   73.352
 5968.00    1.30932   1.30140   73.378
 5969.00    1.31132   1.30236   73.325
 5970.00    1.31196   1.30249   73.159
 5971.00    1.31173   1.30188   72.898
 5972.00    1.31030   1.30065   72.792
 5973.00    1.30713   1.29858   73.139
 5974.00    1.30273   1.29582   73.950
 5975.00    1.29836   1.29260   74.950
 5976.00    1.29511   1.28943   75.683
 5977.00    1.29329   1.28616   75.856
 5978.00    1.29173   1.28295   75.875
 5979.00    1.28914   1.28077   76.287
 5980.00    1.28628   1.27876   76.815
 5981.00    1.28448   1.27687   76.876
 5982.00    1.28305   1.27571   76.613
 5983.00    1.28090   1.27444   76.458
 5984.00    1.27939   1.27409   76.286
 5985.00    1.28052   1.27434   75.867
 5986.00    1.28374   1.27450   75.644
 5987.00    1.28733   1.27633   76.057
 5988.00    1.29079   1.27894   76.547
 5989.00    1.29409   1.28141   76.332
 5990.00    1.29622   1.28404   75.713
 5991.00    1.29667   1.28658   75.529
 5992.00    1.29750   1.28923   76.171
 5993.00    1.30076   1.29097   76.852
 5994.00    1.30505   1.29176   75.025
 5995.00    1.30759   1.29242   71.468
 5996.00    1.30757   1.29194   74.008
 5997.00    1.30550   1.29073   85.060
 5998.00    1.30187   1.28951   77.090
 5999.00    1.29724   1.28740   56.480
 6000.00    1.29237   1.28539   70.797
 6001.00    1.28815   1.28337  206.956
 6002.00    1.28526   1.28067   91.884
 6003.00    1.28372   1.27905   14.963
 6004.00    1.28233   1.27703    7.930
 6005.00    1.28007   1.27443    7.099
 6006.00    1.27758   1.27323    7.798
 6007.00    1.27588   1.27171    8.033
 6008.00    1.27475   1.27101    7.845
 6009.00    1.27359   1.27118    8.029
 6010.00    1.27237   1.27027    7.875
 6011.00    1.27135   1.27064    7.175
 6012.00    1.27071   1.27150    7.838
 6013.00    1.27061   1.27145   14.134
 6014.00    1.27128   1.27138   77.084
 6015.00    1.27268   1.27051   -2.000
 6016.00    1.27412   1.26991   76.946
 6017.00    1.27494   1.27002   57.357
 6018.00    1.27512   1.26905   78.791
 6019.00    1.27503   1.26847   89.946
 6020.00    1.27512   1.26910   77.557
 6021.00    1.27593   1.26978   73.751
 6022.00    1.27811   1.27153   76.869
 6023.00    1.28199   1.27389   78.201
 6024.00    1.28723   1.27706   77.244
 6025.00    1.29310   1.28131   76.967
 6026.00    1.29874   1.28516   77.181
 6027.00    1.30331   1.28993   76.803
 6028.00    1.30612   1.29476   76.138
 6029.00    1.30746   1.29872   75.815
 6030.00    1.30910   1.30294   75.804
 6031.00    1.31224   1.30659   75.878
 6032.00    1.31594   1.30966   76.014
 6033.00    1.31899   1.31200   76.115
 6034.00    1.32138   1.31366   75.853
 6035.00    1.32306   1.31511   75.486
 6036.00    1.32303   1.31577   76.197
 6037.00    1.32069   1.31614   77.518
 6038.00    1.31685   1.31626   76.006
 6039.00    1.31298   1.31616   73.402
 6040.00    1.31051   1.31664   79.201
 6041.00    1.31029   1.31694   91.059
 6042.00    1.31222   1.31765   73.936
 6043.00    1.31532   1.31892   55.559
 6044.00    1.31798   1.32007   91.639
 6045.00    1.31959   1.32158   -2.000
 6046.00    1.32136   1.32286   50.240
 6047.00    1.32360   1.32366   11.793
 6048.00    1.32419   1.32403    7.235
 6049.00    1.32199   1.32388    6.977
 6050.00    1.31874   1.32299    7.684
 6051.00    1.31634   1.32145    7.735
 6052.00    1.31492   1.31958    7.613
 6053.00    1.31356   1.31743    7.822
 6054.00    1.31101   1.31520    7.490
 6055.00    1.30729   1.31287    6.922
 6056.00    1.30431   1.31104    8.248
 6057.00    1.30337   1.30950   17.661
 6058.00    1.30370   1.30811  177.856
 6059.00    1.30381   1.30671  206.956
 6060.00    1.30244   1.30549   64.712
 6061.00    1.29977   1.30469   59.116
 6062.00    1.29756   1.30338   82.557
 6063.00    1.29669   1.30280   86.573
 6064.00    1.29612   1.30256   75.899
 6065.00    1.29558   1.30334   75.050
 6066.00    1.29675   1.30593   78.137
 6067.00    1.30066   1.30829   77.906
 6068.00    1.30657   1.31205   76.917
 6069.00    1.31351   1.31675   77.771
 6070.00    1.32104   1.32064   78.281
 6071.00    1.32808   1.32419   77.053
 6072.00    1.33272   1.32617   76.004
 6073.00    1.33399   1.32692   76.307
 6074.00    1.33259   1.32689   76.984
 6075.00    1.32928   1.32469   77.155
 6076.00    1.32425   1.32134   77.072
 6077.00    1.31791   1.31741   77.111
 6078.00    1.31123   1.31271   77.252
 6079.00    1.30534   1.30833   77.179
 6080.00    1.30110   1.30382   76.527
 6081.00    1.29818   1.29982   75.700
 6082.00    1.29506   1.29723   75.789
 6083.00    1.29166   1.29503   76.852
 6084.00    1.28977   1.29313   77.547
 6085.00    1.29011   1.29239   77.270
 6086.00    1.29142   1.29217   76.881
 6087.00    1.29217   1.29198   76.913
 6088.00    1.29149   1.29222   77.023
 6089.00    1.28939   1.29246   77.028
 6090.00    1.28675   1.29321   77.208
 6091.00    1.28466   1.29428   77.712
 6092.00    1.28414   1.29507   78.340
 6093.00    1.28579   1.29645   78.738
 6094.00    1.28964   1.29803   78.592
 6095.00    1.29488   1.29888   78.046
 6096.00    1.29994   1.29895   77.640
 6097.00    1.30312   1.29849   77.585
 6098.00    1.30300   1.29745   77.655
 6099.00    1.29903   1.29472   77.789
 6100.00    1.29187   1.29156   78.174
 6101.00    1.28377   1.28841   78.709
 6102.00    1.27792   1.28551   78.919
 6103.00    1.27572   1.28481   78.464
 6104.00    1.27646   1.28375   77.416
 6105.00    1.27958   1.28379   76.394
 6106.00    1.28507   1.28686   76.194
 6107.00    1.29166   1.29006   76.700
 6108.00    1.29688   1.29394   76.955
 6109.00    1.29945   1.29760   76.668
 6110.00    1.29992   1.30009   76.389
 6111.00    1.30001   1.30341   76.267
 6112.00    1.30149   1.30602   75.974
 6113.00    1.30358   1.30647   75.732
 6114.00    1.30342   1.30626   76.201
 6115.00    1.30031   1.30495   77.202
 6116.00    1.29598   1.30233   77.750
 6117.00    1.29149   1.29948   77.634
 6118.00    1.28666   1.29496   77.526
 6119.00    1.28133   1.28968   77.629
 6120.00    1.27585   1.28580   77.558
 6121.00    1.27111   1.28172   77.187
 6122.00    1.26829   1.27897   76.784
 6123.00    1.26785   1.27795   76.670
 6124.00    1.26945   1.27696   77.009
 6125.00    1.27235   1.27835   77.508
 6126.00    1.27566   1.28077   77.604
 6127.00    1.27864   1.28293   77.271
 6128.00    1.28090   1.28518   76.972
 6129.00    1.28260   1.28624   76.943
 6130.00    1.28390   1.28628   77.107
 6131.00    1.28358   1.28477   77.329
 6132.00    1.27976   1.28196   77.551
 6133.00    1.27253   1.27741   77.944
 6134.00    1.26374   1.27120   78.669
 6135.00    1.25481   1.26541   79.169
 6136.00    1.24646   1.26003   78.616
 6137.00    1.23964   1.25678   77.457
 6138.00    1.23555   1.25526   76.921
 6139.00    1.23534   1.25482   77.302
 6140.00    1.23962   1.25775   78.060
 6141.00    1.24770   1.26274   78.715
 6142.00    1.25757   1.26884   79.022
 6143.00    1.26647   1.27463   78.884
 6144.00    1.27195   1.27941   78.389
 6145.00    1.27411   1.28421   77.890
 6146.00    1.27478   1.28794   77.779
 6147.00    1.27485   1.28999   78.035
 6148.00    1.27420   1.29067   78.347
 6149.00    1.27282   1.29021   78.558
 6150.00    1.27104   1.28948   78.652
 6151.00    1.26962   1.28789   78.559
 6152.00    1.26921   1.28556   78.271
 6153.00    1.26925   1.28268   78.125
 6154.00    1.26838   1.27857   78.451
 6155.00    1.26549   1.27368   78.825
 6156.00    1.25993   1.26696   78.602
 6157.00    1.25138   1.25880   78.234
 6158.00    1.23997   1.24948   78.582
 6159.00    1.22664   1.23913   79.299
 6160.00    1.21290   1.22871   79.495
 6161.00    1.20058   1.21918   79.507
 6162.00    1.19146   1.21149   80.228
 6163.00    1.18686   1.20504   81.339
 6164.00    1.18704   1.20121   81.817
 6165.00    1.19032   1.19989   81.536
 6166.00    1.19424   1.20034   81.029
 6167.00    1.19770   1.20282   80.516
 6168.00    1.20081   1.20581   79.964
 6169.00    1.20404   1.20996   79.432
 6170.00    1.20759   1.21503   78.998
 6171.00    1.21073   1.21976   78.577
 6172.00    1.21283   1.22480   78.175
 6173.00    1.21498   1.23048   78.260
 6174.00    1.21900   1.23618   79.182
 6175.00    1.22555   1.24182   80.220
 6176.00    1.23387   1.24700   80.321
 6177.00    1.24186   1.25164   79.635
 6178.00    1.24746   1.25612   78.971
 6179.00    1.25059   1.25964   78.634
 6180.00    1.25247   1.26246   78.564
 6181.00    1.25432   1.26435   78.715
 6182.00    1.25646   1.26475   79.014
 6183.00    1.25752   1.26390   79.231
 6184.00    1.25587   1.26186   79.185
 6185.00    1.25160   1.25826   79.024
 6186.00    1.24600   1.25404   78.914
 6187.00    1.24036   1.24943   78.635
 6188.00    1.23541   1.24379   78.102
 6189.00    1.23091   1.23945   78.029
 6190.00    1.22687   1.23601   78.981
 6191.00    1.22505   1.23397   80.174
 6192.00    1.22721   1.23439   80.513
 6193.00    1.23262   1.23492   80.264
 6194.00    1.23912   1.23729   80.275
 6195.00    1.24464   1.24105   80.729
 6196.00    1.24761   1.24440   81.284
 6197.00    1.24727   1.24820   81.398
 6198.00    1.24421   1.25129   80.545
 6199.00    1.24082   1.25414   78.502
 6200.00    1.23949   1.25733   75.639
 6201.00    1.24062   1.25974   72.938
 6202.00    1.24351   1.26203   71.122
 6203.00    1.24763   1.26447   70.112
 6204.00    1.25251   1.26658   69.675
 6205.00    1.25748   1.26826   69.948
 6206.00    1.26162   1.26894   71.038
 6207.00    1.26377   1.26808   72.565
 6208.00    1.26325   1.26611   73.984
 6209.00    1.26045   1.26284   75.058
 6210.00    1.25603   1.25775   75.858
 6211.00    1.24998   1.25194   76.651
 6212.00    1.24217   1.24511   77.604
 6213.00    1.23298   1.23809   78.510
 6214.00    1.22389   1.23224   79.131
 6215.00    1.21784   1.22654   79.572
 6216.00    1.21670   1.22205   80.033
 6217.00    1.21909   1.21910   80.529
 6218.00    1.22249   1.21694   80.943
 6219.00    1.22532   1.21681   81.106
 6220.00    1.22699   1.21752   80.797
 6221.00    1.22788   1.21807   79.780
 6222.00    1.22875   1.21936   78.076
 6223.00    1.23027   1.22007   76.100
 6224.00    1.23242   1.22062   74.308
 6225.00    1.23415   1.22090   72.976
 6226.00    1.23399   1.21983   72.371
 6227.00    1.23067   1.21807   72.851
 6228.00    1.22447   1.21601   74.359
 6229.00    1.21794   1.21401   75.984
 6230.00    1.21363   1.21252   76.822
 6231.00    1.21239   1.21221   76.897
 6232.00    1.21401   1.21208   76.738
 6233.00    1.21781   1.21308   76.849
 6234.00    1.22232   1.21474   77.375
 6235.00    1.22517   1.21591   77.968
 6236.00    1.22465   1.21749   78.432
 6237.00    1.22079   1.21747   79.147
 6238.00    1.21459   1.21691   80.157
 6239.00    1.20727   1.21537   80.589
 6240.00    1.19929   1.21251   80.075
 6241.00    1.18982   1.21030   79.635
 6242.00    1.17783   1.20745   80.061
 6243.00    1.16298   1.20571   -1.000
 6244.00    1.14707   1.20499   -1.000
 6245.00    1.13449   1.20447   -1.000
 6246.00    1.12862   1.20532   -1.000
 6247.00    1.12959   1.20618   -1.000
 6248.00    1.13503   1.20674   -1.000
 6249.00    1.14104   1.20682   -1.000
 6250.00    1.14479   1.20604   -1.000
 6251.00    1.14601   1.20421   -1.000
 6252.00    1.14613   1.20201   -1.000
 6253.00    1.14742   1.19885   -1.000
 6254.00    1.15094   1.19540   -1.000
 6255.00    1.15567   1.19252   75.550
 6256.00    1.16062   1.19052   75.684
 6257.00    1.16592   1.19069   76.941
 6258.00    1.17187   1.19190   78.920
 6259.00    1.17829   1.19524   80.477
 6260.00    1.18460   1.19962   80.933
 6261.00    1.18994   1.20482   80.687
 6262.00    1.19392   1.21100   -2.000
 6263.00    1.19688   1.21685   -2.000
 6264.00    1.19977   1.22283   -2.000
 6265.00    1.20397   1.22797   -2.000
 6266.00    1.21073   1.23213   -2.000
 6267.00    1.22061   1.23551   -2.000
 6268.00    1.23165   1.23827   -2.000
 6269.00    1.23940   1.24070   -2.000
 6270.00    1.24114   1.24284   -2.000
 6271.00    1.23785   1.24455   -2.000
 6272.00    1.23326   1.24586   -2.000
 6273.00    1.23226   1.24676   -2.000
 6274.00    1.23609   1.24735   71.565
 6275.00    1.24104   1.24767   72.970
 6276.00    1.24310   1.24737   74.090
 6277.00    1.24033   1.24640   76.272
 6278.00    1.23324   1.24557   79.540
 6279.00    1.22427   1.24476   81.872
 6280.00    1.21512   1.24457    0.000
 6281.00    1.20606   1.24530    0.000
 6282.00    1.19811   1.24595    0.000
 6283.00    1.19355   1.24812    0.000
 6284.00    1.19369   1.25068    0.000
 6285.00    1.19830   1.25377    0.000
 6286.00    1.20667   1.25757    0.000
 6287.00    1.21795   1.26007    0.000
 6288.00    1.23054   1.26236    0.000
 6289.00    1.24209   1.26352    0.000
 6290.00    1.25068   1.26354    0.000
 6291.00    1.25538   1.26323    0.000
 6292.00    1.25668   1.26128    0.000
 6293.00    1.25658   1.25836    0.000
 6294.00    1.25830   1.25490    0.000
 6295.00    1.26550   1.25104    0.000
 6296.00    1.28013   1.24783    0.000
 6297.00    1.30163   1.24466    0.000
 6298.00    1.32715   1.24173    0.000
 6299.00    1.35184   1.23971    0.000
 6300.00    1.36974   1.23866    0.000
 6301.00    1.37526   1.23902    0.000
 6302.00    1.36711   1.24046    0.000
 6303.00    1.34886   1.24272    0.000
 6304.00    1.32609   1.24583   -2.000
 6305.00    1.30474   1.24924    0.000
 6306.00    1.28863   1.25277    0.000
 6307.00    1.27883   1.25582    0.000
 6308.00    1.27400   1.25810    0.000
 6309.00    1.27128   1.25925    0.000
 6310.00    1.26846   1.25923    0.000
 6311.00    1.26456   1.25815    0.000
 6312.00    1.25956   1.25589    0.000
 6313.00    1.25411   1.25331    0.000
 6314.00    1.24918   1.25008    0.000
 6315.00    1.24546   1.24701    0.000
 6316.00    1.24194   1.24503    0.000
 6317.00    1.23677   1.24359    0.000
 6318.00    1.23044   1.24372    0.000
 6319.00    1.22552   1.24465    0.000
 6320.00    1.22335   1.24680    0.000
 6321.00    1.22401   1.25061    8.169
 6322.00    1.22845   1.25433    8.139
 6323.00    1.23774   1.25914    8.083
 6324.00    1.24963   1.26362    8.008
 6325.00    1.25948   1.26792    7.928
 6326.00    1.26502   1.27183    7.891
 6327.00    1.26679   1.27408    7.927
 6328.00    1.26613   1.27637    7.937
 6329.00    1.26464   1.27722    7.815
 6330.00    1.26403   1.27738    7.806
 6331.00    1.26536   1.27657    8.176
 6332.00    1.26756   1.27424    8.189
 6333.00    1.26817   1.27204    7.203
 6334.00    1.26611   1.26936    7.150
 6335.00    1.26199   1.26704   11.933
 6336.00    1.25757   1.26501   54.161
 6337.00    1.25477   1.26356   30.408
 6338.00    1.25408   1.26261    9.442
 6339.00    1.25461   1.26206    6.952
 6340.00    1.25528   1.26224    7.604
 6341.00    1.25528   1.26260    8.423
 6342.00    1.25452   1.26384    8.125
 6343.00    1.25358   1.26457    7.766
 6344.00    1.25332   1.26552    7.875
 6345.00    1.25456   1.26688    8.227
 6346.00    1.25756   1.26792    8.133
 6347.00    1.26208   1.26940    7.395
 6348.00    1.26755   1.27054    7.441
 6349.00    1.27315   1.27166   10.863
 6350.00    1.27787   1.27219   36.575
 6351.00    1.28070   1.27144   -2.000
 6352.00    1.28102   1.26975  206.956
 6353.00    1.27862   1.26728   17.321
 6354.00    1.27363   1.26368    8.505
 6355.00    1.26662   1.25904    7.204
 6356.00    1.25883   1.25394    7.775
 6357.00    1.25175   1.24884    8.257
 6358.00    1.24637   1.24405    8.077
 6359.00    1.24335   1.23991    7.977
 6360.00    1.24355   1.23704    8.040
 6361.00    1.24776   1.23553    7.959
 6362.00    1.25620   1.23539    7.916
 6363.00    1.26792   1.23677    8.130
 6364.00    1.28012   1.23990    7.945
 6365.00    1.28953   1.24440    7.130
 6366.00    1.29481   1.24941    7.364
 6367.00    1.29627   1.25508   11.919
 6368.00    1.29498   1.26103   50.024
 6369.00    1.29256   1.26704   -2.000
 6370.00    1.29088   1.27266   99.389
 6371.00    1.29132   1.27737   57.690
 6372.00    1.29351   1.28141   75.937
 6373.00    1.29591   1.28440   93.983
 6374.00    1.29671   1.28649   82.346
 6375.00    1.29496   1.28753   76.983
 6376.00    1.29185   1.28782   80.556
 6377.00    1.28911   1.28750   82.276
 6378.00    1.28678   1.28640   80.310
 6379.00    1.28407   1.28542   79.297
 6380.00    1.28088   1.28426   80.229
 6381.00    1.27793   1.28332   81.680
 6382.00    1.27647   1.28258   82.337
 6383.00    1.27737   1.28211   81.771
 6384.00    1.28004   1.28218   80.916
 6385.00    1.28334   1.28195   80.764
 6386.00    1.28681   1.28185   80.930
 6387.00    1.29001   1.28138   80.763
 6388.00    1.29162   1.28040   80.810
 6389.00    1.29050   1.27893   81.705
 6390.00    1.28707   1.27661   82.725
 6391.00    1.28237   1.27462   82.842
 6392.00    1.27690   1.27263   82.305
 6393.00    1.27127   1.27103   81.894
 6394.00    1.26705   1.26994   81.846
 6395.00    1.26535   1.26892   81.998
 6396.00    1.26533   1.26825   82.056
 6397.00    1.26534   1.26737   81.866
 6398.00    1.26447   1.26843   81.643
 6399.00    1.26320   1.27032   81.548
 6400.00    1.26371   1.27217   81.269
 6401.00    1.26734   1.27433   80.638
 6402.00    1.27227   1.27589   80.197
 6403.00    1.27609   1.27781   80.383
 6404.00    1.27868   1.27898   80.767
 6405.00    1.28057   1.28032   80.945
 6406.00    1.28120   1.28196   81.427
 6407.00    1.27990   1.28203   82.526
 6408.00    1.27699   1.28119   83.254
 6409.00    1.27331   1.28018   82.835
 6410.00    1.26965   1.27908   82.229
 6411.00    1.26668   1.27818   82.459
 6412.00    1.26486   1.27729   83.134
 6413.00    1.26412   1.27690   83.449
 6414.00    1.26370   1.27672   83.205
 6415.00    1.26302   1.27618   82.582
 6416.00    1.26236   1.27574   81.820
 6417.00    1.26198   1.27562   81.195
 6418.00    1.26141   1.27558   80.992
 6419.00    1.26032   1.27613   81.188
 6420.00    1.25938   1.27756   81.255
 6421.00    1.25962   1.27891   80.856
 6422.00    1.26191   1.28077   80.358
 6423.00    1.26648   1.28281   80.064
 6424.00    1.27250   1.28500   79.678
 6425.00    1.27820   1.28706   79.076
 6426.00    1.28112   1.28867   78.774
 6427.00    1.28009   1.28938   78.862
 6428.00    1.27648   1.28868   78.364
 6429.00    1.27249   1.28793   76.788
 6430.00    1.26969   1.28676   75.071
 6431.00    1.26837   1.28591   74.118
 6432.00    1.26745   1.28499   73.985
 6433.00    1.26621   1.28431   74.321
 6434.00    1.26541   1.28410   74.683
 6435.00    1.26558   1.28381   74.901
 6436.00    1.26592   1.28461   75.278
 6437.00    1.26595   1.28653   75.996
 6438.00    1.26649   1.28869   76.771
 6439.00    1.26833   1.29097   77.457
 6440.00    1.27129   1.29340   78.416
 6441.00    1.27489   1.29560   79.736
 6442.00    1.27870   1.29761   80.754
 6443.00    1.28229   1.29889   80.926
 6444.00    1.28508   1.29990   80.465
 6445.00    1.28599   1.29962   79.961
 6446.00    1.28349   1.29680   79.987
 6447.00    1.27727   1.29285   80.651
 6448.00    1.26908   1.28935   81.431
 6449.00    1.26096   1.28559   81.840
 6450.00    1.25428   1.28261   81.865
 6451.00    1.24952   1.28011   81.758
 6452.00    1.24653   1.27806   -1.000
 6453.00    1.24590   1.27723   -1.000
 6454.00    1.24919   1.27768   82.921
 6455.00    1.25592   1.28011   83.396
 6456.00    1.26259   1.28276   83.179
 6457.00    1.26655   1.28461   82.404
 6458.00    1.26788   1.28603   81.912
 6459.00    1.26756   1.28577   81.536
 6460.00    1.26645   1.28565   79.787
 6461.00    1.26540   1.28666   76.515
 6462.00    1.26531   1.28710   73.392
 6463.00    1.26723   1.28789   71.274
 6464.00    1.27206   1.28825   69.784
 6465.00    1.27906   1.28930   68.932
 6466.00    1.28557   1.28990   69.446
 6467.00    1.28947   1.29112   71.507
 6468.00    1.29038   1.29312   74.231
 6469.00    1.28929   1.29429   76.495
 6470.00    1.28810   1.29540   77.602
 6471.00    1.28770   1.29536   77.734
 6472.00    1.28749   1.29503   77.849
 6473.00    1.28708   1.29422   78.474
 6474.00    1.28671   1.29364   79.341
 6475.00    1.28590   1.29263   80.113
 6476.00    1.28328   1.29137   80.690
 6477.00    1.27866   1.29031   81.023
 6478.00    1.27342   1.28829   81.054
 6479.00    1.26858   1.28574   80.866
 6480.00    1.26431   1.28361   80.713
 6481.00    1.26082   1.28201   80.872
 6482.00    1.25857   1.28021   81.493
 6483.00    1.25756   1.27834   82.203
 6484.00    1.25723   1.27654   82.212
 6485.00    1.25772   1.27442   81.491
 6486.00    1.25974   1.27150   80.860
 6487.00    1.26258   1.26801   80.581
 6488.00    1.26384   1.26344   80.210
 6489.00    1.26133   1.25718   79.801
 6490.00    1.25384   1.24900   79.988
 6491.00    1.24153   1.23875   80.787
 6492.00    1.22582   1.22848   81.497
 6493.00    1.20875   1.21850   81.975
 6494.00    1.19265   1.20955   82.663
 6495.00    1.17972   1.20339   82.860
 6496.00    1.17183   1.19912   81.004
 6497.00    1.17056   1.19877   77.744
 6498.00    1.17680   1.20089   75.394
 6499.00    1.18952   1.20639   74.764
 6500.00    1.20593   1.21507   75.233
 6501.00    1.22346   1.22452   76.266
 6502.00    1.24026   1.23550   77.655
 6503.00    1.25475   1.24545   79.058
 6504.00    1.26560   1.25490   79.963
 6505.00    1.27196   1.26310   80.182
 6506.00    1.27401   1.26954   79.925
 6507.00    1.27433   1.27489   79.432
 6508.00    1.27664   1.27843   78.859
 6509.00    1.28119   1.28069   78.313
 6510.00    1.28494   1.28181   77.886
 6511.00    1.28573   1.28183   77.702
 6512.00    1.28337   1.28089   77.908
 6513.00    1.27888   1.27940   78.631
 6514.00    1.27386   1.27813   79.730
 6515.00    1.26959   1.27652   80.139
 6516.00    1.26659   1.27507   78.592
 6517.00    1.26469   1.27449   76.017
 6518.00    1.26359   1.27425   74.447
 6519.00    1.26465   1.27459   74.031
 6520.00    1.26984   1.27527   73.674
 6521.00    1.27821   1.27675   73.493
 6522.00    1.28636   1.27835   74.521
 6523.00    1.29171   1.27954   76.632
 6524.00    1.29331   1.28089   78.559
 6525.00    1.29168   1.28195   79.612
 6526.00    1.28839   1.28261   79.975
 6527.00    1.28530   1.28286   79.850
 6528.00    1.28388   1.28280    0.000
 6529.00    1.28448   1.28266    0.000
 6530.00    1.28641   1.28236    0.000
 6531.00    1.28884   1.28236    0.000
 6532.00    1.29118   1.28290    0.000
 6533.00    1.29352   1.28359    0.000
 6534.00    1.29646   1.28412    0.000
 6535.00    1.30054   1.28465    0.000
 6536.00    1.30583   1.28513    0.000
 6537.00    1.31141   1.28541    0.000
 6538.00    1.31603   1.28514    0.000
 6539.00    1.31962   1.28420    0.000
 6540.00    1.32421   1.28231    0.000
 6541.00    1.33489   1.27940    0.000
 6542.00    1.35896   1.27576    0.000
 6543.00    1.40379   1.27110    0.000
 6544.00    1.47490   1.26665    0.000
 6545.00    1.57311   1.26176    0.000
 6546.00    1.69153   1.25681    0.000
 6547.00    1.81114   1.25177    0.000
 6548.00    1.90546   1.24663    0.000
 6549.00    1.95046   1.24155    0.000
 6550.00    1.93182   1.23572    0.000
 6551.00    1.85415   1.22948    0.000
 6552.00    1.73839   1.22215    0.000
 6553.00    1.61421   1.21334    0.000
 6554.00    1.51430   1.20302    0.000
 6555.00    1.46756   1.19066    0.000
 6556.00    1.50605   1.17639    0.000
 6557.00    1.67792   1.16034    0.000
 6558.00    2.04205   1.14295    0.000
 6559.00    2.65404   1.12405    0.000
 6560.00    3.52470   1.10660    0.000
 6561.00    4.55999   1.09461    0.000
 6562.00    5.57390   1.08609    0.000
 6563.00    6.32634   1.08211    0.000
 6564.00    6.60452   1.08324    0.000
 6565.00    6.33486   1.08941    0.000
 6566.00    5.58909   1.09925    0.000
 6567.00    4.56471   1.11264    0.000
 6568.00    3.51047   1.13038    0.000
 6569.00    2.62288   1.14780    0.000
 6570.00    2.00864   1.16346    0.000
 6571.00    1.65573   1.17753    0.000
 6572.00    1.48286   1.18952    0.000
 6573.00    1.41265   1.19996    0.000
 6574.00    1.38903   1.20905    0.000
 6575.00    1.38688   1.21725    0.000
 6576.00    1.40446   1.22424    0.000
 6577.00    1.45192   1.23051    0.000
 6578.00    1.54867   1.23624    0.000
 6579.00    1.72079   1.24167    0.000
 6580.00    1.98485   1.24688    0.000
 6581.00    2.32795   1.25114    0.000
 6582.00    2.70338   1.25486    0.000
 6583.00    3.03036   1.25743    0.000
 6584.00    3.22438   1.25970    0.000
 6585.00    3.23397   1.26124    0.000
 6586.00    3.05311   1.26204    0.000
 6587.00    2.72916   1.26230    0.000
 6588.00    2.34125   1.26123    0.000
 6589.00    1.97290   1.25953    0.000
 6590.00    1.68579   1.25676    0.000
 6591.00    1.49520   1.25459    0.000
 6592.00    1.38576   1.25290    0.000
 6593.00    1.33199   1.25121    0.000
 6594.00    1.30880   1.25037    0.000
 6595.00    1.30024   1.25015    0.000
 6596.00    1.29794   1.25093    0.000
 6597.00    1.29853   1.25263    0.000
 6598.00    1.30118   1.25536    0.000
 6599.00    1.30547   1.25843    0.000
 6600.00    1.31064   1.26106    0.000
 6601.00    1.31520   1.26305    0.000
 6602.00    1.31757   1.26428    0.000
 6603.00    1.31676   1.26482    0.000
 6604.00    1.31255   1.26484    0.000
 6605.00    1.30564   1.26437    0.000
 6606.00    1.29762   1.26345    0.000
 6607.00    1.29081   1.26296    0.000
 6608.00    1.28689   1.26290    0.000
 6609.00    1.28578   1.26323   81.000
 6610.00    1.28638   1.26432   80.978
 6611.00    1.28742   1.26589   81.027
 6612.00    1.28850   1.26848   81.282
 6613.00    1.29079   1.27104   80.960
 6614.00    1.29503   1.27401   79.802
 6615.00    1.29994   1.27692   79.023
 6616.00    1.30386   1.27933   79.352
 6617.00    1.30612   1.28126   79.781
 6618.00    1.30679   1.28231   79.508
 6619.00    1.30635   1.28294   79.396
 6620.00    1.30540   1.28253   80.022
 6621.00    1.30436   1.28149   80.325
 6622.00    1.30305   1.27973   79.651
 6623.00    1.30048   1.27794   79.179
 6624.00    1.29652   1.27570   79.693
 6625.00    1.29284   1.27335   80.222
 6626.00    1.29052   1.27094   80.051
 6627.00    1.28863   1.26847   80.076
 6628.00    1.28614   1.26618   80.777
 6629.00    1.28332   1.26394   80.979
 6630.00    1.28042   1.26218   80.100
 6631.00    1.27691   1.26056   79.465
 6632.00    1.27303   1.25961   79.860
 6633.00    1.27047   1.25901   80.265
 6634.00    1.27042   1.25879   79.935
 6635.00    1.27230   1.25896   79.649
 6636.00    1.27488   1.25948   79.962
 6637.00    1.27708   1.26017   80.242
 6638.00    1.27848   1.26101   79.938
 6639.00    1.27940   1.26201   79.341
 6640.00    1.27996   1.26246   78.887
 6641.00    1.27961   1.26289   78.715
 6642.00    1.27803   1.26327   78.812
 6643.00    1.27566   1.26337   79.107
 6644.00    1.27366   1.26341   79.601
 6645.00    1.27350   1.26352   80.357
 6646.00    1.27531   1.26392   81.076
 6647.00    1.27733   1.26409   81.023
 6648.00    1.27864   1.26450   80.293
 6649.00    1.28031   1.26501   80.131
 6650.00    1.28255   1.26550   81.023
 6651.00    1.28366   1.26575   81.971
 6652.00    1.28255   1.26584   82.053
 6653.00    1.27990   1.26562   81.359
 6654.00    1.27698   1.26505   80.502
 6655.00    1.27482   1.26426   80.136
 6656.00    1.27351   1.26299   80.341
 6657.00    1.27206   1.26151   80.523
 6658.00    1.26958   1.25947   80.412
 6659.00    1.26587   1.25751   80.379
 6660.00    1.26131   1.25502   80.430
 6661.00    1.25681   1.25290   79.955
 6662.00    1.25350   1.25118   78.920
 6663.00    1.25247   1.24967   78.137
 6664.00    1.25379   1.24902   78.026
 6665.00    1.25646   1.24881   78.284
 6666.00    1.25981   1.24970   78.597
 6667.00    1.26394   1.25080   78.899
 6668.00    1.26890   1.25260   79.057
 6669.00    1.27431   1.25440   78.834
 6670.00    1.27915   1.25590   78.416
 6671.00    1.28221   1.25700   78.404
 6672.00    1.28377   1.25701   78.946
 6673.00    1.28570   1.25629   79.547
 6674.00    1.28892   1.25445   79.776
 6675.00    1.29268   1.25207   -1.000
 6676.00    1.29616   1.24957   -1.000
 6677.00    1.29907   1.24734   -1.000
 6678.00    1.30136   1.24527   -1.000
 6679.00    1.30291   1.24407   -1.000
 6680.00    1.30285   1.24374   -1.000
 6681.00    1.29985   1.24430   -1.000
 6682.00    1.29436   1.24563   -1.000
 6683.00    1.28868   1.24771   -1.000
 6684.00    1.28436   1.25030   78.468
 6685.00    1.28158   1.25274   78.219
 6686.00    1.28040   1.25527   78.535
 6687.00    1.28088   1.25707   78.788
 6688.00    1.28190   1.25851   78.662
 6689.00    1.28144   1.25930   78.422
 6690.00    1.27901   1.25960   78.342
 6691.00    1.27585   1.25934   78.501
 6692.00    1.27292   1.25866   78.812
 6693.00    1.27045   1.25769   79.110
 6694.00    1.26856   1.25663   79.397
 6695.00    1.26737   1.25570   79.817
 6696.00    1.26638   1.25477    0.000
 6697.00    1.26480   1.25420    0.000
 6698.00    1.26261   1.25367    0.000
 6699.00    1.26078   1.25346    0.000
 6700.00    1.26041   1.25334    0.000
 6701.00    1.26204   1.25344    0.000
 6702.00    1.26426   1.25371    0.000
 6703.00    1.26462   1.25390    0.000
 6704.00    1.26333   1.25419    0.000
 6705.00    1.26299   1.25395    0.000
 6706.00    1.26481   1.25369    0.000
 6707.00    1.26855   1.25286    0.000
 6708.00    1.27521   1.25164    0.000
 6709.00    1.28836   1.25012    0.000
 6710.00    1.31586   1.24787    0.000
 6711.00    1.36961   1.24539    0.000
 6712.00    1.46395   1.24216    0.000
 6713.00    1.60901   1.23894    0.000
 6714.00    1.79573   1.23551    0.000
 6715.00    1.99482   1.23247    0.000
 6716.00    2.16409   1.23019    0.000
 6717.00    2.25933   1.22837    0.000
 6718.00    2.25520   1.22771    0.000
 6719.00    2.15172   1.22768    0.000
 6720.00    1.97652   1.22873    0.000
 6721.00    1.77562   1.23033    0.000
 6722.00    1.59114   1.23248    0.000
 6723.00    1.45331   1.23496    0.000
 6724.00    1.37473   1.23749    0.000
 6725.00    1.35449   1.24011    0.000
 6726.00    1.38989   1.24229    0.000
 6727.00    1.47669   1.24425    0.000
 6728.00    1.60409   1.24573    0.000
 6729.00    1.75247   1.24708    0.000
 6730.00    1.89137   1.24792    0.000
 6731.00    1.98617   1.24860    0.000
 6732.00    2.01240   1.24878    0.000
 6733.00    1.96177   1.24871    0.000
 6734.00    1.84779   1.24825    0.000
 6735.00    1.70005   1.24737   -2.000
 6736.00    1.55089   1.24631    0.000
 6737.00    1.42734   1.24490    0.000
 6738.00    1.34115   1.24347    0.000
 6739.00    1.29026   1.24189    0.000
 6740.00    1.26519   1.24037    0.000
 6741.00    1.25397   1.23892    0.000
 6742.00    1.24895   1.23758    0.000
 6743.00    1.24648   1.23626    0.000
 6744.00    1.24434   1.23504    0.000
 6745.00    1.24159   1.23389    0.000
 6746.00    1.23925   1.23303    0.000
 6747.00    1.23886   1.23225    0.000
 6748.00    1.23997   1.23168    0.000
 6749.00    1.24121   1.23159    0.000
 6750.00    1.24290   1.23170    0.000
 6751.00    1.24583   1.23273    0.000
 6752.00    1.24875   1.23395    0.000
 6753.00    1.25005   1.23596   78.117
 6754.00    1.25096   1.23836   78.320
 6755.00    1.25359   1.24119   78.001
 6756.00    1.25740   1.24428   77.555
 6757.00    1.26057   1.24712   77.650
 6758.00    1.26298   1.25010   77.778
 6759.00    1.26541   1.25215   77.172
 6760.00    1.26772   1.25398   76.417
 6761.00    1.26923   1.25489   76.512
 6762.00    1.26950   1.25500   77.401
 6763.00    1.26819   1.25450   78.383
 6764.00    1.26469   1.25343   78.945
 6765.00    1.25901   1.25209   78.998
 6766.00    1.25296   1.25055   78.972
 6767.00    1.24887   1.24929   79.294
 6768.00    1.24761   1.24827   79.720
 6769.00    1.24870   1.24799   79.774
 6770.00    1.25086   1.24837   79.462
 6771.00    1.25307   1.24940   79.104
 6772.00    1.25575   1.25098   78.969
 6773.00    1.25971   1.25296   79.020
 6774.00    1.26474   1.25521   78.705
 6775.00    1.26980   1.25734   77.737
 6776.00    1.27365   1.25909   76.937
 6777.00    1.27543   1.25993   77.008
 6778.00    1.27530   1.26011   77.215
 6779.00    1.27363   1.25933   76.667
 6780.00    1.27009   1.25779   75.924
 6781.00    1.26444   1.25551   75.857
 6782.00    1.25749   1.25287   76.319
 6783.00    1.25054   1.25015   76.778
 6784.00    1.24454   1.24745   77.130
 6785.00    1.24008   1.24531   77.476
 6786.00    1.23734   1.24356   77.753
 6787.00    1.23626   1.24245   77.652
 6788.00    1.23666   1.24179   76.624
 6789.00    1.23840   1.24164   74.345
 6790.00    1.24148   1.24189   71.122
 6791.00    1.24581   1.24238   67.701
 6792.00    1.25081   1.24317   64.929
 6793.00    1.25539   1.24387   63.182
 6794.00    1.25793   1.24481   62.144
 6795.00    1.25753   1.24568   61.557
 6796.00    1.25515   1.24665   61.725
 6797.00    1.25273   1.24779   62.728
 6798.00    1.25219   1.24894   63.705
 6799.00    1.25389   1.25001   64.108
 6800.00    1.25568   1.25107   64.982
 6801.00    1.25583   1.25201   67.228
 6802.00    1.25553   1.25269   69.835
 6803.00    1.25639   1.25324   71.258
 6804.00    1.25816   1.25344   71.408
 6805.00    1.25970   1.25339   71.047
 6806.00    1.26004   1.25327   70.757
 6807.00    1.25872   1.25296   70.931
 6808.00    1.25600   1.25266   71.844
 6809.00    1.25287   1.25226   73.363
 6810.00    1.25087   1.25187   74.692
 6811.00    1.25086   1.25171   75.233
 6812.00    1.25205   1.25167   75.388
 6813.00    1.25331   1.25174   75.742
 6814.00    1.25420   1.25196   76.326
 6815.00    1.25484   1.25238   76.809
 6816.00    1.25569   1.25285   76.749
 6817.00    1.25673   1.25368   76.159
 6818.00    1.25694   1.25458   75.772
 6819.00    1.25565   1.25558   76.040
 6820.00    1.25333   1.25659   76.540
 6821.00    1.25049   1.25753   76.679
 6822.00    1.24703   1.25839   76.188
 6823.00    1.24373   1.25904   74.541
 6824.00    1.24279   1.25948   70.932
 6825.00    1.24407   1.25968   66.090
 6826.00    1.24335   1.25978   62.102
 6827.00    1.23857   1.25966   59.598
 6828.00    1.23334   1.25952   57.515
 6829.00    1.23145   1.25932   55.677
 6830.00    1.23381   1.25907   55.404
 6831.00    1.24286   1.25876   56.598
 6832.00    1.26429   1.25825   56.443
 6833.00    1.29919   1.25756   53.657
 6834.00    1.33988   1.25635   -1.000
 6835.00    1.37541   1.25496   -1.000
 6836.00    1.39605   1.25302   -1.000
 6837.00    1.39900   1.25088   -1.000
 6838.00    1.39054   1.24852   -1.000
 6839.00    1.37877   1.24626   -1.000
 6840.00    1.36891   1.24442   -1.000
 6841.00    1.36109   1.24298   -1.000
 6842.00    1.35057   1.24230   -1.000
 6843.00    1.33488   1.24227   -1.000
 6844.00    1.31718   1.24300   -1.000
 6845.00    1.30207   1.24415   -1.000
 6846.00    1.29241   1.24568   64.989
 6847.00    1.28502   1.24721   65.453
 6848.00    1.27180   1.24855   65.756
 6849.00    1.25671   1.24940   65.488
 6850.00    1.25858   1.24954   63.390
 6851.00    1.28036   1.24921   60.119
 6852.00    1.29985   1.24826   58.092
 6853.00    1.30251   1.24679   -1.000
 6854.00    1.29458   1.24518   58.989
 6855.00    1.28609   1.24338   59.836
 6856.00    1.28216   1.24165   60.780
 6857.00    1.28361   1.24027   61.970
 6858.00    1.28761   1.23942   -1.000
 6859.00    1.28926   1.23908   -1.000
 6860.00    1.28444   1.23905   64.444
 6861.00    1.27915   1.23941   64.774
 6862.00    1.28770   1.24001   -1.000
 6863.00    1.30714   1.24081   -1.000
 6864.00    1.31526   1.24162   -1.000
 6865.00    1.31026   1.24249   -1.000
 6866.00    1.31635   1.24307   -1.000
 6867.00    1.33485   1.24340   -1.000
 6868.00    1.33710   1.24375   -1.000
 6869.00    1.31943   1.24413   -1.000
 6870.00    1.31198   1.24450   -1.000
 6871.00    1.32261   1.24505   -1.000
 6872.00    1.32641   1.24576   -1.000
 6873.00    1.31328   1.24676   -1.000
 6874.00    1.29903   1.24782   -1.000
 6875.00    1.29514   1.24912   61.371
 6876.00    1.29927   1.25034   60.393
 6877.00    1.30464   1.25144   -1.000
 6878.00    1.30472   1.25236   -1.000
 6879.00    1.29659   1.25313   62.233
 6880.00    1.28231   1.25379   65.195
 6881.00    1.26894   1.25415   68.065
 6882.00    1.26493   1.25476   68.463
 6883.00    1.26785   1.25537   66.359
 6884.00    1.26717   1.25636   64.105
 6885.00    1.26732   1.25753   62.315
 6886.00    1.28506   1.25914   60.111
 6887.00    1.31559   1.26093   -1.000
 6888.00    1.33344   1.26283   -1.000
 6889.00    1.33063   1.26486   -1.000
 6890.00    1.32119   1.26666   -1.000
 6891.00    1.31580   1.26831   65.113
 6892.00    1.31562   1.26953   66.729
 6893.00    1.31862   1.27050   -1.000
 6894.00    1.32181   1.27107   -1.000
 6895.00    1.32172   1.27133   -1.000
 6896.00    1.31581   1.27154   67.720
 6897.00    1.30577   1.27169   68.153
 6898.00    1.29648   1.27191   67.947
 6899.00    1.29046   1.27223   66.703
 6900.00    1.28728   1.27278   64.911
 6901.00    1.28644   1.27352   63.181
 6902.00    1.28866   1.27450   61.896
 6903.00    1.29673   1.27554   60.987
 6904.00    1.31247   1.27662   60.261
 6905.00    1.32814   1.27756   60.217
 6906.00    1.33142   1.27827   -1.000
 6907.00    1.32346   1.27860   64.013
 6908.00    1.31600   1.27856   65.462
 6909.00    1.31268   1.27797   64.663
 6910.00    1.30930   1.27707   61.923
 6911.00    1.30640   1.27586   58.789
 6912.00    1.30803   1.27432   56.770
 6913.00    1.31152   1.27294   56.237
 6914.00    1.30962   1.27151   56.891
 6915.00    1.30116   1.27054   58.473
 6916.00    1.29063   1.26973   60.847
 6917.00    1.28163   1.26933   63.971
 6918.00    1.27612   1.26919   67.220
 6919.00    1.27639   1.26912   67.657
 6920.00    1.28309   1.26929   63.778
 6921.00    1.29032   1.26932   62.321
 6922.00    1.29082   1.26950   69.153
 6923.00    1.28885   1.26942   69.994
 6924.00    1.29333   1.26945   53.749
 6925.00    1.29867   1.26937   54.640
 6926.00    1.29228   1.26932   -1.000
 6927.00    1.27759   1.26954  155.251
 6928.00    1.26820   1.26966   19.427
 6929.00    1.26733   1.27021    8.754
 6930.00    1.26907   1.27066    7.114
 6931.00    1.26886   1.27135    7.657
 6932.00    1.26577   1.27200    8.236
 6933.00    1.26289   1.27272    8.018
 6934.00    1.26403   1.27354    7.730
 6935.00    1.26784   1.27424    7.805
 6936.00    1.27003   1.27498    8.140
 6937.00    1.26933   1.27540    8.042
 6938.00    1.26702   1.27574    7.301
 6939.00    1.26424   1.27580    7.488
 6940.00    1.26201   1.27562   11.564
 6941.00    1.26197   1.27530   38.145
 6942.00    1.26466   1.27475   -1.000
 6943.00    1.26673   1.27421   67.114
 6944.00    1.26436   1.27347   45.890
 6945.00    1.25965   1.27289   57.999
 6946.00    1.25723   1.27235   71.199
 6947.00    1.25739   1.27205   66.111
 6948.00    1.25725   1.27194   63.028
 6949.00    1.25440   1.27198   65.801
 6950.00    1.24857   1.27225   67.901
 6951.00    1.24332   1.27263   67.595
 6952.00    1.24264   1.27328   67.477
 6953.00    1.24586   1.27402   67.930
 6954.00    1.24949   1.27518   67.965
 6955.00    1.25113   1.27647   67.843
 6956.00    1.25079   1.27808   68.273
 6957.00    1.25173   1.27978   68.768
 6958.00    1.25691   1.28168   68.409
 6959.00    1.26391   1.28358   67.316
 6960.00    1.26860   1.28546   66.204
 6961.00    1.27075   1.28731   65.514
 6962.00    1.27194   1.28888   65.270
 6963.00    1.27188   1.29034   65.036
 6964.00    1.27013   1.29139   64.323
 6965.00    1.26870   1.29224   63.122
 6966.00    1.26950   1.29264   61.847
 6967.00    1.27088   1.29272   61.130
 6968.00    1.27006   1.29232   61.341
 6969.00    1.26674   1.29135   62.112
 6970.00    1.26288   1.28986   62.693
 6971.00    1.26172   1.28759   62.517
 6972.00    1.26395   1.28485   61.612
 6973.00    1.26384   1.28158   60.820
 6974.00    1.25694   1.27809   60.849
 6975.00    1.24869   1.27465   61.414
 6976.00    1.24522   1.27152   61.996
 6977.00    1.24267   1.26906   62.778
 6978.00    1.23620   1.26748   64.053
 6979.00    1.23065   1.26710   65.399
 6980.00    1.23189   1.26784   66.173
 6981.00    1.23685   1.26974   66.300
 6982.00    1.24089   1.27241   66.005
 6983.00    1.24593   1.27563   65.374
 6984.00    1.25450   1.27904   64.468
 6985.00    1.26322   1.28232   63.488
 6986.00    1.26750   1.28519   62.774
 6987.00    1.26689   1.28751   62.766
 6988.00    1.26331   1.28928   63.453
 6989.00    1.25894   1.29048   63.899
 6990.00    1.25598   1.29115   63.400
 6991.00    1.25653   1.29140   62.665
 6992.00    1.26048   1.29122   62.525
 6993.00    1.26399   1.29079   62.823
 6994.00    1.26416   1.29010   63.107
 6995.00    1.26308   1.28922   63.308
 6996.00    1.26303   1.28809   63.544
 6997.00    1.26233   1.28677   63.885
 6998.00    1.25882   1.28536   64.301
 6999.00    1.25301   1.28391   64.653
 7000.00    1.24681   1.28259   64.770
 7001.00    1.24207   1.28137   -2.000
 7002.00    1.24001   1.28048   -2.000
 7003.00    1.24081   1.27979   -2.000
 7004.00    1.24333   1.27947   -2.000
 7005.00    1.24525   1.27938   -2.000
 7006.00    1.24559   1.27957   -2.000
 7007.00    1.24626   1.27982   -2.000
 7008.00    1.24841   1.28000   -2.000
 7009.00    1.25003   1.27999   -2.000
 7010.00    1.24968   1.27983   -2.000
 7011.00    1.24905   1.27947   -2.000
 7012.00    1.24927   1.27884   -2.000
 7013.00    1.24846   1.27805   -2.000
 7014.00    1.24596   1.27722   -2.000
 7015.00    1.24486   1.27656   -2.000
 7016.00    1.24758   1.27607   -2.000
 7017.00    1.25283   1.27599   -2.000
 7018.00    1.25784   1.27623   -2.000
 7019.00    1.26021   1.27694   -2.000
 7020.00    1.25916   1.27782   -2.000
 7021.00    1.25614   1.27895   -2.000
 7022.00    1.25255   1.28016   -2.000
 7023.00    1.24856   1.28146   -2.000
 7024.00    1.24451   1.28282   -2.000
 7025.00    1.24173   1.28416   -2.000
 7026.00    1.24119   1.28566   -2.000
 7027.00    1.24270   1.28714   -2.000
 7028.00    1.24570   1.28878   -2.000
 7029.00    1.24968   1.29029   -2.000
 7030.00    1.25383   1.29178   -2.000
 7031.00    1.25699   1.29302   -2.000
 7032.00    1.25891   1.29425   -2.000
 7033.00    1.26064   1.29538   -2.000
 7034.00    1.26194   1.29650   -2.000
 7035.00    1.26061   1.29775   -2.000
 7036.00    1.25675   1.29919   -2.000
 7037.00    1.25432   1.30104   -2.000
 7038.00    1.25570   1.30322   -2.000
 7039.00    1.25928   1.30597   -2.000
 7040.00    1.26236   1.30899   -2.000
 7041.00    1.26338   1.31234   -2.000
 7042.00    1.26442   1.31560   -2.000
 7043.00    1.27064   1.31861   -2.000
 7044.00    1.28120   1.32105   -2.000
 7045.00    1.28725   1.32264   -2.000
 7046.00    1.28561   1.32319   -2.000
 7047.00    1.28308   1.32252   -2.000
 7048.00    1.28349   1.32059   -2.000
 7049.00    1.28287   1.31742   -2.000
 7050.00    1.27748   1.31314   -2.000
 7051.00    1.26746   1.30788   -2.000
 7052.00    1.25531   1.30188   -2.000
 7053.00    1.24452   1.29554   -2.000
 7054.00    1.23720   1.28912   -2.000
 7055.00    1.23311   1.28296   -2.000
 7056.00    1.23007   1.27727   -2.000
 7057.00    1.22506   1.27219   -2.000
 7058.00    1.21795   1.26783   -2.000
 7059.00    1.21199   1.26407   -2.000
 7060.00    1.20927   1.26109   -2.000
 7061.00    1.20935   1.25856   -2.000
 7062.00    1.21197   1.25674   -2.000
 7063.00    1.21748   1.25526   -2.000
 7064.00    1.22409   1.25442   -2.000
 7065.00    1.22778   1.25394   -2.000
 7066.00    1.22658   1.25406   -2.000
 7067.00    1.22189   1.25468   -2.000
 7068.00    1.21703   1.25584   -2.000
 7069.00    1.21560   1.25759   -2.000
 7070.00    1.21762   1.25970   -2.000
 7071.00    1.21983   1.26231   -2.000
 7072.00    1.22173   1.26492   -2.000
 7073.00    1.22592   1.26764   -2.000
 7074.00    1.23103   1.26992   -2.000
 7075.00    1.23173   1.27178   -2.000
 7076.00    1.22761   1.27281   -2.000
 7077.00    1.22402   1.27299   -2.000
 7078.00    1.22425   1.27208   -2.000
 7079.00    1.22728   1.27006   -2.000
 7080.00    1.22958   1.26690   -2.000
 7081.00    1.22706   1.26263   -2.000
 7082.00    1.21947   1.25743   -2.000
 7083.00    1.21020   1.25153   -2.000
 7084.00    1.20123   1.24510   -2.000
 7085.00    1.19244   1.23860   -2.000
 7086.00    1.18458   1.23215   -2.000
 7087.00    1.17927   1.22624   -2.000
 7088.00    1.17643   1.22091   -2.000
 7089.00    1.17435   1.21653   -2.000
 7090.00    1.17232   1.21307   -2.000
 7091.00    1.17099   1.21061   -2.000
 7092.00    1.17122   1.20922   -2.000
 7093.00    1.17342   1.20862   -2.000
 7094.00    1.17658   1.20907   -2.000
 7095.00    1.17893   1.20996   -2.000
 7096.00    1.18043   1.21175   -2.000
 7097.00    1.18242   1.21362   -2.000
 7098.00    1.18509   1.21606   -2.000
 7099.00    1.18739   1.21835   -2.000
 7100.00    1.18855   1.22080   -2.000
 7101.00    1.18850   1.22297   -2.000
 7102.00    1.18813   1.22493   -2.000
 7103.00    1.18830   1.22661   -2.000
 7104.00    1.18783   1.22785   -2.000
 7105.00    1.18502   1.22887   -2.000
 7106.00    1.18267   1.22941   -2.000
 7107.00    1.18526   1.22987   -2.000
 7108.00    1.18966   1.22999   -2.000
 7109.00    1.18848   1.23020   -2.000
 7110.00    1.18296   1.23030   -2.000
 7111.00    1.18035   1.23065   -2.000
 7112.00    1.18163   1.23108   -2.000
 7113.00    1.18232   1.23174   -2.000
 7114.00    1.18056   1.23253   -2.000
 7115.00    1.17769   1.23336   -2.000
 7116.00    1.17575   1.23416   -2.000
 7117.00    1.17634   1.23468   -2.000
 7118.00    1.17954   1.23491   -2.000
 7119.00    1.18408   1.23462   -2.000
 7120.00    1.18816   1.23382   -2.000
 7121.00    1.19029   1.23242   -2.000
 7122.00    1.19050   1.23043   -2.000
 7123.00    1.18924   1.22802   -2.000
 7124.00    1.18502   1.22511   -2.000
 7125.00    1.17688   1.22212   -2.000
 7126.00    1.16982   1.21894   -2.000
 7127.00    1.17057   1.21606   -2.000
 7128.00    1.17786   1.21343   -2.000
 7129.00    1.18651   1.21146   -2.000
 7130.00    1.19781   1.21014   -2.000
 7131.00    1.21564   1.20964   -2.000
 7132.00    1.23662   1.20996   -2.000
 7133.00    1.25529   1.21096   -2.000
 7134.00    1.27571   1.21267   -2.000
 7135.00    1.30441   1.21469   -2.000
 7136.00    1.33522   1.21704   -2.000
 7137.00    1.35656   1.21932   -2.000
 7138.00    1.36715   1.22152   -2.000
 7139.00    1.36998   1.22337   -2.000
 7140.00    1.35873   1.22487   -2.000
 7141.00    1.32695   1.22594   -2.000
 7142.00    1.28511   1.22661   -2.000
 7143.00    1.25088   1.22695   -2.000
 7144.00    1.23016   1.22705   -2.000
 7145.00    1.22111   1.22710   -2.000
 7146.00    1.22445   1.22727   -2.000
 7147.00    1.24067   1.22772   -2.000
 7148.00    1.26409   1.22864   -2.000
 7149.00    1.28554   1.23008   -2.000
 7150.00    1.29784   1.23210   -2.000
 7151.00    1.29851   1.23465   -2.000
 7152.00    1.29220   1.23750   -2.000
 7153.00    1.28614   1.24052   -2.000
 7154.00    1.28335   1.24329   -2.000
 7155.00    1.28384   1.24581   -2.000
 7156.00    1.28722   1.24747   -2.000
 7157.00    1.29217   1.24854   -2.000
 7158.00    1.29522   1.24838   -2.000
 7159.00    1.29233   1.24767   -2.000
 7160.00    1.28119   1.24578   -2.000
 7161.00    1.26423   1.24367   -2.000
 7162.00    1.25139   1.24091   -2.000
 7163.00    1.25051   1.23843   -2.000
 7164.00    1.25579   1.23607   -2.000
 7165.00    1.25676   1.23434   -2.000
 7166.00    1.25068   1.23334   -2.000
 7167.00    1.24206   1.23305   -2.000
 7168.00    1.23984   1.23362   -2.000
 7169.00    1.24952   1.23457   -2.000
 7170.00    1.26495   1.23605   -2.000
 7171.00    1.27514   1.23742   -2.000
 7172.00    1.27301   1.23881   -2.000
 7173.00    1.25823   1.23968   -2.000
 7174.00    1.23856   1.24018   -2.000
 7175.00    1.22183   1.24005   -2.000
 7176.00    1.20774   1.23947   -2.000
 7177.00    1.19410   1.23841   -2.000
 7178.00    1.18380   1.23706   -2.000
 7179.00    1.18026   1.23550   -2.000
 7180.00    1.18226   1.23383   -2.000
 7181.00    1.18555   1.23218   -2.000
 7182.00    1.18519   1.23054   -2.000
 7183.00    1.17831   1.22899   -2.000
 7184.00    1.16643   1.22752   -2.000
 7185.00    1.15360   1.22618   -2.000
 7186.00    1.14434   1.22502   -2.000
 7187.00    1.14199   1.22406   -2.000
 7188.00    1.14729   1.22344   -2.000
 7189.00    1.15830   1.22314   -2.000
 7190.00    1.17051   1.22330   -2.000
 7191.00    1.17914   1.22382   -2.000
 7192.00    1.18143   1.22471   -2.000
 7193.00    1.17918   1.22588   -2.000
 7194.00    1.18009   1.22716   -2.000
 7195.00    1.19092   1.22850   -2.000
 7196.00    1.21150   1.22970   -2.000
 7197.00    1.23490   1.23075   -2.000
 7198.00    1.24929   1.23149   -2.000
 7199.00    1.24963   1.23195   -2.000
 7200.00    1.24529   1.23206   -2.000
 7201.00    1.24445   1.23189   -2.000
 7202.00    1.24295   1.23141   -2.000
 7203.00    1.23712   1.23077   -2.000
 7204.00    1.23308   1.22999   -2.000
 7205.00    1.23609   1.22926   -2.000
 7206.00    1.24285   1.22866   -2.000
 7207.00    1.24883   1.22835   -2.000
 7208.00    1.25326   1.22844   -2.000
 7209.00    1.25293   1.22897   -2.000
 7210.00    1.23950   1.23002   -2.000
 7211.00    1.21416   1.23149   -2.000
 7212.00    1.19509   1.23335   -2.000
 7213.00    1.19645   1.23546   -2.000
 7214.00    1.21484   1.23770   -2.000
 7215.00    1.23852   1.24003   -2.000
 7216.00    1.25543   1.24225   -2.000
 7217.00    1.26011   1.24445   -2.000
 7218.00    1.25673   1.24649   -2.000
