###################################################################
## OUTPUT of StarlightChains_v04.for    [Cid@UFSC - 01/Apr/2007] ##
###################################################################

## Some input info
2011gd.txt                               [arq_obs]
Base.CB07.vall.4m                        [arq_base]
Masks.EmLines.NEW.gm                     [arq_masks]
StCv04.C11.config                        [arq_config]
   66                                    [N_base]
    0                                    [N_YAV_components = # of components with extra extinction!]
    0                                    [i_FitPowerLaw (1/0 = Yes/No)]
-9.99                                    [alpha_PowerLaw]
CCM                                      [red_law_option]
 1.458241                                [q_norm = A(l_norm)/A(V)]

## (Re)Sampling Parameters
 3741.00                                 [l_ini (A)]
 7218.00                                 [l_fin (A)]
    1.00                                 [dl    (A)]     (OBS: dl_cushion =    50.00 A)

## Normalization info
 4020.00                                 [l_norm (A) - for base]
 4010.00                                 [llow_norm (A) - window for f_obs]
 4060.00                                 [lupp_norm (A) - window for f_obs]
1.833995E-15                             [fobs_norm (in input units)]

## S/N
 3691.00                                 [llow_SN (A) - window for S/N]
 7268.00                                 [lupp_SN (A) - window for S/N]
   6.966                                 [S/N in S/N window]
   5.824                                 [S/N in norm. window]
  72.850                                 [S/N_err in S/N window]
  60.904                                 [S/N_err in norm. window]
  1.0000                                 [fscale_chi2]

## etc...
    -2007376                             [idum_orig]
  2383                                   [NOl_eff]
  2287                                   [Nl_eff]
    96    NSIGMA                         [Ntot_cliped & clip_method]
  2482410                                [Nglobal_steps]
   7                                     [N_chains]
  33                                     [NEX0s_base = N_base in EX0s-fits]
 0   0   1        9   2.0   1.983E+02    [Clip-Bug, RC-Crash & Burn-In warning-flags, n_censored_weights, wei_nsig_threshold & wei_limit]
    19     19.202     18.699      0.503  [idt_all, wdt_TotTime, wdt_UsrTime & wdt_SysTime (sec)]

## Synthesis Results - Best model ##

 1.26634E+00                             [chi2/Nl_eff]
     1.16121                             [adev (%)]

   106.34115                             [sum-of-x (%)]
 4.41646E-15                             [Flux_tot (units of input spectrum!)]
 1.57240E-10                             [Mini_tot (???)]
 7.97146E-11                             [Mcor_tot (???)]

 -28.17                                  [v0_min  (km/s)]
 185.96                                  [vd_min  (km/s)]
 0.6086                                  [AV_min  (mag)]
 0.0000                                  [YAV_min (mag)]

# j     x_j(%)      Mini_j(%)     Mcor_j(%)     age_j(yr)     Z_j      (L/M)_j    YAV?  Mstars   component_j        a/Fe...       SSP_chi2r SSP_adev(%)   SSP_AV   SSP_x(%)
  1      1.2203     2.9461E-03    5.8113E-03    1.000000E+06  0.00400  1.094E-02    0   1.0000   age020_m42            0.0000     2.4067E+01     4.5670   3.5921    90.6416
  2      0.3874     2.5535E-04    5.0364E-04    3.160000E+06  0.00400  4.007E-02    0   0.9999   age045_m42            0.0000     1.7974E+01     3.8232   2.8891    95.8719
  3      0.0000     0.0000E+00    0.0000E+00    5.010000E+06  0.00400  2.539E-02    0   0.9488   age055_m42            0.0000     1.9422E+01     3.9687   3.1965    94.0740
  4      0.6107     6.1569E-04    1.1197E-03    6.610000E+06  0.00400  2.620E-02    0   0.9220   age061_m42            0.0000     1.6256E+01     3.7007   2.8101    96.3439
  5      0.2526     5.0474E-04    8.8232E-04    1.000000E+07  0.00400  1.322E-02    0   0.8862   age070_m42            0.0000     1.2079E+01     3.2513   2.4826   100.4822
  6      1.3682     4.5841E-03    7.7502E-03    1.445000E+07  0.00400  7.883E-03    0   0.8571   age078_m42            0.0000     1.3853E+01     3.4021   2.8101    97.9230
  7      2.3834     1.1989E-02    1.9330E-02    2.512000E+07  0.00400  5.251E-03    0   0.8174   age090_m42            0.0000     1.2084E+01     3.3143   2.3460   101.3452
  8      2.8163     2.0386E-02    3.1570E-02    4.000000E+07  0.00400  3.649E-03    0   0.7851   age104_m42            0.0000     1.0911E+01     3.2073   2.1263   101.8293
  9      4.3852     3.7386E-02    5.6261E-02    5.500000E+07  0.00400  3.098E-03    0   0.7629   age110_m42            0.0000     1.1707E+01     3.3391   2.3044   100.6948
 10      0.0000     0.0000E+00    0.0000E+00    1.015200E+08  0.00400  2.228E-03    0   0.7207   age116_m42            0.0000     1.2495E+01     3.5061   2.3400   100.1840
 11      0.0000     0.0000E+00    0.0000E+00    2.861200E+08  0.00400  1.093E-03    0   0.6648   age125_m42            0.0000     1.2391E+01     3.7326   1.7590   103.8072
 12      0.0000     0.0000E+00    0.0000E+00    5.088000E+08  0.00400  6.597E-04    0   0.6365   age130_m42            0.0000     1.1677E+01     3.7011   1.7731   103.5302
 13      2.2035     2.7298E-01    3.1220E-01    1.434000E+09  0.00400  2.132E-04    0   0.5798   age139_m42            0.0000     5.2463E+00     2.6515   0.8147   104.9766
 14      0.0000     0.0000E+00    0.0000E+00    4.250000E+09  0.00400  5.895E-05    0   0.5377   age158_m42            0.0000     6.3666E+00     2.8681   0.3947   100.0741
 15      1.5302     1.1515E+00    1.1838E+00    7.500000E+09  0.00400  3.510E-05    0   0.5212   age171_m42            0.0000     8.4939E+00     3.2952   0.2189    98.9097
 16      4.2608     5.6129E+00    5.5735E+00    1.300000E+10  0.00400  2.005E-05    0   0.5034   age193_m42            0.0000     1.1421E+01     3.7642   0.0643    97.9559
 17      0.0035     6.1054E-03    5.9818E-03    1.800000E+10  0.00400  1.525E-05    0   0.4967   age213_m42            0.0000     1.0906E+01     3.6619   0.0380    97.6630
 18      5.7592     1.2287E-02    2.4237E-02    1.000000E+06  0.00800  1.238E-02    0   1.0000   age020_m52            0.0000     2.4040E+01     4.5690   3.5898    90.7634
 19      1.7587     1.5111E-03    2.9707E-03    3.160000E+06  0.00800  3.074E-02    0   0.9966   age045_m52            0.0000     2.3501E+01     4.5013   3.5144    91.5167
 20      0.0000     0.0000E+00    0.0000E+00    5.010000E+06  0.00800  2.668E-02    0   0.9443   age055_m52            0.0000     1.9305E+01     3.9904   3.2742    93.4411
 21      0.0089     1.0999E-05    1.9910E-05    6.610000E+06  0.00800  2.136E-02    0   0.9177   age061_m52            0.0000     7.6617E+00     2.5329   1.9823   101.6509
 22      1.0637     2.3124E-03    4.0263E-03    1.000000E+07  0.00800  1.215E-02    0   0.8827   age070_m52            0.0000     1.2662E+01     3.3543   2.6475   100.9367
 23      3.5082     1.0630E-02    1.7932E-02    1.445000E+07  0.00800  8.717E-03    0   0.8552   age078_m52            0.0000     1.2534E+01     3.2421   2.7753    99.2817
 24      0.8776     4.1452E-03    6.6737E-03    2.512000E+07  0.00800  5.592E-03    0   0.8162   age090_m52            0.0000     1.1301E+01     3.2457   2.4095   102.5700
 25      0.0000     0.0000E+00    0.0000E+00    4.000000E+07  0.00800  3.896E-03    0   0.7841   age104_m52            0.0000     1.0946E+01     3.2580   2.3341   102.7899
 26      0.0000     0.0000E+00    0.0000E+00    1.015200E+08  0.00800  2.148E-03    0   0.7226   age116_m52            0.0000     1.0875E+01     3.2938   2.2971   101.4856
 27      0.0000     0.0000E+00    0.0000E+00    2.861200E+08  0.00800  9.925E-04    0   0.6683   age125_m52            0.0000     1.0360E+01     3.5353   1.8367   104.5372
 28      0.0000     0.0000E+00    0.0000E+00    9.047900E+08  0.00800  3.141E-04    0   0.6138   age135_m52            0.0000     8.0877E+00     3.3095   1.0742   107.1720
 29      0.0000     0.0000E+00    0.0000E+00    1.434000E+09  0.00800  1.719E-04    0   0.5853   age139_m52            0.0000     5.6724E+00     2.7727   0.4886   105.3191
 30      0.0000     0.0000E+00    0.0000E+00    2.500000E+09  0.00800  7.872E-05    0   0.5600   age150_m52            0.0000     8.9503E+00     3.4346   0.2489   101.2217
 31      0.0000     0.0000E+00    0.0000E+00    4.250000E+09  0.00800  4.336E-05    0   0.5426   age158_m52            0.0000     9.8174E+00     3.5512   0.2344   100.2534
 32      0.0000     0.0000E+00    0.0000E+00    6.250000E+09  0.00800  3.159E-05    0   0.5319   age166_m52            0.0000     1.4499E+01     4.3219   0.0510    99.4515
 33      2.9771     5.7776E+00    5.7815E+00    1.300000E+10  0.00800  1.361E-05    0   0.5073   age193_m52            0.0000     2.2262E+01     5.4094  -0.3935    97.7964
 34     10.3182     2.7567E+01    2.7134E+01    1.800000E+10  0.00800  9.886E-06    0   0.4990   age213_m52            0.0000     2.9563E+01     6.2781  -0.4794    96.4054
 35      2.1826     3.7337E-03    7.3649E-03    1.000000E+06  0.02000  1.544E-02    0   1.0000   age020_m62            0.0000     2.4272E+01     4.6090   3.5839    91.0544
 36      7.3460     5.1576E-03    1.0029E-02    3.160000E+06  0.02000  3.762E-02    0   0.9858   age045_m62            0.0000     2.4186E+01     4.6020   3.5254    91.7693
 37      0.0000     0.0000E+00    0.0000E+00    5.010000E+06  0.02000  3.296E-02    0   0.9342   age055_m62            0.0000     1.8595E+01     3.9489   3.1639    94.9159
 38      6.6905     1.5313E-02    2.6765E-02    8.710000E+06  0.02000  1.154E-02    0   0.8861   age067_m62            0.0000     2.7521E+01     5.9271   2.0097   108.1675
 39      0.0000     0.0000E+00    0.0000E+00    1.445000E+07  0.02000  7.663E-03    0   0.8472   age078_m62            0.0000     1.4175E+01     3.8200   2.2674   104.5477
 40      0.1383     8.0621E-04    1.2880E-03    2.512000E+07  0.02000  4.532E-03    0   0.8099   age090_m62            0.0000     1.6046E+01     4.0666   2.2564   104.4292
 41      0.0000     0.0000E+00    0.0000E+00    5.500000E+07  0.02000  2.733E-03    0   0.7595   age110_m62            0.0000     1.0030E+01     3.0909   2.3140   102.1883
 42      0.0000     0.0000E+00    0.0000E+00    1.609000E+08  0.02000  1.369E-03    0   0.6985   age120_m62            0.0000     1.0616E+01     3.3989   2.1861   103.4084
 43      0.0000     0.0000E+00    0.0000E+00    2.861200E+08  0.02000  9.013E-04    0   0.6714   age125_m62            0.0000     1.0854E+01     3.6340   1.9527   105.5322
 44      0.0000     0.0000E+00    0.0000E+00    5.088000E+08  0.02000  5.028E-04    0   0.6449   age130_m62            0.0000     1.1546E+01     3.8197   1.6128   106.5244
 45      0.0000     0.0000E+00    0.0000E+00    9.047900E+08  0.02000  2.428E-04    0   0.6179   age135_m62            0.0000     7.9101E+00     3.2341   1.0369   105.5005
 46      0.0000     0.0000E+00    0.0000E+00    1.434000E+09  0.02000  1.263E-04    0   0.5908   age139_m62            0.0000     7.9356E+00     3.2148   0.5954   103.8714
 47      0.0000     0.0000E+00    0.0000E+00    2.500000E+09  0.02000  5.985E-05    0   0.5673   age150_m62            0.0000     1.3764E+01     4.2943   0.2524   101.4569
 48      0.0000     0.0000E+00    0.0000E+00    4.250000E+09  0.02000  3.271E-05    0   0.5468   age158_m62            0.0000     2.2783E+01     5.5994  -0.0235    99.3408
 49      2.9161     5.6633E+00    5.7721E+00    1.000000E+10  0.02000  1.360E-05    0   0.5167   age181_m62            0.0000     3.5848E+01     7.0317  -0.3373    97.4951
 50      2.2047     8.1742E+00    8.0829E+00    1.800000E+10  0.02000  7.124E-06    0   0.5013   age213_m62            0.0000     4.7709E+01     8.1423  -0.5181    95.5416
 51      2.2350     2.2775E-03    4.4915E-03    1.000000E+06  0.05000  2.592E-02    0   0.9998   age020_m72            0.0000     2.4839E+01     4.7002   3.5720    91.2176
 52      0.6335     3.4536E-04    6.5241E-04    3.160000E+06  0.05000  4.845E-02    0   0.9577   age045_m72            0.0000     2.2761E+01     4.3885   3.4190    92.5457
 53      0.0000     0.0000E+00    0.0000E+00    5.010000E+06  0.05000  3.072E-02    0   0.9147   age055_m72            0.0000     1.6599E+01     3.8137   2.8818    99.3714
 54      0.0000     0.0000E+00    0.0000E+00    6.610000E+06  0.05000  1.455E-02    0   0.8877   age061_m72            0.0000     6.7871E+01     8.6749   2.0303   110.9006
 55      0.0000     0.0000E+00    0.0000E+00    1.000000E+07  0.05000  9.074E-03    0   0.8524   age070_m72            0.0000     2.7974E+01     4.7461   3.0729    98.9521
 56      0.0000     0.0000E+00    0.0000E+00    2.512000E+07  0.05000  4.250E-03    0   0.7902   age090_m72            0.0000     1.9918E+01     4.1502   2.7717   100.6780
 57      0.0000     0.0000E+00    0.0000E+00    4.000000E+07  0.05000  3.087E-03    0   0.7618   age104_m72            0.0000     2.0370E+01     4.2972   2.5388   102.5714
 58      0.0000     0.0000E+00    0.0000E+00    1.015200E+08  0.05000  1.700E-03    0   0.7096   age116_m72            0.0000     1.2234E+01     3.6149   2.3140   103.6759
 59      0.0000     0.0000E+00    0.0000E+00    2.861200E+08  0.05000  7.384E-04    0   0.6633   age125_m72            0.0000     1.0397E+01     3.6019   1.8389   106.0890
 60      4.7450     3.2817E-01    4.1247E-01    5.088000E+08  0.05000  3.819E-04    0   0.6372   age130_m72            0.0000     8.6855E+00     3.3189   1.3739   106.5179
 61     15.3068     2.4122E+00    2.9073E+00    9.047900E+08  0.05000  1.676E-04    0   0.6110   age135_m72            0.0000     1.3509E+01     4.3630   0.7085   103.3512
 62      0.0000     0.0000E+00    0.0000E+00    1.434000E+09  0.05000  8.837E-05    0   0.5874   age139_m72            0.0000     1.5349E+01     4.5124   0.2551   102.7835
 63      5.4993     3.4314E+00    3.7891E+00    2.500000E+09  0.05000  4.233E-05    0   0.5598   age150_m72            0.0000     2.6297E+01     6.0253  -0.0155    99.8188
 64      2.9001     5.3379E+00    5.5268E+00    6.250000E+09  0.05000  1.435E-05    0   0.5249   age166_m72            0.0000     4.0378E+01     7.4881  -0.4257    96.7409
 65      0.0000     0.0000E+00    0.0000E+00    1.300000E+10  0.05000  6.513E-06    0   0.5036   age193_m72            0.0000     5.6444E+01     8.8666  -0.6683    96.1158
 66      5.8492     3.4127E+01    3.3288E+01    1.800000E+10  0.05000  4.527E-06    0   0.4945   age213_m72            0.0000     6.7636E+01     9.7020  -0.8049    94.9243


## Synthesis Results - Average & Chains ##

# j      x_j: min, <> & last-chain-values for 1 ...  7 chains
  1      1.2203      1.0229      1.0638      1.0820      0.9621      0.9703      0.9969      1.0158      1.1543
  2      0.3874      0.6405      0.6054      0.5706      0.6187      0.6677      0.6081      0.6950      0.6343
  3      0.0000      0.0498      0.0091      0.0000      0.1096      0.1735      0.0000      0.0000      0.0304
  4      0.6107      1.2923      1.1481      1.1361      1.4045      0.9449      0.8086      1.2702      1.1675
  5      0.2526      0.7585      0.7908      0.8632      0.8403      0.8587      0.7382      0.5747      0.6129
  6      1.3682      1.4611      1.6478      1.5161      1.5901      1.5523      1.3682      1.4375      1.5435
  7      2.3834      2.4438      2.4798      2.4568      2.6472      2.4043      2.6644      2.2828      2.5952
  8      2.8163      3.2229      3.3269      3.4194      2.8964      3.2026      3.0850      3.1757      3.3114
  9      4.3852      4.7401      4.6027      4.8117      4.0999      4.8895      4.8667      5.0640      4.7103
 10      0.0000      0.0402      0.0000      0.0000      0.0533      0.0000      0.0000      0.0159      0.0695
 11      0.0000      0.0398      0.0000      0.1368      0.0000      0.0000      0.0000      0.1257      0.0000
 12      0.0000      0.0464      0.0000      0.0214      0.0000      0.0000      0.0089      0.0777      0.0000
 13      2.2035      1.3425      1.5036      1.6749      1.7136      1.9612      1.2540      0.8675      1.3943
 14      0.0000      0.4527      0.0050      0.6861      0.0000      0.4490      0.0049      0.4796      0.1135
 15      1.5302      2.1987      2.1287      2.0993      1.9085      2.2311      2.0342      2.0593      2.2161
 16      4.2608      5.5801      5.8431      5.0577      5.2981      5.5274      5.6225      5.5319      5.6733
 17      0.0035      0.5165      0.4152      0.4134      0.1571      0.4006      0.4182      0.8177      0.5407
 18      5.7592      5.2016      5.3062      5.2902      5.2069      5.2670      5.3263      5.2736      5.1495
 19      1.7587      1.5925      1.5589      1.5805      1.7952      1.5576      1.7877      1.5850      1.8420
 20      0.0000      0.0284      0.0394      0.0000      0.1010      0.0000      0.0654      0.0000      0.0000
 21      0.0089      0.6518      0.7721      0.7159      0.6172      0.0780      0.6794      1.0718      0.5226
 22      1.0637      1.0094      0.8738      1.2209      1.2258      1.1457      0.8969      0.8987      1.2186
 23      3.5082      3.5893      3.6976      3.5888      3.6530      3.7148      3.6639      3.6695      3.5595
 24      0.8776      0.7574      0.8128      0.7359      1.1068      0.7745      0.7497      0.3610      0.9349
 25      0.0000      0.0474      0.0000      0.0359      0.0000      0.0000      0.0578      0.1759      0.0000
 26      0.0000      0.0325      0.0000      0.0000      0.0923      0.0000      0.0000      0.0000      0.0000
 27      0.0000      0.0520      0.0000      0.0000      0.0524      0.0336      0.0000      0.0000      0.0000
 28      0.0000      0.1754      0.1368      0.0000      0.2895      0.0067      0.6026      0.0000      0.0000
 29      0.0000      0.0839      0.0065      0.0000      0.0105      0.0000      0.0029      0.1756      0.0000
 30      0.0000      0.0821      0.0000      0.0109      0.0000      0.0000      0.3035      0.0000      0.0000
 31      0.0000      0.0552      0.0000      0.0000      0.0000      0.0000      0.0000      0.0000      0.0000
 32      0.0000      0.0412      0.0000      0.0000      0.1549      0.0000      0.0000      0.0000      0.0289
 33      2.9771      2.5629      2.5842      2.7161      2.6838      2.5850      2.5629      2.5791      2.5854
 34     10.3182     10.1257      9.9977     10.3088     10.2159     10.0099     10.1481     10.1548     10.2417
 35      2.1826      1.9037      1.8894      2.0418      1.8994      2.0462      2.0039      1.8998      1.9706
 36      7.3460      6.9016      7.0111      6.9891      7.0315      6.8677      7.1040      6.9573      7.0832
 37      0.0000      0.0693      0.0643      0.0154      0.0000      0.0666      0.0000      0.0000      0.0144
 38      6.6905      5.0327      5.0547      5.0478      5.0591      5.2882      5.1599      5.0494      4.9477
 39      0.0000      0.2344      0.3086      0.2006      0.0810      0.0688      0.0919      0.3575      0.0441
 40      0.1383      0.6742      0.4639      0.7464      0.7949      0.7290      0.4774      0.7256      0.9266
 41      0.0000      0.0475      0.0000      0.0000      0.0659      0.0106      0.0000      0.0000      0.3398
 42      0.0000      0.0415      0.0000      0.0000      0.0000      0.0438      0.0532      0.0000      0.0000
 43      0.0000      0.0494      0.0000      0.0000      0.1049      0.0000      0.0000      0.0913      0.0003
 44      0.0000      0.1084      0.2196      0.0000      0.0000      0.3612      0.0000      0.0753      0.2478
 45      0.0000      0.1507      0.1308      0.1333      0.0000      0.0000      0.0066      0.0000      0.0619
 46      0.0000      0.2218      0.0000      0.1104      0.0000      0.0000      0.1888      0.0000      0.0000
 47      0.0000      0.1091      0.0068      0.0793      0.0188      0.0517      0.0000      0.0000      0.0000
 48      0.0000      0.1780      0.3289      0.2009      0.2260      0.1685      0.2123      0.1451      0.0084
 49      2.9161      2.6663      2.6404      2.9533      2.6613      2.8964      2.6817      2.7705      2.7884
 50      2.2047      2.1969      2.1405      2.0268      2.3360      2.2036      2.2625      2.0955      2.1911
 51      2.2350      2.1095      2.1422      2.0157      2.0178      2.1401      2.2120      2.2995      2.1767
 52      0.6335      0.9671      1.0604      0.7361      1.0169      0.9038      0.9033      1.0021      0.7896
 53      0.0000      0.3145      0.3015      0.1228      0.0000      0.3520      0.6156      0.2732      0.0000
 54      0.0000      0.0251      0.0000      0.0000      0.0000      0.0000      0.0000      0.0000      0.0000
 55      0.0000      0.0178      0.0000      0.0000      0.0000      0.1250      0.0000      0.0000      0.0285
 56      0.0000      0.0298      0.0000      0.0299      0.0000      0.0000      0.0000      0.0000      0.0000
 57      0.0000      0.0272      0.0000      0.0000      0.0000      0.0000      0.0000      0.0000      0.0000
 58      0.0000      0.0193      0.0000      0.0000      0.1442      0.0000      0.0000      0.0548      0.0000
 59      0.0000      0.0544      0.2267      0.1744      0.0000      0.0730      0.0000      0.0140      0.0000
 60      4.7450      1.7185      1.8122      1.7558      1.8212      1.8474      2.3607      2.1488      1.9797
 61     15.3068     12.5561     13.0901     12.9666     13.6605     13.0146     12.6655     13.1649     13.3259
 62      0.0000      0.2998      0.3283      0.2477      0.0000      0.0000      0.3710      0.0412      0.2540
 63      5.4993      6.2911      6.2306      6.3895      6.2777      6.2964      6.4189      6.3453      5.8954
 64      2.9001      2.5168      2.5299      2.4308      2.8978      2.5594      2.5493      2.4360      2.4815
 65      0.0000      0.3774      0.4782      0.1743      0.3254      0.2863      0.2444      0.4418      0.3787
 66      5.8492      6.2595      6.2985      6.3641      6.2070      6.3557      6.2255      6.2909      6.3549

# j      m_j: min, <> & last-chain-values for 1 ...  7 chains
  1  5.8113E-03  4.6478E-03  4.8330E-03  4.9384E-03  4.3770E-03  4.4050E-03  4.5576E-03  4.5998E-03  5.2157E-03
  2  5.0364E-04  7.9450E-04  7.5082E-04  7.1100E-04  7.6842E-04  8.2751E-04  7.5898E-04  8.5924E-04  7.8251E-04
  3  0.0000E+00  9.2484E-05  1.6920E-05  0.0000E+00  2.0389E-04  3.2195E-04  0.0000E+00  0.0000E+00  5.6125E-05
  4  1.1197E-03  2.2606E-03  2.0082E-03  1.9963E-03  2.4599E-03  1.6515E-03  1.4232E-03  2.2145E-03  2.0310E-03
  5  8.8232E-04  2.5273E-03  2.6349E-03  2.8892E-03  2.8034E-03  2.8589E-03  2.4751E-03  1.9087E-03  2.0309E-03
  6  7.7502E-03  7.8968E-03  8.9044E-03  8.2308E-03  8.6044E-03  8.3827E-03  7.4406E-03  7.7430E-03  8.2960E-03
  7  1.9330E-02  1.8909E-02  1.9186E-02  1.9096E-02  2.0509E-02  1.8588E-02  2.0745E-02  1.7605E-02  1.9971E-02
  8  3.1570E-02  3.4468E-02  3.5577E-02  3.6734E-02  3.1015E-02  3.4223E-02  3.3198E-02  3.3850E-02  3.5219E-02
  9  5.6261E-02  5.8023E-02  5.6334E-02  5.9164E-02  5.0248E-02  5.9801E-02  5.9942E-02  6.1781E-02  5.7341E-02
 10  0.0000E+00  6.4663E-04  0.0000E+00  0.0000E+00  8.5809E-04  0.0000E+00  0.0000E+00  2.5552E-04  1.1113E-03
 11  0.0000E+00  1.2033E-03  0.0000E+00  4.1555E-03  0.0000E+00  0.0000E+00  0.0000E+00  3.7878E-03  0.0000E+00
 12  0.0000E+00  2.2247E-03  0.0000E+00  1.0314E-03  0.0000E+00  0.0000E+00  4.2993E-04  3.7145E-03  0.0000E+00
 13  3.1220E-01  1.8148E-01  2.0324E-01  2.2743E-01  2.3194E-01  2.6489E-01  1.7057E-01  1.1687E-01  1.8745E-01
 14  0.0000E+00  2.0526E-01  2.2609E-03  3.1247E-01  0.0000E+00  2.0339E-01  2.2552E-03  2.1673E-01  5.1155E-02
 15  1.1838E+00  1.6229E+00  1.5710E+00  1.5565E+00  1.4105E+00  1.6454E+00  1.5108E+00  1.5149E+00  1.6267E+00
 16  5.5735E+00  6.9641E+00  7.2914E+00  6.3405E+00  6.6205E+00  6.8925E+00  7.0605E+00  6.8809E+00  7.0414E+00
 17  5.9818E-03  8.3628E-01  6.7218E-01  6.7233E-01  2.5459E-01  6.4803E-01  6.8119E-01  1.3194E+00  8.7057E-01
 18  2.4237E-02  2.0886E-02  2.1303E-02  2.1337E-02  2.0933E-02  2.1130E-02  2.1518E-02  2.1104E-02  2.0562E-02
 19  2.9707E-03  2.5665E-03  2.5119E-03  2.5585E-03  2.8966E-03  2.5081E-03  2.8989E-03  2.5457E-03  2.9521E-03
 20  0.0000E+00  4.9902E-05  6.9298E-05  0.0000E+00  1.7795E-04  0.0000E+00  1.1572E-04  0.0000E+00  0.0000E+00
 21  1.9910E-05  1.3920E-03  1.6488E-03  1.5357E-03  1.3197E-03  1.6645E-04  1.4598E-03  2.2812E-03  1.1099E-03
 22  4.0263E-03  3.6451E-03  3.1550E-03  4.4286E-03  4.4321E-03  4.1338E-03  3.2590E-03  3.2347E-03  4.3765E-03
 23  1.7932E-02  1.7504E-02  1.8030E-02  1.7580E-02  1.7837E-02  1.8100E-02  1.7978E-02  1.7835E-02  1.7263E-02
 24  6.6737E-03  5.4954E-03  5.8960E-03  5.3632E-03  8.0405E-03  5.6148E-03  5.4733E-03  2.6103E-03  6.7456E-03
 25  0.0000E+00  4.7465E-04  0.0000E+00  3.6115E-04  0.0000E+00  0.0000E+00  5.8173E-04  1.7542E-03  0.0000E+00
 26  0.0000E+00  5.4266E-04  0.0000E+00  0.0000E+00  1.5458E-03  0.0000E+00  0.0000E+00  0.0000E+00  0.0000E+00
 27  0.0000E+00  1.7412E-03  0.0000E+00  0.0000E+00  1.7577E-03  1.1251E-03  0.0000E+00  0.0000E+00  0.0000E+00
 28  0.0000E+00  1.7041E-02  1.3282E-02  0.0000E+00  2.8158E-02  6.4946E-04  5.8899E-02  0.0000E+00  0.0000E+00
 29  0.0000E+00  1.4205E-02  1.0998E-03  0.0000E+00  1.7769E-03  0.0000E+00  4.8754E-04  2.9620E-02  0.0000E+00
 30  0.0000E+00  2.9016E-02  0.0000E+00  3.8549E-03  0.0000E+00  0.0000E+00  1.0799E-01  0.0000E+00  0.0000E+00
 31  0.0000E+00  3.4365E-02  0.0000E+00  0.0000E+00  0.0000E+00  0.0000E+00  0.0000E+00  0.0000E+00  0.0000E+00
 32  0.0000E+00  3.4449E-02  0.0000E+00  0.0000E+00  1.2982E-01  0.0000E+00  0.0000E+00  0.0000E+00  2.4053E-02
 33  5.7815E+00  4.7487E+00  4.7874E+00  5.0551E+00  4.9787E+00  4.7854E+00  4.7780E+00  4.7627E+00  4.7639E+00
 34  2.7134E+01  2.5406E+01  2.5082E+01  2.5981E+01  2.5664E+01  2.5094E+01  2.5620E+01  2.5394E+01  2.5555E+01
 35  7.3649E-03  6.1287E-03  6.0819E-03  6.6028E-03  6.1227E-03  6.5820E-03  6.4914E-03  6.0959E-03  6.3092E-03
 36  1.0029E-02  8.9898E-03  9.1312E-03  9.1445E-03  9.1703E-03  8.9379E-03  9.3107E-03  9.0319E-03  9.1754E-03
 37  0.0000E+00  9.7587E-05  9.0534E-05  2.1815E-05  0.0000E+00  9.3701E-05  0.0000E+00  0.0000E+00  2.0224E-05
 38  2.6765E-02  1.9209E-02  1.9291E-02  1.9353E-02  1.9334E-02  2.0167E-02  1.9817E-02  1.9208E-02  1.8781E-02
 39  0.0000E+00  1.2881E-03  1.6957E-03  1.1071E-03  4.4547E-04  3.7772E-04  5.0838E-04  1.9581E-03  2.4099E-04
 40  1.2880E-03  5.9887E-03  4.1202E-03  6.6605E-03  7.0700E-03  6.4701E-03  4.2675E-03  6.4241E-03  8.1861E-03
 41  0.0000E+00  6.5617E-04  0.0000E+00  0.0000E+00  9.1103E-04  1.4625E-04  0.0000E+00  0.0000E+00  4.6677E-03
 42  0.0000E+00  1.0519E-03  0.0000E+00  0.0000E+00  0.0000E+00  1.1099E-03  1.3587E-03  0.0000E+00  0.0000E+00
 43  0.0000E+00  1.8282E-03  0.0000E+00  0.0000E+00  3.8885E-03  0.0000E+00  0.0000E+00  3.3689E-03  1.1028E-05
 44  0.0000E+00  6.9126E-03  1.4000E-02  0.0000E+00  0.0000E+00  2.3006E-02  0.0000E+00  4.7831E-03  1.5709E-02
 45  0.0000E+00  1.9060E-02  1.6548E-02  1.6938E-02  0.0000E+00  0.0000E+00  8.3800E-04  0.0000E+00  7.7918E-03
 46  0.0000E+00  5.1570E-02  0.0000E+00  2.5779E-02  0.0000E+00  0.0000E+00  4.4183E-02  0.0000E+00  0.0000E+00
 47  0.0000E+00  5.1405E-02  3.2136E-03  3.7528E-02  8.8884E-03  2.4341E-02  0.0000E+00  0.0000E+00  0.0000E+00
 48  0.0000E+00  1.4794E-01  2.7327E-01  1.6770E-01  1.8801E-01  1.3986E-01  1.7749E-01  1.2017E-01  6.9655E-03
 49  5.7721E+00  5.0355E+00  4.9859E+00  5.6025E+00  5.0322E+00  5.4653E+00  5.0958E+00  5.2148E+00  5.2369E+00
 50  8.0829E+00  7.6844E+00  7.4863E+00  7.1212E+00  8.1810E+00  7.7012E+00  7.9629E+00  7.3054E+00  7.6220E+00
 51  4.4915E-03  4.0447E-03  4.1069E-03  3.8821E-03  3.8737E-03  4.0998E-03  4.2676E-03  4.3942E-03  4.1506E-03
 52  6.5241E-04  9.5025E-04  1.0418E-03  7.2651E-04  1.0005E-03  8.8729E-04  8.9301E-04  9.8135E-04  7.7159E-04
 53  0.0000E+00  4.6555E-04  4.4618E-04  1.8252E-04  0.0000E+00  5.2055E-04  9.1679E-04  4.0303E-04  0.0000E+00
 54  0.0000E+00  7.6197E-05  0.0000E+00  0.0000E+00  0.0000E+00  0.0000E+00  0.0000E+00  0.0000E+00  0.0000E+00
 55  0.0000E+00  8.3094E-05  0.0000E+00  0.0000E+00  0.0000E+00  5.8333E-04  0.0000E+00  0.0000E+00  1.3219E-04
 56  0.0000E+00  2.7576E-04  0.0000E+00  2.7723E-04  0.0000E+00  0.0000E+00  0.0000E+00  0.0000E+00  0.0000E+00
 57  0.0000E+00  3.3325E-04  0.0000E+00  0.0000E+00  0.0000E+00  0.0000E+00  0.0000E+00  0.0000E+00  0.0000E+00
 58  0.0000E+00  4.0097E-04  0.0000E+00  0.0000E+00  2.9959E-03  0.0000E+00  0.0000E+00  1.1325E-03  0.0000E+00
 59  0.0000E+00  2.4311E-03  1.0121E-02  7.8219E-03  0.0000E+00  3.2566E-03  0.0000E+00  6.2363E-04  0.0000E+00
 60  4.1247E-01  1.4253E-01  1.5028E-01  1.4627E-01  1.5124E-01  1.5309E-01  1.9700E-01  1.7762E-01  1.6329E-01
 61  2.9073E+00  2.2754E+00  2.3718E+00  2.3603E+00  2.4786E+00  2.3564E+00  2.3094E+00  2.3777E+00  2.4015E+00
 62  0.0000E+00  9.9053E-02  1.0844E-01  8.2225E-02  0.0000E+00  0.0000E+00  1.2334E-01  1.3569E-02  8.3466E-02
 63  3.7891E+00  4.1356E+00  4.0953E+00  4.2191E+00  4.1319E+00  4.1355E+00  4.2457E+00  4.1573E+00  3.8541E+00
 64  5.5268E+00  4.5761E+00  4.5994E+00  4.4397E+00  5.2754E+00  4.6497E+00  4.6639E+00  4.4144E+00  4.4871E+00
 65  0.0000E+00  1.4507E+00  1.8379E+00  6.7278E-01  1.2524E+00  1.0995E+00  9.4508E-01  1.6923E+00  1.4474E+00
 66  3.3288E+01  3.3988E+01  3.4195E+01  3.4711E+01  3.3745E+01  3.4481E+01  3.4012E+01  3.4044E+01  3.4316E+01

# AV, chi2 & Mass for <> & i_chain = 1 ...  7 solutions
AV       0.6086      0.5787      0.5825      0.5798      0.5814      0.5804      0.5843      0.5811      0.5841
chi2 1.2663E+00  1.3098E+00  1.3041E+00  1.3045E+00  1.3028E+00  1.3034E+00  1.3025E+00  1.3059E+00  1.3019E+00
Mass 7.9715E-11  8.0265E-11  8.0682E-11  8.0027E-11  8.0456E-11  8.0515E-11  8.0375E-11  8.0790E-11  8.1294E-11
 -28.17                                  [v0_min (km/s) before EX0s...]
 185.96                                  [vd_min (km/s) before EX0s...]


## Synthetic spectrum (Best Model) ##l_obs f_obs f_syn wei
 3478    [Nl_obs]
 3741.00    0.77309   0.73450    0.000
 3742.00    0.76476   0.72955    0.000
 3743.00    0.74974   0.71359    0.000
 3744.00    0.73004   0.68988    0.000
 3745.00    0.70095   0.66198   31.046
 3746.00    0.66755   0.63363   30.816
 3747.00    0.64169   0.60926   31.476
 3748.00    0.62910   0.59405   32.640
 3749.00    0.62937   0.59265   32.914
 3750.00    0.64103   0.60708   32.531
 3751.00    0.66277   0.63517   32.683
 3752.00    0.69374   0.67076   33.118
 3753.00    0.73058   0.70574   32.783
 3754.00    0.76270   0.73291   31.794
 3755.00    0.77949   0.74830   31.052
 3756.00    0.78345   0.75233   31.097
 3757.00    0.78359   0.74917   31.978
 3758.00    0.78162   0.74436   33.009
 3759.00    0.77548   0.74203   33.322
 3760.00    0.76795   0.74318   33.247
 3761.00    0.76366   0.74596   33.599
 3762.00    0.76305   0.74735   34.231
 3763.00    0.76265   0.74482   34.465
 3764.00    0.75700   0.73706   34.130
 3765.00    0.74344   0.72425   33.703
 3766.00    0.72766   0.70796   34.101
 3767.00    0.71710   0.69100   35.754
 3768.00    0.71183   0.67694   37.226
 3769.00    0.70977   0.66940   36.753
 3770.00    0.71412   0.67100   35.547
 3771.00    0.72844   0.68238   35.465
 3772.00    0.75018   0.70180   36.450
 3773.00    0.77361   0.72599   37.365
 3774.00    0.79430   0.75164   37.010
 3775.00    0.81145   0.77658   35.410
 3776.00    0.82941   0.79995   34.329
 3777.00    0.85131   0.82164   34.818
 3778.00    0.87287   0.84146   35.723
 3779.00    0.88896   0.85868   35.543
 3780.00    0.90027   0.87213   34.762
 3781.00    0.91032   0.88045   34.469
 3782.00    0.92158   0.88240   34.915
 3783.00    0.93141   0.87720   35.742
 3784.00    0.92992   0.86501   36.200
 3785.00    0.91138   0.84739   36.109
 3786.00    0.88310   0.82715   36.580
 3787.00    0.85447   0.80739   38.219
 3788.00    0.82771   0.79020   39.570
 3789.00    0.80260   0.77567   39.161
 3790.00    0.78056   0.76189   37.951
 3791.00    0.76235   0.74596   37.255
 3792.00    0.74647   0.72538   37.243
 3793.00    0.73167   0.69947   37.473
 3794.00    0.71857   0.66998   37.307
 3795.00    0.70778   0.64097   36.889
 3796.00    0.69886   0.61810   37.472
 3797.00    0.69263   0.60716   -1.000
 3798.00    0.69224   0.61203   -1.000
 3799.00    0.69953   0.63302   40.435
 3800.00    0.71330   0.66631   39.593
 3801.00    0.73259   0.70521   39.616
 3802.00    0.75803   0.74258   40.100
 3803.00    0.78689   0.77318   40.273
 3804.00    0.81172   0.79514   39.832
 3805.00    0.82914   0.80990   39.183
 3806.00    0.84350   0.82076   39.192
 3807.00    0.85896   0.83061   39.936
 3808.00    0.87518   0.84020   40.356
 3809.00    0.88744   0.84773   40.058
 3810.00    0.88874   0.85025   40.021
 3811.00    0.87876   0.84579   40.756
 3812.00    0.86551   0.83475   41.655
 3813.00    0.85264   0.81972   42.114
 3814.00    0.83622   0.80399   42.131
 3815.00    0.81768   0.78969   41.912
 3816.00    0.80624   0.77717   41.652
 3817.00    0.80417   0.76581   41.549
 3818.00    0.80340   0.75547   41.795
 3819.00    0.79773   0.74713   42.432
 3820.00    0.78736   0.74186   43.306
 3821.00    0.77646   0.73934   44.144
 3822.00    0.77002   0.73749   44.646
 3823.00    0.76632   0.73375   44.739
 3824.00    0.75725   0.72683   44.656
 3825.00    0.73923   0.71721   44.766
 3826.00    0.71572   0.70613   45.397
 3827.00    0.69228   0.69404   46.466
 3828.00    0.67333   0.68002   47.443
 3829.00    0.65757   0.66232   47.866
 3830.00    0.64011   0.63976   47.672
 3831.00    0.62305   0.61306   47.377
 3832.00    0.61419   0.58525   47.709
 3833.00    0.61329   0.56096   48.599
 3834.00    0.61251   0.54477   -1.000
 3835.00    0.60926   0.53967   -1.000
 3836.00    0.60711   0.54630   48.345
 3837.00    0.60841   0.56336   48.083
 3838.00    0.61313   0.58860   49.109
 3839.00    0.62128   0.61961   50.595
 3840.00    0.63338   0.65396   50.602
 3841.00    0.65022   0.68901   49.681
 3842.00    0.67240   0.72199   49.962
 3843.00    0.69927   0.75043   51.100
 3844.00    0.72866   0.77285   50.918
 3845.00    0.75653   0.78898   49.354
 3846.00    0.77837   0.79950   48.196
 3847.00    0.79203   0.80574    0.000
 3848.00    0.79871   0.80931    0.000
 3849.00    0.80338   0.81178    0.000
 3850.00    0.81088   0.81413    0.000
 3851.00    0.81843   0.81633    0.000
 3852.00    0.81997   0.81741    0.000
 3853.00    0.81663   0.81621    0.000
 3854.00    0.81327   0.81221    0.000
 3855.00    0.80879   0.80593    0.000
 3856.00    0.79966   0.79877    0.000
 3857.00    0.78876   0.79262    0.000
 3858.00    0.78224   0.78949    0.000
 3859.00    0.78205   0.79092    0.000
 3860.00    0.78694   0.79719    0.000
 3861.00    0.79593   0.80685    0.000
 3862.00    0.80784   0.81715    0.000
 3863.00    0.82008   0.82524    0.000
 3864.00    0.83076   0.82945    0.000
 3865.00    0.84186   0.82959    0.000
 3866.00    0.85429   0.82642    0.000
 3867.00    0.86091   0.82078    0.000
 3868.00    0.85515   0.81331    0.000
 3869.00    0.84269   0.80480    0.000
 3870.00    0.83250   0.79675    0.000
 3871.00    0.82413   0.79113    0.000
 3872.00    0.81394   0.78925    0.000
 3873.00    0.80408   0.79064    0.000
 3874.00    0.79779   0.79289    0.000
 3875.00    0.79297   0.79298    0.000
 3876.00    0.78525   0.78913    0.000
 3877.00    0.77232   0.78157    0.000
 3878.00    0.75524   0.77192    0.000
 3879.00    0.73902   0.76164    0.000
 3880.00    0.72738   0.75105    0.000
 3881.00    0.71787   0.73914   54.963
 3882.00    0.70753   0.72423   54.901
 3883.00    0.69847   0.70478   54.960
 3884.00    0.69464   0.68051   55.911
 3885.00    0.69831   0.65328   57.000
 3886.00    0.70817   0.62742   -1.000
 3887.00    0.71868   0.60884   -1.000
 3888.00    0.72580   0.60286   -1.000
 3889.00    0.73120   0.61191   -1.000
 3890.00    0.73627   0.63441   -1.000
 3891.00    0.73761   0.66535   -1.000
 3892.00    0.73330   0.69856   57.930
 3893.00    0.72748   0.72906   57.456
 3894.00    0.72623   0.75438   58.028
 3895.00    0.73385   0.77435   58.525
 3896.00    0.75006   0.79002   57.971
 3897.00    0.76894   0.80263   57.202
 3898.00    0.78442   0.81319   56.873
 3899.00    0.79421   0.82224   56.364
 3900.00    0.80008   0.82979   55.253
 3901.00    0.80681   0.83541   54.087
 3902.00    0.81541   0.83884   53.394
 3903.00    0.82055   0.84072   53.214
 3904.00    0.82059   0.84279   53.462
 3905.00    0.82210   0.84733   54.070
 3906.00    0.83044   0.85587   54.719
 3907.00    0.84470   0.86831   54.809
 3908.00    0.86042   0.88278   54.347
 3909.00    0.87226   0.89657   54.173
 3910.00    0.87874   0.90724   54.661
 3911.00    0.88341   0.91343   55.275
 3912.00    0.88796   0.91493   55.545
 3913.00    0.88968   0.91224   55.530
 3914.00    0.88618   0.90606   55.272
 3915.00    0.87763   0.89697   54.689
 3916.00    0.86679   0.88544   54.349
 3917.00    0.85775   0.87216   55.359
 3918.00    0.85105   0.85829   57.529
 3919.00    0.84324   0.84540   58.824
 3920.00    0.83382   0.83489   58.245
 3921.00    0.82615   0.82717   57.139
 3922.00    0.81931   0.82110   56.930
 3923.00    0.80788   0.81432   58.129
 3924.00    0.79374   0.80423   59.640
 3925.00    0.78527   0.78908   59.160
 3926.00    0.77823   0.76853   57.283
 3927.00    0.75575   0.74352   57.149
 3928.00    0.71243   0.71567   59.657
 3929.00    0.65876   0.68687   63.069
 3930.00    0.60739   0.65933   -1.000
 3931.00    0.56798   0.63563   -1.000
 3932.00    0.54631   0.61883   -1.000
 3933.00    0.54409   0.61178   -1.000
 3934.00    0.55932   0.61622   -1.000
 3935.00    0.58726   0.63191   65.204
 3936.00    0.62317   0.65646   62.566
 3937.00    0.66273   0.68589   60.765
 3938.00    0.70122   0.71576   59.908
 3939.00    0.73418   0.74243   59.389
 3940.00    0.75972   0.76387   59.176
 3941.00    0.77843   0.78011   59.620
 3942.00    0.79129   0.79282   60.260
 3943.00    0.79984   0.80435   60.114
 3944.00    0.80764   0.81642   59.310
 3945.00    0.81836   0.82940   58.803
 3946.00    0.83080   0.84247   58.914
 3947.00    0.84057   0.85446   59.277
 3948.00    0.84631   0.86456   59.320
 3949.00    0.84974   0.87251   58.776
 3950.00    0.85302   0.87829   58.480
 3951.00    0.85732   0.88192   59.420
 3952.00    0.86141   0.88333   60.707
 3953.00    0.86254   0.88237   60.542
 3954.00    0.85865   0.87881   59.508
 3955.00    0.84949   0.87245   59.464
 3956.00    0.83753   0.86294   60.569
 3957.00    0.82546   0.84961   61.676
 3958.00    0.81165   0.83141   61.787
 3959.00    0.79209   0.80731   60.887
 3960.00    0.76508   0.77707    0.000
 3961.00    0.73179   0.74156    0.000
 3962.00    0.69587   0.70221    0.000
 3963.00    0.66081   0.66031    0.000
 3964.00    0.62645   0.61676    0.000
 3965.00    0.59296   0.57284    0.000
 3966.00    0.56726   0.53123    0.000
 3967.00    0.55735   0.49632    0.000
 3968.00    0.56318   0.47347    0.000
 3969.00    0.57903   0.46721    0.000
 3970.00    0.59846   0.47953    0.000
 3971.00    0.61694   0.50911    0.000
 3972.00    0.63442   0.55181    0.000
 3973.00    0.65417   0.60211    0.000
 3974.00    0.68076   0.65473    0.000
 3975.00    0.71582   0.70568    0.000
 3976.00    0.75382   0.75233    0.000
 3977.00    0.78859   0.79314    0.000
 3978.00    0.82065   0.82709    0.000
 3979.00    0.85132   0.85371    0.000
 3980.00    0.87599   0.87336    0.000
 3981.00    0.89039   0.88743   58.659
 3982.00    0.89753   0.89819   58.830
 3983.00    0.90292   0.90792   59.864
 3984.00    0.90930   0.91806   60.790
 3985.00    0.91765   0.92887   60.755
 3986.00    0.92846   0.93968   60.132
 3987.00    0.94040   0.94961   59.621
 3988.00    0.94952   0.95810   59.363
 3989.00    0.95391   0.96505   59.291
 3990.00    0.95714   0.97053   59.431
 3991.00    0.96206   0.97438   59.647
 3992.00    0.96591   0.97610   59.497
 3993.00    0.96496   0.97531   59.066
 3994.00    0.95861   0.97251   59.387
 3995.00    0.95077   0.96931   60.679
 3996.00    0.94941   0.96805   61.180
 3997.00    0.95761   0.97059   59.852
 3998.00    0.96840   0.97717   58.315
 3999.00    0.97555   0.98605   57.928
 4000.00    0.98043   0.99401   58.343
 4001.00    0.98489   0.99785   58.739
 4002.00    0.98680   0.99588   58.628
 4003.00    0.98457   0.98881   58.209
 4004.00    0.97993   0.97964   58.065
 4005.00    0.97536   0.97229   56.458
 4006.00    0.97267   0.96985   50.244
 4007.00    0.97361   0.97326   43.502
 4008.00    0.97969   0.98127   42.714
 4009.00    0.98922   0.99159   49.292
 4010.00    0.99679   1.00209   57.619
 4011.00    1.00009   1.01152   59.101
 4012.00    1.00247   1.01945   57.774
 4013.00    1.00742   1.02584   58.535
 4014.00    1.01562   1.03081   59.341
 4015.00    1.02498   1.03450   58.580
 4016.00    1.03166   1.03711   58.148
 4017.00    1.03363   1.03871   58.895
 4018.00    1.03189   1.03898   59.288
 4019.00    1.02779   1.03717   58.695
 4020.00    1.02194   1.03251   58.385
 4021.00    1.01494   1.02483   58.787
 4022.00    1.00750   1.01517   58.883
 4023.00    1.00000   1.00564   58.340
 4024.00    0.99286   0.99853   58.004
 4025.00    0.98863   0.99499   58.260
 4026.00    0.99096   0.99407   58.655
 4027.00    0.99777   0.99302   58.751
 4028.00    1.00115   0.98882   58.508
 4029.00    0.99587   0.98032   58.405
 4030.00    0.98249   0.96925   59.130
 4031.00    0.96686   0.95972   60.513
 4032.00    0.95774   0.95620   61.476
 4033.00    0.95977   0.96151   61.548
 4034.00    0.97175   0.97558   61.097
 4035.00    0.98837   0.99553   59.928
 4036.00    1.00293   1.01669   57.663
 4037.00    1.01340   1.03424   55.647
 4038.00    1.02188   1.04469   55.784
 4039.00    1.02804   1.04650   57.565
 4040.00    1.02844   1.03988   58.522
 4041.00    1.01964   1.02620   58.351
 4042.00    1.00063   1.00773   59.029
 4043.00    0.97647   0.98800   61.012
 4044.00    0.95659   0.97174   62.953
 4045.00    0.94849   0.96363   63.814
 4046.00    0.95484   0.96627   63.425
 4047.00    0.97099   0.97845   61.792
 4048.00    0.98799   0.99568   59.699
 4049.00    1.00078   1.01209   60.035
 4050.00    1.00864   1.02303   64.573
 4051.00    1.01198   1.02648   64.404
 4052.00    1.01100   1.02308   53.984
 4053.00    1.00449   1.01525   54.282
 4054.00    0.99168   1.00594   95.491
 4055.00    0.97638   0.99766   89.783
 4056.00    0.96483   0.99191   24.371
 4057.00    0.96029   0.98883   11.565
 4058.00    0.96160   0.98721    8.842
 4059.00    0.96273   0.98500    9.666
 4060.00    0.95753   0.98034   15.698
 4061.00    0.94788   0.97289   44.904
 4062.00    0.94066   0.96443  128.901
 4063.00    0.94039   0.95802   69.791
 4064.00    0.94776   0.95627   52.757
 4065.00    0.95930   0.95970   59.000
 4066.00    0.96962   0.96657   64.066
 4067.00    0.97492   0.97387   60.952
 4068.00    0.97418   0.97889   59.749
 4069.00    0.97008   0.98037   61.648
 4070.00    0.96578   0.97869   62.868
 4071.00    0.96080   0.97509   62.692
 4072.00    0.95375   0.97052   62.614
 4073.00    0.94669   0.96506   62.899
 4074.00    0.94273   0.95853   63.162
 4075.00    0.94250   0.95184   63.607
 4076.00    0.94570   0.94750   64.398
 4077.00    0.95339   0.94855   64.710
 4078.00    0.96541   0.95648   63.927
 4079.00    0.97750   0.96984   63.085
 4080.00    0.98519   0.98476   63.219
 4081.00    0.98826   0.99712   63.739
 4082.00    0.98897   1.00477   63.677
 4083.00    0.98943   1.00842   63.185
 4084.00    0.99049   1.01067   62.762
 4085.00    0.99090   1.01405   62.357
 4086.00    0.98908   1.01938   61.920
 4087.00    0.98489   1.02543   61.907
 4088.00    0.97957   1.02978   -1.000
 4089.00    0.97520   1.03015   -1.000
 4090.00    0.97186   1.02524   -1.000
 4091.00    0.96545   1.01471   -1.000
 4092.00    0.95203   0.99874    0.000
 4093.00    0.93171   0.97752    0.000
 4094.00    0.90860   0.95133    0.000
 4095.00    0.89010   0.92060    0.000
 4096.00    0.88256   0.88626    0.000
 4097.00    0.88788   0.84975    0.000
 4098.00    0.90338   0.81338    0.000
 4099.00    0.92246   0.78078    0.000
 4100.00    0.93904   0.75678    0.000
 4101.00    0.95028   0.74619    0.000
 4102.00    0.95397   0.75183    0.000
 4103.00    0.94726   0.77280    0.000
 4104.00    0.93126   0.80443    0.000
 4105.00    0.91321   0.83993    0.000
 4106.00    0.90062   0.87302    0.000
 4107.00    0.89734   0.89985    0.000
 4108.00    0.90295   0.91970    0.000
 4109.00    0.91328   0.93430    0.000
 4110.00    0.92478   0.94636    0.000
 4111.00    0.93672   0.95810    0.000
 4112.00    0.94879   0.97027    0.000
 4113.00    0.95998   0.98200   66.488
 4114.00    0.96971   0.99148   65.604
 4115.00    0.97805   0.99696   64.466
 4116.00    0.98414   0.99774   63.946
 4117.00    0.98585   0.99461   64.177
 4118.00    0.98220   0.98967   64.794
 4119.00    0.97460   0.98546   65.173
 4120.00    0.96694   0.98397   65.292
 4121.00    0.96446   0.98590   65.782
 4122.00    0.96879   0.99054   66.255
 4123.00    0.97645   0.99607   65.205
 4124.00    0.98191   1.00032   62.975
 4125.00    0.98017   1.00146   61.769
 4126.00    0.97168   0.99865   62.400
 4127.00    0.96236   0.99216   63.915
 4128.00    0.95646   0.98319   65.058
 4129.00    0.95421   0.97349   65.037
 4130.00    0.95371   0.96506   64.272
 4131.00    0.95275   0.96001   64.027
 4132.00    0.95219   0.96017   64.668
 4133.00    0.95576   0.96642   65.503
 4134.00    0.96537   0.97811   66.017
 4135.00    0.97968   0.99293   66.180
 4136.00    0.99488   1.00737   65.895
 4137.00    1.00604   1.01772   65.031
 4138.00    1.01061   1.02099   64.038
 4139.00    1.00851   1.01570   63.775
 4140.00    0.99959   1.00264   64.790
 4141.00    0.98443   0.98508   67.026
 4142.00    0.96881   0.96813   69.137
 4143.00    0.96120   0.95691   69.041
 4144.00    0.96309   0.95427   67.137
 4145.00    0.96939   0.95957   65.692
 4146.00    0.97594   0.96920   65.418
 4147.00    0.98095   0.97875   65.709
 4148.00    0.98377   0.98502   66.252
 4149.00    0.98428   0.98706   67.085
 4150.00    0.98227   0.98567   67.868
 4151.00    0.97804   0.98245   67.989
 4152.00    0.97373   0.97894   67.310
 4153.00    0.97203   0.97648   66.371
 4154.00    0.97302   0.97617   66.311
 4155.00    0.97546   0.97888   67.950
 4156.00    0.98073   0.98494   69.917
 4157.00    0.99058   0.99388   69.629
 4158.00    1.00129   1.00451   67.294
 4159.00    1.00714   1.01523   65.063
 4160.00    1.00858   1.02448   63.959
 4161.00    1.01000   1.03111   64.093
 4162.00    1.01322   1.03444   65.426
 4163.00    1.01697   1.03432   67.537
 4164.00    1.01816   1.03115   68.918
 4165.00    1.01441   1.02573   68.129
 4166.00    1.00766   1.01895   66.278
 4167.00    1.00109   1.01130   65.490
 4168.00    0.99373   1.00263   66.598
 4169.00    0.98336   0.99244   69.187
 4170.00    0.97186   0.98068   71.351
 4171.00    0.96257   0.96840   71.113
 4172.00    0.95568   0.95761   69.483
 4173.00    0.95022   0.95037   68.468
 4174.00    0.94749   0.94774   68.139
 4175.00    0.94855   0.94938   67.980
 4176.00    0.95071   0.95399   68.664
 4177.00    0.95218   0.96013   70.586
 4178.00    0.95767   0.96674   71.687
 4179.00    0.97027   0.97320   70.001
 4180.00    0.98196   0.97919   67.453
 4181.00    0.98507   0.98447   66.389
 4182.00    0.98549   0.98880   66.498
 4183.00    0.99035   0.99189   66.952
 4184.00    0.99402   0.99350   68.447
 4185.00    0.99049   0.99376   71.335
 4186.00    0.98657   0.99346   73.139
 4187.00    0.99007   0.99387   71.534
 4188.00    0.99757   0.99619   68.515
 4189.00    1.00351   1.00073   66.868
 4190.00    1.00918   1.00657   67.382
 4191.00    1.01472   1.01170   69.206
 4192.00    1.01220   1.01374   69.741
 4193.00    0.99698   1.01080   67.580
 4194.00    0.97690   1.00230   65.050
 4195.00    0.96234   0.98936   64.394
 4196.00    0.95710   0.97450   65.731
 4197.00    0.95841   0.96075   68.186
 4198.00    0.95854   0.95064   70.395
 4199.00    0.95376   0.94559   71.470
 4200.00    0.94998   0.94585   71.965
 4201.00    0.95358   0.95095   72.219
 4202.00    0.96466   0.96010   71.210
 4203.00    0.97939   0.97231   68.763
 4204.00    0.99261   0.98633   66.572
 4205.00    1.00260   1.00067   66.016
 4206.00    1.01307   1.01375   67.318
 4207.00    1.02592   1.02423   69.647
 4208.00    1.03726   1.03131   70.955
 4209.00    1.04313   1.03475   69.943
 4210.00    1.04290   1.03475   67.618
 4211.00    1.03866   1.03177   65.769
 4212.00    1.03412   1.02673   65.791
 4213.00    1.03130   1.02126   67.839
 4214.00    1.02953   1.01769   70.429
 4215.00    1.02957   1.01826   71.598
 4216.00    1.03478   1.02389   70.316
 4217.00    1.04528   1.03321   67.667
 4218.00    1.05586   1.04263   66.040
 4219.00    1.06044   1.04743   66.327
 4220.00    1.05497   1.04349   67.599
 4221.00    1.04025   1.02879   68.974
 4222.00    1.02144   1.00423   70.327
 4223.00    1.00029   0.97382   71.455
 4224.00    0.97427   0.94398   71.774
 4225.00    0.94760   0.92192   71.137
 4226.00    0.93246   0.91320   70.138
 4227.00    0.93435   0.91964   69.717
 4228.00    0.94826   0.93831   70.670
 4229.00    0.96795   0.96271   72.337
 4230.00    0.98907   0.98540   72.630
 4231.00    1.00670   1.00099   71.314
 4232.00    1.01586   1.00774   70.304
 4233.00    1.01656   1.00735   69.937
 4234.00    1.01367   1.00342   68.906
 4235.00    1.01022   0.99962   67.600
 4236.00    1.00631   0.99862   67.734
 4237.00    1.00338   1.00167   68.422
 4238.00    1.00484   1.00886   66.810
 4239.00    1.01403   1.01941   64.224
 4240.00    1.03171   1.03192   64.581
 4241.00    1.05132   1.04455   67.491
 4242.00    1.06234   1.05513   68.590
 4243.00    1.06389   1.06151   67.452
 4244.00    1.06363   1.06204   67.942
 4245.00    1.06455   1.05621   70.580
 4246.00    1.06381   1.04498   72.295
 4247.00    1.05939   1.03069   71.725
 4248.00    1.05149   1.01632   70.288
 4249.00    1.04147   1.00449   69.009
 4250.00    1.03138   0.99674   68.146
 4251.00    1.02345   0.99334   68.216
 4252.00    1.01942   0.99360   69.706
 4253.00    1.01934   0.99640   71.773
 4254.00    1.02167   1.00041   72.633
 4255.00    1.02399   1.00422   71.950
 4256.00    1.02427   1.00658   70.792
 4257.00    1.02294   1.00695   69.852
 4258.00    1.02176   1.00628   69.407
 4259.00    1.02079   1.00689   69.937
 4260.00    1.02023   1.01153   71.728
 4261.00    1.02480   1.02161   73.746
 4262.00    1.03887   1.03601   74.271
 4263.00    1.05654   1.05106   73.219
 4264.00    1.06766   1.06207   71.489
 4265.00    1.07105   1.06502   68.910
 4266.00    1.07019   1.05800   65.620
 4267.00    1.06253   1.04153   63.928
 4268.00    1.04464   1.01825   65.708
 4269.00    1.02260   0.99220   69.134
 4270.00    1.00558   0.96801   70.433
 4271.00    0.99404   0.95005   -1.000
 4272.00    0.98499   0.94156   -1.000
 4273.00    0.98183   0.94376   69.732
 4274.00    0.98894   0.95557   69.094
 4275.00    1.00273   0.97382   68.272
 4276.00    1.01676   0.99408   68.544
 4277.00    1.02998   1.01198   70.086
 4278.00    1.04253   1.02447   71.975
 4279.00    1.04964   1.03050   72.349
 4280.00    1.04721   1.03091   70.286
 4281.00    1.03905   1.02755   67.764
 4282.00    1.03088   1.02209   66.715
 4283.00    1.02267   1.01525   66.725
 4284.00    1.01270   1.00690   67.027
 4285.00    1.00283   0.99666   68.465
 4286.00    0.99550   0.98472   71.754
 4287.00    0.99010   0.97234   75.048
 4288.00    0.98478   0.96171   75.823
 4289.00    0.97875   0.95511   74.594
 4290.00    0.97343   0.95386   73.129
 4291.00    0.97281   0.95738   71.949
 4292.00    0.97751   0.96309   71.177
 4293.00    0.98020   0.96727   71.357
 4294.00    0.97482   0.96644   72.763
 4295.00    0.96434   0.95859   74.724
 4296.00    0.95265   0.94385   76.071
 4297.00    0.93780   0.92426   75.862
 4298.00    0.91822   0.90308   74.350
 4299.00    0.89779   0.88381   73.202
 4300.00    0.88151   0.86912   73.569
 4301.00    0.87167   0.86002   75.074
 4302.00    0.86794   0.85562   76.622
 4303.00    0.86775   0.85377   77.087
 4304.00    0.86787   0.85232   76.173
 4305.00    0.86580   0.85024   74.837
 4306.00    0.86165   0.84823   74.144
 4307.00    0.85875   0.84836   74.544
 4308.00    0.86010   0.85322   -2.000
 4309.00    0.86640   0.86478   -2.000
 4310.00    0.87970   0.88376   -2.000
 4311.00    0.90449   0.90957   -2.000
 4312.00    0.94020   0.94086   -2.000
 4313.00    0.97858   0.97571   -2.000
 4314.00    1.01513   1.01177   -2.000
 4315.00    1.05323   1.04603   -2.000
 4316.00    1.08962   1.07488   -2.000
 4317.00    1.10986   1.09477   -2.000
 4318.00    1.10744   1.10306   -2.000
 4319.00    1.09110   1.09877   -2.000
 4320.00    1.06982   1.08289   -2.000
 4321.00    1.04594   1.05829   -2.000
 4322.00    1.02050   1.02954   -2.000
 4323.00    0.99604   1.00240   -2.000
 4324.00    0.97708   0.98273   74.655
 4325.00    0.96913   0.97476   73.060
 4326.00    0.97391   0.97967   71.651
 4327.00    0.98784   0.99496   70.453
 4328.00    1.00497   1.01540   69.992
 4329.00    1.01930   1.03513   71.480
 4330.00    1.02909   1.04950    0.000
 4331.00    1.03654   1.05577    0.000
 4332.00    1.04059   1.05255    0.000
 4333.00    1.03759   1.03887    0.000
 4334.00    1.03414   1.01407    0.000
 4335.00    1.04646   0.97863    0.000
 4336.00    1.08152   0.93536    0.000
 4337.00    1.13287   0.88984    0.000
 4338.00    1.18901   0.84975    0.000
 4339.00    1.23653   0.82277    0.000
 4340.00    1.26050   0.81403    0.000
 4341.00    1.24871   0.82445    0.000
 4342.00    1.20371   0.85089    0.000
 4343.00    1.14212   0.88737    0.000
 4344.00    1.08198   0.92708    0.000
 4345.00    1.03724   0.96404    0.000
 4346.00    1.01338   0.99402    0.000
 4347.00    1.00699   1.01456    0.000
 4348.00    1.00809   1.02511    0.000
 4349.00    1.00570   1.02730    0.000
 4350.00    0.99987   1.02460    0.000
 4351.00    0.99907   1.02136   76.863
 4352.00    1.00644   1.02167   75.992
 4353.00    1.01901   1.02781   74.106
 4354.00    1.03365   1.03930   72.280
 4355.00    1.04842   1.05371   72.279
 4356.00    1.06220   1.06822   73.994
 4357.00    1.07495   1.08114   75.868
 4358.00    1.08838   1.09226   76.837
 4359.00    1.10450   1.10246   76.565
 4360.00    1.12264   1.11281   74.693
 4361.00    1.13952   1.12348   71.419
 4362.00    1.15070   1.13319   68.401
 4363.00    1.15276   1.13989   67.260
 4364.00    1.14666   1.14195   67.976
 4365.00    1.13617   1.13885   69.658
 4366.00    1.12409   1.13133   71.742
 4367.00    1.11214   1.12113   73.862
 4368.00    1.10209   1.11020   75.250
 4369.00    1.09446   1.09977   75.096
 4370.00    1.08647   1.09002   73.463
 4371.00    1.07533   1.08078   71.341
 4372.00    1.06372   1.07242   70.253
 4373.00    1.05641   1.06611   71.188
 4374.00    1.05434   1.06328   73.429
 4375.00    1.05603   1.06455   75.364
 4376.00    1.06080   1.06871   76.286
 4377.00    1.06728   1.07239   76.320
 4378.00    1.07081   1.07108   75.593
 4379.00    1.06576   1.06120   74.359
 4380.00    1.04906   1.04198   73.253
 4381.00    1.02219   1.01623   72.919
 4382.00    0.99262   0.98957   73.635
 4383.00    0.96938   0.96846   75.311
 4384.00    0.95748   0.95769   77.411
 4385.00    0.95876   0.95877   79.101
 4386.00    0.97344   0.96962   79.624
 4387.00    0.99760   0.98616   78.859
 4388.00    1.02109   1.00430   77.664
 4389.00    1.03647   1.02119   76.692
 4390.00    1.04768   1.03560   75.443
 4391.00    1.06040   1.04765   73.640
 4392.00    1.07225   1.05830   72.310
 4393.00    1.07959   1.06838   72.342
 4394.00    1.08448   1.07803   73.442
 4395.00    1.09007   1.08673   74.942
 4396.00    1.09605   1.09343   76.533
 4397.00    1.10052   1.09682   77.943
 4398.00    1.10197   1.09592   78.589
 4399.00    1.09939   1.09051   77.963
 4400.00    1.09224   1.08114   76.111
 4401.00    1.08078   1.06890   74.000
 4402.00    1.06633   1.05556   73.328
 4403.00    1.05119   1.04341   74.829
 4404.00    1.03852   1.03483   77.347
 4405.00    1.03236   1.03199   79.317
 4406.00    1.03690   1.03623   80.222
 4407.00    1.05109   1.04729   80.276
 4408.00    1.06651   1.06331   79.855
 4409.00    1.07826   1.08111   78.873
 4410.00    1.09050   1.09658   76.719
 4411.00    1.10353   1.10602   73.900
 4412.00    1.10781   1.10813   72.287
 4413.00    1.10035   1.10449   72.931
 4414.00    1.09236   1.09850   75.401
 4415.00    1.09267   1.09407   78.411
 4416.00    1.09917   1.09429   80.128
 4417.00    1.10831   1.09976   79.777
 4418.00    1.11981   1.10845   78.527
 4419.00    1.13130   1.11726   77.424
 4420.00    1.13669   1.12352   76.471
 4421.00    1.13311   1.12593   75.551
 4422.00    1.12388   1.12511   74.843
 4423.00    1.11444   1.12286   74.681
 4424.00    1.10951   1.12077   75.401
 4425.00    1.10957   1.11960   76.829
 4426.00    1.11073   1.11916   78.180
 4427.00    1.11142   1.11870   79.087
 4428.00    1.11382   1.11725   79.876
 4429.00    1.11722   1.11414   80.139
 4430.00    1.11683   1.10937   78.690
 4431.00    1.11151   1.10362   76.124
 4432.00    1.10525   1.09818   74.634
 4433.00    1.10075   1.09472   74.982
 4434.00    1.09803   1.09503   76.279
 4435.00    1.09905   1.10013   77.710
 4436.00    1.10755   1.10907   79.040
 4437.00    1.12198   1.11916   80.071
 4438.00    1.13536   1.12734   80.487
 4439.00    1.14316   1.13139   80.150
 4440.00    1.14549   1.13089   79.167
 4441.00    1.14470   1.12769   77.668
 4442.00    1.14396   1.12507   75.811
 4443.00    1.14529   1.12608   73.980
 4444.00    1.14908   1.13181   72.704
 4445.00    1.15456   1.14114   72.430
 4446.00    1.16054   1.15134   73.428
 4447.00    1.16715   1.15925   75.556
 4448.00    1.17462   1.16253   78.147
 4449.00    1.17906   1.16011   80.086
 4450.00    1.17439   1.15209   80.338
 4451.00    1.16048   1.13955   79.337
 4452.00    1.14274   1.12414   78.391
 4453.00    1.12569   1.10741   77.467
 4454.00    1.11140   1.09109   75.890
 4455.00    1.09965   1.07700   74.743
 4456.00    1.08910   1.06625   75.776
 4457.00    1.07976   1.05926   78.414
 4458.00    1.07343   1.05616   80.205
 4459.00    1.07320   1.05688   80.203
 4460.00    1.08124   1.06118   79.453
 4461.00    1.09450   1.06836    0.000
 4462.00    1.10732   1.07750    0.000
 4463.00    1.11816   1.08737    0.000
 4464.00    1.12810   1.09619    0.000
 4465.00    1.13563   1.10228    0.000
 4466.00    1.13824   1.10530    0.000
 4467.00    1.13708   1.10627    0.000
 4468.00    1.13673   1.10702    0.000
 4469.00    1.14309   1.11018    0.000
 4470.00    1.15917   1.11795    0.000
 4471.00    1.17907   1.13081    0.000
 4472.00    1.19430   1.14759    0.000
 4473.00    1.20488   1.16579    0.000
 4474.00    1.21429   1.18220    0.000
 4475.00    1.21925   1.19351    0.000
 4476.00    1.21405   1.19754    0.000
 4477.00    1.19894   1.19395    0.000
 4478.00    1.17934   1.18442    0.000
 4479.00    1.16272   1.17258    0.000
 4480.00    1.15488   1.16276    0.000
 4481.00    1.15571   1.15829    0.000
 4482.00    1.16285   1.16032   78.085
 4483.00    1.17668   1.16779   77.214
 4484.00    1.19569   1.17754   76.642
 4485.00    1.21067   1.18565   75.336
 4486.00    1.21295   1.18912   72.460
 4487.00    1.20436   1.18704   69.756
 4488.00    1.19268   1.18066   68.889
 4489.00    1.18496   1.17259   69.519
 4490.00    1.18381   1.16521   70.699
 4491.00    1.18474   1.15974   72.191
 4492.00    1.18323   1.15657   74.081
 4493.00    1.18180   1.15579   76.197
 4494.00    1.18453   1.15729   78.148
 4495.00    1.19131   1.16110   79.473
 4496.00    1.20048   1.16746   79.686
 4497.00    1.21161   1.17667   78.437
 4498.00    1.22356   1.18853   76.159
 4499.00    1.23285   1.20220   74.195
 4500.00    1.23808   1.21651   73.216
 4501.00    1.24316   1.23046   72.476
 4502.00    1.25179   1.24326   71.645
 4503.00    1.26306   1.25417   71.919
 4504.00    1.27380   1.26244   73.945
 4505.00    1.28094   1.26758   76.317
 4506.00    1.28355   1.26928   77.566
 4507.00    1.28377   1.26751   78.164
 4508.00    1.28376   1.26296   78.670
 4509.00    1.28349   1.25673   78.286
 4510.00    1.28119   1.24949   76.812
 4511.00    1.27433   1.24142   75.646
 4512.00    1.26264   1.23271   75.624
 4513.00    1.24952   1.22406   76.066
 4514.00    1.23867   1.21659   76.346
 4515.00    1.23181   1.21143   76.785
 4516.00    1.22905   1.20917   77.762
 4517.00    1.22940   1.20932   79.151
 4518.00    1.23232   1.21058   80.466
 4519.00    1.23802   1.21119   81.055
 4520.00    1.24396   1.20921   80.710
 4521.00    1.24413   1.20328   -1.000
 4522.00    1.23538   1.19292   -1.000
 4523.00    1.21997   1.17825   -1.000
 4524.00    1.20151   1.16032   -1.000
 4525.00    1.18263   1.14120   -1.000
 4526.00    1.16447   1.12364   -1.000
 4527.00    1.14724   1.10992   79.727
 4528.00    1.13342   1.10080   80.387
 4529.00    1.12770   1.09629   80.850
 4530.00    1.13027   1.09614   81.600
 4531.00    1.13581   1.09985   82.730
 4532.00    1.14175   1.10684   83.597
 4533.00    1.15053   1.11651   83.058
 4534.00    1.16389   1.12832   81.202
 4535.00    1.18063   1.14168   -1.000
 4536.00    1.19733   1.15549   -1.000
 4537.00    1.20960   1.16848   -1.000
 4538.00    1.21566   1.17931   76.313
 4539.00    1.21684   1.18657   75.958
 4540.00    1.21461   1.18964   76.414
 4541.00    1.21011   1.18905   77.568
 4542.00    1.20597   1.18641   78.811
 4543.00    1.20509   1.18322   79.350
 4544.00    1.20491   1.17988   79.605
 4545.00    1.19920   1.17634   80.856
 4546.00    1.18880   1.17230   82.661
 4547.00    1.18058   1.16758   83.011
 4548.00    1.17468   1.16298   82.064
 4549.00    1.16555   1.15917   81.782
 4550.00    1.15507   1.15624    0.000
 4551.00    1.15133   1.15465    0.000
 4552.00    1.15525   1.15543    0.000
 4553.00    1.16150   1.15967    0.000
 4554.00    1.16979   1.16749    0.000
 4555.00    1.18392   1.17820    0.000
 4556.00    1.20255   1.19132    0.000
 4557.00    1.22011   1.20542    0.000
 4558.00    1.23436   1.21788    0.000
 4559.00    1.24588   1.22628    0.000
 4560.00    1.25299   1.22927    0.000
 4561.00    1.25294   1.22717    0.000
 4562.00    1.24679   1.22223    0.000
 4563.00    1.23878   1.21721    0.000
 4564.00    1.23286   1.21430    0.000
 4565.00    1.23118   1.21425    0.000
 4566.00    1.23254   1.21643    0.000
 4567.00    1.23436   1.22012    0.000
 4568.00    1.23668   1.22448    0.000
 4569.00    1.24072   1.22798    0.000
 4570.00    1.24509   1.22980    0.000
 4571.00    1.24717   1.23036    0.000
 4572.00    1.24655   1.23072    0.000
 4573.00    1.24448   1.23121    0.000
 4574.00    1.24198   1.23093    0.000
 4575.00    1.23919   1.22896    0.000
 4576.00    1.23477   1.22424    0.000
 4577.00    1.22725   1.21590    0.000
 4578.00    1.21706   1.20509    0.000
 4579.00    1.20613   1.19420    0.000
 4580.00    1.19685   1.18494    0.000
 4581.00    1.19118   1.17839    0.000
 4582.00    1.18967   1.17566    0.000
 4583.00    1.19165   1.17732    0.000
 4584.00    1.19577   1.18286    0.000
 4585.00    1.20085   1.19063    0.000
 4586.00    1.20693   1.19859    0.000
 4587.00    1.21399   1.20542    0.000
 4588.00    1.22044   1.21021    0.000
 4589.00    1.22387   1.21193    0.000
 4590.00    1.22227   1.21034    0.000
 4591.00    1.21559   1.20596    0.000
 4592.00    1.20713   1.20000    0.000
 4593.00    1.20056   1.19426    0.000
 4594.00    1.19688   1.19029    0.000
 4595.00    1.19584   1.18852    0.000
 4596.00    1.19762   1.18863    0.000
 4597.00    1.20159   1.18984    0.000
 4598.00    1.20520   1.19142    0.000
 4599.00    1.20670   1.19324    0.000
 4600.00    1.20753   1.19512    0.000
 4601.00    1.21045   1.19733    0.000
 4602.00    1.21760   1.20072    0.000
 4603.00    1.22927   1.20611    0.000
 4604.00    1.24326   1.21439    0.000
 4605.00    1.25676   1.22516    0.000
 4606.00    1.26799   1.23680    0.000
 4607.00    1.27622   1.24802    0.000
 4608.00    1.28172   1.25746    0.000
 4609.00    1.28499   1.26432    0.000
 4610.00    1.28636   1.26816    0.000
 4611.00    1.28638   1.26888    0.000
 4612.00    1.28605   1.26738    0.000
 4613.00    1.28555   1.26506    0.000
 4614.00    1.28368   1.26310    0.000
 4615.00    1.27958   1.26228    0.000
 4616.00    1.27391   1.26256    0.000
 4617.00    1.26852   1.26356    0.000
 4618.00    1.26587   1.26481    0.000
 4619.00    1.26748   1.26610    0.000
 4620.00    1.27297   1.26769    0.000
 4621.00    1.28036   1.26912    0.000
 4622.00    1.28669   1.27010    0.000
 4623.00    1.29026   1.27071    0.000
 4624.00    1.29150   1.27002    0.000
 4625.00    1.29084   1.26767    0.000
 4626.00    1.28798   1.26503    0.000
 4627.00    1.28360   1.26271    0.000
 4628.00    1.27970   1.26026    0.000
 4629.00    1.27708   1.25775    0.000
 4630.00    1.27445   1.25506    0.000
 4631.00    1.26996   1.25142    0.000
 4632.00    1.26234   1.24648    0.000
 4633.00    1.25212   1.24055    0.000
 4634.00    1.24164   1.23357    0.000
 4635.00    1.23242   1.22557    0.000
 4636.00    1.22457   1.21821    0.000
 4637.00    1.21875   1.21318    0.000
 4638.00    1.21648   1.21027    0.000
 4639.00    1.21820   1.20856    0.000
 4640.00    1.22258   1.20718    0.000
 4641.00    1.22664   1.20498    0.000
 4642.00    1.22666   1.20072    0.000
 4643.00    1.22106   1.19401    0.000
 4644.00    1.21096   1.18571    0.000
 4645.00    1.19874   1.17717    0.000
 4646.00    1.18756   1.17053    0.000
 4647.00    1.18134   1.16812    0.000
 4648.00    1.18343   1.17075    0.000
 4649.00    1.19290   1.17748    0.000
 4650.00    1.20496   1.18657    0.000
 4651.00    1.21563   1.19576    0.000
 4652.00    1.22316   1.20335    0.000
 4653.00    1.22823   1.20941    0.000
 4654.00    1.23309   1.21529    0.000
 4655.00    1.23924   1.22230    0.000
 4656.00    1.24688   1.23065    0.000
 4657.00    1.25525   1.23948    0.000
 4658.00    1.26265   1.24757    0.000
 4659.00    1.26651   1.25284    0.000
 4660.00    1.26426   1.25303    0.000
 4661.00    1.25533   1.24630    0.000
 4662.00    1.24111   1.23189    0.000
 4663.00    1.22407   1.21177    0.000
 4664.00    1.20681   1.19018    0.000
 4665.00    1.19064   1.17140    0.000
 4666.00    1.17611   1.15841    0.000
 4667.00    1.16459   1.15255    0.000
 4668.00    1.15862   1.15346    0.000
 4669.00    1.16176   1.16034    0.000
 4670.00    1.17569   1.17250    0.000
 4671.00    1.19523   1.18793    0.000
 4672.00    1.21198   1.20312    0.000
 4673.00    1.22205   1.21487    0.000
 4674.00    1.22602   1.22190    0.000
 4675.00    1.22643   1.22446    0.000
 4676.00    1.22627   1.22361    0.000
 4677.00    1.22710   1.22040    0.000
 4678.00    1.22921   1.21591    0.000
 4679.00    1.23219   1.21114    0.000
 4680.00    1.23499   1.20688    0.000
 4681.00    1.23608   1.20434    0.000
 4682.00    1.23502   1.20440    0.000
 4683.00    1.23448   1.20648    0.000
 4684.00    1.23717   1.20952    0.000
 4685.00    1.24165   1.21268    0.000
 4686.00    1.24432   1.21492    0.000
 4687.00    1.24278   1.21582    0.000
 4688.00    1.23699   1.21638    0.000
 4689.00    1.23001   1.21764    0.000
 4690.00    1.22571   1.21994    0.000
 4691.00    1.22595   1.22346    0.000
 4692.00    1.22998   1.22754    0.000
 4693.00    1.23434   1.23062    0.000
 4694.00    1.23521   1.23153    0.000
 4695.00    1.23102   1.22997    0.000
 4696.00    1.22247   1.22569    0.000
 4697.00    1.21221   1.21856    0.000
 4698.00    1.20252   1.20915    0.000
 4699.00    1.19338   1.19889    0.000
 4700.00    1.18420   1.19000    0.000
 4701.00    1.17552   1.18420    0.000
 4702.00    1.16845   1.18155    0.000
 4703.00    1.16403   1.18060    0.000
 4704.00    1.16311   1.18021    0.000
 4705.00    1.16629   1.18059    0.000
 4706.00    1.17321   1.18256    0.000
 4707.00    1.18215   1.18600    0.000
 4708.00    1.19117   1.18950    0.000
 4709.00    1.19912   1.19259    0.000
 4710.00    1.20543   1.19603    0.000
 4711.00    1.20996   1.20079    0.000
 4712.00    1.21313   1.20730    0.000
 4713.00    1.21603   1.21514    0.000
 4714.00    1.22005   1.22373    0.000
 4715.00    1.22655   1.23340    0.000
 4716.00    1.23626   1.24476    0.000
 4717.00    1.24878   1.25733    0.000
 4718.00    1.26226   1.26943    0.000
 4719.00    1.27349   1.27917    0.000
 4720.00    1.27972   1.28563    0.000
 4721.00    1.27982   1.28865    0.000
 4722.00    1.27434   1.28757    0.000
 4723.00    1.26521   1.28146    0.000
 4724.00    1.25383   1.27090    0.000
 4725.00    1.24038   1.25777    0.000
 4726.00    1.22561   1.24357    0.000
 4727.00    1.21153   1.22947    0.000
 4728.00    1.20044   1.21712    0.000
 4729.00    1.19419   1.20844    0.000
 4730.00    1.19350   1.20516    0.000
 4731.00    1.19761   1.20760    0.000
 4732.00    1.20446   1.21324    0.000
 4733.00    1.21134   1.22001    0.000
 4734.00    1.21700   1.22764    0.000
 4735.00    1.22216   1.23499    0.000
 4736.00    1.22750   1.24073    0.000
 4737.00    1.23289   1.24521    0.000
 4738.00    1.23804   1.24917    0.000
 4739.00    1.24273   1.25335    0.000
 4740.00    1.24654   1.25807    0.000
 4741.00    1.24915   1.26240    0.000
 4742.00    1.25174   1.26609    0.000
 4743.00    1.25657   1.26995    0.000
 4744.00    1.26357   1.27424    0.000
 4745.00    1.27001   1.27846    0.000
 4746.00    1.27349   1.28175    0.000
 4747.00    1.27302   1.28341    0.000
 4748.00    1.26898   1.28331    0.000
 4749.00    1.26296   1.28117    0.000
 4750.00    1.25711   1.27660    0.000
 4751.00    1.25319   1.27045    0.000
 4752.00    1.25036   1.26387    0.000
 4753.00    1.24603   1.25753    0.000
 4754.00    1.23967   1.25212    0.000
 4755.00    1.23314   1.24855    0.000
 4756.00    1.22843   1.24673    0.000
 4757.00    1.22651   1.24507    0.000
 4758.00    1.22605   1.24201    0.000
 4759.00    1.22404   1.23716    0.000
 4760.00    1.21820   1.23034    0.000
 4761.00    1.20813   1.22152   66.654
 4762.00    1.19648   1.21180   66.717
 4763.00    1.18748   1.20318   67.004
 4764.00    1.18329   1.19782   67.308
 4765.00    1.18420   1.19765   67.263
 4766.00    1.19101   1.20238   66.727
 4767.00    1.20403   1.20976   65.857
 4768.00    1.22021   1.21874   65.047
 4769.00    1.23465   1.22933   64.670
 4770.00    1.24469   1.24059   64.697
 4771.00    1.25026   1.25083   64.848
 4772.00    1.25294   1.25913   64.967
 4773.00    1.25528   1.26601   64.990
 4774.00    1.25979   1.27220   64.798
 4775.00    1.26776   1.27750   64.341
 4776.00    1.27761   1.28098   63.884
 4777.00    1.28576   1.28153   63.805
 4778.00    1.28849   1.27862   64.236
 4779.00    1.28357   1.27304   64.973
 4780.00    1.27222   1.26617   65.417
 4781.00    1.25801   1.25853   65.243
 4782.00    1.24465   1.25036   65.370
 4783.00    1.23484   1.24301   66.296
 4784.00    1.22908   1.23720   65.702
 4785.00    1.22652   1.23285   63.008
 4786.00    1.22634   1.23113   64.386
 4787.00    1.22823   1.23235   72.173
 4788.00    1.23267   1.23575   66.552
 4789.00    1.24020   1.24237   50.652
 4790.00    1.25032   1.25252   61.302
 4791.00    1.26168   1.26410  198.295
 4792.00    1.27238   1.27537   73.672
 4793.00    1.28089   1.28496   14.491
 4794.00    1.28696   1.29113    7.847
 4795.00    1.29079   1.29319    7.031
 4796.00    1.29200   1.29174    7.730
 4797.00    1.29073   1.28799    8.066
 4798.00    1.28865   1.28361    7.758
 4799.00    1.28653   1.27999    7.583
 4800.00    1.28208   1.27737    7.809
 4801.00    1.27376   1.27554    8.177
 4802.00    1.26424   1.27461    7.875
 4803.00    1.25703   1.27360    7.206
 4804.00    1.25312   1.27113    8.139
 4805.00    1.25180   1.26724   15.347
 4806.00    1.25184   1.26309   81.588
 4807.00    1.25202   1.26019  198.295
 4808.00    1.25171   1.25965   62.364
 4809.00    1.25089   1.26117   53.474
 4810.00    1.25027   1.26436   71.064
 4811.00    1.25053   1.26923   74.809
 4812.00    1.25196   1.27521   65.595
 4813.00    1.25533   1.28147   64.525
 4814.00    1.26218   1.28775   67.555
 4815.00    1.27208   1.29391   67.603
 4816.00    1.28116   1.29921   66.068
 4817.00    1.28595   1.30264   65.810
 4818.00    1.28586   1.30309   65.978
 4819.00    1.28188   1.29933   65.699
 4820.00    1.27556   1.29205   66.082
 4821.00    1.26824   1.28374   67.467
 4822.00    1.26068   1.27588   68.040
 4823.00    1.25362   1.26884   67.182
 4824.00    1.24794   1.26279   67.040
 4825.00    1.24425   1.25833   68.496
 4826.00    1.24255   1.25691   69.555
 4827.00    1.24189   1.25757   68.963
 4828.00    1.24055   1.25726   68.131
 4829.00    1.23758   1.25558   68.126
 4830.00    1.23353   1.25422   68.474
 4831.00    1.22991   1.25404   68.538
 4832.00    1.22859   1.25469   68.217
 4833.00    1.22984   1.25531   67.862
 4834.00    1.23189   1.25564   68.023
 4835.00    1.23249   1.25558   68.723
 4836.00    1.22997   1.25411   69.318
 4837.00    1.22447   1.25088   69.426
 4838.00    1.21799   1.24670   69.283
 4839.00    1.21224   1.24236   69.221
 4840.00    1.20795   1.23852   69.411
 4841.00    1.20597   1.23642   69.809
 4842.00    1.20719   1.23677   70.176
 4843.00    1.21097   1.23839   70.262
 4844.00    1.21493   1.23882   69.953
 4845.00    1.21656   1.23743   69.475
 4846.00    1.21400   1.23592   69.288
 4847.00    1.20656   1.23396   69.554
 4848.00    1.19499   1.22943    0.000
 4849.00    1.18172   1.22193    0.000
 4850.00    1.16992   1.21169    0.000
 4851.00    1.16053   1.19872    0.000
 4852.00    1.15386   1.18315    0.000
 4853.00    1.15688   1.16453    0.000
 4854.00    1.18451   1.14234    0.000
 4855.00    1.25652   1.11591    0.000
 4856.00    1.38907   1.08445    0.000
 4857.00    1.57484   1.05012    0.000
 4858.00    1.78110   1.01921    0.000
 4859.00    1.95966   0.99636    0.000
 4860.00    2.06020   0.98166    0.000
 4861.00    2.05617   0.97581    0.000
 4862.00    1.95069   0.98116    0.000
 4863.00    1.77405   0.99856    0.000
 4864.00    1.57338   1.02588    0.000
 4865.00    1.39067   1.05652    0.000
 4866.00    1.25379   1.08269    0.000
 4867.00    1.16874   1.10127    0.000
 4868.00    1.12433   1.11321    0.000
 4869.00    1.10555   1.12120    0.000
 4870.00    1.09900   1.12765    0.000
 4871.00    1.09790   1.13374    0.000
 4872.00    1.10133   1.14019    0.000
 4873.00    1.11088   1.14905    0.000
 4874.00    1.12785   1.16264    0.000
 4875.00    1.14954   1.17992   72.591
 4876.00    1.17090   1.19670   71.118
 4877.00    1.18854   1.20960   69.662
 4878.00    1.20085   1.21855   70.225
 4879.00    1.20696   1.22451   71.746
 4880.00    1.20706   1.22701   71.823
 4881.00    1.20307   1.22539   70.878
 4882.00    1.19723   1.21897   70.767
 4883.00    1.18990   1.20964   71.593
 4884.00    1.18087   1.20134   72.342
 4885.00    1.17185   1.19477   72.364
 4886.00    1.16520   1.18791   71.658
 4887.00    1.16188   1.18114   70.812
 4888.00    1.16177   1.17847   70.441
 4889.00    1.16457   1.18337   70.583
 4890.00    1.17069   1.19492   70.894
 4891.00    1.18213   1.21082   70.940
 4892.00    1.20024   1.22977   70.386
 4893.00    1.22296   1.25111   69.210
 4894.00    1.24589   1.27396   67.760
 4895.00    1.26412   1.29330   66.710
 4896.00    1.27422   1.30449   66.507
 4897.00    1.27612   1.30841   66.915
 4898.00    1.27211   1.30738   67.436
 4899.00    1.26539   1.30265   67.775
 4900.00    1.25876   1.29599   67.920
 4901.00    1.25346   1.28992   68.134
 4902.00    1.25015   1.28698   68.585
 4903.00    1.24976   1.28695   69.000
 4904.00    1.25162   1.28629   69.029
 4905.00    1.25193   1.28327   68.645
 4906.00    1.24715   1.27902   68.161
 4907.00    1.23717   1.27433   68.122
 4908.00    1.22509   1.26914   -1.000
 4909.00    1.21629   1.26369   -1.000
 4910.00    1.21477   1.25939   -1.000
 4911.00    1.22017   1.25760   68.368
 4912.00    1.22893   1.25820   67.662
 4913.00    1.23575   1.25913   67.318
 4914.00    1.23621   1.25622   67.442
 4915.00    1.22871   1.24605   67.809
 4916.00    1.21385   1.22931   68.304
 4917.00    1.19389   1.20957   69.174
 4918.00    1.17244   1.19034   70.393
 4919.00    1.15414   1.17441   71.248
 4920.00    1.14359   1.16371   71.242
 4921.00    1.14427   1.16106   70.731
 4922.00    1.15621   1.16912   70.185
 4923.00    1.17515   1.18717   69.709
 4924.00    1.19666   1.21036   69.252
 4925.00    1.21843   1.23356   68.740
 4926.00    1.23890   1.25485   68.069
 4927.00    1.25642   1.27394   67.138
 4928.00    1.26937   1.28917   66.053
 4929.00    1.27657   1.29659   65.153
 4930.00    1.27829   1.29556   64.774
 4931.00    1.27633   1.28982   65.085
 4932.00    1.27148   1.28149   65.807
 4933.00    1.26276   1.27045   66.210
 4934.00    1.25004   1.25662   66.173
 4935.00    1.23525   1.24233   66.468
 4936.00    1.22149   1.23354   67.406
 4937.00    1.21229   1.23299   68.367
 4938.00    1.21015   1.23680   68.652
 4939.00    1.21598   1.24262   68.049
 4940.00    1.22928   1.25242    0.000
 4941.00    1.24821   1.26679    0.000
 4942.00    1.26935   1.28290    0.000
 4943.00    1.28829   1.29706    0.000
 4944.00    1.30221   1.30801    0.000
 4945.00    1.31078   1.31672    0.000
 4946.00    1.31557   1.32320    0.000
 4947.00    1.31888   1.32716    0.000
 4948.00    1.32064   1.32962    0.000
 4949.00    1.31852   1.33031    0.000
 4950.00    1.31230   1.32739    0.000
 4951.00    1.30429   1.32048    0.000
 4952.00    1.29597   1.30975    0.000
 4953.00    1.28767   1.29407    0.000
 4954.00    1.28085   1.27408    0.000
 4955.00    1.27797   1.25661    0.000
 4956.00    1.28007   1.24683    0.000
 4957.00    1.28623   1.24280    0.000
 4958.00    1.29393   1.24153    0.000
 4959.00    1.29989   1.24395    0.000
 4960.00    1.30160   1.25318    0.000
 4961.00    1.29798   1.26489    0.000
 4962.00    1.28973   1.27071    0.000
 4963.00    1.27863   1.27008    0.000
 4964.00    1.26564   1.26700    0.000
 4965.00    1.25148   1.26354    0.000
 4966.00    1.23911   1.25986    0.000
 4967.00    1.23242   1.25712    0.000
 4968.00    1.23189   1.25837    0.000
 4969.00    1.23536   1.26392    0.000
 4970.00    1.24152   1.27126    0.000
 4971.00    1.24989   1.27910    0.000
 4972.00    1.25916   1.28572    0.000
 4973.00    1.26697   1.28971    0.000
 4974.00    1.27029   1.28966    0.000
 4975.00    1.26664   1.28407    0.000
 4976.00    1.25630   1.27401    0.000
 4977.00    1.24154   1.26012    0.000
 4978.00    1.22442   1.24225    0.000
 4979.00    1.20644   1.22183    0.000
 4980.00    1.18866   1.20252    0.000
 4981.00    1.17269   1.18852    0.000
 4982.00    1.16214   1.18061    0.000
 4983.00    1.16054   1.17811    0.000
 4984.00    1.16779   1.18167    0.000
 4985.00    1.18091   1.19133    0.000
 4986.00    1.19606   1.20449    0.000
 4987.00    1.20957   1.21740    0.000
 4988.00    1.21896   1.22871    0.000
 4989.00    1.22336   1.23846    0.000
 4990.00    1.22378   1.24438    0.000
 4991.00    1.22260   1.24675    0.000
 4992.00    1.22278   1.24849    0.000
 4993.00    1.22585   1.24998    0.000
 4994.00    1.22980   1.25048    0.000
 4995.00    1.23122   1.24794    0.000
 4996.00    1.22829   1.24179    0.000
 4997.00    1.22134   1.23397    0.000
 4998.00    1.21298   1.22447    0.000
 4999.00    1.20714   1.21363    0.000
 5000.00    1.20788   1.20279    0.000
 5001.00    1.21847   1.19191    0.000
 5002.00    1.24049   1.18179    0.000
 5003.00    1.27231   1.17443    0.000
 5004.00    1.30791   1.17169    0.000
 5005.00    1.33826   1.17315    0.000
 5006.00    1.35335   1.17518    0.000
 5007.00    1.34722   1.17587    0.000
 5008.00    1.32212   1.17610    0.000
 5009.00    1.28528   1.17567    0.000
 5010.00    1.24534   1.17254    0.000
 5011.00    1.20936   1.16535    0.000
 5012.00    1.18063   1.15686    0.000
 5013.00    1.15983   1.14977    0.000
 5014.00    1.14627   1.14384    0.000
 5015.00    1.13882   1.14077    0.000
 5016.00    1.13655   1.14289    0.000
 5017.00    1.13804   1.14957    0.000
 5018.00    1.14110   1.15718    0.000
 5019.00    1.14471   1.16323    0.000
 5020.00    1.15001   1.17038    0.000
 5021.00    1.15789   1.18018    0.000
 5022.00    1.16743   1.18952    0.000
 5023.00    1.17712   1.19621    0.000
 5024.00    1.18574   1.20103    0.000
 5025.00    1.19242   1.20762    0.000
 5026.00    1.19693   1.21658    0.000
 5027.00    1.20096   1.22460    0.000
 5028.00    1.20813   1.23151    0.000
 5029.00    1.21979   1.23890   71.225
 5030.00    1.23296   1.24747   69.967
 5031.00    1.24313   1.25376   69.795
 5032.00    1.24613   1.25280   70.224
 5033.00    1.24037   1.24607   70.662
 5034.00    1.22746   1.23746   71.000
 5035.00    1.20994   1.22543   71.406
 5036.00    1.19024   1.20783   72.110
 5037.00    1.17127   1.18723   72.955
 5038.00    1.15642   1.17050   73.367
 5039.00    1.14821   1.16382   73.345
 5040.00    1.14780   1.16516   73.628
 5041.00    1.15557   1.17081   74.271
 5042.00    1.17098   1.18178   74.347
 5043.00    1.19094   1.19818   73.511
 5044.00    1.20988   1.21621   72.446
 5045.00    1.22295   1.22912   71.819
 5046.00    1.22754   1.23463   71.883
 5047.00    1.22457   1.23582   72.461
 5048.00    1.21793   1.23371   73.063
 5049.00    1.21131   1.22923   73.471
 5050.00    1.20696   1.22654   73.818
 5051.00    1.20603   1.22912   74.025
 5052.00    1.20894   1.23637   73.805
 5053.00    1.21653   1.24582   73.370
 5054.00    1.22959   1.25695   73.310
 5055.00    1.24625   1.26946   73.564
 5056.00    1.26215   1.28039   73.505
 5057.00    1.27361   1.28817   73.151
 5058.00    1.27875   1.29334   73.099
 5059.00    1.27803   1.29566   73.317
 5060.00    1.27342   1.29337   73.244
 5061.00    1.26600   1.28493   73.013
 5062.00    1.25591   1.27363   73.302
 5063.00    1.24414   1.26334   74.076
 5064.00    1.23271   1.25252   74.648
 5065.00    1.22391   1.24033   74.721
 5066.00    1.21946   1.23050   74.587
 5067.00    1.21884   1.22683   74.814
 5068.00    1.21968   1.22660   75.783
 5069.00    1.21950   1.22530   76.825
 5070.00    1.21685   1.22488   76.791
 5071.00    1.21294   1.22665   76.040
 5072.00    1.21048   1.22691   75.844
 5073.00    1.21046   1.22373   76.322
 5074.00    1.21145   1.21968   76.729
 5075.00    1.20967   1.21479   76.800
 5076.00    1.20152   1.20508   76.793
 5077.00    1.18814   1.19277   76.973
 5078.00    1.17420   1.18393   77.420
 5079.00    1.16400   1.17860   77.868
 5080.00    1.16010   1.17373   77.955
 5081.00    1.16230   1.17177   77.727
 5082.00    1.16864   1.17756   77.453
 5083.00    1.17733   1.18909   77.155
 5084.00    1.18720   1.20094   76.738
 5085.00    1.19794   1.21234   76.290
 5086.00    1.20963   1.22492   75.938
 5087.00    1.22198   1.23704   75.594
 5088.00    1.23410   1.24639   75.068
 5089.00    1.24433   1.25384   74.298
 5090.00    1.25111   1.26037   73.419
 5091.00    1.25423   1.26412   72.804
 5092.00    1.25395   1.26327   72.752
 5093.00    1.24987   1.25863   73.143
 5094.00    1.24151   1.25125   73.739
 5095.00    1.22942   1.24057   74.594
 5096.00    1.21540   1.22760   75.630
 5097.00    1.20257   1.21696   76.044
 5098.00    1.19390   1.21093   75.302
 5099.00    1.19058   1.20778   74.340
 5100.00    1.19196   1.20618   74.189
 5101.00    1.19582   1.20702   74.565
 5102.00    1.19948   1.21049   74.735
 5103.00    1.20094   1.21288   74.548
 5104.00    1.19921   1.21119   74.230
 5105.00    1.19449   1.20747   74.023
 5106.00    1.18825   1.20426   74.057
 5107.00    1.18319   1.20163   74.266
 5108.00    1.18206   1.20110   74.479
 5109.00    1.18647   1.20395   74.514
 5110.00    1.19608   1.21000   74.255
 5111.00    1.20822   1.21854   73.726
 5112.00    1.22013   1.22847   73.227
 5113.00    1.23081   1.23963   73.360
 5114.00    1.23989   1.25051   74.347
 5115.00    1.24653   1.25840   75.522
 5116.00    1.24978   1.26217   75.995
 5117.00    1.24896   1.26142   75.398
 5118.00    1.24395   1.25640   74.133
 5119.00    1.23539   1.24731   73.235
 5120.00    1.22383   1.23338   73.403
 5121.00    1.20941   1.21680   74.513
 5122.00    1.19379   1.20140   75.846
 5123.00    1.18105   1.18846   76.354
 5124.00    1.17379   1.17770   75.943
 5125.00    1.17096   1.16981   75.981
 5126.00    1.17036   1.16656   76.796
 5127.00    1.17047   1.16832   76.595
 5128.00    1.17116   1.17352   74.946
 5129.00    1.17369   1.18014   74.161
 5130.00    1.17858   1.18724   75.148
 5131.00    1.18471   1.19513   75.972
 5132.00    1.19077   1.20381   75.638
 5133.00    1.19594   1.21019   75.859
 5134.00    1.19911   1.21181   77.364
 5135.00    1.19872   1.20973   78.395
 5136.00    1.19431   1.20573   77.852
 5137.00    1.18727   1.20178   76.836
 5138.00    1.17977   1.19662   76.247
 5139.00    1.17398   1.18868   75.932
 5140.00    1.17048   1.18178   76.027
 5141.00    1.16795   1.17934   77.185
 5142.00    1.16535   1.17915   78.833
 5143.00    1.16261   1.17687   78.913
 5144.00    1.15997   1.17325   77.380
 5145.00    1.15777   1.17264   76.674
 5146.00    1.15698   1.17435   77.632
 5147.00    1.15896   1.17389   78.783
 5148.00    1.16351   1.17161   78.900
 5149.00    1.16872   1.17092   78.089
 5150.00    1.17335   1.17246   77.213
 5151.00    1.17750   1.17507   77.202
 5152.00    1.18213   1.17902   77.951
 5153.00    1.18854   1.18599   78.393
 5154.00    1.19759   1.19621   78.149
 5155.00    1.20912   1.20745   77.751
 5156.00    1.22129   1.21789   77.274
 5157.00    1.23084   1.22714   76.371
 5158.00    1.23453   1.23262   75.628
 5159.00    1.23000   1.23064   76.194
 5160.00    1.21671   1.22093   77.785
 5161.00    1.19574   1.20472   78.868
 5162.00    1.16837   1.18154   79.271
 5163.00    1.13617   1.15057   80.221
 5164.00    1.10234   1.11435   81.778
 5165.00    1.07109   1.07928   82.821
 5166.00    1.04511   1.05009   83.234
 5167.00    1.02536   1.02730   83.770
 5168.00    1.01207   1.00875   83.912
 5169.00    1.00515   0.99519   82.605
 5170.00    1.00441   0.99336   81.179
 5171.00    1.01004   1.00623   81.777
 5172.00    1.02330   1.02612   83.292
 5173.00    1.04513   1.04540   82.688
 5174.00    1.07276   1.06643   80.464
 5175.00    1.10032   1.09224   79.200
 5176.00    1.12153   1.11575   78.719
 5177.00    1.13150   1.12846   77.505
 5178.00    1.12891   1.12998   76.418
 5179.00    1.11612   1.12271   77.249
 5180.00    1.09823   1.10740   79.353
 5181.00    1.08149   1.09003   80.554
 5182.00    1.07067   1.08001   80.444
 5183.00    1.06877   1.07882   80.038
 5184.00    1.07719   1.08250   79.556
 5185.00    1.09526   1.09152   78.682
 5186.00    1.11926   1.11021   77.576
 5187.00    1.14355   1.13429   76.634
 5188.00    1.16264   1.15125   75.934
 5189.00    1.17317   1.15774   75.475
 5190.00    1.17626   1.16160    0.000
 5191.00    1.17642   1.16674    0.000
 5192.00    1.17933   1.16871    0.000
 5193.00    1.18942   1.16771    0.000
 5194.00    1.20708   1.17095    0.000
 5195.00    1.22954   1.18037    0.000
 5196.00    1.25265   1.19093    0.000
 5197.00    1.27180   1.19921    0.000
 5198.00    1.28283   1.20543    0.000
 5199.00    1.28300   1.20870    0.000
 5200.00    1.27200   1.20715    0.000
 5201.00    1.25162   1.19891    0.000
 5202.00    1.22515   1.18411    0.000
 5203.00    1.19654   1.16717    0.000
 5204.00    1.16942   1.15198    0.000
 5205.00    1.14723   1.13833    0.000
 5206.00    1.13337   1.12782    0.000
 5207.00    1.13035   1.12555    0.000
 5208.00    1.13885   1.13282    0.000
 5209.00    1.15653   1.14600    0.000
 5210.00    1.17721   1.16217    0.000
 5211.00    1.19493   1.18043   78.856
 5212.00    1.20762   1.19772   78.728
 5213.00    1.21621   1.21185   78.490
 5214.00    1.22326   1.22377   78.252
 5215.00    1.23056   1.23399   78.186
 5216.00    1.23740   1.24156   78.139
 5217.00    1.24286   1.24656   77.952
 5218.00    1.24749   1.25073   77.718
 5219.00    1.25086   1.25320   77.612
 5220.00    1.24993   1.25092   77.724
 5221.00    1.24207   1.24274   77.926
 5222.00    1.22736   1.22981   77.878
 5223.00    1.20825   1.21354   77.787
 5224.00    1.18898   1.19690   78.684
 5225.00    1.17371   1.18523   80.576
 5226.00    1.16534   1.18041   81.383
 5227.00    1.16516   1.18051   80.239
 5228.00    1.17276   1.18545   79.365
 5229.00    1.18606   1.19559   79.906
 5230.00    1.20161   1.20764   80.162
 5231.00    1.21610   1.21817   79.091
 5232.00    1.22743   1.22746   78.077
 5233.00    1.23580   1.23694   78.075
 5234.00    1.24365   1.24637   78.410
 5235.00    1.25248   1.25594   78.361
 5236.00    1.26149   1.26627   77.930
 5237.00    1.27001   1.27715   77.211
 5238.00    1.27844   1.28745   76.163
 5239.00    1.28624   1.29458   75.240
 5240.00    1.29140   1.29762   75.348
 5241.00    1.29299   1.29881   76.428
 5242.00    1.29192   1.29870   77.132
 5243.00    1.28862   1.29354   76.697
 5244.00    1.28232   1.28285   75.744
 5245.00    1.27292   1.27236   75.078
 5246.00    1.26152   1.26386   75.130
 5247.00    1.24973   1.25289   75.954
 5248.00    1.23928   1.24057   77.204
 5249.00    1.23193   1.23429   78.080
 5250.00    1.22921   1.23482   77.681
 5251.00    1.23138   1.23632   76.468
 5252.00    1.23736   1.23811   75.975
 5253.00    1.24569   1.24505   76.321
 5254.00    1.25487   1.25638   76.132
 5255.00    1.26346   1.26579   75.048
 5256.00    1.26990   1.27027   74.091
 5257.00    1.27200   1.27109   73.968
 5258.00    1.26723   1.26725   74.688
 5259.00    1.25461   1.25512   75.795
 5260.00    1.23503   1.23493   76.614
 5261.00    1.21040   1.20986   77.007
 5262.00    1.18327   1.18167   77.395
 5263.00    1.15635   1.15306   77.963
 5264.00    1.13235   1.13014   78.579
 5265.00    1.11369   1.11443   79.278
 5266.00    1.10215   1.10100   80.195
 5267.00    1.09793   1.09150   80.985
 5268.00    1.10009   1.09397   81.055
 5269.00    1.10837   1.10652   80.639
 5270.00    1.12287   1.11946   80.512
 5271.00    1.14230   1.13330   80.675
 5272.00    1.16409   1.15395   80.519
 5273.00    1.18586   1.17885   79.890
 5274.00    1.20593   1.20225   79.087
 5275.00    1.22376   1.22267   78.319
 5276.00    1.23957   1.23944   77.708
 5277.00    1.25334   1.25168   77.546
 5278.00    1.26446   1.26091   78.029
 5279.00    1.27151   1.26745   78.639
 5280.00    1.27357   1.26969   78.644
 5281.00    1.27271   1.26944   78.386
 5282.00    1.27299   1.27237   78.645
 5283.00    1.27761   1.28084   79.069
 5284.00    1.28787   1.29163   78.842
 5285.00    1.30229   1.30267   78.389
 5286.00    1.31765   1.31560   78.505
 5287.00    1.33099   1.33001   78.523
 5288.00    1.34044   1.34106   77.503
 5289.00    1.34584   1.34537   76.490
 5290.00    1.34760   1.34400   76.799
 5291.00    1.34478   1.33929   77.315
 5292.00    1.33606   1.33132   76.342
 5293.00    1.32138   1.31838   74.930
 5294.00    1.30246   1.30076   74.791
 5295.00    1.28290   1.28305   75.307
 5296.00    1.26689   1.27053   75.070
 5297.00    1.25723   1.26309   74.369
 5298.00    1.25499   1.25806   74.122
 5299.00    1.25942   1.25760   74.176
 5300.00    1.26893   1.26583   73.921
 5301.00    1.28227   1.28060   73.251
 5302.00    1.29777   1.29573   72.399
 5303.00    1.31256   1.30924   71.595
 5304.00    1.32396   1.32235   71.091
 5305.00    1.33125   1.33494   71.191
 5306.00    1.33556   1.34529   71.845
 5307.00    1.33920   1.35201   72.230
 5308.00    1.34363   1.35522   71.777
 5309.00    1.34745   1.35628   71.244
 5310.00    1.34852   1.35593   71.480
 5311.00    1.34624   1.35382   72.268
 5312.00    1.34147   1.34963   72.976
 5313.00    1.33605   1.34338   73.301
 5314.00    1.33153   1.33630   73.329
 5315.00    1.32806   1.33042   73.450
 5316.00    1.32498   1.32532   73.788
 5317.00    1.32158   1.31891   73.807
 5318.00    1.31713   1.31198   73.305
 5319.00    1.31098   1.30592   73.093
 5320.00    1.30242   1.29784   73.635
 5321.00    1.29061   1.28454   74.142
 5322.00    1.27541   1.26895   74.119
 5323.00    1.25778   1.25465   74.447
 5324.00    1.23914   1.23849   75.616
 5325.00    1.22094   1.21839   76.548
 5326.00    1.20578   1.20283   76.486
 5327.00    1.19779   1.19932   76.307
 5328.00    1.19956   1.20268   76.666
 5329.00    1.21034   1.20739   76.910
 5330.00    1.22753   1.21809   76.584
 5331.00    1.24796   1.23802   76.271
 5332.00    1.26868   1.25968   76.365
 5333.00    1.28736   1.27478   76.461
 5334.00    1.30164   1.28393   76.246
 5335.00    1.30902   1.29122   75.964
 5336.00    1.30840   1.29526   75.945
 5337.00    1.30101   1.29233   76.334
 5338.00    1.29063   1.28569   77.055
 5339.00    1.28283   1.28212   77.822
 5340.00    1.28096   1.28140   78.344
 5341.00    1.28446   1.27986   78.451
 5342.00    1.29072   1.27878   78.118
 5343.00    1.29651   1.28101   77.516
 5344.00    1.29949   1.28551   77.185
 5345.00    1.29908   1.28906   77.831
 5346.00    1.29671   1.29051   79.153
 5347.00    1.29545   1.29314   79.674
 5348.00    1.29738   1.30045   78.985
 5349.00    1.30288   1.31020   78.333
 5350.00    1.31177   1.31947   78.525
 5351.00    1.32368   1.33088   79.282
 5352.00    1.33754   1.34609   79.741
 5353.00    1.35140   1.36073   79.045
 5354.00    1.36313   1.37141   77.859
 5355.00    1.37094   1.37943   77.850
 5356.00    1.37452   1.38542   78.657
 5357.00    1.37488   1.38719   78.023
 5358.00    1.37262   1.38356   76.049
 5359.00    1.36744   1.37581   75.129
 5360.00    1.35862   1.36603   75.792
 5361.00    1.34574   1.35477   76.563
 5362.00    1.33002   1.34133   76.633
 5363.00    1.31404   1.32679   76.474
 5364.00    1.29953   1.31317   76.802
 5365.00    1.28684   1.30051   77.935
 5366.00    1.27573   1.28828   78.903
 5367.00    1.26581   1.27677   78.182
 5368.00    1.25726   1.26704   76.759
 5369.00    1.25108   1.26203   77.021
 5370.00    1.24914   1.26375   78.661
 5371.00    1.25339   1.27017   79.193
 5372.00    1.26383   1.27974   78.107
 5373.00    1.27845   1.29338   76.985
 5374.00    1.29434   1.30918   76.648
 5375.00    1.30851   1.32316   76.922
 5376.00    1.31943   1.33356   77.334
 5377.00    1.32667   1.33963   77.389
 5378.00    1.32966   1.34172   76.901
 5379.00    1.32815   1.34178   76.082
 5380.00    1.32367   1.34027   75.494
 5381.00    1.31887   1.33721   75.652
 5382.00    1.31573   1.33468   76.368
 5383.00    1.31497   1.33299   76.982
 5384.00    1.31591   1.33038   77.079
 5385.00    1.31692   1.32715   76.680
 5386.00    1.31644   1.32346   76.218
 5387.00    1.31333   1.31754   76.205
 5388.00    1.30730   1.30958   76.728
 5389.00    1.29887   1.30101   77.504
 5390.00    1.28930   1.29121   78.079
 5391.00    1.27990   1.28058   78.254
 5392.00    1.27098   1.27183   78.685
 5393.00    1.26235   1.26443   80.018
 5394.00    1.25426   1.25613   81.421
 5395.00    1.24765   1.25021   81.601
 5396.00    1.24435   1.25007   80.924
 5397.00    1.24544   1.25060   80.500
 5398.00    1.24929   1.24840   80.490
 5399.00    1.25286   1.24817   80.617
 5400.00    1.25382   1.24982   81.032
 5401.00    1.25111   1.24647   -2.000
 5402.00    1.24519   1.23777   -2.000
 5403.00    1.23733   1.22927   -2.000
 5404.00    1.22880   1.22309   -2.000
 5405.00    1.22087   1.21848   -2.000
 5406.00    1.21493   1.21548   -2.000
 5407.00    1.21248   1.21597   -2.000
 5408.00    1.21505   1.22280   -2.000
 5409.00    1.22350   1.23534   -2.000
 5410.00    1.23743   1.24906   -2.000
 5411.00    1.25506   1.26214   -2.000
 5412.00    1.27342   1.27662   -2.000
 5413.00    1.28979   1.29229   -2.000
 5414.00    1.30310   1.30587   -2.000
 5415.00    1.31319   1.31544   76.850
 5416.00    1.31999   1.32194   77.110
 5417.00    1.32363   1.32605   76.838
 5418.00    1.32447   1.32735   76.430
 5419.00    1.32278   1.32687   76.499
 5420.00    1.31855   1.32529   76.941
 5421.00    1.31257   1.32150   77.344
 5422.00    1.30697   1.31690   77.393
 5423.00    1.30320   1.31431   77.115
 5424.00    1.30057   1.31249   76.957
 5425.00    1.29759   1.30844   77.244
 5426.00    1.29328   1.30126   77.807
 5427.00    1.28755   1.29314   78.235
 5428.00    1.28138   1.28708   78.144
 5429.00    1.27573   1.28091   77.703
 5430.00    1.27090   1.27133   77.777
 5431.00    1.26710   1.26369   78.704
 5432.00    1.26483   1.26323   79.680
 5433.00    1.26508   1.26660   79.926
 5434.00    1.26931   1.27163   79.528
 5435.00    1.27852   1.28131   79.085
 5436.00    1.29268   1.29600   79.228
 5437.00    1.31018   1.31191   79.629
 5438.00    1.32787   1.32634   78.864
 5439.00    1.34215   1.33788   76.988
 5440.00    1.34989   1.34468   76.088
 5441.00    1.34938   1.34569   77.062
 5442.00    1.34092   1.34111   78.660
 5443.00    1.32706   1.33142   79.420
 5444.00    1.31213   1.31884   78.920
 5445.00    1.29962   1.30796   78.029
 5446.00    1.29105   1.30101   78.297
 5447.00    1.28674   1.29587   79.785
 5448.00    1.28612   1.29257   80.680
 5449.00    1.28714   1.29273   80.367
 5450.00    1.28667   1.29449   80.335
 5451.00    1.28321   1.29441   81.120
 5452.00    1.27771   1.29129   81.612
 5453.00    1.27216   1.28730   81.513
 5454.00    1.26878   1.28595   81.816
 5455.00    1.26900   1.28708   82.471
 5456.00    1.27318   1.28767   82.188
 5457.00    1.28119   1.28895   81.218
 5458.00    1.29228   1.29344   81.315
 5459.00    1.30396   1.29801   82.334
 5460.00    1.31260   1.29865   82.173
 5461.00    1.31657   1.29792   80.705
 5462.00    1.31677   1.29960   79.914
 5463.00    1.31479   1.30093   80.244
 5464.00    1.31224   1.30010   80.470
 5465.00    1.31079   1.30140   80.188
 5466.00    1.31156   1.30469   80.070
 5467.00    1.31355   1.30451   80.299
 5468.00    1.31407   1.30174   80.406
 5469.00    1.31120   1.29955   80.090
 5470.00    1.30448   1.29421   79.445
 5471.00    1.29472   1.28452   78.877
 5472.00    1.28358   1.27627   78.796
 5473.00    1.27268   1.26910   79.007
 5474.00    1.26341   1.25873   78.955
 5475.00    1.25716   1.25078   78.696
 5476.00    1.25494   1.25029   78.737
 5477.00    1.25629   1.25105   79.138
 5478.00    1.25974   1.25071   79.532
 5479.00    1.26408   1.25530   79.611
 5480.00    1.26886   1.26454   79.311
 5481.00    1.27451   1.27205   78.914
 5482.00    1.28172   1.27823   78.783
 5483.00    1.29005   1.28622   78.840
 5484.00    1.29796   1.29295   78.787
 5485.00    1.30324   1.29676   78.694
 5486.00    1.30435   1.30045   78.872
 5487.00    1.30234   1.30324   79.436
 5488.00    1.30017   1.30341   80.187
 5489.00    1.30061   1.30446   80.557
 5490.00    1.30499   1.30657   80.105
 5491.00    1.31158   1.30623   79.368
 5492.00    1.31708   1.30618   79.174
 5493.00    1.31939   1.30853   79.475
 5494.00    1.31821   1.30844   79.799
 5495.00    1.31518   1.30564   80.158
 5496.00    1.31253   1.30579   80.793
 5497.00    1.31093   1.30701   81.557
 5498.00    1.30992   1.30394   82.132
 5499.00    1.30882   1.29951   82.490
 5500.00    1.30715   1.29741   82.773
 5501.00    1.30505   1.29510   83.021
 5502.00    1.30287   1.29082   83.073
 5503.00    1.30057   1.28619   82.554
 5504.00    1.29814   1.28275   81.440
 5505.00    1.29598   1.28129   80.616
 5506.00    1.29441   1.28007   80.749
 5507.00    1.29294   1.27723   81.129
 5508.00    1.29100   1.27523   80.886
 5509.00    1.28874   1.27481   80.483
 5510.00    1.28693   1.27322   80.627
 5511.00    1.28666   1.27182   81.020
 5512.00    1.28851   1.27342   -2.000
 5513.00    1.29191   1.27710   -2.000
 5514.00    1.29651   1.28232   -2.000
 5515.00    1.30345   1.29045   -2.000
 5516.00    1.31360   1.30093   -2.000
 5517.00    1.32574   1.31073   -2.000
 5518.00    1.33614   1.31870   -2.000
 5519.00    1.33884   1.32525   -2.000
 5520.00    1.33087   1.32922   -2.000
 5521.00    1.31634   1.32895   -2.000
 5522.00    1.30217   1.32495   -2.000
 5523.00    1.29406   1.31934   -2.000
 5524.00    1.29388   1.31283   -2.000
 5525.00    1.29841   1.30482   -2.000
 5526.00    1.30300   1.29710   -2.000
 5527.00    1.30474   1.29337   -2.000
 5528.00    1.30394   1.29254   -2.000
 5529.00    1.30451   1.29186   -2.000
 5530.00    1.30878   1.29361   -2.000
 5531.00    1.31454   1.29835   -2.000
 5532.00    1.31907   1.30193   -2.000
 5533.00    1.32191   1.30415   -2.000
 5534.00    1.32350   1.30831   -2.000
 5535.00    1.32432   1.31285    8.200
 5536.00    1.32553   1.31573   18.084
 5537.00    1.32904   1.31957  198.295
 5538.00    1.33545   1.32478  198.295
 5539.00    1.34308   1.32857   65.770
 5540.00    1.34943   1.33034   61.642
 5541.00    1.35230   1.33206   87.190
 5542.00    1.35146   1.33439   90.353
 5543.00    1.34901   1.33559   78.839
 5544.00    1.34760   1.33585   78.007
 5545.00    1.34911   1.33833   81.507
 5546.00    1.35346   1.34264   81.941
 5547.00    1.35853   1.34556   80.767
 5548.00    1.36269   1.34772   80.358
 5549.00    1.36568   1.35053   80.165
 5550.00    1.36742   1.35174   79.872
 5551.00    1.36752   1.34990   80.319
 5552.00    1.36574   1.34704   81.512
 5553.00    1.36221   1.34456   82.130
 5554.00    1.35753   1.34140   81.507
 5555.00    1.35271   1.33729   80.382
 5556.00    1.34862   1.33393   79.915
 5557.00    1.34567   1.33158   80.950
 5558.00    1.34356   1.32867   82.731
 5559.00    1.34141   1.32484   82.993
 5560.00    1.33838   1.32056   81.208
 5561.00    1.33405   1.31637   79.263
 5562.00    1.32889   1.31245   79.039
 5563.00    1.32415   1.30733   81.128
 5564.00    1.32110   1.30226   82.116
 5565.00    1.32034   1.30001   77.657
 5566.00    1.32068   1.29802   75.136
 5567.00    1.31980   1.29468   84.864
 5568.00    1.31730   1.29458   89.202
 5569.00    1.31486   1.29726   63.772
 5570.00    1.31424   1.29703   59.146
 5571.00    1.31642   1.29782   -1.000
 5572.00    1.32115   1.30352   -1.000
 5573.00    1.32716   1.30735   22.374
 5574.00    1.33296   1.30904    8.765
 5575.00    1.33734   1.31423    6.767
 5576.00    1.34011   1.31904    7.180
 5577.00    1.34170   1.32024    7.728
 5578.00    1.34199   1.32146    7.544
 5579.00    1.34040   1.32118    7.385
 5580.00    1.33676   1.31679    7.470
 5581.00    1.33098   1.31057    7.482
 5582.00    1.32177   1.30226    7.515
 5583.00    1.30790   1.29048    7.838
 5584.00    1.29127   1.27742    7.918
 5585.00    1.27585   1.26502    7.278
 5586.00    1.26446   1.25399    7.425
 5587.00    1.25829   1.24535   11.517
 5588.00    1.25723   1.24066   43.349
 5589.00    1.26027   1.24047   -2.000
 5590.00    1.26612   1.24408  111.989
 5591.00    1.27354   1.24990   59.566
 5592.00    1.28167   1.25616   77.253
 5593.00    1.28985   1.26367   97.748
 5594.00    1.29727   1.27142   85.743
 5595.00    1.30264   1.27490   79.694
 5596.00    1.30391   1.27522   83.758
 5597.00    1.29980   1.27664   86.007
 5598.00    1.29210   1.27700   83.857
 5599.00    1.28452   1.27474   82.476
 5600.00    1.28060   1.27492   82.984
 5601.00    1.28258   1.27983   83.865
 5602.00    1.29050   1.28754   84.267
 5603.00    1.30297   1.29696   83.982
 5604.00    1.31835   1.30864   82.863
 5605.00    1.33478   1.32174   81.196
 5606.00    1.35006   1.33338   80.037
 5607.00    1.36223   1.34196   79.742
 5608.00    1.37025   1.34680   78.588
 5609.00    1.37324   1.34722   75.646
 5610.00    1.36965   1.34385   73.402
 5611.00    1.35910   1.33765   73.428
 5612.00    1.34443   1.32741   73.052
 5613.00    1.32973   1.31440   70.304
 5614.00    1.31804   1.30462   68.556
 5615.00    1.31062   1.29803   70.356
 5616.00    1.30666   1.29103   72.863
 5617.00    1.30490   1.28703   72.631
 5618.00    1.30513   1.28782   72.003
 5619.00    1.30711   1.28932   73.905
 5620.00    1.30955   1.29008   76.862
 5621.00    1.31082   1.29060   78.104
 5622.00    1.30979   1.29037   77.675
 5623.00    1.30665   1.29124   77.168
 5624.00    1.30333   1.29400   77.682
 5625.00    1.30234   1.29637   79.038
 5626.00    1.30571   1.30029   79.395
 5627.00    1.31386   1.30805   77.776
 5628.00    1.32508   1.31571   75.879
 5629.00    1.33629   1.32107   75.099
 5630.00    1.34388   1.32566   74.942
 5631.00    1.34531   1.32832   74.652
 5632.00    1.34009   1.32748   74.261
 5633.00    1.32968   1.32447   74.216
 5634.00    1.31714   1.31988   75.004
 5635.00    1.30542   1.31366   76.503
 5636.00    1.29628   1.30804   77.686
 5637.00    1.29054   1.30406   78.176
 5638.00    1.28824   1.30008   79.104
 5639.00    1.28900   1.29697   80.968
 5640.00    1.29215   1.29718   82.461
 5641.00    1.29671   1.29880   82.577
 5642.00    1.30148   1.30010   81.976
 5643.00    1.30578   1.30313   81.557
 5644.00    1.30971   1.30748   81.605
 5645.00    1.31337   1.31140   81.883
 5646.00    1.31654   1.31495   81.840
 5647.00    1.31911   1.31807   81.406
 5648.00    1.32128   1.32027   81.154
 5649.00    1.32359   1.32140   81.171
 5650.00    1.32648   1.32145   80.803
 5651.00    1.32856   1.31963   79.935
 5652.00    1.32660   1.31448   79.274
 5653.00    1.31933   1.30775   79.156
 5654.00    1.30855   1.30205   79.255
 5655.00    1.29717   1.29362   79.320
 5656.00    1.28791   1.28209   79.449
 5657.00    1.28197   1.27562   79.888
 5658.00    1.27890   1.27388   80.808
 5659.00    1.27821   1.27012   81.729
 5660.00    1.27979   1.26840   81.626
 5661.00    1.28296   1.27343   80.403
 5662.00    1.28651   1.27970   79.061
 5663.00    1.28987   1.28401   78.408
 5664.00    1.29329   1.28947   78.713
 5665.00    1.29694   1.29584   79.783
 5666.00    1.30087   1.30132   80.994
 5667.00    1.30571   1.30664   81.444
 5668.00    1.31243   1.31201   80.567
 5669.00    1.32090   1.31752   79.569
 5670.00    1.32976   1.32432   80.445
 5671.00    1.33746   1.33187   82.640
 5672.00    1.34289   1.33778   83.393
 5673.00    1.34631   1.34217   82.461
 5674.00    1.34889   1.34674   82.137
 5675.00    1.35093   1.34954   82.882
 5676.00    1.35167   1.34810   83.332
 5677.00    1.35017   1.34481   82.978
 5678.00    1.34596   1.34169   82.426
 5679.00    1.34012   1.33644   82.128
 5680.00    1.33456   1.32848   82.162
 5681.00    1.32980   1.32172   82.452
 5682.00    1.32507   1.31696   82.862
 5683.00    1.31964   1.31206   83.292
 5684.00    1.31361   1.30793   83.667
 5685.00    1.30868   1.30648   83.869
 5686.00    1.30729   1.30750   83.764
 5687.00    1.31046   1.31028   83.287
 5688.00    1.31760   1.31448   82.538
 5689.00    1.32691   1.31971   81.912
 5690.00    1.33613   1.32628   81.696
 5691.00    1.34381   1.33243   81.380
 5692.00    1.34924   1.33591   80.396
 5693.00    1.35185   1.33776   79.504
 5694.00    1.35140   1.33849   79.787
 5695.00    1.34827   1.33583   80.835
 5696.00    1.34334   1.32973   81.437
 5697.00    1.33765   1.32390   81.246
 5698.00    1.33216   1.31780   80.627
 5699.00    1.32728   1.30930   79.839
 5700.00    1.32276   1.30156   79.148
 5701.00    1.31755   1.29608   79.135
 5702.00    1.31042   1.29020   80.127
 5703.00    1.30093   1.28310   81.338
 5704.00    1.28972   1.27670   81.719
 5705.00    1.27868   1.27162   81.485
 5706.00    1.26986   1.26553   81.376
 5707.00    1.26414   1.25990   81.399
 5708.00    1.26184   1.25899   81.183
 5709.00    1.26360   1.26000   80.614
 5710.00    1.26965   1.26270   79.730
 5711.00    1.27877   1.27169   78.532
 5712.00    1.28919   1.28288   77.231
 5713.00    1.29966   1.29358   76.446
 5714.00    1.31018   1.30713   76.550
 5715.00    1.32248   1.32046   77.070
 5716.00    1.33757   1.33109   77.539
 5717.00    1.35342   1.34162   78.396
 5718.00    1.36696   1.35066   79.989
 5719.00    1.37628   1.35709   81.465
 5720.00    1.38057   1.36281   81.885
 5721.00    1.37976   1.36651   81.589
 5722.00    1.37482   1.36750   81.365
 5723.00    1.36783   1.36795   81.499
 5724.00    1.36130   1.36674   81.840
 5725.00    1.35739   1.36283   81.937
 5726.00    1.35690   1.35973   81.424
 5727.00    1.35870   1.35808   80.364
 5728.00    1.36110   1.35525   79.167
 5729.00    1.36319   1.35253   78.387
 5730.00    1.36490   1.35292   77.932
 5731.00    1.36695   1.35461   76.762
 5732.00    1.36974   1.35518   74.630
 5733.00    1.37261   1.35661   72.881
 5734.00    1.37488   1.35901   72.500
 5735.00    1.37649   1.36029   73.241
 5736.00    1.37742   1.36085   74.417
 5737.00    1.37733   1.36108   75.369
 5738.00    1.37614   1.36076   75.764
 5739.00    1.37441   1.36043   75.796
 5740.00    1.37302   1.36002    0.000
 5741.00    1.37286   1.35930    0.000
 5742.00    1.37383   1.35899    0.000
 5743.00    1.37450   1.35899    0.000
 5744.00    1.37353   1.35858    0.000
 5745.00    1.37047   1.35697    0.000
 5746.00    1.36566   1.35454    0.000
 5747.00    1.36009   1.35259    0.000
 5748.00    1.35512   1.34988    0.000
 5749.00    1.35211   1.34573    0.000
 5750.00    1.35163   1.34225    0.000
 5751.00    1.35326   1.33953    0.000
 5752.00    1.35632   1.33713    0.000
 5753.00    1.36026   1.33667    0.000
 5754.00    1.36463   1.33758    0.000
 5755.00    1.36896   1.33848    0.000
 5756.00    1.37245   1.34010    0.000
 5757.00    1.37394   1.34132    0.000
 5758.00    1.37252   1.34118    0.000
 5759.00    1.36801   1.34097    0.000
 5760.00    1.36204   1.34031    0.000
 5761.00    1.35780   1.34015    0.000
 5762.00    1.35789   1.34298    0.000
 5763.00    1.36323   1.34681    0.000
 5764.00    1.37235   1.35072    0.000
 5765.00    1.38186   1.35666    0.000
 5766.00    1.38882   1.36225    0.000
 5767.00    1.39164   1.36534    0.000
 5768.00    1.39047   1.36754    0.000
 5769.00    1.38686   1.36823    0.000
 5770.00    1.38257   1.36656    0.000
 5771.00    1.37894   1.36459    0.000
 5772.00    1.37646   1.36165    0.000
 5773.00    1.37465   1.35736    0.000
 5774.00    1.37235   1.35347    0.000
 5775.00    1.36818   1.34811    0.000
 5776.00    1.36154   1.34049    0.000
 5777.00    1.35258   1.33265    0.000
 5778.00    1.34126   1.32313    0.000
 5779.00    1.32777   1.31141    0.000
 5780.00    1.31419   1.30143    0.000
 5781.00    1.30374   1.29425    0.000
 5782.00    1.29805   1.28773    0.000
 5783.00    1.29695   1.28381    0.000
 5784.00    1.29954   1.28590    0.000
 5785.00    1.30477   1.29075    0.000
 5786.00    1.31223   1.29579    0.000
 5787.00    1.32181   1.30428    0.000
 5788.00    1.33269   1.31350    0.000
 5789.00    1.34354   1.32058    0.000
 5790.00    1.35321   1.32895    0.000
 5791.00    1.36096   1.33659    0.000
 5792.00    1.36665   1.34149    0.000
 5793.00    1.37066   1.34712    0.000
 5794.00    1.37378   1.35266    0.000
 5795.00    1.37691   1.35547    0.000
 5796.00    1.38062   1.35835    0.000
 5797.00    1.38500   1.36323    0.000
 5798.00    1.38953   1.36645    0.000
 5799.00    1.39341   1.36790    0.000
 5800.00    1.39618   1.37075    0.000
 5801.00    1.39770   1.37251    0.000
 5802.00    1.39781   1.37123    0.000
 5803.00    1.39649   1.37015    0.000
 5804.00    1.39395   1.36939    0.000
 5805.00    1.39078   1.36766    0.000
 5806.00    1.38800   1.36638    0.000
 5807.00    1.38655   1.36609    0.000
 5808.00    1.38674   1.36649    0.000
 5809.00    1.38827   1.36702    0.000
 5810.00    1.39054   1.36698    0.000
 5811.00    1.39253   1.36699    0.000
 5812.00    1.39281   1.36711    0.000
 5813.00    1.39075   1.36652    0.000
 5814.00    1.38789   1.36590    0.000
 5815.00    1.38649   1.36702    0.000
 5816.00    1.38767   1.36953    0.000
 5817.00    1.39132   1.37192    0.000
 5818.00    1.39616   1.37527    0.000
 5819.00    1.40078   1.37977    0.000
 5820.00    1.40456   1.38337    0.000
 5821.00    1.40724   1.38596    0.000
 5822.00    1.40831   1.38850    0.000
 5823.00    1.40759   1.39055    0.000
 5824.00    1.40563   1.39157    0.000
 5825.00    1.40285   1.39221    0.000
 5826.00    1.39863   1.39276   -2.000
 5827.00    1.39175   1.39320   -2.000
 5828.00    1.38088   1.39311   -2.000
 5829.00    1.36661   1.39201   -2.000
 5830.00    1.35275   1.39100   -2.000
 5831.00    1.34311   1.39020   -2.000
 5832.00    1.33906   1.38802   -2.000
 5833.00    1.34007   1.38572   -2.000
 5834.00    1.34448   1.38540   -2.000
 5835.00    1.35028   1.38503   -2.000
 5836.00    1.35576   1.38395   -2.000
 5837.00    1.35972   1.38497   -2.000
 5838.00    1.36165   1.38716   -2.000
 5839.00    1.36213   1.38806   -2.000
 5840.00    1.36282   1.38887   -2.000
 5841.00    1.36517   1.38973   -2.000
 5842.00    1.36945   1.38872   -2.000
 5843.00    1.37458   1.38621   -2.000
 5844.00    1.37835   1.38278   -2.000
 5845.00    1.37916   1.37774   -2.000
 5846.00    1.37702   1.37206    0.000
 5847.00    1.37286   1.36598    0.000
 5848.00    1.36796   1.35891    0.000
 5849.00    1.36308   1.35203    0.000
 5850.00    1.35807   1.34509    0.000
 5851.00    1.35197   1.33698    0.000
 5852.00    1.34350   1.32958    0.000
 5853.00    1.33296   1.32388    0.000
 5854.00    1.32260   1.31789    0.000
 5855.00    1.31436   1.31224    0.000
 5856.00    1.30894   1.30998    0.000
 5857.00    1.30602   1.30987    0.000
 5858.00    1.30472   1.31023    0.000
 5859.00    1.30442   1.31321    0.000
 5860.00    1.30515   1.31753    0.000
 5861.00    1.30726   1.32144    0.000
 5862.00    1.31124   1.32660    0.000
 5863.00    1.31713   1.33190    0.000
 5864.00    1.32449   1.33543    0.000
 5865.00    1.33295   1.33925    0.000
 5866.00    1.34238   1.34406    0.000
 5867.00    1.35258   1.34737    0.000
 5868.00    1.36345   1.34987    0.000
 5869.00    1.37582   1.35286    0.000
 5870.00    1.39094   1.35439    0.000
 5871.00    1.40806   1.35404    0.000
 5872.00    1.42418   1.35323    0.000
 5873.00    1.43580   1.35148    0.000
 5874.00    1.44008   1.34782    0.000
 5875.00    1.43655   1.34362    0.000
 5876.00    1.42686   1.33989    0.000
 5877.00    1.41270   1.33520    0.000
 5878.00    1.39534   1.32936    0.000
 5879.00    1.37590   1.32412    0.000
 5880.00    1.35539   1.31851    0.000
 5881.00    1.33438   1.30951    0.000
 5882.00    1.31249   1.29795    0.000
 5883.00    1.28737   1.28440    0.000
 5884.00    1.25548   1.26454    0.000
 5885.00    1.21455   1.23999    0.000
 5886.00    1.16482   1.21530    0.000
 5887.00    1.11050   1.18603    0.000
 5888.00    1.05888   1.15612    0.000
 5889.00    1.01784   1.13648    0.000
 5890.00    0.99335   1.11947    0.000
 5891.00    0.98582   1.10467    0.000
 5892.00    0.99112   1.10434    0.000
 5893.00    1.00413   1.10814    0.000
 5894.00    1.02077   1.11177    0.000
 5895.00    1.04048   1.12856    0.000
 5896.00    1.06528   1.14965    0.000
 5897.00    1.09713   1.16743    0.000
 5898.00    1.13654   1.19240    0.000
 5899.00    1.18077   1.22014    0.000
 5900.00    1.22500   1.24187    0.000
 5901.00    1.26458   1.26263   85.323
 5902.00    1.29603   1.28248   84.252
 5903.00    1.31817   1.29636   83.125
 5904.00    1.33165   1.30634   82.255
 5905.00    1.33830   1.31490   82.088
 5906.00    1.34034   1.32072   82.689
 5907.00    1.33966   1.32378   83.023
 5908.00    1.33734   1.32541   82.078
 5909.00    1.33329   1.32614   80.560
 5910.00    1.32732   1.32556   79.671
 5911.00    1.32054   1.32319   79.535
 5912.00    1.31472   1.32063   79.736
 5913.00    1.31124   1.31896   80.055
 5914.00    1.31086   1.31698   80.286
 5915.00    1.31360   1.31640   79.969
 5916.00    1.31886   1.31770   78.957
 5917.00    1.32568   1.31923   77.969
 5918.00    1.33267   1.32243   77.604
 5919.00    1.33804   1.32612   77.454
 5920.00    1.34085   1.32864   77.130
 5921.00    1.34209   1.33185   77.271
 5922.00    1.34329   1.33437   78.361
 5923.00    1.34486   1.33513   79.540
 5924.00    1.34610   1.33587   79.862
 5925.00    1.34544   1.33560   79.733
 5926.00    1.34196   1.33443   79.882
 5927.00    1.33667   1.33345   80.293
 5928.00    1.33153   1.33169   80.649
 5929.00    1.32846   1.33033   80.830
 5930.00    1.32804   1.33012   81.067
 5931.00    1.32887   1.32997   81.939
 5932.00    1.32976   1.32987   83.465
 5933.00    1.33131   1.33075   84.437
 5934.00    1.33412   1.33284   84.070
 5935.00    1.33739   1.33389   83.311
 5936.00    1.34008   1.33432   83.047
 5937.00    1.34186   1.33645   82.955
 5938.00    1.34327   1.33748   82.721
 5939.00    1.34554   1.33680   82.755
 5940.00    1.34903   1.33763   83.107
 5941.00    1.35246   1.33844   82.906
 5942.00    1.35475   1.33791   81.814
 5943.00    1.35610   1.33793   80.729
 5944.00    1.35683   1.33798   80.232
 5945.00    1.35662   1.33737   79.913
 5946.00    1.35492   1.33625   79.464
 5947.00    1.35123   1.33406   79.188
 5948.00    1.34603   1.33199   79.352
 5949.00    1.34089   1.33065   79.854
 5950.00    1.33731   1.32812   80.386
 5951.00    1.33591   1.32573   80.568
 5952.00    1.33653   1.32571   80.176
 5953.00    1.33831   1.32574   79.302
 5954.00    1.33995   1.32524   78.510
 5955.00    1.34023   1.32703   78.599
 5956.00    1.33956   1.33023   79.422
 5957.00    1.34026   1.33295   79.757
 5958.00    1.34409   1.33658   79.455
 5959.00    1.35106   1.34151   79.881
 5960.00    1.35943   1.34562   81.256
 5961.00    1.36629   1.34892   82.058
 5962.00    1.36987   1.35282   81.767
 5963.00    1.37034   1.35554   81.601
 5964.00    1.36885   1.35696   82.062
 5965.00    1.36695   1.35945   82.431
 5966.00    1.36558   1.36140   82.495
 5967.00    1.36484   1.36217   82.855
 5968.00    1.36454   1.36378   83.520
 5969.00    1.36439   1.36482   83.749
 5970.00    1.36399   1.36381   83.442
 5971.00    1.36282   1.36222   83.283
 5972.00    1.36036   1.35984   83.531
 5973.00    1.35634   1.35555   83.834
 5974.00    1.35157   1.35073   83.853
 5975.00    1.34763   1.34650   83.482
 5976.00    1.34522   1.34188   82.865
 5977.00    1.34402   1.33785   82.226
 5978.00    1.34359   1.33515   81.448
 5979.00    1.34343   1.33206   80.323
 5980.00    1.34248   1.32970   79.417
 5981.00    1.33952   1.32832   79.586
 5982.00    1.33472   1.32579   80.367
 5983.00    1.32970   1.32455   80.435
 5984.00    1.32685   1.32529   79.913
 5985.00    1.32815   1.32549   79.929
 5986.00    1.33279   1.32699   80.201
 5987.00    1.33801   1.33072   79.654
 5988.00    1.34212   1.33435   79.101
 5989.00    1.34479   1.33740   80.155
 5990.00    1.34632   1.34093   81.883
 5991.00    1.34730   1.34439   81.891
 5992.00    1.34833   1.34590   80.896
 5993.00    1.34974   1.34645   81.267
 5994.00    1.35116   1.34685   82.351
 5995.00    1.35187   1.34555   81.945
 5996.00    1.35142   1.34359   80.993
 5997.00    1.34986   1.34158   81.819
 5998.00    1.34782   1.33877   83.679
 5999.00    1.34604   1.33667   84.259
 6000.00    1.34444   1.33420   84.174
 6001.00    1.34258   1.33108   85.316
 6002.00    1.34047   1.32935   86.539
 6003.00    1.33827   1.32665   85.590
 6004.00    1.33542   1.32349   83.768
 6005.00    1.33130   1.32221   83.408
 6006.00    1.32636   1.32013   83.735
 6007.00    1.32174   1.31858   82.987
 6008.00    1.31850   1.31886   82.046
 6009.00    1.31723   1.31854   82.430
 6010.00    1.31775   1.31875   83.178
 6011.00    1.31922   1.31911   82.593
 6012.00    1.32051   1.31872   81.211
 6013.00    1.32076   1.31884   80.426
 6014.00    1.32017   1.31757   80.454
 6015.00    1.31941   1.31576   80.775
 6016.00    1.31886   1.31559   80.820
 6017.00    1.31877   1.31447   80.314
 6018.00    1.31949   1.31304   79.555
 6019.00    1.32119   1.31379   79.154
 6020.00    1.32352   1.31542   79.678
 6021.00    1.32604   1.31722   81.041
 6022.00    1.32871   1.32016   81.871
 6023.00    1.33173   1.32519   81.265
 6024.00    1.33528   1.33076   80.677
 6025.00    1.33948   1.33553   81.581
 6026.00    1.34430   1.34181   83.355
 6027.00    1.34948   1.34853   84.531
 6028.00    1.35452   1.35340   84.370
 6029.00    1.35901   1.35837   83.316
 6030.00    1.36295   1.36355   82.844
 6031.00    1.36645   1.36717   83.799
 6032.00    1.36960   1.36986   85.276
 6033.00    1.37243   1.37243   85.845
 6034.00    1.37495   1.37399   84.907
 6035.00    1.37686   1.37451   83.104
 6036.00    1.37746   1.37494   82.006
 6037.00    1.37636   1.37473   82.231
 6038.00    1.37393   1.37432   82.575
 6039.00    1.37116   1.37461   82.101
 6040.00    1.36940   1.37464   81.532
 6041.00    1.36952   1.37536   81.559
 6042.00    1.37145   1.37729   81.775
 6043.00    1.37430   1.37873   81.378
 6044.00    1.37661   1.38042   79.874
 6045.00    1.37732   1.38269   77.979
 6046.00    1.37637   1.38379   77.466
 6047.00    1.37429   1.38391   78.616
 6048.00    1.37191   1.38378   79.324
 6049.00    1.36968   1.38250   78.495
 6050.00    1.36741   1.37988   77.748
 6051.00    1.36481   1.37681   78.040
 6052.00    1.36190   1.37368   78.374
 6053.00    1.35912   1.37027   78.248
 6054.00    1.35728   1.36685   78.622
 6055.00    1.35682   1.36452   79.832
 6056.00    1.35754   1.36285   80.810
 6057.00    1.35893   1.36108   80.886
 6058.00    1.36044   1.35998   80.623
 6059.00    1.36131   1.35920   80.702
 6060.00    1.36071   1.35740   81.357
 6061.00    1.35824   1.35591   82.318
 6062.00    1.35430   1.35558   82.959
 6063.00    1.35037   1.35460   83.182
 6064.00    1.34872   1.35535   83.537
 6065.00    1.35048   1.35918   83.978
 6066.00    1.35511   1.36285   83.747
 6067.00    1.36144   1.36793   82.988
 6068.00    1.36829   1.37499   82.765
 6069.00    1.37508   1.38049   82.990
 6070.00    1.38160   1.38482   82.388
 6071.00    1.38638   1.38819   80.999
 6072.00    1.38693   1.38921   80.213
 6073.00    1.38264   1.38780   80.351
 6074.00    1.37529   1.38440   80.479
 6075.00    1.36745   1.38001   79.974
 6076.00    1.36142   1.37391   79.006
 6077.00    1.35758   1.36672   78.261
 6078.00    1.35454   1.36107   78.434
 6079.00    1.35103   1.35521   79.187
 6080.00    1.34654   1.34912   79.436
 6081.00    1.34160   1.34603   79.122
 6082.00    1.33752   1.34371   79.134
 6083.00    1.33526   1.34101   79.651
 6084.00    1.33506   1.34046   80.105
 6085.00    1.33613   1.34044   80.220
 6086.00    1.33714   1.33992   80.228
 6087.00    1.33752   1.34017   80.663
 6088.00    1.33765   1.34015   81.966
 6089.00    1.33862   1.34060   83.665
 6090.00    1.34150   1.34197   84.626
 6091.00    1.34594   1.34260   84.432
 6092.00    1.35042   1.34421   83.499
 6093.00    1.35349   1.34708   82.315
 6094.00    1.35428   1.34813   81.382
 6095.00    1.35302   1.34854   81.495
 6096.00    1.35055   1.34938   83.062
 6097.00    1.34715   1.34718   84.560
 6098.00    1.34264   1.34316   83.914
 6099.00    1.33698   1.34034   82.336
 6100.00    1.33060   1.33538   82.214
 6101.00    1.32468   1.33032   82.793
 6102.00    1.32072   1.32966   81.961
 6103.00    1.31969   1.32868   80.383
 6104.00    1.32200   1.32893   79.949
 6105.00    1.32784   1.33406   80.586
 6106.00    1.33649   1.33822   80.993
 6107.00    1.34526   1.34251   80.353
 6108.00    1.35100   1.34877   78.911
 6109.00    1.35255   1.35252   78.092
 6110.00    1.35078   1.35579   78.960
 6111.00    1.34802   1.35897   80.375
 6112.00    1.34657   1.35944   80.548
 6113.00    1.34683   1.35939   79.891
 6114.00    1.34784   1.35778   79.821
 6115.00    1.34822   1.35405   80.635
 6116.00    1.34670   1.35016   81.738
 6117.00    1.34249   1.34371   82.199
 6118.00    1.33554   1.33700   81.744
 6119.00    1.32678   1.33238   81.738
 6120.00    1.31787   1.32593   83.297
 6121.00    1.31079   1.32187   85.207
 6122.00    1.30714   1.32213   85.811
 6123.00    1.30737   1.32101   85.760
 6124.00    1.31112   1.32238   85.971
 6125.00    1.31758   1.32723   85.250
 6126.00    1.32572   1.32967   83.061
 6127.00    1.33432   1.33206   81.852
 6128.00    1.34186   1.33545   83.045
 6129.00    1.34630   1.33548   84.032
 6130.00    1.34610   1.33304   82.537
 6131.00    1.34109   1.32970   80.943
 6132.00    1.33235   1.32311   81.329
 6133.00    1.32194   1.31478   81.930
 6134.00    1.31189   1.30710   80.987
 6135.00    1.30347   1.29907   79.971
 6136.00    1.29764   1.29368   80.306
 6137.00    1.29543   1.29248   81.060
 6138.00    1.29718   1.29341   80.979
 6139.00    1.30204   1.29787   80.185
 6140.00    1.30904   1.30559   79.355
 6141.00    1.31777   1.31410   78.956
 6142.00    1.32739   1.32218   79.076
 6143.00    1.33611   1.32937   79.413
 6144.00    1.34213   1.33574   79.740
 6145.00    1.34443   1.33954   80.193
 6146.00    1.34299   1.34061   81.042
 6147.00    1.33889   1.34101   82.462
 6148.00    1.33361   1.34046   84.085
 6149.00    1.32849   1.33839   84.880
 6150.00    1.32411   1.33598   84.691
 6151.00    1.32008   1.33392   84.854
 6152.00    1.31580   1.33065   85.862
 6153.00    1.31092   1.32593   86.425
 6154.00    1.30532   1.32102   85.899
 6155.00    1.29902   1.31354   85.353
 6156.00    1.29138   1.30311   85.376
 6157.00    1.28111   1.29243   85.267
 6158.00    1.26797   1.28025   84.519
 6159.00    1.25335   1.26638   83.489
 6160.00    1.23931   1.25482   82.915
 6161.00    1.22797   1.24588   83.460
 6162.00    1.22112   1.23859   84.748
 6163.00    1.21982   1.23534   85.280
 6164.00    1.22348   1.23529   84.587
 6165.00    1.22991   1.23741   83.798
 6166.00    1.23691   1.24196   83.519
 6167.00    1.24309   1.24614   83.352
 6168.00    1.24798   1.25115   83.150
 6169.00    1.25188   1.25829   83.235
 6170.00    1.25536   1.26374   83.356
 6171.00    1.25897   1.26888   82.692
 6172.00    1.26324   1.27668   81.295
 6173.00    1.26862   1.28383   80.119
 6174.00    1.27513   1.28924   79.602
 6175.00    1.28223   1.29551   79.522
 6176.00    1.28904   1.30217   79.751
 6177.00    1.29463   1.30703   80.380
 6178.00    1.29890   1.31036   81.359
 6179.00    1.30248   1.31429   82.460
 6180.00    1.30579   1.31707   83.559
 6181.00    1.30876   1.31662   84.620
 6182.00    1.31082   1.31580   85.325
 6183.00    1.31106   1.31395   85.223
 6184.00    1.30878   1.30853   84.482
 6185.00    1.30367   1.30266   83.817
 6186.00    1.29599   1.29648   83.803
 6187.00    1.28671   1.28902   84.539
 6188.00    1.27755   1.28350   85.171
 6189.00    1.27045   1.27876   84.574
 6190.00    1.26612   1.27600   83.414
 6191.00    1.26435   1.27757   83.168
 6192.00    1.26540   1.27905   83.192
 6193.00    1.26971   1.28244   81.746
 6194.00    1.27652   1.28902   79.458
 6195.00    1.28404   1.29365   78.197
 6196.00    1.29041   1.29773   78.056
 6197.00    1.29442   1.30221   78.079
 6198.00    1.29630   1.30529   78.309
 6199.00    1.29743   1.30826   79.398
 6200.00    1.29930   1.31091   81.108
 6201.00    1.30273   1.31340   82.466
 6202.00    1.30675   1.31673   82.830
 6203.00    1.30958   1.31946   82.307
 6204.00    1.31045   1.32136   81.860
 6205.00    1.30956   1.32230   82.364
 6206.00    1.30726   1.32136   83.243
 6207.00    1.30408   1.31892   83.458
 6208.00    1.30074   1.31397   83.547
 6209.00    1.29746   1.30677   84.579
 6210.00    1.29283   1.29916   86.061
 6211.00    1.28477   1.28966   86.797
 6212.00    1.27211   1.27992   86.868
 6213.00    1.25519   1.27225   86.953
 6214.00    1.23633   1.26442   86.869
 6215.00    1.21878   1.25866   -1.000
 6216.00    1.20512   1.25613   -1.000
 6217.00    1.19676   1.25388   -1.000
 6218.00    1.19352   1.25405   -1.000
 6219.00    1.19435   1.25611   -1.000
 6220.00    1.19838   1.25754   -1.000
 6221.00    1.20488   1.26005   -1.000
 6222.00    1.21309   1.26232   -1.000
 6223.00    1.22204   1.26349   -1.000
 6224.00    1.23034   1.26426   81.270
 6225.00    1.23634   1.26273   80.356
 6226.00    1.23835   1.26046   79.725
 6227.00    1.23576   1.25840   79.160
 6228.00    1.23009   1.25452   79.754
 6229.00    1.22426   1.25198   82.316
 6230.00    1.22158   1.25203   85.705
 6231.00    1.22367   1.25152   88.017
 6232.00    1.22872   1.25313   88.572
 6233.00    1.23391   1.25719   -2.000
 6234.00    1.23761   1.25945   -2.000
 6235.00    1.23948   1.26110   -2.000
 6236.00    1.24025   1.26221   -2.000
 6237.00    1.24047   1.26088   -2.000
 6238.00    1.23971   1.25721   -2.000
 6239.00    1.23730   1.25341   -2.000
 6240.00    1.23318   1.24985   -2.000
 6241.00    1.22828   1.24470   -2.000
 6242.00    1.22456   1.24232   -2.000
 6243.00    1.22330   1.24250   -2.000
 6244.00    1.22395   1.24100   -2.000
 6245.00    1.22602   1.24249   82.698
 6246.00    1.23006   1.24594   81.844
 6247.00    1.23595   1.24622   80.818
 6248.00    1.24190   1.24679   80.538
 6249.00    1.24553   1.24723   81.488
 6250.00    1.24490   1.24384   83.356
 6251.00    1.23990   1.23956   85.037
 6252.00    1.23278   1.23534   84.970
 6253.00    1.22560   1.22967   83.581
 6254.00    1.21909   1.22485   83.683
 6255.00    1.21375   1.22260   86.099
 6256.00    1.21055   1.22197   88.040
 6257.00    1.21047   1.22330   87.659
 6258.00    1.21415   1.22817   86.683
 6259.00    1.22148   1.23418   86.572
 6260.00    1.23145   1.24122   86.891
 6261.00    1.24279   1.25064   86.916
 6262.00    1.25426   1.25832   86.463
 6263.00    1.26445   1.26453   85.967
 6264.00    1.27188   1.27152   86.156
 6265.00    1.27598   1.27656   86.649
 6266.00    1.27741   1.27913   85.935
 6267.00    1.27729   1.28214   84.087
 6268.00    1.27683   1.28535   82.983
 6269.00    1.27675   1.28708   83.304
 6270.00    1.27730   1.28865   84.075
 6271.00    1.27906   1.29090   84.472
 6272.00    1.28280   1.29221   84.422
 6273.00    1.28779   1.29290   84.007
 6274.00    1.29173   1.29363   83.303
 6275.00    1.29257   1.29286   82.664
 6276.00    1.28943   1.29170   82.610
 6277.00    1.28298   1.29105   83.228
 6278.00    1.27520   1.28935   84.072
 6279.00    1.26774   1.28882   84.475
 6280.00    1.26146   1.28977    0.000
 6281.00    1.25649   1.29048    0.000
 6282.00    1.25270   1.29351    0.000
 6283.00    1.25108   1.29742    0.000
 6284.00    1.25336   1.30119    0.000
 6285.00    1.26000   1.30599    0.000
 6286.00    1.26985   1.30918    0.000
 6287.00    1.28077   1.31169    0.000
 6288.00    1.29036   1.31336    0.000
 6289.00    1.29723   1.31262    0.000
 6290.00    1.30110   1.31119    0.000
 6291.00    1.30230   1.30800    0.000
 6292.00    1.30189   1.30355    0.000
 6293.00    1.30219   1.29936    0.000
 6294.00    1.30587   1.29391    0.000
 6295.00    1.31376   1.28884    0.000
 6296.00    1.32469   1.28493    0.000
 6297.00    1.33630   1.28078    0.000
 6298.00    1.34578   1.27776    0.000
 6299.00    1.35113   1.27657    0.000
 6300.00    1.35145   1.27682    0.000
 6301.00    1.34722   1.27856    0.000
 6302.00    1.33995   1.28139    0.000
 6303.00    1.33157   1.28516    0.000
 6304.00    1.32383   1.29000    0.000
 6305.00    1.31738   1.29509    0.000
 6306.00    1.31217   1.29886    0.000
 6307.00    1.30830   1.30118    0.000
 6308.00    1.30575   1.30263    0.000
 6309.00    1.30366   1.30228    0.000
 6310.00    1.30087   1.29950    0.000
 6311.00    1.29698   1.29567    0.000
 6312.00    1.29211   1.29122    0.000
 6313.00    1.28641   1.28567    0.000
 6314.00    1.27999   1.28155    0.000
 6315.00    1.27291   1.27834    0.000
 6316.00    1.26591   1.27470   -2.000
 6317.00    1.26119   1.27482    0.000
 6318.00    1.26104   1.27731    0.000
 6319.00    1.26581   1.27935    0.000
 6320.00    1.27408   1.28400    0.000
 6321.00    1.28329   1.29078   87.750
 6322.00    1.29131   1.29720   82.038
 6323.00    1.29808   1.30282   85.795
 6324.00    1.30457   1.30875   86.338
 6325.00    1.31138   1.31395   83.327
 6326.00    1.31834   1.31717   82.194
 6327.00    1.32434   1.31988   82.860
 6328.00    1.32806   1.32030   83.110
 6329.00    1.32875   1.31955   82.403
 6330.00    1.32633   1.31870   81.467
 6331.00    1.32135   1.31518   81.304
 6332.00    1.31450   1.31122   82.338
 6333.00    1.30620   1.30761   83.778
 6334.00    1.29736   1.30355   84.557
 6335.00    1.28997   1.30052   84.444
 6336.00    1.28578   1.29782   83.953
 6337.00    1.28500   1.29565   83.951
 6338.00    1.28662   1.29612   84.837
 6339.00    1.28890   1.29709   85.982
 6340.00    1.29055   1.29697   86.619
 6341.00    1.29159   1.29839   86.682
 6342.00    1.29246   1.29998   86.570
 6343.00    1.29339   1.30109   86.794
 6344.00    1.29475   1.30288   87.452
 6345.00    1.29728   1.30440   87.944
 6346.00    1.30119   1.30713   87.729
 6347.00    1.30568   1.30995   86.901
 6348.00    1.30984   1.31121   85.833
 6349.00    1.31327   1.31252   84.877
 6350.00    1.31537   1.31265   84.245
 6351.00    1.31501   1.31030   83.971
 6352.00    1.31151   1.30670   83.902
 6353.00    1.30525   1.30171   83.755
 6354.00    1.29719   1.29538   83.428
 6355.00    1.28864   1.28814   83.113
 6356.00    1.28080   1.28022   82.797
 6357.00    1.27467   1.27353   82.161
 6358.00    1.27113   1.26824   81.418
 6359.00    1.27095   1.26306   81.485
 6360.00    1.27406   1.26006   82.713
 6361.00    1.27947   1.26067   84.372
 6362.00    1.28626   1.26284   85.362
 6363.00    1.29396   1.26662   84.896
 6364.00    1.30154   1.27301   83.597
 6365.00    1.30727   1.28078   83.240
 6366.00    1.31062   1.28920   84.311
 6367.00    1.31273   1.29755   85.543
 6368.00    1.31485   1.30544   86.219
 6369.00    1.31771   1.31323   86.916
 6370.00    1.32147   1.31973   87.573
 6371.00    1.32581   1.32451   87.124
 6372.00    1.33031   1.32841   85.685
 6373.00    1.33441   1.33131   84.717
 6374.00    1.33724   1.33273   84.704
 6375.00    1.33776   1.33290   84.856
 6376.00    1.33592   1.33187   84.623
 6377.00    1.33273   1.33047   84.109
 6378.00    1.32942   1.32934   83.532
 6379.00    1.32693   1.32748   83.016
 6380.00    1.32584   1.32627   82.580
 6381.00    1.32617   1.32619   82.222
 6382.00    1.32723   1.32590   82.138
 6383.00    1.32797   1.32642   82.561
 6384.00    1.32846   1.32742   83.065
 6385.00    1.32964   1.32736   82.867
 6386.00    1.33131   1.32664   82.369
 6387.00    1.33195   1.32603   82.770
 6388.00    1.32970   1.32444   83.935
 6389.00    1.32335   1.32134   84.624
 6390.00    1.31436   1.31830   84.860
 6391.00    1.30594   1.31520   85.725
 6392.00    1.29990   1.31219   87.000
 6393.00    1.29628   1.30987   87.392
 6394.00    1.29444   1.30774   86.893
 6395.00    1.29367   1.30679   86.603
 6396.00    1.29378   1.30737   86.870
 6397.00    1.29496   1.30815   87.224
 6398.00    1.29720   1.30861   87.102
 6399.00    1.30020   1.31094   86.132
 6400.00    1.30337   1.31328   84.344
 6401.00    1.30593   1.31369   82.220
 6402.00    1.30692   1.31719   80.633
 6403.00    1.30568   1.32058   80.246
 6404.00    1.30263   1.32058   80.619
 6405.00    1.29885   1.32130   80.825
 6406.00    1.29503   1.32093   80.858
 6407.00    1.29140   1.31945   81.153
 6408.00    1.28790   1.31822   81.302
 6409.00    1.28435   1.31564   80.879
 6410.00    1.28072   1.31479   81.112
 6411.00    1.27744   1.31516   -1.000
 6412.00    1.27579   1.31341   -1.000
 6413.00    1.27696   1.31268   -1.000
 6414.00    1.28048   1.31348   83.005
 6415.00    1.28448   1.31303   82.609
 6416.00    1.28649   1.31271   83.433
 6417.00    1.28493   1.31289   83.840
 6418.00    1.28088   1.31292   83.789
 6419.00    1.27700   1.31417   -1.000
 6420.00    1.27561   1.31624   -1.000
 6421.00    1.27800   1.31875   -1.000
 6422.00    1.28386   1.32177   -1.000
 6423.00    1.29163   1.32527   86.925
 6424.00    1.29907   1.32898   86.771
 6425.00    1.30402   1.33094   85.206
 6426.00    1.30528   1.33091   83.477
 6427.00    1.30290   1.33036   82.759
 6428.00    1.29830   1.32890   82.479
 6429.00    1.29359   1.32656   81.678
 6430.00    1.29072   1.32490   80.461
 6431.00    1.29087   1.32261   79.350
 6432.00    1.29386   1.32069   78.548
 6433.00    1.29861   1.32174   78.121
 6434.00    1.30360   1.32262   78.202
 6435.00    1.30788   1.32335   78.809
 6436.00    1.31181   1.32525   79.671
 6437.00    1.31611   1.32713   80.567
 6438.00    1.32089   1.33039   81.623
 6439.00    1.32561   1.33350   82.773
 6440.00    1.32926   1.33568   83.320
 6441.00    1.33107   1.33982   83.041
 6442.00    1.33108   1.34263   82.993
 6443.00    1.32965   1.34259   83.943
 6444.00    1.32693   1.34182   85.261
 6445.00    1.32256   1.33829   86.134
 6446.00    1.31560   1.33308   86.616
 6447.00    1.30548   1.32756   87.001
 6448.00    1.29269   1.32109   87.278
 6449.00    1.27883   1.31652   -1.000
 6450.00    1.26638   1.31267   -1.000
 6451.00    1.25750   1.30979   -1.000
 6452.00    1.25336   1.31156   -1.000
 6453.00    1.25489   1.31432   -1.000
 6454.00    1.26295   1.31707   -1.000
 6455.00    1.27636   1.32057   -1.000
 6456.00    1.29107   1.32290   82.734
 6457.00    1.30292   1.32494   81.005
 6458.00    1.30935   1.32643   80.292
 6459.00    1.31024   1.32703   81.195
 6460.00    1.30794   1.32685   82.497
 6461.00    1.30542   1.32640   83.100
 6462.00    1.30504   1.32695   83.143
 6463.00    1.30793   1.32646   83.305
 6464.00    1.31358   1.32688   84.140
 6465.00    1.31988   1.33007   84.969
 6466.00    1.32379   1.33260   83.972
 6467.00    1.32413   1.33402   81.583
 6468.00    1.32249   1.33555   80.627
 6469.00    1.32091   1.33684   81.849
 6470.00    1.32076   1.33702   83.225
 6471.00    1.32234   1.33711   83.647
 6472.00    1.32483   1.33662   84.180
 6473.00    1.32706   1.33592   85.264
 6474.00    1.32785   1.33591   85.854
 6475.00    1.32678   1.33481   85.165
 6476.00    1.32422   1.33271   83.453
 6477.00    1.32084   1.33074   81.675
 6478.00    1.31732   1.32872   80.865
 6479.00    1.31406   1.32576   81.017
 6480.00    1.31120   1.32274   81.196
 6481.00    1.30912   1.32076   80.906
 6482.00    1.30828   1.31859   80.417
 6483.00    1.30836   1.31618   80.181
 6484.00    1.30837   1.31468   80.464
 6485.00    1.30766   1.31315   80.847
 6486.00    1.30609   1.30986   80.556
 6487.00    1.30338   1.30394   79.948
 6488.00    1.29883   1.29612   80.179
 6489.00    1.29079   1.28604   81.227
 6490.00    1.27768   1.27325   82.080
 6491.00    1.26054   1.25956   82.814
 6492.00    1.24285   1.24548   84.406
 6493.00    1.22800   1.23392   86.415
 6494.00    1.21832   1.22573   87.211
 6495.00    1.21447   1.21911   86.757
 6496.00    1.21585   1.21886   86.345
 6497.00    1.22197   1.22382   85.940
 6498.00    1.23233   1.23191   84.654
 6499.00    1.24550   1.24415   83.012
 6500.00    1.25939   1.25639   82.302
 6501.00    1.27234   1.26971   82.607
 6502.00    1.28346   1.28342   82.999
 6503.00    1.29282   1.29462   82.540
 6504.00    1.30103   1.30431   81.103
 6505.00    1.30832   1.31185   80.234
 6506.00    1.31438   1.31741   81.115
 6507.00    1.31848   1.32158   81.040
 6508.00    1.32022   1.32378   78.202
 6509.00    1.32081   1.32439   80.274
 6510.00    1.32193   1.32422   92.724
 6511.00    1.32332   1.32331   86.102
 6512.00    1.32360   1.32170   60.183
 6513.00    1.32229   1.31962   68.842
 6514.00    1.31991   1.31727  198.295
 6515.00    1.31759   1.31558  168.810
 6516.00    1.31615   1.31432   16.680
 6517.00    1.31473   1.31364    8.010
 6518.00    1.31221   1.31477    6.856
 6519.00    1.30940   1.31584    7.531
 6520.00    1.30800   1.31734    7.989
 6521.00    1.30876   1.32017    7.683
 6522.00    1.31157   1.32206    7.430
 6523.00    1.31587   1.32327    7.567
 6524.00    1.32047   1.32394    7.883
 6525.00    1.32349   1.32400    7.610
 6526.00    1.32366   1.32421    6.867
 6527.00    1.32186   1.32345    7.448
 6528.00    1.31977   1.32224    0.000
 6529.00    1.31817   1.32195    0.000
 6530.00    1.31721   1.32198   -2.000
 6531.00    1.31693   1.32237    0.000
 6532.00    1.31767   1.32306    0.000
 6533.00    1.32035   1.32368    0.000
 6534.00    1.32529   1.32469    0.000
 6535.00    1.33114   1.32613    0.000
 6536.00    1.33654   1.32740    0.000
 6537.00    1.34196   1.32779    0.000
 6538.00    1.34956   1.32675    0.000
 6539.00    1.36319   1.32448    0.000
 6540.00    1.38883   1.32190    0.000
 6541.00    1.43469   1.31811    0.000
 6542.00    1.50700   1.31257    0.000
 6543.00    1.60611   1.30702    0.000
 6544.00    1.72281   1.30125    0.000
 6545.00    1.83664   1.29607    0.000
 6546.00    1.92351   1.29128    0.000
 6547.00    1.96271   1.28538    0.000
 6548.00    1.94381   1.28071    0.000
 6549.00    1.87115   1.27621    0.000
 6550.00    1.76196   1.27021    0.000
 6551.00    1.64371   1.26306    0.000
 6552.00    1.54699   1.25398    0.000
 6553.00    1.50265   1.24350    0.000
 6554.00    1.55445   1.23119    0.000
 6555.00    1.76391   1.21560    0.000
 6556.00    2.18766   1.19797    0.000
 6557.00    2.85533   1.17995    0.000
 6558.00    3.72520   1.16005    0.000
 6559.00    4.66533   1.14081    0.000
 6560.00    5.49599   1.12605    0.000
 6561.00    6.02898   1.11562    0.000
 6562.00    6.14241   1.11206    0.000
 6563.00    5.82051   1.11288    0.000
 6564.00    5.14702   1.11906    0.000
 6565.00    4.28558   1.13570    0.000
 6566.00    3.40518   1.15525    0.000
 6567.00    2.63772   1.17327    0.000
 6568.00    2.05690   1.19099    0.000
 6569.00    1.67355   1.20672    0.000
 6570.00    1.45739   1.21988    0.000
 6571.00    1.35446   1.23124    0.000
 6572.00    1.31646   1.24098    0.000
 6573.00    1.31452   1.24874    0.000
 6574.00    1.34163   1.25570    0.000
 6575.00    1.41091   1.26246    0.000
 6576.00    1.54547   1.26865    0.000
 6577.00    1.76856   1.27503    0.000
 6578.00    2.08292   1.28109    0.000
 6579.00    2.46239   1.28590    0.000
 6580.00    2.85067   1.29011    0.000
 6581.00    3.16981   1.29362    0.000
 6582.00    3.34982   1.29579    0.000
 6583.00    3.34650   1.29832    0.000
 6584.00    3.16424   1.30018    0.000
 6585.00    2.85431   1.30048    0.000
 6586.00    2.48589   1.30026    0.000
 6587.00    2.12854   1.29843    0.000
 6588.00    1.82943   1.29584    0.000
 6589.00    1.60821   1.29245    0.000
 6590.00    1.46306   1.28852    0.000
 6591.00    1.37717   1.28524    0.000
 6592.00    1.33122   1.28254    0.000
 6593.00    1.30849   1.28064    0.000
 6594.00    1.29857   1.27947    0.000
 6595.00    1.29672   1.28107    0.000
 6596.00    1.29955   1.28503    0.000
 6597.00    1.30413   1.28877    0.000
 6598.00    1.30837   1.29239    0.000
 6599.00    1.31116   1.29549    0.000
 6600.00    1.31242   1.29782    0.000
 6601.00    1.31285   1.29980    0.000
 6602.00    1.31325   1.30028    0.000
 6603.00    1.31406   1.29929    0.000
 6604.00    1.31479   1.29764    0.000
 6605.00    1.31457   1.29529    0.000
 6606.00    1.31353   1.29377    0.000
 6607.00    1.31270   1.29342    0.000
 6608.00    1.31329   1.29388    0.000
 6609.00    1.31603   1.29521   84.448
 6610.00    1.32022   1.29704   83.635
 6611.00    1.32442   1.30087   83.765
 6612.00    1.32785   1.30564   84.540
 6613.00    1.33048   1.30975   84.660
 6614.00    1.33270   1.31319   84.035
 6615.00    1.33483   1.31599   83.359
 6616.00    1.33644   1.31901   82.794
 6617.00    1.33692   1.32089   82.243
 6618.00    1.33633   1.32106   82.005
 6619.00    1.33531   1.32031   82.325
 6620.00    1.33446   1.31853   82.641
 6621.00    1.33410   1.31612   82.210
 6622.00    1.33398   1.31359   81.183
 6623.00    1.33351   1.31024   80.284
 6624.00    1.33217   1.30685   80.161
 6625.00    1.32966   1.30333   81.005
 6626.00    1.32607   1.29973   82.133
 6627.00    1.32179   1.29734   82.655
 6628.00    1.31722   1.29471   82.513
 6629.00    1.31276   1.29171   82.300
 6630.00    1.30864   1.28918   82.766
 6631.00    1.30505   1.28733   84.177
 6632.00    1.30231   1.28644   85.653
 6633.00    1.30078   1.28626   86.122
 6634.00    1.30086   1.28635   85.660
 6635.00    1.30280   1.28694   84.908
 6636.00    1.30653   1.28866   84.220
 6637.00    1.31116   1.29080   83.832
 6638.00    1.31471   1.29243   84.043
 6639.00    1.31575   1.29300   84.611
 6640.00    1.31498   1.29324   84.285
 6641.00    1.31394   1.29365   82.596
 6642.00    1.31382   1.29428   81.154
 6643.00    1.31489   1.29468   81.147
 6644.00    1.31624   1.29420   81.708
 6645.00    1.31710   1.29452   81.658
 6646.00    1.31792   1.29595   81.014
 6647.00    1.31945   1.29709   80.436
 6648.00    1.32203   1.29789   80.580
 6649.00    1.32523   1.29845   81.599
 6650.00    1.32771   1.29911   82.844
 6651.00    1.32835   1.29978   83.612
 6652.00    1.32704   1.29956   83.797
 6653.00    1.32443   1.29888   83.728
 6654.00    1.32166   1.29799   83.906
 6655.00    1.31919   1.29654   84.517
 6656.00    1.31624   1.29466   85.193
 6657.00    1.31201   1.29204   85.493
 6658.00    1.30655   1.28897   85.277
 6659.00    1.30067   1.28540   84.854
 6660.00    1.29575   1.28222   84.842
 6661.00    1.29267   1.27945   85.134
 6662.00    1.29133   1.27705   84.629
 6663.00    1.29106   1.27586   83.239
 6664.00    1.29100   1.27504   82.452
 6665.00    1.29094   1.27613   82.879
 6666.00    1.29155   1.27882   83.456
 6667.00    1.29369   1.28141   83.219
 6668.00    1.29788   1.28405   82.250
 6669.00    1.30349   1.28631   81.208
 6670.00    1.30877   1.28822   80.867
 6671.00    1.31261   1.28931   81.466
 6672.00    1.31518   1.28883   82.551
 6673.00    1.31670   1.28629   83.423
 6674.00    1.31701   1.28276   83.540
 6675.00    1.31600   1.27980   -1.000
 6676.00    1.31390   1.27721   -1.000
 6677.00    1.31165   1.27492   -1.000
 6678.00    1.31061   1.27320   -1.000
 6679.00    1.31091   1.27247   -1.000
 6680.00    1.31129   1.27458   -1.000
 6681.00    1.31090   1.27811   85.197
 6682.00    1.30998   1.28128   85.393
 6683.00    1.30964   1.28458   84.093
 6684.00    1.31115   1.28758   83.299
 6685.00    1.31388   1.29078   83.364
 6686.00    1.31552   1.29326   82.786
 6687.00    1.31481   1.29452   81.403
 6688.00    1.31217   1.29501   80.549
 6689.00    1.30871   1.29468   80.615
 6690.00    1.30550   1.29407   80.897
 6691.00    1.30273   1.29273   80.922
 6692.00    1.29981   1.29056   80.779
 6693.00    1.29668   1.28855   80.846
 6694.00    1.29405   1.28652   81.501
 6695.00    1.29316   1.28484   82.562
 6696.00    1.29488   1.28378    0.000
 6697.00    1.29793   1.28254    0.000
 6698.00    1.29968   1.28226    0.000
 6699.00    1.29944   1.28239    0.000
 6700.00    1.29833   1.28245    0.000
 6701.00    1.29729   1.28314    0.000
 6702.00    1.29655   1.28347    0.000
 6703.00    1.29575   1.28356    0.000
 6704.00    1.29451   1.28331    0.000
 6705.00    1.29371   1.28274    0.000
 6706.00    1.29567   1.28181    0.000
 6707.00    1.30393   1.28076    0.000
 6708.00    1.32337   1.27891    0.000
 6709.00    1.36038   1.27597    0.000
 6710.00    1.42079   1.27295    0.000
 6711.00    1.50576   1.26885    0.000
 6712.00    1.60940   1.26481    0.000
 6713.00    1.71594   1.26073    0.000
 6714.00    1.80401   1.25684    0.000
 6715.00    1.85465   1.25481    0.000
 6716.00    1.85600   1.25331    0.000
 6717.00    1.80836   1.25300    0.000
 6718.00    1.72297   1.25380    0.000
 6719.00    1.61847   1.25597    0.000
 6720.00    1.51600   1.25983    0.000
 6721.00    1.43259   1.26333    0.000
 6722.00    1.37999   1.26636    0.000
 6723.00    1.36431   1.26940    0.000
 6724.00    1.38674   1.27244    0.000
 6725.00    1.44438   1.27528    0.000
 6726.00    1.52853   1.27740    0.000
 6727.00    1.62255   1.27873    0.000
 6728.00    1.70611   1.28005    0.000
 6729.00    1.76100   1.28101    0.000
 6730.00    1.77541   1.28159    0.000
 6731.00    1.74795   1.28181    0.000
 6732.00    1.68607   1.28155    0.000
 6733.00    1.60332   1.28061    0.000
 6734.00    1.51529   1.27893    0.000
 6735.00    1.43530   1.27720    0.000
 6736.00    1.37234   1.27543    0.000
 6737.00    1.32932   1.27377    0.000
 6738.00    1.30417   1.27153    0.000
 6739.00    1.29129   1.26898    0.000
 6740.00    1.28456   1.26720    0.000
 6741.00    1.28010   1.26578    0.000
 6742.00    1.27621   1.26462    0.000
 6743.00    1.27294   1.26320    0.000
 6744.00    1.27067   1.26147    0.000
 6745.00    1.26895   1.26059    0.000
 6746.00    1.26751   1.25967    0.000
 6747.00    1.26697   1.25917    0.000
 6748.00    1.26785   1.25900    0.000
 6749.00    1.26960   1.25868    0.000
 6750.00    1.27161   1.26004    0.000
 6751.00    1.27386   1.26155    0.000
 6752.00    1.27655   1.26422    0.000
 6753.00    1.27979   1.26772   81.010
 6754.00    1.28325   1.27096   80.736
 6755.00    1.28623   1.27535   81.153
 6756.00    1.28860   1.27926   81.305
 6757.00    1.29137   1.28279   81.036
 6758.00    1.29526   1.28560   80.313
 6759.00    1.29977   1.28754   78.873
 6760.00    1.30358   1.28864   77.044
 6761.00    1.30501   1.28849   75.904
 6762.00    1.30325   1.28723   76.012
 6763.00    1.29897   1.28479   76.960
 6764.00    1.29379   1.28252   78.091
 6765.00    1.28970   1.28051   78.891
 6766.00    1.28802   1.27832   78.986
 6767.00    1.28879   1.27645   78.278
 6768.00    1.29087   1.27542   77.548
 6769.00    1.29236   1.27595   78.235
 6770.00    1.29232   1.27798   80.358
 6771.00    1.29150   1.28038   81.840
 6772.00    1.29131   1.28312   81.551
 6773.00    1.29316   1.28614   80.719
 6774.00    1.29717   1.28922   80.214
 6775.00    1.30190   1.29204   79.693
 6776.00    1.30553   1.29347   79.251
 6777.00    1.30655   1.29366   79.711
 6778.00    1.30492   1.29230   80.956
 6779.00    1.30197   1.28974   81.679
 6780.00    1.29890   1.28652   81.593
 6781.00    1.29595   1.28280   81.890
 6782.00    1.29221   1.27903   82.993
 6783.00    1.28624   1.27555   84.089
 6784.00    1.27884   1.27286   84.713
 6785.00    1.27302   1.27087   85.173
 6786.00    1.27045   1.27007   85.596
 6787.00    1.27066   1.27025   85.722
 6788.00    1.27254   1.27092   85.481
 6789.00    1.27472   1.27176   85.113
 6790.00    1.27528   1.27235   84.896
 6791.00    1.27274   1.27319   84.814
 6792.00    1.26939   1.27393   83.873
 6793.00    1.26973   1.27485   80.860
 6794.00    1.27329   1.27547   76.673
 6795.00    1.27486   1.27611   73.277
 6796.00    1.27096   1.27742   71.155
 6797.00    1.26152   1.27858   69.816
 6798.00    1.24949   1.28008   69.269
 6799.00    1.24056   1.28131   69.772
 6800.00    1.24260   1.28204   70.543
 6801.00    1.26190   1.28306   70.143
 6802.00    1.29493   1.28353   68.535
 6803.00    1.33037   1.28347   -1.000
 6804.00    1.35864   1.28349   -1.000
 6805.00    1.37489   1.28281   -1.000
 6806.00    1.38043   1.28219   -1.000
 6807.00    1.38063   1.28186   -1.000
 6808.00    1.38002   1.28112   -1.000
 6809.00    1.38032   1.28095   -1.000
 6810.00    1.37896   1.28055   -1.000
 6811.00    1.37198   1.27992   -1.000
 6812.00    1.35998   1.28047   -1.000
 6813.00    1.34699   1.28107   -1.000
 6814.00    1.33597   1.28175   -1.000
 6815.00    1.32681   1.28247   -1.000
 6816.00    1.31458   1.28300   76.723
 6817.00    1.29711   1.28457   76.577
 6818.00    1.28750   1.28636   76.249
 6819.00    1.29971   1.28777   76.584
 6820.00    1.32301   1.28902   72.894
 6821.00    1.33566   1.28983   -1.000
 6822.00    1.33195   1.29079   56.356
 6823.00    1.31919   1.29141   55.900
 6824.00    1.30697   1.29131   59.531
 6825.00    1.30202   1.29116   62.035
 6826.00    1.30356   1.29087   62.224
 6827.00    1.30696   1.29056   62.765
 6828.00    1.30962   1.28995   65.775
 6829.00    1.31259   1.28910   71.674
 6830.00    1.32105   1.28872   76.861
 6831.00    1.33553   1.28847   -1.000
 6832.00    1.34257   1.28766   -1.000
 6833.00    1.33338   1.28603   -1.000
 6834.00    1.32500   1.28371   -1.000
 6835.00    1.33253   1.28077   -1.000
 6836.00    1.33759   1.27754   -1.000
 6837.00    1.32146   1.27369   -1.000
 6838.00    1.30186   1.26995   77.082
 6839.00    1.29976   1.26711   76.090
 6840.00    1.30368   1.26504   74.390
 6841.00    1.29673   1.26441   74.189
 6842.00    1.28549   1.26467   75.062
 6843.00    1.28267   1.26614   75.708
 6844.00    1.28878   1.26883   75.730
 6845.00    1.29848   1.27179   75.449
 6846.00    1.30762   1.27470   75.449
 6847.00    1.31221   1.27692   76.116
 6848.00    1.30775   1.27826   77.337
 6849.00    1.29618   1.27882   78.837
 6850.00    1.28964   1.27806   80.459
 6851.00    1.29318   1.27605   81.674
 6852.00    1.29367   1.27389   81.320
 6853.00    1.28366   1.27142   79.101
 6854.00    1.27695   1.26879   76.407
 6855.00    1.28243   1.26637   74.513
 6856.00    1.28735   1.26384   73.723
 6857.00    1.28127   1.26227   73.942
 6858.00    1.27141   1.26176   74.977
 6859.00    1.26692   1.26197   76.458
 6860.00    1.26844   1.26301   77.784
 6861.00    1.27365   1.26380   78.507
 6862.00    1.28103   1.26438   78.642
 6863.00    1.28878   1.26512   78.493
 6864.00    1.29426   1.26600   78.427
 6865.00    1.29633   1.26698   78.524
 6866.00    1.29619   1.26738   78.507
 6867.00    1.29457   1.26721   78.458
 6868.00    1.29062   1.26672   78.998
 6869.00    1.28442   1.26658   80.036
 6870.00    1.27808   1.26722   80.377
 6871.00    1.27408   1.26817   79.665
 6872.00    1.27405   1.26916   79.078
 6873.00    1.27683   1.27028   79.384
 6874.00    1.27860   1.27185   80.232
 6875.00    1.27807   1.27345   80.888
 6876.00    1.27772   1.27478   80.715
 6877.00    1.27881   1.27567   79.744
 6878.00    1.27994   1.27640   78.576
 6879.00    1.28069   1.27701   77.078
 6880.00    1.28251   1.27756   74.546
 6881.00    1.28582   1.27829   71.854
 6882.00    1.28912   1.27878   71.014
 6883.00    1.29044   1.28007   72.397
 6884.00    1.28853   1.28200   74.557
 6885.00    1.28526   1.28466   76.435
 6886.00    1.28519   1.28765   78.077
 6887.00    1.29079   1.29038   79.217
 6888.00    1.30082   1.29326   79.158
 6889.00    1.31051   1.29571   78.580
 6890.00    1.31434   1.29777   79.195
 6891.00    1.31432   1.29913   80.893
 6892.00    1.31808   1.29999   81.675
 6893.00    1.32498   1.30044   80.903
 6894.00    1.32681   1.30040   79.852
 6895.00    1.32280   1.30048   79.433
 6896.00    1.31985   1.30021   79.717
 6897.00    1.32056   1.30029   80.313
 6898.00    1.32208   1.30093   80.558
 6899.00    1.32248   1.30163   79.844
 6900.00    1.32202   1.30251   78.099
 6901.00    1.32169   1.30334   76.446
 6902.00    1.32227   1.30451   76.258
 6903.00    1.32306   1.30600   77.174
 6904.00    1.32256   1.30696   77.680
 6905.00    1.32074   1.30756   77.590
 6906.00    1.31869   1.30772   77.706
 6907.00    1.31665   1.30722   77.502
 6908.00    1.31390   1.30639   75.969
 6909.00    1.30936   1.30487   74.397
 6910.00    1.30260   1.30279   74.827
 6911.00    1.29552   1.30078   76.721
 6912.00    1.29093   1.29877   77.925
 6913.00    1.28914   1.29678   78.251
 6914.00    1.28839   1.29565   79.077
 6915.00    1.28694   1.29468   80.577
 6916.00    1.28370   1.29469   81.780
 6917.00    1.27872   1.29521   81.855
 6918.00    1.27280   1.29531   80.791
 6919.00    1.26688   1.29584   79.817
 6920.00    1.26153   1.29560   80.139
 6921.00    1.25653   1.29536   -1.000
 6922.00    1.25181   1.29489   -1.000
 6923.00    1.24902   1.29425   -1.000
 6924.00    1.24988   1.29368   -1.000
 6925.00    1.25338   1.29268   -1.000
 6926.00    1.25719   1.29231   79.517
 6927.00    1.26033   1.29218   80.119
 6928.00    1.26278   1.29279   79.903
 6929.00    1.26448   1.29339   79.280
 6930.00    1.26562   1.29419   79.202
 6931.00    1.26702   1.29531   79.820
 6932.00    1.26899   1.29607   80.712
 6933.00    1.26999   1.29709   81.350
 6934.00    1.26859   1.29775   81.514
 6935.00    1.26586   1.29886   81.692
 6936.00    1.26409   1.29992   82.258
 6937.00    1.26478   1.30041   82.519
 6938.00    1.26804   1.30045   81.721
 6939.00    1.27222   1.29981   80.284
 6940.00    1.27540   1.29899   79.075
 6941.00    1.27694   1.29771   78.549
 6942.00    1.27692   1.29656   78.564
 6943.00    1.27534   1.29541   78.308
 6944.00    1.27237   1.29404   77.390
 6945.00    1.26860   1.29299   76.748
 6946.00    1.26469   1.29208   77.347
 6947.00    1.26106   1.29171   79.093
 6948.00    1.25807   1.29194   81.035
 6949.00    1.25619   1.29215   81.691
 6950.00    1.25566   1.29257   81.001
 6951.00    1.25635   1.29321   81.421
 6952.00    1.25785   1.29385   83.200
 6953.00    1.25959   1.29514   81.552
 6954.00    1.26075   1.29673   77.936
 6955.00    1.26035   1.29873   -1.000
 6956.00    1.25869   1.30108   -1.000
 6957.00    1.25807   1.30370   -1.000
 6958.00    1.26042   1.30638   58.821
 6959.00    1.26567   1.30862   -1.000
 6960.00    1.27286   1.31083   -2.000
 6961.00    1.28107   1.31263   47.990
 6962.00    1.28915   1.31422   11.747
 6963.00    1.29562   1.31561    7.321
 6964.00    1.29915   1.31663    7.092
 6965.00    1.29892   1.31720    7.858
 6966.00    1.29517   1.31717    7.993
 6967.00    1.28934   1.31645    7.673
 6968.00    1.28293   1.31542    7.612
 6969.00    1.27687   1.31391    7.936
 6970.00    1.27220   1.31111    8.200
 6971.00    1.27007   1.30738    7.629
 6972.00    1.27005   1.30254    7.096
 6973.00    1.26978   1.29744    8.863
 6974.00    1.26797   1.29252   20.850
 6975.00    1.26542   1.28772   -1.000
 6976.00    1.26297   1.28442   -1.000
 6977.00    1.26062   1.28231   63.825
 6978.00    1.25846   1.28185   64.485
 6979.00    1.25714   1.28296   89.833
 6980.00    1.25815   1.28573   87.989
 6981.00    1.26320   1.29055   75.907
 6982.00    1.27125   1.29573   74.745
 6983.00    1.27842   1.30082   77.660
 6984.00    1.28268   1.30552   78.449
 6985.00    1.28505   1.30914   77.710
 6986.00    1.28689   1.31198   77.180
 6987.00    1.28893   1.31400   77.186
 6988.00    1.29135   1.31531   77.496
 6989.00    1.29390   1.31597   77.751
 6990.00    1.29597   1.31587   77.856
 6991.00    1.29688   1.31564   78.029
 6992.00    1.29659   1.31522   78.461
 6993.00    1.29562   1.31429   79.177
 6994.00    1.29396   1.31295   79.939
 6995.00    1.29115   1.31103   80.403
 6996.00    1.28728   1.30892   80.702
 6997.00    1.28309   1.30687   81.295
 6998.00    1.27887   1.30467   81.925
 6999.00    1.27441   1.30261   81.812
 7000.00    1.26950   1.30037   81.164
 7001.00    1.26450   1.29868   -2.000
 7002.00    1.26130   1.29780   -2.000
 7003.00    1.26213   1.29756   -2.000
 7004.00    1.26594   1.29764   -2.000
 7005.00    1.26935   1.29765   -2.000
 7006.00    1.27089   1.29798   -2.000
 7007.00    1.27133   1.29827   -2.000
 7008.00    1.27172   1.29852   -2.000
 7009.00    1.27261   1.29845   -2.000
 7010.00    1.27317   1.29768   -2.000
 7011.00    1.27179   1.29649   -2.000
 7012.00    1.26761   1.29475   -2.000
 7013.00    1.26129   1.29335   -2.000
 7014.00    1.25585   1.29262   -2.000
 7015.00    1.25469   1.29203   -2.000
 7016.00    1.25758   1.29181   -2.000
 7017.00    1.26175   1.29161   -2.000
 7018.00    1.26521   1.29231   -2.000
 7019.00    1.26713   1.29380   -2.000
 7020.00    1.26725   1.29534   -2.000
 7021.00    1.26606   1.29689   -2.000
 7022.00    1.26521   1.29832   -2.000
 7023.00    1.26649   1.29943   -2.000
 7024.00    1.27014   1.30039   -2.000
 7025.00    1.27491   1.30174   -2.000
 7026.00    1.27872   1.30348   -2.000
 7027.00    1.28002   1.30565   -2.000
 7028.00    1.27952   1.30757   -2.000
 7029.00    1.27902   1.30946   -2.000
 7030.00    1.27937   1.31128   -2.000
 7031.00    1.28068   1.31260   -2.000
 7032.00    1.28302   1.31369   -2.000
 7033.00    1.28612   1.31463   -2.000
 7034.00    1.28903   1.31575   -2.000
 7035.00    1.29066   1.31731   -2.000
 7036.00    1.29067   1.31958   -2.000
 7037.00    1.28962   1.32255   -2.000
 7038.00    1.28901   1.32588   -2.000
 7039.00    1.29037   1.32917   -2.000
 7040.00    1.29423   1.33320   -2.000
 7041.00    1.29989   1.33762   -2.000
 7042.00    1.30537   1.34173   -2.000
 7043.00    1.30906   1.34516   -2.000
 7044.00    1.31134   1.34724   -2.000
 7045.00    1.31340   1.34788   -2.000
 7046.00    1.31587   1.34657   -2.000
 7047.00    1.31759   1.34405   -2.000
 7048.00    1.31500   1.34009   -2.000
 7049.00    1.30621   1.33465   -2.000
 7050.00    1.29420   1.32831   -2.000
 7051.00    1.28265   1.32090   -2.000
 7052.00    1.27217   1.31328   -2.000
 7053.00    1.26218   1.30534   -2.000
 7054.00    1.25264   1.29767   -2.000
 7055.00    1.24380   1.29113   -2.000
 7056.00    1.23594   1.28536   -2.000
 7057.00    1.22994   1.28090   -2.000
 7058.00    1.22745   1.27736   -2.000
 7059.00    1.22846   1.27436   -2.000
 7060.00    1.23005   1.27164   -2.000
 7061.00    1.22981   1.26927   -2.000
 7062.00    1.22808   1.26731   -2.000
 7063.00    1.22600   1.26610   -2.000
 7064.00    1.22409   1.26538   -2.000
 7065.00    1.22244   1.26542   -2.000
 7066.00    1.22095   1.26609   -2.000
 7067.00    1.21929   1.26708   -2.000
 7068.00    1.21725   1.26901   -2.000
 7069.00    1.21610   1.27136   -2.000
 7070.00    1.21863   1.27462   -2.000
 7071.00    1.22453   1.27838   -2.000
 7072.00    1.22920   1.28222   -2.000
 7073.00    1.23166   1.28548   -2.000
 7074.00    1.23677   1.28816   -2.000
 7075.00    1.24428   1.28986   -2.000
 7076.00    1.24600   1.29025   -2.000
 7077.00    1.24008   1.28940   -2.000
 7078.00    1.23506   1.28685   -2.000
 7079.00    1.23503   1.28307   -2.000
 7080.00    1.23448   1.27801   -2.000
 7081.00    1.22745   1.27175   -2.000
 7082.00    1.21234   1.26481   -2.000
 7083.00    1.19404   1.25717   -2.000
 7084.00    1.18209   1.24932   -2.000
 7085.00    1.17978   1.24185   -2.000
 7086.00    1.18201   1.23520   -2.000
 7087.00    1.18452   1.22985   -2.000
 7088.00    1.18676   1.22571   -2.000
 7089.00    1.18867   1.22243   -2.000
 7090.00    1.18942   1.22057   -2.000
 7091.00    1.18758   1.21956   -2.000
 7092.00    1.18194   1.21951   -2.000
 7093.00    1.17391   1.22097   -2.000
 7094.00    1.16709   1.22228   -2.000
 7095.00    1.16314   1.22488   -2.000
 7096.00    1.16130   1.22709   -2.000
 7097.00    1.16088   1.22966   -2.000
 7098.00    1.16146   1.23240   -2.000
 7099.00    1.16076   1.23466   -2.000
 7100.00    1.15622   1.23716   -2.000
 7101.00    1.15085   1.23851   -2.000
 7102.00    1.15135   1.23984   -2.000
 7103.00    1.15868   1.24031   -2.000
 7104.00    1.16848   1.24037   -2.000
 7105.00    1.17916   1.24004   -2.000
 7106.00    1.19063   1.23955   -2.000
 7107.00    1.19634   1.23889   -2.000
 7108.00    1.18748   1.23814   -2.000
 7109.00    1.16741   1.23753   -2.000
 7110.00    1.14832   1.23736   -2.000
 7111.00    1.13602   1.23735   -2.000
 7112.00    1.12965   1.23766   -2.000
 7113.00    1.12882   1.23838   -2.000
 7114.00    1.13365   1.23917   -2.000
 7115.00    1.14190   1.24018   -2.000
 7116.00    1.14995   1.24049   -2.000
 7117.00    1.15598   1.24085   -2.000
 7118.00    1.15972   1.24051   -2.000
 7119.00    1.16075   1.23939   -2.000
 7120.00    1.15869   1.23782   -2.000
 7121.00    1.15399   1.23543   -2.000
 7122.00    1.14848   1.23305   -2.000
 7123.00    1.14596   1.22987   -2.000
 7124.00    1.14858   1.22663   -2.000
 7125.00    1.15106   1.22343   -2.000
 7126.00    1.14569   1.22037   -2.000
 7127.00    1.13173   1.21783   -2.000
 7128.00    1.11522   1.21605   -2.000
 7129.00    1.10609   1.21520   -2.000
 7130.00    1.11107   1.21521   -2.000
 7131.00    1.12456   1.21632   -2.000
 7132.00    1.13624   1.21798   -2.000
 7133.00    1.14332   1.22060   -2.000
 7134.00    1.14830   1.22346   -2.000
 7135.00    1.15382   1.22686   -2.000
 7136.00    1.16222   1.22984   -2.000
 7137.00    1.17547   1.23216   -2.000
 7138.00    1.19166   1.23426   -2.000
 7139.00    1.20127   1.23530   -2.000
 7140.00    1.19700   1.23592   -2.000
 7141.00    1.18468   1.23577   -2.000
 7142.00    1.17324   1.23503   -2.000
 7143.00    1.16262   1.23427   -2.000
 7144.00    1.15042   1.23338   -2.000
 7145.00    1.13986   1.23267   -2.000
 7146.00    1.13520   1.23226   -2.000
 7147.00    1.13638   1.23264   -2.000
 7148.00    1.14040   1.23371   -2.000
 7149.00    1.14340   1.23503   -2.000
 7150.00    1.14307   1.23765   -2.000
 7151.00    1.14052   1.24106   -2.000
 7152.00    1.13862   1.24429   -2.000
 7153.00    1.14007   1.24763   -2.000
 7154.00    1.14554   1.25021   -2.000
 7155.00    1.15251   1.25205   -2.000
 7156.00    1.15809   1.25311   -2.000
 7157.00    1.16119   1.25274   -2.000
 7158.00    1.16017   1.25179   -2.000
 7159.00    1.15158   1.24954   -2.000
 7160.00    1.13532   1.24754   -2.000
 7161.00    1.11790   1.24530   -2.000
 7162.00    1.10725   1.24327   -2.000
 7163.00    1.10819   1.24217   -2.000
 7164.00    1.11929   1.24142   -2.000
 7165.00    1.13197   1.24203   -2.000
 7166.00    1.13885   1.24331   -2.000
 7167.00    1.13884   1.24592   -2.000
 7168.00    1.13421   1.24890   -2.000
 7169.00    1.12859   1.25211   -2.000
 7170.00    1.12678   1.25482   -2.000
 7171.00    1.13384   1.25688   -2.000
 7172.00    1.14989   1.25835   -2.000
 7173.00    1.16825   1.25870   -2.000
 7174.00    1.18151   1.25804   -2.000
 7175.00    1.18526   1.25651   -2.000
 7176.00    1.17910   1.25460   -2.000
 7177.00    1.16641   1.25248   -2.000
 7178.00    1.15101   1.25018   -2.000
 7179.00    1.13573   1.24795   -2.000
 7180.00    1.12380   1.24566   -2.000
 7181.00    1.11878   1.24314   -2.000
 7182.00    1.12060   1.24084   -2.000
 7183.00    1.12502   1.23876   -2.000
 7184.00    1.12904   1.23708   -2.000
 7185.00    1.13246   1.23575   -2.000
 7186.00    1.13426   1.23421   -2.000
 7187.00    1.13190   1.23312   -2.000
 7188.00    1.12527   1.23205   -2.000
 7189.00    1.11718   1.23198   -2.000
 7190.00    1.10952   1.23262   -2.000
 7191.00    1.10263   1.23355   -2.000
 7192.00    1.09836   1.23571   -2.000
 7193.00    1.09973   1.23763   -2.000
 7194.00    1.10584   1.23979   -2.000
 7195.00    1.11248   1.24169   -2.000
 7196.00    1.11967   1.24330   -2.000
 7197.00    1.13074   1.24499   -2.000
 7198.00    1.14113   1.24599   -2.000
 7199.00    1.14059   1.24676   -2.000
 7200.00    1.13029   1.24680   -2.000
 7201.00    1.12175   1.24602   -2.000
 7202.00    1.11835   1.24535   -2.000
 7203.00    1.11476   1.24405   -2.000
 7204.00    1.11044   1.24303   -2.000
 7205.00    1.11075   1.24226   -2.000
 7206.00    1.11962   1.24148   -2.000
 7207.00    1.13731   1.24133   -2.000
 7208.00    1.16034   1.24113   -2.000
 7209.00    1.18334   1.24213   -2.000
 7210.00    1.20375   1.24370   -2.000
 7211.00    1.22117   1.24590   -2.000
 7212.00    1.23351   1.24892   -2.000
 7213.00    1.23631   1.25133   -2.000
 7214.00    1.22346   1.25387   -2.000
 7215.00    1.19242   1.25593   -2.000
 7216.00    1.15438   1.25789   -2.000
 7217.00    1.12736   1.25977   -2.000
 7218.00    1.11820   1.26155   -2.000
