###################################################################
## OUTPUT of StarlightChains_v04.for    [Cid@UFSC - 01/Apr/2007] ##
###################################################################

## Some input info
2012an.txt                               [arq_obs]
Base.CB07.vall.4m                        [arq_base]
Masks.EmLines.NEW.gm                     [arq_masks]
StCv04.C11.config                        [arq_config]
   66                                    [N_base]
    0                                    [N_YAV_components = # of components with extra extinction!]
    0                                    [i_FitPowerLaw (1/0 = Yes/No)]
-9.99                                    [alpha_PowerLaw]
CCM                                      [red_law_option]
 1.458241                                [q_norm = A(l_norm)/A(V)]

## (Re)Sampling Parameters
 3741.00                                 [l_ini (A)]
 7218.00                                 [l_fin (A)]
    1.00                                 [dl    (A)]     (OBS: dl_cushion =    50.00 A)

## Normalization info
 4020.00                                 [l_norm (A) - for base]
 4010.00                                 [llow_norm (A) - window for f_obs]
 4060.00                                 [lupp_norm (A) - window for f_obs]
4.569080E-17                             [fobs_norm (in input units)]

## S/N
 3691.00                                 [llow_SN (A) - window for S/N]
 7268.00                                 [lupp_SN (A) - window for S/N]
   2.514                                 [S/N in S/N window]
   4.565                                 [S/N in norm. window]
  10.000                                 [S/N_err in S/N window]
  18.159                                 [S/N_err in norm. window]
  1.0000                                 [fscale_chi2]

## etc...
    -2007387                             [idum_orig]
  2384                                   [NOl_eff]
  2284                                   [Nl_eff]
   100    NSIGMA                         [Ntot_cliped & clip_method]
   552720                                [Nglobal_steps]
   7                                     [N_chains]
  10                                     [NEX0s_base = N_base in EX0s-fits]
 0   0   1       50   2.0   3.755E+01    [Clip-Bug, RC-Crash & Burn-In warning-flags, n_censored_weights, wei_nsig_threshold & wei_limit]
    11     10.679     10.174      0.504  [idt_all, wdt_TotTime, wdt_UsrTime & wdt_SysTime (sec)]

## Synthesis Results - Best model ##

 1.34199E+00                             [chi2/Nl_eff]
     9.32090                             [adev (%)]

    95.17160                             [sum-of-x (%)]
 2.67351E-17                             [Flux_tot (units of input spectrum!)]
 3.18471E-14                             [Mini_tot (???)]
 2.06388E-14                             [Mcor_tot (???)]

  69.67                                  [v0_min  (km/s)]
 137.78                                  [vd_min  (km/s)]
-0.3622                                  [AV_min  (mag)]
 0.0000                                  [YAV_min (mag)]

# j     x_j(%)      Mini_j(%)     Mcor_j(%)     age_j(yr)     Z_j      (L/M)_j    YAV?  Mstars   component_j        a/Fe...       SSP_chi2r SSP_adev(%)   SSP_AV   SSP_x(%)
  1      0.0000     0.0000E+00    0.0000E+00    1.000000E+06  0.00400  1.094E-02    0   1.0000   age020_m42            0.0000     2.1449E+00    10.9588   1.5809    78.2834
  2      0.0000     0.0000E+00    0.0000E+00    3.160000E+06  0.00400  4.007E-02    0   0.9999   age045_m42            0.0000     1.6483E+00    10.1014   0.7924    86.1965
  3      0.0000     0.0000E+00    0.0000E+00    5.010000E+06  0.00400  2.539E-02    0   0.9488   age055_m42            0.0000     1.7946E+00    10.3692   1.1368    83.1249
  4      0.0000     0.0000E+00    0.0000E+00    6.610000E+06  0.00400  2.620E-02    0   0.9220   age061_m42            0.0000     1.5838E+00     9.9741   0.7134    86.6214
  5      0.0000     0.0000E+00    0.0000E+00    1.000000E+07  0.00400  1.322E-02    0   0.8862   age070_m42            0.0000     1.6288E+00     9.9225   0.4438    87.8892
  6      0.0000     0.0000E+00    0.0000E+00    1.445000E+07  0.00400  7.883E-03    0   0.8571   age078_m42            0.0000     1.7334E+00    10.1227   0.7859    85.0512
  7      0.0000     0.0000E+00    0.0000E+00    2.512000E+07  0.00400  5.251E-03    0   0.8174   age090_m42            0.0000     1.6193E+00     9.9062   0.3105    88.5088
  8      0.0000     0.0000E+00    0.0000E+00    4.000000E+07  0.00400  3.649E-03    0   0.7851   age104_m42            0.0000     1.5524E+00     9.7730   0.0728    89.7067
  9      0.0000     0.0000E+00    0.0000E+00    5.500000E+07  0.00400  3.098E-03    0   0.7629   age110_m42            0.0000     1.4737E+00     9.6719   0.2107    90.4105
 10      0.0000     0.0000E+00    0.0000E+00    1.015200E+08  0.00400  2.228E-03    0   0.7207   age116_m42            0.0000     1.4302E+00     9.6263   0.2179    91.1667
 11     47.5850     3.8402E+01    3.9394E+01    2.861200E+08  0.00400  1.093E-03    0   0.6648   age125_m42            0.0000     1.3454E+00     9.3264  -0.3642    94.5193
 12     45.6562     6.1046E+01    5.9957E+01    5.088000E+08  0.00400  6.597E-04    0   0.6365   age130_m42            0.0000     1.3548E+00     9.3473  -0.3894    96.0174
 13      0.0000     0.0000E+00    0.0000E+00    1.434000E+09  0.00400  2.132E-04    0   0.5798   age139_m42            0.0000     1.9633E+00    10.9012  -1.0000    85.2310
 14      0.0000     0.0000E+00    0.0000E+00    4.250000E+09  0.00400  5.895E-05    0   0.5377   age158_m42            0.0000     3.8962E+00    15.0603  -1.0000    67.7455
 15      0.0000     0.0000E+00    0.0000E+00    7.500000E+09  0.00400  3.510E-05    0   0.5212   age171_m42            0.0000     5.0404E+00    17.1244  -1.0000    61.7390
 16      0.0000     0.0000E+00    0.0000E+00    1.300000E+10  0.00400  2.005E-05    0   0.5034   age193_m42            0.0000     6.1517E+00    18.9422  -1.0000    56.7993
 17      0.0000     0.0000E+00    0.0000E+00    1.800000E+10  0.00400  1.525E-05    0   0.4967   age213_m42            0.0000     6.2852E+00    19.2123  -1.0000    55.9239
 18      0.0000     0.0000E+00    0.0000E+00    1.000000E+06  0.00800  1.238E-02    0   1.0000   age020_m52            0.0000     2.1410E+00    10.9569   1.5772    78.4379
 19      0.0000     0.0000E+00    0.0000E+00    3.160000E+06  0.00800  3.074E-02    0   0.9966   age045_m52            0.0000     2.0693E+00    10.8798   1.4936    79.4058
 20      0.0000     0.0000E+00    0.0000E+00    5.010000E+06  0.00800  2.668E-02    0   0.9443   age055_m52            0.0000     1.8573E+00    10.4767   1.2283    82.0247
 21      0.0000     0.0000E+00    0.0000E+00    6.610000E+06  0.00800  2.136E-02    0   0.9177   age061_m52            0.0000     1.7380E+00    10.0287  -0.0416    88.2909
 22      0.0000     0.0000E+00    0.0000E+00    1.000000E+07  0.00800  1.215E-02    0   0.8827   age070_m52            0.0000     1.7171E+00    10.0542   0.6359    87.1334
 23      0.0000     0.0000E+00    0.0000E+00    1.445000E+07  0.00800  8.717E-03    0   0.8552   age078_m52            0.0000     1.6928E+00    10.0404   0.7464    86.4333
 24      0.0000     0.0000E+00    0.0000E+00    2.512000E+07  0.00800  5.592E-03    0   0.8162   age090_m52            0.0000     1.5916E+00     9.8287   0.3721    89.6616
 25      0.0000     0.0000E+00    0.0000E+00    4.000000E+07  0.00800  3.896E-03    0   0.7841   age104_m52            0.0000     1.5046E+00     9.6617   0.2712    90.9496
 26      0.0000     0.0000E+00    0.0000E+00    1.015200E+08  0.00800  2.148E-03    0   0.7226   age116_m52            0.0000     1.4159E+00     9.5277   0.1903    91.6715
 27      0.0000     0.0000E+00    0.0000E+00    2.861200E+08  0.00800  9.925E-04    0   0.6683   age125_m52            0.0000     1.3718E+00     9.3904  -0.3253    96.9027
 28      0.0000     0.0000E+00    0.0000E+00    9.047900E+08  0.00800  3.141E-04    0   0.6138   age135_m52            0.0000     1.5964E+00     9.9372  -1.0000    96.5677
 29      0.0000     0.0000E+00    0.0000E+00    1.434000E+09  0.00800  1.719E-04    0   0.5853   age139_m52            0.0000     3.3945E+00    14.0694  -1.0000    74.3658
 30      0.0000     0.0000E+00    0.0000E+00    2.500000E+09  0.00800  7.872E-05    0   0.5600   age150_m52            0.0000     4.9655E+00    16.9281  -1.0000    64.0861
 31      0.0000     0.0000E+00    0.0000E+00    4.250000E+09  0.00800  4.336E-05    0   0.5426   age158_m52            0.0000     5.0744E+00    17.0631  -1.0000    63.0293
 32      0.0000     0.0000E+00    0.0000E+00    6.250000E+09  0.00800  3.159E-05    0   0.5319   age166_m52            0.0000     6.4561E+00    19.2780  -1.0000    57.3075
 33      0.0000     0.0000E+00    0.0000E+00    1.300000E+10  0.00800  1.361E-05    0   0.5073   age193_m52            0.0000     9.9308E+00    24.3837  -1.0000    45.1497
 34      0.0000     0.0000E+00    0.0000E+00    1.800000E+10  0.00800  9.886E-06    0   0.4990   age213_m52            0.0000     1.0781E+01    25.3230  -1.0000    42.5846
 35      0.0000     0.0000E+00    0.0000E+00    1.000000E+06  0.02000  1.544E-02    0   1.0000   age020_m62            0.0000     2.1450E+00    10.9785   1.5741    78.5909
 36      0.0000     0.0000E+00    0.0000E+00    3.160000E+06  0.02000  3.762E-02    0   0.9858   age045_m62            0.0000     2.1021E+00    10.9399   1.5092    79.4404
 37      0.0000     0.0000E+00    0.0000E+00    5.010000E+06  0.02000  3.296E-02    0   0.9342   age055_m62            0.0000     1.6978E+00    10.2292   1.0820    84.7450
 38      0.0000     0.0000E+00    0.0000E+00    8.710000E+06  0.02000  1.154E-02    0   0.8861   age067_m62            0.0000     2.3752E+00    11.5596   0.1282    87.6074
 39      0.0000     0.0000E+00    0.0000E+00    1.445000E+07  0.02000  7.663E-03    0   0.8472   age078_m62            0.0000     1.8198E+00    10.1937   0.2916    88.7112
 40      0.0000     0.0000E+00    0.0000E+00    2.512000E+07  0.02000  4.532E-03    0   0.8099   age090_m62            0.0000     1.7844E+00    10.1837   0.2772    88.7480
 41      0.0000     0.0000E+00    0.0000E+00    5.500000E+07  0.02000  2.733E-03    0   0.7595   age110_m62            0.0000     1.5172E+00     9.6841   0.2573    90.1527
 42      0.0000     0.0000E+00    0.0000E+00    1.609000E+08  0.02000  1.369E-03    0   0.6985   age120_m62            0.0000     1.3868E+00     9.4818   0.0550    94.4841
 43      0.0000     0.0000E+00    0.0000E+00    2.861200E+08  0.02000  9.013E-04    0   0.6714   age125_m62            0.0000     1.4172E+00     9.5189  -0.2198    98.3284
 44      0.0000     0.0000E+00    0.0000E+00    5.088000E+08  0.02000  5.028E-04    0   0.6449   age130_m62            0.0000     1.5297E+00     9.8410  -0.6135   101.7454
 45      0.0000     0.0000E+00    0.0000E+00    9.047900E+08  0.02000  2.428E-04    0   0.6179   age135_m62            0.0000     1.7635E+00    10.3903  -1.0000    93.7702
 46      0.0000     0.0000E+00    0.0000E+00    1.434000E+09  0.02000  1.263E-04    0   0.5908   age139_m62            0.0000     3.1662E+00    13.4021  -1.0000    76.9124
 47      0.0000     0.0000E+00    0.0000E+00    2.500000E+09  0.02000  5.985E-05    0   0.5673   age150_m62            0.0000     5.1896E+00    17.0690  -1.0000    64.3498
 48      0.0000     0.0000E+00    0.0000E+00    4.250000E+09  0.02000  3.271E-05    0   0.5468   age158_m62            0.0000     7.2848E+00    20.3191  -1.0000    55.2302
 49      0.0000     0.0000E+00    0.0000E+00    1.000000E+10  0.02000  1.360E-05    0   0.5167   age181_m62            0.0000     9.9270E+00    23.9181  -1.0000    46.3242
 50      0.0000     0.0000E+00    0.0000E+00    1.800000E+10  0.02000  7.124E-06    0   0.5013   age213_m62            0.0000     1.1551E+01    25.8788  -1.0000    41.3595
 51      0.0000     0.0000E+00    0.0000E+00    1.000000E+06  0.05000  2.592E-02    0   0.9998   age020_m72            0.0000     2.1801E+00    11.0441   1.5690    78.4780
 52      0.0000     0.0000E+00    0.0000E+00    3.160000E+06  0.05000  4.845E-02    0   0.9577   age045_m72            0.0000     1.9242E+00    10.6620   1.3703    81.3399
 53      0.0000     0.0000E+00    0.0000E+00    5.010000E+06  0.05000  3.072E-02    0   0.9147   age055_m72            0.0000     1.8518E+00    10.2295   0.8903    84.9186
 54      0.0000     0.0000E+00    0.0000E+00    6.610000E+06  0.05000  1.455E-02    0   0.8877   age061_m72            0.0000     2.8446E+00    12.7433   0.1868    87.9211
 55      0.0000     0.0000E+00    0.0000E+00    1.000000E+07  0.05000  9.074E-03    0   0.8524   age070_m72            0.0000     1.9167E+00    10.4395   1.0756    84.6762
 56      0.0000     0.0000E+00    0.0000E+00    2.512000E+07  0.05000  4.250E-03    0   0.7902   age090_m72            0.0000     1.6446E+00     9.8954   0.7427    87.5653
 57      1.9304     5.5159E-01    6.4840E-01    4.000000E+07  0.05000  3.087E-03    0   0.7618   age104_m72            0.0000     1.5661E+00     9.7551   0.5019    89.5865
 58      0.0000     0.0000E+00    0.0000E+00    1.015200E+08  0.05000  1.700E-03    0   0.7096   age116_m72            0.0000     1.3797E+00     9.4264   0.2041    93.8004
 59      0.0000     0.0000E+00    0.0000E+00    2.861200E+08  0.05000  7.384E-04    0   0.6633   age125_m72            0.0000     1.4734E+00     9.6739  -0.3619   100.1591
 60      0.0000     0.0000E+00    0.0000E+00    5.088000E+08  0.05000  3.819E-04    0   0.6372   age130_m72            0.0000     1.5951E+00    10.0649  -0.8553   101.8642
 61      0.0000     0.0000E+00    0.0000E+00    9.047900E+08  0.05000  1.676E-04    0   0.6110   age135_m72            0.0000     2.9692E+00    12.9448  -1.0000    80.4279
 62      0.0000     0.0000E+00    0.0000E+00    1.434000E+09  0.05000  8.837E-05    0   0.5874   age139_m72            0.0000     5.2836E+00    17.1874  -1.0000    65.2804
 63      0.0000     0.0000E+00    0.0000E+00    2.500000E+09  0.05000  4.233E-05    0   0.5598   age150_m72            0.0000     7.3539E+00    20.3165  -1.0000    55.7136
 64      0.0000     0.0000E+00    0.0000E+00    6.250000E+09  0.05000  1.435E-05    0   0.5249   age166_m72            0.0000     1.0638E+01    24.8685  -1.0000    43.9565
 65      0.0000     0.0000E+00    0.0000E+00    1.300000E+10  0.05000  6.513E-06    0   0.5036   age193_m72            0.0000     1.2804E+01    27.4222  -1.0000    38.4862
 66      0.0000     0.0000E+00    0.0000E+00    1.800000E+10  0.05000  4.527E-06    0   0.4945   age213_m72            0.0000     1.4035E+01    28.8067  -1.0000    35.3573


## Synthesis Results - Average & Chains ##

# j      x_j: min, <> & last-chain-values for 1 ...  7 chains
  1      0.0000      0.0684      0.0000      0.0000      0.0000      0.0000      0.0000      0.0000      0.0000
  2      0.0000      0.4980      0.0000      0.8701      0.1589      0.0000      0.0000      0.0000      0.0000
  3      0.0000      0.2258      1.6395      0.3306      0.0000      0.0000      0.1616      1.1688      0.0000
  4      0.0000      0.2895      0.0000      0.4173      0.0000      0.0000      0.0000      0.0000      0.0000
  5      0.0000      0.4393      0.0000      0.0000      0.0000      0.0000      0.0000      0.0000      0.0000
  6      0.0000      0.2435      0.0000      0.0000      0.0322      0.0916      0.0000      0.0000      0.0000
  7      0.0000      0.2875      0.7876      0.0000      0.0000      0.0000      0.0000      0.0000      0.0000
  8      0.0000      0.4061      0.0000      0.0000      0.0000      1.3094      0.0000      0.0000      0.0000
  9      0.0000      0.9158      0.0000      0.0000      0.0000      0.1252      0.0000      0.0000      0.0000
 10      0.0000      1.9196      0.2038      2.2343      3.4875      2.2221      0.0000      0.0000      0.0000
 11     47.5850      9.1335     14.0946     10.3793     18.8655      8.9113     13.0288     12.6463     15.5985
 12     45.6562      9.2902     19.0535     10.3431      9.4014     16.9777      0.0000     16.9388     13.6690
 13      0.0000      0.0574      0.0000      0.0000      0.0000      0.0000      0.0000      0.0000      0.0000
 14      0.0000      0.0157      0.0000      0.0000      0.0000      0.0000      0.0000      0.0000      0.0000
 15      0.0000      0.0034      0.0000      0.0000      0.0000      0.0000      0.0000      0.0000      0.0000
 16      0.0000      0.0035      0.0000      0.0000      0.0000      0.0000      0.0000      0.0000      0.0000
 17      0.0000      0.0152      0.0000      0.0000      0.0000      0.0000      0.0000      0.0000      0.0000
 18      0.0000      0.0571      0.0000      0.0000      0.0000      0.0000      0.0000      0.0000      0.0000
 19      0.0000      0.0886      0.8243      0.0000      0.0000      0.0000      0.6501      0.0000      0.0000
 20      0.0000      0.2692      0.0000      0.0000      1.1496      0.0000      0.6362      0.0000      0.0000
 21      0.0000      0.2157      0.0000      0.0000      0.0000      0.0000      0.0000      0.0000      0.0000
 22      0.0000      0.2349      0.0000      1.5483      0.0000      0.0000      0.0000      0.0520      0.0000
 23      0.0000      0.1502      0.0000      0.0000      0.0000      0.0000      0.0000      0.0000      0.0000
 24      0.0000      0.3806      0.0132      0.0000      0.0000      0.0000      0.0000      1.2613      0.0000
 25      0.0000      0.8071      0.0000      0.0000      0.0000      0.0000      1.2275      0.0000      0.4445
 26      0.0000      2.1702      0.0000      0.0000      5.0659      1.2967      0.0416      1.2533      3.0271
 27      0.0000      5.4255      0.0000     12.0365      2.8250      5.7674      9.2980      0.0000      3.3552
 28      0.0000      0.2072      0.0000      0.0000      0.0000      0.0000      0.0000      1.0374      0.0000
 29      0.0000      0.0387      0.1190      0.0000      0.0000      0.0000      0.0000      0.0000      0.0000
 30      0.0000      0.0238      0.0000      0.0000      0.0000      0.0000      0.0000      0.0000      0.0000
 31      0.0000      0.0088      0.0000      0.0000      0.0000      0.0000      0.0000      0.0000      0.0000
 32      0.0000      0.0087      0.0000      0.0000      0.0000      0.0000      0.0000      0.0000      0.0000
 33      0.0000      0.0147      0.0000      0.0000      0.0000      0.0000      0.0000      0.0000      0.0000
 34      0.0000      0.0048      0.0000      0.0000      0.0000      0.0000      0.0000      0.0000      0.0000
 35      0.0000      0.0613      0.0000      0.0000      0.0000      0.2119      0.0000      0.0000      0.6993
 36      0.0000      0.0589      0.0000      0.0000      0.0000      0.0000      0.0000      0.0000      0.0000
 37      0.0000      0.2845      0.0000      0.0000      0.0000      0.0000      0.0000      0.0000      0.0000
 38      0.0000      0.0958      0.0000      0.0000      0.0000      0.0000      0.0000      0.0000      0.0000
 39      0.0000      0.2375      0.0000      0.0618      0.0000      0.0000      0.0895      0.0000      0.0000
 40      0.0000      0.4788      0.0000      0.0000      0.0000      0.0000      0.0000      0.0000      0.0000
 41      0.0000      0.6939      0.0000      0.0000      0.6879      0.4945      0.2835      0.0000      0.0000
 42      0.0000      5.8579      2.5596      4.8188      0.0000      0.0000      3.1546      0.7405     10.3077
 43      0.0000      4.4571      3.6322      0.6362      0.0000      0.0000      6.7490      0.0000      0.0000
 44      0.0000      1.5110      0.0000      0.0000      0.0000      0.0000      3.2431      0.0000      2.9213
 45      0.0000      0.1319      0.6389      0.0000      0.0000      0.0000      0.0000      0.0000      0.0000
 46      0.0000      0.0852      0.1749      0.0000      0.1156      0.0000      0.0000      0.0000      0.0000
 47      0.0000      0.0104      0.0000      0.0000      0.0000      0.3684      0.0000      0.0000      0.0000
 48      0.0000      0.0022      0.0000      0.0000      0.0000      0.0000      0.0000      0.0000      0.0000
 49      0.0000      0.0100      0.0000      0.0000      0.0000      0.0000      0.0000      0.0487      0.0000
 50      0.0000      0.0006      0.0000      0.0000      0.0000      0.0000      0.0000      0.0000      0.0000
 51      0.0000      0.0556      0.0000      1.0882      0.0000      0.0000      0.0000      0.0000      0.0000
 52      0.0000      0.1705      0.0000      0.0000      0.0000      0.0000      0.0000      0.0000      0.0000
 53      0.0000      0.2403      0.0000      1.2861      0.0000      0.0000      0.0000      0.0000      1.4134
 54      0.0000      0.5103      0.0000      0.0000      0.2280      1.5746      3.7972      0.0000      0.0000
 55      0.0000      0.1838      0.0000      0.0000      0.0000      0.0000      0.0000      0.0000      0.0000
 56      0.0000      0.4434      0.6209      1.4299      0.0000      0.0000      0.0000      0.2607      0.0000
 57      1.9304      3.2818      6.4341      0.7375      6.3969      6.1657      2.4099      0.0000      0.0525
 58      0.0000     27.9390     29.2944     29.9726     32.3742     31.9694     27.0426     45.7364     29.9232
 59      0.0000     13.1143     14.5066     16.1936     13.3603     16.9337     23.8533     13.2555     11.1872
 60      0.0000      0.5243      0.0000      0.0000      0.0000      0.0000      0.0000      0.0000      1.4088
 61      0.0000      0.0453      0.0000      0.0000      0.0000      0.0000      0.0000      0.0000      0.8328
 62      0.0000      0.0221      0.0929      0.0000      0.0000      0.0000      0.0000      0.0288      0.0000
 63      0.0000      0.0025      0.0000      0.0000      0.0000      0.0000      0.0000      0.0000      0.0000
 64      0.0000      0.0069      0.0000      0.0000      0.0000      0.0000      0.0000      0.0000      0.0000
 65      0.0000      0.0005      0.0000      0.0000      0.0000      0.0000      0.0000      0.0000      0.0000
 66      0.0000      0.0086      0.0000      0.0000      0.0000      0.0000      0.0000      0.0000      0.0000

# j      m_j: min, <> & last-chain-values for 1 ...  7 chains
  1  0.0000E+00  1.0479E-02  0.0000E+00  0.0000E+00  0.0000E+00  0.0000E+00  0.0000E+00  0.0000E+00  0.0000E+00
  2  0.0000E+00  2.0833E-02  0.0000E+00  3.8908E-02  7.4560E-03  0.0000E+00  0.0000E+00  0.0000E+00  0.0000E+00
  3  0.0000E+00  1.4146E-02  9.9337E-02  2.2134E-02  0.0000E+00  0.0000E+00  1.0247E-02  7.2580E-02  0.0000E+00
  4  0.0000E+00  1.7082E-02  0.0000E+00  2.6317E-02  0.0000E+00  0.0000E+00  0.0000E+00  0.0000E+00  0.0000E+00
  5  0.0000E+00  4.9373E-02  0.0000E+00  0.0000E+00  0.0000E+00  0.0000E+00  0.0000E+00  0.0000E+00  0.0000E+00
  6  0.0000E+00  4.4396E-02  0.0000E+00  0.0000E+00  6.5943E-03  1.6338E-02  0.0000E+00  0.0000E+00  0.0000E+00
  7  0.0000E+00  7.5021E-02  1.9878E-01  0.0000E+00  0.0000E+00  0.0000E+00  0.0000E+00  0.0000E+00  0.0000E+00
  8  0.0000E+00  1.4648E-01  0.0000E+00  0.0000E+00  0.0000E+00  4.6202E-01  0.0000E+00  0.0000E+00  0.0000E+00
  9  0.0000E+00  3.7812E-01  0.0000E+00  0.0000E+00  0.0000E+00  5.0580E-02  0.0000E+00  0.0000E+00  0.0000E+00
 10  0.0000E+00  1.0411E+00  1.0690E-01  1.2951E+00  2.1218E+00  1.1787E+00  0.0000E+00  0.0000E+00  0.0000E+00
 11  3.9394E+01  9.3140E+00  1.3900E+01  1.1312E+01  2.1582E+01  8.8886E+00  1.3449E+01  1.2782E+01  1.5042E+01
 12  5.9957E+01  1.5028E+01  2.9807E+01  1.7882E+01  1.7061E+01  2.6863E+01  0.0000E+00  2.7157E+01  2.0909E+01
 13  0.0000E+00  2.6177E-01  0.0000E+00  0.0000E+00  0.0000E+00  0.0000E+00  0.0000E+00  0.0000E+00  0.0000E+00
 14  0.0000E+00  2.3976E-01  0.0000E+00  0.0000E+00  0.0000E+00  0.0000E+00  0.0000E+00  0.0000E+00  0.0000E+00
 15  0.0000E+00  8.3836E-02  0.0000E+00  0.0000E+00  0.0000E+00  0.0000E+00  0.0000E+00  0.0000E+00  0.0000E+00
 16  0.0000E+00  1.4602E-01  0.0000E+00  0.0000E+00  0.0000E+00  0.0000E+00  0.0000E+00  0.0000E+00  0.0000E+00
 17  0.0000E+00  8.2836E-01  0.0000E+00  0.0000E+00  0.0000E+00  0.0000E+00  0.0000E+00  0.0000E+00  0.0000E+00
 18  0.0000E+00  7.7318E-03  0.0000E+00  0.0000E+00  0.0000E+00  0.0000E+00  0.0000E+00  0.0000E+00  0.0000E+00
 19  0.0000E+00  4.8148E-03  4.3331E-02  0.0000E+00  0.0000E+00  0.0000E+00  3.5772E-02  0.0000E+00  0.0000E+00
 20  0.0000E+00  1.5976E-02  0.0000E+00  0.0000E+00  7.6532E-02  0.0000E+00  3.8215E-02  0.0000E+00  0.0000E+00
 21  0.0000E+00  1.5540E-02  0.0000E+00  0.0000E+00  0.0000E+00  0.0000E+00  0.0000E+00  0.0000E+00  0.0000E+00
 22  0.0000E+00  2.8611E-02  0.0000E+00  2.0157E-01  0.0000E+00  0.0000E+00  0.0000E+00  6.2736E-03  0.0000E+00
 23  0.0000E+00  2.4706E-02  0.0000E+00  0.0000E+00  0.0000E+00  0.0000E+00  0.0000E+00  0.0000E+00  0.0000E+00
 24  0.0000E+00  9.3129E-02  3.1336E-03  0.0000E+00  0.0000E+00  0.0000E+00  0.0000E+00  3.0591E-01  0.0000E+00
 25  0.0000E+00  2.7235E-01  0.0000E+00  0.0000E+00  0.0000E+00  0.0000E+00  4.1925E-01  0.0000E+00  1.4184E-01
 26  0.0000E+00  1.2240E+00  0.0000E+00  0.0000E+00  3.2053E+00  7.1537E-01  2.3749E-02  7.0061E-01  1.6145E+00
 27  0.0000E+00  6.1250E+00  0.0000E+00  1.4523E+01  3.5778E+00  6.3686E+00  1.0625E+01  0.0000E+00  3.5818E+00
 28  0.0000E+00  6.7887E-01  0.0000E+00  0.0000E+00  0.0000E+00  0.0000E+00  0.0000E+00  3.3687E+00  0.0000E+00
 29  0.0000E+00  2.2115E-01  6.5686E-01  0.0000E+00  0.0000E+00  0.0000E+00  0.0000E+00  0.0000E+00  0.0000E+00
 30  0.0000E+00  2.8350E-01  0.0000E+00  0.0000E+00  0.0000E+00  0.0000E+00  0.0000E+00  0.0000E+00  0.0000E+00
 31  0.0000E+00  1.8410E-01  0.0000E+00  0.0000E+00  0.0000E+00  0.0000E+00  0.0000E+00  0.0000E+00  0.0000E+00
 32  0.0000E+00  2.4511E-01  0.0000E+00  0.0000E+00  0.0000E+00  0.0000E+00  0.0000E+00  0.0000E+00  0.0000E+00
 33  0.0000E+00  9.1899E-01  0.0000E+00  0.0000E+00  0.0000E+00  0.0000E+00  0.0000E+00  0.0000E+00  0.0000E+00
 34  0.0000E+00  4.0734E-01  0.0000E+00  0.0000E+00  0.0000E+00  0.0000E+00  0.0000E+00  0.0000E+00  0.0000E+00
 35  0.0000E+00  6.6588E-03  0.0000E+00  0.0000E+00  0.0000E+00  2.2510E-02  0.0000E+00  0.0000E+00  7.1803E-02
 36  0.0000E+00  2.5856E-03  0.0000E+00  0.0000E+00  0.0000E+00  0.0000E+00  0.0000E+00  0.0000E+00  0.0000E+00
 37  0.0000E+00  1.3519E-02  0.0000E+00  0.0000E+00  0.0000E+00  0.0000E+00  0.0000E+00  0.0000E+00  0.0000E+00
 38  0.0000E+00  1.2333E-02  0.0000E+00  0.0000E+00  0.0000E+00  0.0000E+00  0.0000E+00  0.0000E+00  0.0000E+00
 39  0.0000E+00  4.4030E-02  0.0000E+00  1.2238E-02  0.0000E+00  0.0000E+00  1.6800E-02  0.0000E+00  0.0000E+00
 40  0.0000E+00  1.4347E-01  0.0000E+00  0.0000E+00  0.0000E+00  0.0000E+00  0.0000E+00  0.0000E+00  0.0000E+00
 41  0.0000E+00  3.2329E-01  0.0000E+00  0.0000E+00  3.5954E-01  2.2538E-01  1.3371E-01  0.0000E+00  0.0000E+00
 42  0.0000E+00  5.0111E+00  2.1175E+00  4.4058E+00  0.0000E+00  0.0000E+00  2.7317E+00  6.2782E-01  8.3380E+00
 43  0.0000E+00  5.5667E+00  4.3870E+00  8.4920E-01  0.0000E+00  0.0000E+00  8.5323E+00  0.0000E+00  0.0000E+00
 44  0.0000E+00  3.2492E+00  0.0000E+00  0.0000E+00  0.0000E+00  0.0000E+00  7.0594E+00  0.0000E+00  5.9403E+00
 45  0.0000E+00  5.6286E-01  2.6361E+00  0.0000E+00  0.0000E+00  0.0000E+00  0.0000E+00  0.0000E+00  0.0000E+00
 46  0.0000E+00  6.6811E-01  1.3267E+00  0.0000E+00  1.0172E+00  0.0000E+00  0.0000E+00  0.0000E+00  0.0000E+00
 47  0.0000E+00  1.6515E-01  0.0000E+00  0.0000E+00  0.0000E+00  5.7266E+00  0.0000E+00  0.0000E+00  0.0000E+00
 48  0.0000E+00  6.2976E-02  0.0000E+00  0.0000E+00  0.0000E+00  0.0000E+00  0.0000E+00  0.0000E+00  0.0000E+00
 49  0.0000E+00  6.3886E-01  0.0000E+00  0.0000E+00  0.0000E+00  0.0000E+00  0.0000E+00  3.0714E+00  0.0000E+00
 50  0.0000E+00  7.4515E-02  0.0000E+00  0.0000E+00  0.0000E+00  0.0000E+00  0.0000E+00  0.0000E+00  0.0000E+00
 51  0.0000E+00  3.5945E-03  0.0000E+00  7.5218E-02  0.0000E+00  0.0000E+00  0.0000E+00  0.0000E+00  0.0000E+00
 52  0.0000E+00  5.6489E-03  0.0000E+00  0.0000E+00  0.0000E+00  0.0000E+00  0.0000E+00  0.0000E+00  0.0000E+00
 53  0.0000E+00  1.1996E-02  0.0000E+00  6.8619E-02  0.0000E+00  0.0000E+00  0.0000E+00  0.0000E+00  6.6722E-02
 54  0.0000E+00  5.2200E-02  0.0000E+00  0.0000E+00  2.6164E-02  1.5754E-01  3.9318E-01  0.0000E+00  0.0000E+00
 55  0.0000E+00  2.8942E-02  0.0000E+00  0.0000E+00  0.0000E+00  0.0000E+00  0.0000E+00  0.0000E+00  0.0000E+00
 56  0.0000E+00  1.3821E-01  1.8718E-01  4.7638E-01  0.0000E+00  0.0000E+00  0.0000E+00  8.0536E-02  0.0000E+00
 57  6.4840E-01  1.3578E+00  2.5744E+00  3.2611E-01  2.9691E+00  2.4952E+00  1.0093E+00  0.0000E+00  2.0556E-02
 58  0.0000E+00  1.9553E+01  1.9826E+01  2.2418E+01  2.5417E+01  2.1884E+01  1.9157E+01  3.1723E+01  1.9802E+01
 59  0.0000E+00  1.9751E+01  2.1129E+01  2.6066E+01  2.2573E+01  2.4946E+01  3.6365E+01  1.9786E+01  1.5932E+01
 60  0.0000E+00  1.4667E+00  0.0000E+00  0.0000E+00  0.0000E+00  0.0000E+00  0.0000E+00  0.0000E+00  3.7267E+00
 61  0.0000E+00  2.7661E-01  0.0000E+00  0.0000E+00  0.0000E+00  0.0000E+00  0.0000E+00  0.0000E+00  4.8132E+00
 62  0.0000E+00  2.4662E-01  1.0008E+00  0.0000E+00  0.0000E+00  0.0000E+00  0.0000E+00  3.1802E-01  0.0000E+00
 63  0.0000E+00  5.4575E-02  0.0000E+00  0.0000E+00  0.0000E+00  0.0000E+00  0.0000E+00  0.0000E+00  0.0000E+00
 64  0.0000E+00  4.2302E-01  0.0000E+00  0.0000E+00  0.0000E+00  0.0000E+00  0.0000E+00  0.0000E+00  0.0000E+00
 65  0.0000E+00  6.2998E-02  0.0000E+00  0.0000E+00  0.0000E+00  0.0000E+00  0.0000E+00  0.0000E+00  0.0000E+00
 66  0.0000E+00  1.5724E+00  0.0000E+00  0.0000E+00  0.0000E+00  0.0000E+00  0.0000E+00  0.0000E+00  0.0000E+00

# AV, chi2 & Mass for <> & i_chain = 1 ...  7 solutions
AV      -0.3622     -0.0572     -0.0992     -0.0580     -0.0500     -0.0885     -0.1189     -0.0724     -0.1309
chi2 1.3420E+00  1.3645E+00  1.3567E+00  1.3631E+00  1.3611E+00  1.3582E+00  1.3587E+00  1.3577E+00  1.3571E+00
Mass 2.0639E-14  2.5236E-14  2.4664E-14  2.3586E-14  2.2715E-14  2.4741E-14  2.2950E-14  2.4948E-14  2.4174E-14
  69.67                                  [v0_min (km/s) before EX0s...]
 137.78                                  [vd_min (km/s) before EX0s...]


## Synthetic spectrum (Best Model) ##l_obs f_obs f_syn wei
 3478    [Nl_obs]
 3741.00    0.44542   0.60908    0.000
 3742.00    0.29224   0.62785    0.000
 3743.00    0.30273   0.62683    0.000
 3744.00    0.39926   0.61143    0.000
 3745.00    0.48967   0.58673   20.422
 3746.00    0.51868   0.55460   19.280
 3747.00    0.48253   0.51661   20.724
 3748.00    0.42115   0.47486   23.744
 3749.00    0.37872   0.43560   26.405
 3750.00    0.38103   0.41055   26.245
 3751.00    0.40863   0.40855   24.472
 3752.00    0.41396   0.43045   24.157
 3753.00    0.39368   0.46882   25.401
 3754.00    0.39127   0.51453   25.558
 3755.00    0.44431   0.55996   22.507
 3756.00    0.55350   0.59901   18.067
 3757.00    0.64407   0.62913   15.526
 3758.00    0.62322   0.64965   16.046
 3759.00    0.54315   0.66457   18.411
 3760.00    0.54260   0.67855   18.430
 3761.00    0.61520   0.69239   16.255
 3762.00    0.64814   0.70385   15.429
 3763.00    0.63274   0.70789   15.804
 3764.00    0.64875   0.69838   15.414
 3765.00    0.72738   0.67408   13.748
 3766.00    0.82326   0.63692   12.147
 3767.00    0.82245   0.59025   -1.000
 3768.00    0.62711   0.54046   15.946
 3769.00    0.31011   0.49276   -1.000
 3770.00    0.05360   0.45337   -1.000
 3771.00   -0.01946   0.43113   -2.000
 3772.00    0.10314   0.43390   -1.000
 3773.00    0.29484   0.46244   -1.000
 3774.00    0.41108   0.50896   24.326
 3775.00    0.49012   0.56125   20.403
 3776.00    0.64013   0.61006   15.622
 3777.00    0.81381   0.65350   12.288
 3778.00    0.89154   0.69301   11.217
 3779.00    0.85781   0.72849   11.658
 3780.00    0.78576   0.75989   12.727
 3781.00    0.77289   0.78581   12.939
 3782.00    0.86986   0.80681   11.496
 3783.00    1.00187   0.82325    9.981
 3784.00    1.05048   0.83360    9.519
 3785.00    0.97306   0.83535   10.277
 3786.00    0.80480   0.82628   12.426
 3787.00    0.63799   0.80835   15.674
 3788.00    0.56005   0.78553   -1.000
 3789.00    0.58540   0.76124   17.082
 3790.00    0.67767   0.73705   14.756
 3791.00    0.78474   0.71088   12.743
 3792.00    0.85921   0.67979   11.639
 3793.00    0.87724   0.64049   11.399
 3794.00    0.84844   0.59194   -1.000
 3795.00    0.81998   0.53787   -1.000
 3796.00    0.83276   0.48607   -1.000
 3797.00    0.88089   0.44366   -1.000
 3798.00    0.93362   0.41789   -1.000
 3799.00    0.95948   0.41425   -1.000
 3800.00    0.93142   0.43416   -1.000
 3801.00    0.83379   0.47458   -1.000
 3802.00    0.69947   0.52628   14.297
 3803.00    0.62812   0.58099   15.921
 3804.00    0.68389   0.63256   14.622
 3805.00    0.81936   0.67688   12.205
 3806.00    0.92867   0.71444   10.768
 3807.00    0.90444   0.74662   11.057
 3808.00    0.72897   0.77600   13.718
 3809.00    0.52150   0.80333   -1.000
 3810.00    0.42362   0.82739   -1.000
 3811.00    0.50772   0.84475   -1.000
 3812.00    0.70969   0.85304   14.091
 3813.00    0.82948   0.85425   12.056
 3814.00    0.78615   0.85296   12.720
 3815.00    0.73220   0.85337   13.657
 3816.00    0.78368   0.85631   12.760
 3817.00    0.88062   0.85877   11.356
 3818.00    0.92875   0.85753   10.767
 3819.00    0.88598   0.85176   11.287
 3820.00    0.77204   0.84392   12.953
 3821.00    0.65729   0.83829   15.214
 3822.00    0.59123   0.83477   -1.000
 3823.00    0.57451   0.82981   -1.000
 3824.00    0.60062   0.81920   -1.000
 3825.00    0.67058   0.79922   14.912
 3826.00    0.76485   0.77142   13.074
 3827.00    0.83794   0.73780   11.934
 3828.00    0.85245   0.70039   11.731
 3829.00    0.79918   0.66148   12.513
 3830.00    0.71568   0.62059   13.973
 3831.00    0.66920   0.57664   14.943
 3832.00    0.66390   0.52769   15.062
 3833.00    0.63680   0.47533   15.703
 3834.00    0.57766   0.42628   17.311
 3835.00    0.54819   0.38839   -1.000
 3836.00    0.58985   0.37070   -1.000
 3837.00    0.69130   0.37775   -1.000
 3838.00    0.79437   0.40681   -1.000
 3839.00    0.82592   0.45191   -1.000
 3840.00    0.78804   0.50355   -1.000
 3841.00    0.75322   0.55565   13.276
 3842.00    0.76306   0.60707   13.105
 3843.00    0.80803   0.65690   12.376
 3844.00    0.86004   0.70455   11.627
 3845.00    0.88732   0.74665   11.270
 3846.00    0.86763   0.78129   11.526
 3847.00    0.80321   0.80931    0.000
 3848.00    0.74809   0.83210    0.000
 3849.00    0.77300   0.85188    0.000
 3850.00    0.86495   0.86830    0.000
 3851.00    0.94442   0.88216    0.000
 3852.00    0.96314   0.89298    0.000
 3853.00    0.92543   0.90113    0.000
 3854.00    0.88123   0.90740    0.000
 3855.00    0.88683   0.91006    0.000
 3856.00    0.92820   0.91035    0.000
 3857.00    0.94628   0.90808    0.000
 3858.00    0.91886   0.90443    0.000
 3859.00    0.85704   0.90100    0.000
 3860.00    0.76741   0.89874    0.000
 3861.00    0.66541   0.90015    0.000
 3862.00    0.61023   0.90690    0.000
 3863.00    0.65793   0.91557    0.000
 3864.00    0.77275   0.92299    0.000
 3865.00    0.86255   0.92638    0.000
 3866.00    0.86293   0.92509    0.000
 3867.00    0.77511   0.92174    0.000
 3868.00    0.69785   0.91772    0.000
 3869.00    0.73643   0.91230    0.000
 3870.00    0.86557   0.90457    0.000
 3871.00    0.98915   0.89377    0.000
 3872.00    1.05231   0.88088    0.000
 3873.00    1.05142   0.86823    0.000
 3874.00    1.02325   0.85695    0.000
 3875.00    0.99865   0.84758    0.000
 3876.00    0.94888   0.83847    0.000
 3877.00    0.83568   0.82548    0.000
 3878.00    0.67838   0.80632    0.000
 3879.00    0.53595   0.78200    0.000
 3880.00    0.47434   0.75501    0.000
 3881.00    0.52612   0.72704   -1.000
 3882.00    0.65244   0.69672   15.327
 3883.00    0.76862   0.66141   13.010
 3884.00    0.78139   0.62134   12.798
 3885.00    0.65830   0.57619   15.191
 3886.00    0.48606   0.52572   20.574
 3887.00    0.39329   0.47386   25.426
 3888.00    0.46407   0.42761   21.549
 3889.00    0.66364   0.39702   -1.000
 3890.00    0.80205   0.39109   -1.000
 3891.00    0.75658   0.41148   -1.000
 3892.00    0.64251   0.45177   -1.000
 3893.00    0.60479   0.50124   16.535
 3894.00    0.64506   0.55084   15.502
 3895.00    0.69819   0.59676   14.323
 3896.00    0.70734   0.63771   14.137
 3897.00    0.66284   0.67537   15.087
 3898.00    0.61798   0.71027   16.182
 3899.00    0.62020   0.74037   16.124
 3900.00    0.66523   0.76592   15.032
 3901.00    0.72581   0.78773   13.778
 3902.00    0.77642   0.80621   12.880
 3903.00    0.81556   0.82235   12.262
 3904.00    0.86951   0.83660   11.501
 3905.00    0.93342   0.84788   10.713
 3906.00    0.95079   0.85643   10.518
 3907.00    0.90535   0.86495   11.046
 3908.00    0.86032   0.87539   11.624
 3909.00    0.87471   0.88819   11.432
 3910.00    0.95277   0.90121   10.496
 3911.00    1.03217   0.91201    9.688
 3912.00    1.01047   0.91889    9.896
 3913.00    0.89816   0.92170   11.134
 3914.00    0.84287   0.92171   11.864
 3915.00    0.88587   0.92129   11.288
 3916.00    0.89989   0.92111   11.113
 3917.00    0.83487   0.92011   11.978
 3918.00    0.78800   0.91796   12.690
 3919.00    0.81920   0.91360   12.207
 3920.00    0.88893   0.90855   11.250
 3921.00    0.93621   0.90445   10.681
 3922.00    0.92171   0.90327   10.849
 3923.00    0.86294   0.90432   11.588
 3924.00    0.82263   0.90419   12.156
 3925.00    0.81965   0.90200   12.200
 3926.00    0.81681   0.89646   12.243
 3927.00    0.79259   0.88702   12.617
 3928.00    0.75982   0.87574   13.161
 3929.00    0.74206   0.86181   13.476
 3930.00    0.75506   0.84411   13.244
 3931.00    0.77604   0.82400   12.886
 3932.00    0.76135   0.80124   13.135
 3933.00    0.72475   0.77935   13.798
 3934.00    0.72197   0.76653   13.851
 3935.00    0.74322   0.76807   13.455
 3936.00    0.72686   0.78448   13.758
 3937.00    0.67616   0.81056   14.789
 3938.00    0.64959   0.83702   15.394
 3939.00    0.65673   0.85808   15.227
 3940.00    0.66620   0.87163   15.011
 3941.00    0.68815   0.88025   14.532
 3942.00    0.75543   0.88610   13.238
 3943.00    0.83595   0.89006   11.962
 3944.00    0.86110   0.89331   11.613
 3945.00    0.83015   0.89673   12.046
 3946.00    0.80138   0.89985   12.479
 3947.00    0.82513   0.90137   12.119
 3948.00    0.90859   0.90146   11.006
 3949.00    0.97823   0.90011   10.223
 3950.00    0.94578   0.89651   10.573
 3951.00    0.84123   0.89064   11.887
 3952.00    0.76541   0.88312   13.065
 3953.00    0.76211   0.87439   13.122
 3954.00    0.81230   0.86458   12.311
 3955.00    0.86482   0.85411   11.563
 3956.00    0.86905   0.84069   11.507
 3957.00    0.81769   0.82351   12.230
 3958.00    0.73567   0.80372   13.593
 3959.00    0.65171   0.78189   15.344
 3960.00    0.58038   0.75809    0.000
 3961.00    0.50470   0.73013    0.000
 3962.00    0.41290   0.69693    0.000
 3963.00    0.34921   0.66046    0.000
 3964.00    0.36432   0.61992    0.000
 3965.00    0.44353   0.57379    0.000
 3966.00    0.53943   0.52151    0.000
 3967.00    0.62425   0.46410    0.000
 3968.00    0.68974   0.40786    0.000
 3969.00    0.73862   0.36250    0.000
 3970.00    0.77318   0.33602    0.000
 3971.00    0.78516   0.33371    0.000
 3972.00    0.77458   0.35578    0.000
 3973.00    0.76826   0.39656    0.000
 3974.00    0.78208   0.44867    0.000
 3975.00    0.78543   0.50476    0.000
 3976.00    0.75644   0.55934    0.000
 3977.00    0.73311   0.60916    0.000
 3978.00    0.74723   0.65350    0.000
 3979.00    0.76606   0.69211    0.000
 3980.00    0.76790   0.72510    0.000
 3981.00    0.80387   0.75325   12.440
 3982.00    0.90864   0.77650   11.005
 3983.00    1.02945   0.79531    9.714
 3984.00    1.10349   0.81110    9.062
 3985.00    1.12022   0.82508    8.927
 3986.00    1.08412   0.83784    9.224
 3987.00    0.98748   0.85003   10.127
 3988.00    0.84712   0.86212   11.805
 3989.00    0.72549   0.87373   13.784
 3990.00    0.68059   0.88422   14.693
 3991.00    0.73001   0.89394   13.698
 3992.00    0.85296   0.90348   11.724
 3993.00    0.99704   0.91223   10.030
 3994.00    1.10332   0.91876    9.064
 3995.00    1.12843   0.92190    8.862
 3996.00    1.08127   0.92174    9.248
 3997.00    1.02821   0.91906    9.726
 3998.00    1.00090   0.91639    9.991
 3999.00    0.95972   0.91641   10.420
 4000.00    0.88417   0.91979   11.310
 4001.00    0.81593   0.92498   12.256
 4002.00    0.81984   0.92900   12.198
 4003.00    0.94211   0.92985   10.614
 4004.00    1.11464   0.92737    8.971
 4005.00    1.16385   0.92279    8.592
 4006.00    1.06270   0.91902    9.410
 4007.00    0.98376   0.91831   10.165
 4008.00    1.01403   0.92077    9.862
 4009.00    1.06950   0.92545    9.350
 4010.00    1.07824   0.93070    9.274
 4011.00    1.04673   0.93587    9.554
 4012.00    1.00534   0.94093    9.947
 4013.00    0.98311   0.94429   10.172
 4014.00    1.00000   0.94519   10.000
 4015.00    1.05338   0.94461    9.493
 4016.00    1.08186   0.94339    9.243
 4017.00    0.99598   0.94179   10.040
 4018.00    0.82206   0.94063   12.165
 4019.00    0.69274   0.94036   -1.000
 4020.00    0.65935   0.94092   -1.000
 4021.00    0.67568   0.94090   -1.000
 4022.00    0.73656   0.93922   13.577
 4023.00    0.87233   0.93659   11.464
 4024.00    1.00892   0.93260    9.912
 4025.00    1.01202   0.92717    9.881
 4026.00    0.91805   0.92275   10.893
 4027.00    0.89570   0.92150   11.164
 4028.00    0.97886   0.92329   10.216
 4029.00    1.06159   0.92590    9.420
 4030.00    1.06427   0.92688    9.396
 4031.00    0.97618   0.92589   10.244
 4032.00    0.85266   0.92470   11.728
 4033.00    0.77611   0.92493   12.885
 4034.00    0.77287   0.92707   12.939
 4035.00    0.81793   0.93075   12.226
 4036.00    0.88566   0.93528   11.291
 4037.00    0.96056   0.93965   10.411
 4038.00    1.03599   0.94329    9.653
 4039.00    1.10764   0.94479    9.028
 4040.00    1.16206   0.94416    8.605
 4041.00    1.18685   0.94304    8.426
 4042.00    1.19288   0.94038    8.383
 4043.00    1.20570   0.93523    8.294
 4044.00    1.24312   0.92757    8.044
 4045.00    1.30400   0.91787   -1.000
 4046.00    1.35780   0.90981   -1.000
 4047.00    1.37263   0.90647   -1.000
 4048.00    1.36011   0.90851   -1.000
 4049.00    1.34415   0.91417   -1.000
 4050.00    1.30583   0.91965   -1.000
 4051.00    1.21899   0.92325    8.203
 4052.00    1.11027   0.92483    9.007
 4053.00    1.02332   0.92438    9.772
 4054.00    0.96068   0.92246   10.409
 4055.00    0.90852   0.91982   11.007
 4056.00    0.87663   0.91750   11.407
 4057.00    0.86828   0.91615   11.517
 4058.00    0.84178   0.91616   11.880
 4059.00    0.77441   0.91710   12.913
 4060.00    0.73534   0.91819   13.599
 4061.00    0.79268   0.91827   12.615
 4062.00    0.90642   0.91514   11.032
 4063.00    0.99652   0.90862   10.035
 4064.00    1.02819   0.90027    9.726
 4065.00    1.02204   0.89298    9.784
 4066.00    1.04889   0.89008    9.534
 4067.00    1.15641   0.89100    8.647
 4068.00    1.30371   0.89374   -1.000
 4069.00    1.41194   0.89751   -1.000
 4070.00    1.42110   0.89949   -1.000
 4071.00    1.33516   0.89730   -1.000
 4072.00    1.24546   0.89311   -1.000
 4073.00    1.22253   0.88964   -1.000
 4074.00    1.23408   0.88717   -1.000
 4075.00    1.22850   0.88429   -1.000
 4076.00    1.20289   0.87999    8.313
 4077.00    1.17767   0.87505    8.491
 4078.00    1.17114   0.87085    8.539
 4079.00    1.18050   0.86833   -1.000
 4080.00    1.17348   0.86735    8.522
 4081.00    1.11759   0.86679    8.948
 4082.00    1.00364   0.86478    9.964
 4083.00    0.86407   0.86000   11.573
 4084.00    0.77153   0.85325   12.961
 4085.00    0.76050   0.84588   13.149
 4086.00    0.79013   0.83932   12.656
 4087.00    0.81402   0.83390   12.285
 4088.00    0.82093   0.82784   12.181
 4089.00    0.82403   0.81843   12.136
 4090.00    0.84817   0.80411   11.790
 4091.00    0.90167   0.78552   11.091
 4092.00    0.96477   0.76390    0.000
 4093.00    1.00706   0.74002    0.000
 4094.00    1.00250   0.71483    0.000
 4095.00    0.95617   0.68800    0.000
 4096.00    0.90846   0.65755    0.000
 4097.00    0.89630   0.62241    0.000
 4098.00    0.93327   0.58283    0.000
 4099.00    1.00298   0.53940    0.000
 4100.00    1.06875   0.49517    0.000
 4101.00    1.12279   0.45571    0.000
 4102.00    1.18566   0.42792    0.000
 4103.00    1.22648   0.41954    0.000
 4104.00    1.16716   0.43319    0.000
 4105.00    1.01247   0.46340    0.000
 4106.00    0.86358   0.50228    0.000
 4107.00    0.79332   0.54345    0.000
 4108.00    0.80592   0.58285    0.000
 4109.00    0.85576   0.61957    0.000
 4110.00    0.87936   0.65378    0.000
 4111.00    0.87171   0.68480    0.000
 4112.00    0.87844   0.71233    0.000
 4113.00    0.89967   0.73655   11.115
 4114.00    0.89735   0.75625   11.144
 4115.00    0.89797   0.77182   11.136
 4116.00    0.96855   0.78533   10.325
 4117.00    1.07354   0.79674    9.315
 4118.00    1.10586   0.80572    9.043
 4119.00    1.06479   0.81328    9.392
 4120.00    1.03525   0.81935    9.659
 4121.00    1.02452   0.82474    9.761
 4122.00    0.97787   0.83127   10.226
 4123.00    0.90831   0.83856   11.009
 4124.00    0.88042   0.84565   11.358
 4125.00    0.90788   0.85270   11.015
 4126.00    0.95581   0.85872   10.462
 4127.00    0.99423   0.86205   10.058
 4128.00    1.01074   0.86199    9.894
 4129.00    1.01182   0.85978    9.883
 4130.00    1.01363   0.85659    9.866
 4131.00    1.02395   0.85282    9.766
 4132.00    1.03722   0.85033    9.641
 4133.00    1.03267   0.85048    9.684
 4134.00    0.99532   0.85310   10.047
 4135.00    0.95053   0.85785   10.520
 4136.00    0.93433   0.86396   10.703
 4137.00    0.93672   0.86952   10.676
 4138.00    0.92327   0.87300   10.831
 4139.00    0.88283   0.87502   11.327
 4140.00    0.83479   0.87539   11.979
 4141.00    0.82635   0.87302   12.101
 4142.00    0.88856   0.86826   11.254
 4143.00    0.97858   0.86178   10.219
 4144.00    1.02910   0.85656    9.717
 4145.00    1.02380   0.85656    9.768
 4146.00    0.98605   0.86165   10.142
 4147.00    0.94971   0.86864   10.530
 4148.00    0.92825   0.87481   10.773
 4149.00    0.88585   0.87890   11.289
 4150.00    0.79448   0.88041   12.587
 4151.00    0.69846   0.87977   14.317
 4152.00    0.65314   0.87813   15.311
 4153.00    0.65304   0.87542   15.313
 4154.00    0.66915   0.87209   14.944
 4155.00    0.69490   0.86951   14.391
 4156.00    0.73620   0.86795   13.583
 4157.00    0.79763   0.86788   12.537
 4158.00    0.88739   0.86981   11.269
 4159.00    1.01900   0.87337    9.814
 4160.00    1.17042   0.87749    8.544
 4161.00    1.25758   0.88072   -1.000
 4162.00    1.23027   0.88192   -1.000
 4163.00    1.14569   0.88062    8.728
 4164.00    1.07241   0.87779    9.325
 4165.00    1.01335   0.87447    9.868
 4166.00    0.96055   0.87097   10.411
 4167.00    0.93708   0.86870   10.671
 4168.00    0.95613   0.86807   10.459
 4169.00    0.99345   0.86773   10.066
 4170.00    1.02418   0.86711    9.764
 4171.00    1.04846   0.86489    9.538
 4172.00    1.07978   0.85989    9.261
 4173.00    1.13069   0.85421    8.844
 4174.00    1.17927   0.85103   -1.000
 4175.00    1.16177   0.85075   -1.000
 4176.00    1.05633   0.85264    9.467
 4177.00    0.92216   0.85573   10.844
 4178.00    0.82645   0.85739   12.100
 4179.00    0.79893   0.85786   12.517
 4180.00    0.82546   0.85956   12.114
 4181.00    0.85729   0.86179   11.665
 4182.00    0.87095   0.86278   11.482
 4183.00    0.88852   0.86296   11.255
 4184.00    0.92146   0.86273   10.852
 4185.00    0.95090   0.86161   10.516
 4186.00    0.96955   0.86000   10.314
 4187.00    0.99216   0.85807   10.079
 4188.00    1.01093   0.85616    9.892
 4189.00    0.99187   0.85550   10.082
 4190.00    0.94448   0.85636   10.588
 4191.00    0.92423   0.85840   10.820
 4192.00    0.92292   0.86033   10.835
 4193.00    0.86442   0.86128   11.568
 4194.00    0.75846   0.86166   13.185
 4195.00    0.71436   0.86119   13.999
 4196.00    0.77428   0.85910   12.915
 4197.00    0.87879   0.85549   11.379
 4198.00    0.96349   0.85065   10.379
 4199.00    0.99548   0.84515   10.045
 4200.00    0.97726   0.84105   10.233
 4201.00    0.93665   0.83877   10.676
 4202.00    0.89355   0.83754   11.191
 4203.00    0.85764   0.83772   11.660
 4204.00    0.85272   0.83913   11.727
 4205.00    0.90127   0.84096   11.095
 4206.00    0.96289   0.84334   10.385
 4207.00    0.96167   0.84640   10.399
 4208.00    0.90344   0.84953   11.069
 4209.00    0.85993   0.85250   11.629
 4210.00    0.85017   0.85517   11.762
 4211.00    0.84619   0.85726   11.818
 4212.00    0.85924   0.85873   11.638
 4213.00    0.92089   0.85821   10.859
 4214.00    0.99396   0.85510   10.061
 4215.00    1.01455   0.85021    9.857
 4216.00    1.02383   0.84478    9.767
 4217.00    1.10736   0.84169    9.030
 4218.00    1.21519   0.84252   -1.000
 4219.00    1.22709   0.84653   -1.000
 4220.00    1.14985   0.85202    8.697
 4221.00    1.07637   0.85533    9.290
 4222.00    1.03764   0.85483    9.637
 4223.00    1.00946   0.84990    9.906
 4224.00    0.97428   0.83996   10.264
 4225.00    0.93070   0.82606   10.745
 4226.00    0.89020   0.81204   11.233
 4227.00    0.86743   0.80236   11.528
 4228.00    0.86600   0.80046   11.547
 4229.00    0.88220   0.80633   11.335
 4230.00    0.91369   0.81585   10.945
 4231.00    0.95207   0.82450   10.503
 4232.00    0.97211   0.82995   10.287
 4233.00    0.96016   0.83116   10.415
 4234.00    0.95239   0.82915   10.500
 4235.00    0.98512   0.82720   10.151
 4236.00    1.02669   0.82658    9.740
 4237.00    1.02881   0.82627    9.720
 4238.00    0.99944   0.82745   10.006
 4239.00    0.97423   0.83000   10.265
 4240.00    0.97128   0.83243   10.296
 4241.00    0.98112   0.83469   10.192
 4242.00    0.96500   0.83609   10.363
 4243.00    0.90019   0.83637   11.109
 4244.00    0.82516   0.83664   12.119
 4245.00    0.79304   0.83659   12.610
 4246.00    0.81887   0.83420   12.212
 4247.00    0.87847   0.82852   11.383
 4248.00    0.91759   0.82127   10.898
 4249.00    0.90986   0.81484   10.991
 4250.00    0.90109   0.81047   11.098
 4251.00    0.92379   0.80932   10.825
 4252.00    0.92783   0.81157   10.778
 4253.00    0.87183   0.81524   11.470
 4254.00    0.79586   0.81820   12.565
 4255.00    0.74167   0.81948   13.483
 4256.00    0.69172   0.81990   14.457
 4257.00    0.63081   0.82063   15.853
 4258.00    0.58768   0.82094   -1.000
 4259.00    0.56616   0.81905   -1.000
 4260.00    0.50819   0.81555   -1.000
 4261.00    0.40304   0.81244   -1.000
 4262.00    0.34375   0.81112   -1.000
 4263.00    0.38453   0.81316   -1.000
 4264.00    0.46519   0.81795   -1.000
 4265.00    0.54869   0.82243   -1.000
 4266.00    0.68698   0.82469   14.556
 4267.00    0.87724   0.82395   11.399
 4268.00    1.00413   0.81958    9.959
 4269.00    1.01671   0.81263    9.836
 4270.00    1.00177   0.80493    9.982
 4271.00    1.02294   0.79759    9.776
 4272.00    1.04715   0.79176    9.550
 4273.00    1.02952   0.78952    9.713
 4274.00    0.96048   0.79132   10.411
 4275.00    0.87012   0.79551   11.493
 4276.00    0.81493   0.80131   12.271
 4277.00    0.81228   0.80759   12.311
 4278.00    0.82887   0.81192   12.065
 4279.00    0.86310   0.81257   11.586
 4280.00    0.95576   0.81022   10.463
 4281.00    1.08155   0.80716    9.246
 4282.00    1.14140   0.80442   -1.000
 4283.00    1.11263   0.80209    8.988
 4284.00    1.07041   0.80061    9.342
 4285.00    1.04173   0.79882    9.599
 4286.00    0.98319   0.79510   10.171
 4287.00    0.90222   0.79003   11.084
 4288.00    0.86355   0.78441   11.580
 4289.00    0.86239   0.77850   11.596
 4290.00    0.82308   0.77291   12.150
 4291.00    0.73375   0.76914   13.629
 4292.00    0.65739   0.76880   15.212
 4293.00    0.63022   0.77103   15.868
 4294.00    0.64417   0.77308   15.524
 4295.00    0.68973   0.77281   14.498
 4296.00    0.76158   0.76962   13.131
 4297.00    0.83901   0.76390   11.919
 4298.00    0.88836   0.75629   11.257
 4299.00    0.88376   0.74739   11.315
 4300.00    0.82420   0.73843   12.133
 4301.00    0.75969   0.73227   13.163
 4302.00    0.75006   0.73057   13.332
 4303.00    0.75654   0.73178   -2.000
 4304.00    0.69543   0.73477   -2.000
 4305.00    0.61168   0.73790   -2.000
 4306.00    0.62132   0.73864   -2.000
 4307.00    0.70834   0.73638   -2.000
 4308.00    0.76794   0.73180   -2.000
 4309.00    0.78091   0.72690   -2.000
 4310.00    0.79277   0.72400   -2.000
 4311.00    0.80575   0.72349   -2.000
 4312.00    0.78732   0.72552   -2.000
 4313.00    0.72470   0.73068   -2.000
 4314.00    0.63719   0.73855   -2.000
 4315.00    0.57775   0.74874   -2.000
 4316.00    0.59293   0.76087   -2.000
 4317.00    0.65875   0.77233   -2.000
 4318.00    0.71626   0.77999   -2.000
 4319.00    0.74380   0.78168   13.444
 4320.00    0.75716   0.77723   13.207
 4321.00    0.79101   0.76776   12.642
 4322.00    0.86551   0.75489   11.554
 4323.00    0.94511   0.73992   10.581
 4324.00    0.97349   0.72367   10.272
 4325.00    0.92911   0.70792   10.763
 4326.00    0.83457   0.69467   11.982
 4327.00    0.75533   0.68575   13.239
 4328.00    0.74352   0.68140   13.450
 4329.00    0.77337   0.67865   12.930
 4330.00    0.79327   0.67379    0.000
 4331.00    0.79423   0.66507    0.000
 4332.00    0.79229   0.65208    0.000
 4333.00    0.79981   0.63469    0.000
 4334.00    0.81848   0.61310    0.000
 4335.00    0.83689   0.58718    0.000
 4336.00    0.85252   0.55633    0.000
 4337.00    0.89171   0.52001    0.000
 4338.00    0.98463   0.47987    0.000
 4339.00    1.13676   0.44106    0.000
 4340.00    1.30464   0.40958    0.000
 4341.00    1.38670   0.39110    0.000
 4342.00    1.32511   0.39094    0.000
 4343.00    1.18273   0.40953    0.000
 4344.00    1.03049   0.44097    0.000
 4345.00    0.86051   0.47804    0.000
 4346.00    0.68511   0.51536    0.000
 4347.00    0.60221   0.54916    0.000
 4348.00    0.65493   0.57766    0.000
 4349.00    0.74183   0.60082    0.000
 4350.00    0.76582   0.61875    0.000
 4351.00    0.73563   0.63186   13.594
 4352.00    0.69265   0.64228   14.437
 4353.00    0.65949   0.65326   15.163
 4354.00    0.65945   0.66726   15.164
 4355.00    0.72212   0.68333   13.848
 4356.00    0.82790   0.69873   12.079
 4357.00    0.89223   0.71203   11.208
 4358.00    0.87627   0.72233   11.412
 4359.00    0.83417   0.72993   11.988
 4360.00    0.80738   0.73643   12.386
 4361.00    0.77831   0.74308   12.848
 4362.00    0.74793   0.74942   13.370
 4363.00    0.76157   0.75490   13.131
 4364.00    0.82372   0.75935   12.140
 4365.00    0.87332   0.76285   11.450
 4366.00    0.87531   0.76533   11.425
 4367.00    0.85289   0.76626   11.725
 4368.00    0.82946   0.76579   12.056
 4369.00    0.80603   0.76457   12.406
 4370.00    0.78325   0.76349   12.767
 4371.00    0.76728   0.76254   13.033
 4372.00    0.75341   0.76126   13.273
 4373.00    0.72791   0.75929   13.738
 4374.00    0.70113   0.75705   14.263
 4375.00    0.70492   0.75549   14.186
 4376.00    0.73607   0.75575   13.586
 4377.00    0.75273   0.75880   13.285
 4378.00    0.73575   0.76384   13.592
 4379.00    0.70024   0.76811   14.281
 4380.00    0.66038   0.76913   15.143
 4381.00    0.62503   0.76554   15.999
 4382.00    0.62166   0.75718   16.086
 4383.00    0.67889   0.74570   14.730
 4384.00    0.75331   0.73462   13.275
 4385.00    0.75742   0.72809   13.203
 4386.00    0.69903   0.72821   14.306
 4387.00    0.67194   0.73331   14.882
 4388.00    0.72223   0.74000   13.846
 4389.00    0.82426   0.74608   12.132
 4390.00    0.91625   0.75097   10.914
 4391.00    0.93691   0.75477   10.673
 4392.00    0.88874   0.75759   11.252
 4393.00    0.82335   0.75947   12.146
 4394.00    0.77143   0.76050   12.963
 4395.00    0.73380   0.76133   13.628
 4396.00    0.69900   0.76276   14.306
 4397.00    0.65815   0.76518   15.194
 4398.00    0.62625   0.76799   15.968
 4399.00    0.62333   0.76952   16.043
 4400.00    0.62993   0.76857   15.875
 4401.00    0.61841   0.76527   16.170
 4402.00    0.62634   0.76114   15.966
 4403.00    0.71019   0.75738   14.081
 4404.00    0.83981   0.75374   11.907
 4405.00    0.93059   0.74996   10.746
 4406.00    0.93132   0.74786   10.737
 4407.00    0.84723   0.74900   11.803
 4408.00    0.74900   0.75221   13.351
 4409.00    0.71065   0.75642   14.072
 4410.00    0.71491   0.76194   13.988
 4411.00    0.70565   0.76790   14.171
 4412.00    0.68401   0.77243   14.620
 4413.00    0.67799   0.77450   14.750
 4414.00    0.68195   0.77322   14.664
 4415.00    0.68198   0.76881   14.663
 4416.00    0.69811   0.76372   14.324
 4417.00    0.74607   0.76062   13.404
 4418.00    0.78590   0.76025   12.724
 4419.00    0.77481   0.76186   12.906
 4420.00    0.73537   0.76459   13.599
 4421.00    0.71269   0.76720   14.031
 4422.00    0.71694   0.76837   13.948
 4423.00    0.73304   0.76790   13.642
 4424.00    0.73950   0.76723   13.523
 4425.00    0.72207   0.76685   13.849
 4426.00    0.68575   0.76603   14.583
 4427.00    0.65133   0.76459   15.353
 4428.00    0.64792   0.76329   15.434
 4429.00    0.68349   0.76329   14.631
 4430.00    0.72263   0.76421   13.838
 4431.00    0.73478   0.76459   13.610
 4432.00    0.73497   0.76400   13.606
 4433.00    0.74241   0.76228   13.470
 4434.00    0.74509   0.75889   13.421
 4435.00    0.72604   0.75446   13.773
 4436.00    0.68662   0.75117   14.564
 4437.00    0.64260   0.75084   15.562
 4438.00    0.61791   0.75350   16.184
 4439.00    0.62978   0.75760   15.879
 4440.00    0.67799   0.76099   14.749
 4441.00    0.74535   0.76205   13.417
 4442.00    0.80122   0.76069   12.481
 4443.00    0.82048   0.75862   12.188
 4444.00    0.79788   0.75745   12.533
 4445.00    0.75824   0.75775   13.188
 4446.00    0.75183   0.75901   13.301
 4447.00    0.78953   0.75998   12.666
 4448.00    0.81848   0.75997   12.218
 4449.00    0.80889   0.75928   12.363
 4450.00    0.79371   0.75840   12.599
 4451.00    0.80446   0.75736   12.431
 4452.00    0.83693   0.75619   11.948
 4453.00    0.86490   0.75427   11.562
 4454.00    0.85787   0.75077   11.657
 4455.00    0.82753   0.74616   12.084
 4456.00    0.82949   0.74222   12.056
 4457.00    0.86538   0.74037   11.556
 4458.00    0.86256   0.73980   11.593
 4459.00    0.79113   0.73943   12.640
 4460.00    0.69925   0.73889   14.301
 4461.00    0.63573   0.73822    0.000
 4462.00    0.61889   0.73763    0.000
 4463.00    0.64965   0.73766    0.000
 4464.00    0.71448   0.73908    0.000
 4465.00    0.77550   0.74152    0.000
 4466.00    0.78420   0.74342    0.000
 4467.00    0.74283   0.74355    0.000
 4468.00    0.70228   0.74177    0.000
 4469.00    0.67835   0.73889    0.000
 4470.00    0.64830   0.73636    0.000
 4471.00    0.63482   0.73552    0.000
 4472.00    0.69588   0.73760    0.000
 4473.00    0.80888   0.74271    0.000
 4474.00    0.88100   0.74929    0.000
 4475.00    0.88562   0.75548    0.000
 4476.00    0.86989   0.75964    0.000
 4477.00    0.86113   0.76052    0.000
 4478.00    0.84848   0.75742    0.000
 4479.00    0.80684   0.75052    0.000
 4480.00    0.72397   0.74124    0.000
 4481.00    0.64892   0.73171    0.000
 4482.00    0.65141   0.72515   15.351
 4483.00    0.69867   0.72479   14.313
 4484.00    0.69979   0.73050   14.290
 4485.00    0.67092   0.73913   14.905
 4486.00    0.69277   0.74713   14.435
 4487.00    0.73935   0.75221   13.525
 4488.00    0.72506   0.75415   13.792
 4489.00    0.67514   0.75349   14.812
 4490.00    0.67561   0.75161   14.802
 4491.00    0.70964   0.74967   14.092
 4492.00    0.70150   0.74838   14.255
 4493.00    0.65559   0.74771   15.254
 4494.00    0.62518   0.74691   15.995
 4495.00    0.61254   0.74562   16.325
 4496.00    0.59193   0.74414   16.894
 4497.00    0.57668   0.74313   17.341
 4498.00    0.59736   0.74298   16.740
 4499.00    0.64980   0.74375   15.389
 4500.00    0.70713   0.74505   14.142
 4501.00    0.75079   0.74583   13.319
 4502.00    0.77616   0.74589   12.884
 4503.00    0.79280   0.74625   12.613
 4504.00    0.80929   0.74764   12.356
 4505.00    0.81364   0.74953   12.290
 4506.00    0.79334   0.75071   12.605
 4507.00    0.76351   0.75074   13.097
 4508.00    0.74720   0.75006   13.383
 4509.00    0.74708   0.74933   13.385
 4510.00    0.75673   0.74887   13.215
 4511.00    0.77705   0.74878   12.869
 4512.00    0.80326   0.74865   12.449
 4513.00    0.81047   0.74778   12.339
 4514.00    0.78298   0.74626   12.772
 4515.00    0.74413   0.74444   13.438
 4516.00    0.71919   0.74250   13.904
 4517.00    0.69735   0.74063   14.340
 4518.00    0.66658   0.73886   15.002
 4519.00    0.64779   0.73724   15.437
 4520.00    0.66062   0.73572   15.137
 4521.00    0.69092   0.73407   14.473
 4522.00    0.71101   0.73180   14.065
 4523.00    0.70187   0.72883   14.248
 4524.00    0.66804   0.72577   14.969
 4525.00    0.64430   0.72326   15.521
 4526.00    0.65803   0.72126   15.197
 4527.00    0.70102   0.71926   14.265
 4528.00    0.74961   0.71715   13.340
 4529.00    0.78255   0.71536   12.779
 4530.00    0.78707   0.71443   12.705
 4531.00    0.76233   0.71423   13.118
 4532.00    0.71771   0.71409   13.933
 4533.00    0.67075   0.71347   14.909
 4534.00    0.64259   0.71225   15.562
 4535.00    0.65175   0.71128   15.343
 4536.00    0.69449   0.71231   14.399
 4537.00    0.73843   0.71637   13.542
 4538.00    0.75779   0.72233   13.196
 4539.00    0.75340   0.72796   13.273
 4540.00    0.74439   0.73195   13.434
 4541.00    0.75604   0.73397   13.227
 4542.00    0.78443   0.73441   12.748
 4543.00    0.78955   0.73359   12.665
 4544.00    0.75631   0.73131   13.222
 4545.00    0.71551   0.72787   13.976
 4546.00    0.69043   0.72422   14.484
 4547.00    0.67604   0.72099   14.792
 4548.00    0.66663   0.71801   15.001
 4549.00    0.66479   0.71538   15.042
 4550.00    0.66205   0.71365    0.000
 4551.00    0.63847   0.71353    0.000
 4552.00    0.59647   0.71491    0.000
 4553.00    0.56548   0.71640    0.000
 4554.00    0.56400   0.71706    0.000
 4555.00    0.58727   0.71702    0.000
 4556.00    0.61899   0.71696    0.000
 4557.00    0.64144   0.71807    0.000
 4558.00    0.65365   0.72106    0.000
 4559.00    0.67011   0.72495    0.000
 4560.00    0.69462   0.72825    0.000
 4561.00    0.71537   0.73008    0.000
 4562.00    0.71822   0.72969    0.000
 4563.00    0.69693   0.72701    0.000
 4564.00    0.66943   0.72301    0.000
 4565.00    0.66598   0.71954    0.000
 4566.00    0.68152   0.71837    0.000
 4567.00    0.68168   0.71958    0.000
 4568.00    0.65718   0.72181    0.000
 4569.00    0.62938   0.72349    0.000
 4570.00    0.62431   0.72338    0.000
 4571.00    0.65620   0.72159    0.000
 4572.00    0.70547   0.71949    0.000
 4573.00    0.73530   0.71847    0.000
 4574.00    0.74235   0.71917    0.000
 4575.00    0.74669   0.72094    0.000
 4576.00    0.74318   0.72241    0.000
 4577.00    0.71243   0.72263    0.000
 4578.00    0.66672   0.72138    0.000
 4579.00    0.64137   0.71897    0.000
 4580.00    0.65711   0.71626    0.000
 4581.00    0.71239   0.71422    0.000
 4582.00    0.78391   0.71311    0.000
 4583.00    0.83516   0.71271    0.000
 4584.00    0.83252   0.71253    0.000
 4585.00    0.76924   0.71215    0.000
 4586.00    0.69893   0.71199    0.000
 4587.00    0.68144   0.71259    0.000
 4588.00    0.68779   0.71356    0.000
 4589.00    0.65693   0.71416    0.000
 4590.00    0.60638   0.71426    0.000
 4591.00    0.59278   0.71393    0.000
 4592.00    0.62789   0.71311    0.000
 4593.00    0.68198   0.71190    0.000
 4594.00    0.70867   0.71072    0.000
 4595.00    0.68185   0.71005    0.000
 4596.00    0.63758   0.70990    0.000
 4597.00    0.62526   0.71016    0.000
 4598.00    0.64024   0.71073    0.000
 4599.00    0.65806   0.71122    0.000
 4600.00    0.68409   0.71129    0.000
 4601.00    0.72159   0.71085    0.000
 4602.00    0.73160   0.71023    0.000
 4603.00    0.68501   0.70996    0.000
 4604.00    0.62058   0.71045    0.000
 4605.00    0.59021   0.71167    0.000
 4606.00    0.59674   0.71305    0.000
 4607.00    0.61852   0.71418    0.000
 4608.00    0.64025   0.71516    0.000
 4609.00    0.65314   0.71612    0.000
 4610.00    0.65319   0.71710    0.000
 4611.00    0.65036   0.71799    0.000
 4612.00    0.67247   0.71819    0.000
 4613.00    0.72268   0.71753    0.000
 4614.00    0.75064   0.71650    0.000
 4615.00    0.72771   0.71539    0.000
 4616.00    0.70161   0.71438    0.000
 4617.00    0.71540   0.71355    0.000
 4618.00    0.74699   0.71290    0.000
 4619.00    0.76316   0.71230    0.000
 4620.00    0.76128   0.71171    0.000
 4621.00    0.75287   0.71160    0.000
 4622.00    0.74936   0.71233    0.000
 4623.00    0.75859   0.71347    0.000
 4624.00    0.78206   0.71449    0.000
 4625.00    0.80883   0.71510    0.000
 4626.00    0.81601   0.71488    0.000
 4627.00    0.79531   0.71348    0.000
 4628.00    0.76469   0.71100    0.000
 4629.00    0.74042   0.70811    0.000
 4630.00    0.72341   0.70577    0.000
 4631.00    0.71736   0.70456    0.000
 4632.00    0.73453   0.70429    0.000
 4633.00    0.77033   0.70424    0.000
 4634.00    0.79463   0.70384    0.000
 4635.00    0.77664   0.70287    0.000
 4636.00    0.70373   0.70151    0.000
 4637.00    0.60820   0.69996    0.000
 4638.00    0.56154   0.69810    0.000
 4639.00    0.59341   0.69620    0.000
 4640.00    0.66610   0.69474    0.000
 4641.00    0.72614   0.69388    0.000
 4642.00    0.73537   0.69370    0.000
 4643.00    0.70143   0.69396    0.000
 4644.00    0.67288   0.69397    0.000
 4645.00    0.67419   0.69342    0.000
 4646.00    0.68994   0.69244    0.000
 4647.00    0.70192   0.69105    0.000
 4648.00    0.70073   0.68975    0.000
 4649.00    0.67618   0.68924    0.000
 4650.00    0.62081   0.68954    0.000
 4651.00    0.55242   0.69031    0.000
 4652.00    0.50917   0.69113    0.000
 4653.00    0.51109   0.69159    0.000
 4654.00    0.55110   0.69144    0.000
 4655.00    0.60616   0.69092    0.000
 4656.00    0.65069   0.69059    0.000
 4657.00    0.68345   0.69111    0.000
 4658.00    0.71985   0.69279    0.000
 4659.00    0.75119   0.69513    0.000
 4660.00    0.75048   0.69737    0.000
 4661.00    0.71542   0.69874    0.000
 4662.00    0.67091   0.69854    0.000
 4663.00    0.64697   0.69668    0.000
 4664.00    0.65937   0.69363    0.000
 4665.00    0.67942   0.68992    0.000
 4666.00    0.66145   0.68626    0.000
 4667.00    0.61673   0.68307    0.000
 4668.00    0.59489   0.68061    0.000
 4669.00    0.61133   0.67957    0.000
 4670.00    0.64664   0.68038    0.000
 4671.00    0.67645   0.68255    0.000
 4672.00    0.68508   0.68517    0.000
 4673.00    0.67888   0.68740    0.000
 4674.00    0.67499   0.68881    0.000
 4675.00    0.67716   0.68977    0.000
 4676.00    0.68004   0.69069    0.000
 4677.00    0.68382   0.69136    0.000
 4678.00    0.68872   0.69118    0.000
 4679.00    0.68291   0.68973    0.000
 4680.00    0.65713   0.68713    0.000
 4681.00    0.62902   0.68425    0.000
 4682.00    0.62608   0.68212    0.000
 4683.00    0.65511   0.68132    0.000
 4684.00    0.70142   0.68163    0.000
 4685.00    0.73505   0.68231    0.000
 4686.00    0.73016   0.68282    0.000
 4687.00    0.68915   0.68283    0.000
 4688.00    0.63792   0.68236    0.000
 4689.00    0.61395   0.68202    0.000
 4690.00    0.63934   0.68218    0.000
 4691.00    0.69239   0.68264    0.000
 4692.00    0.73652   0.68340    0.000
 4693.00    0.75648   0.68471    0.000
 4694.00    0.75245   0.68643    0.000
 4695.00    0.72927   0.68810    0.000
 4696.00    0.69851   0.68921    0.000
 4697.00    0.68030   0.68912    0.000
 4698.00    0.68816   0.68734    0.000
 4699.00    0.71499   0.68408    0.000
 4700.00    0.74460   0.68035    0.000
 4701.00    0.76410   0.67716    0.000
 4702.00    0.76476   0.67478    0.000
 4703.00    0.74273   0.67328    0.000
 4704.00    0.70547   0.67264    0.000
 4705.00    0.67474   0.67263    0.000
 4706.00    0.66511   0.67272    0.000
 4707.00    0.66861   0.67232    0.000
 4708.00    0.67477   0.67139    0.000
 4709.00    0.68537   0.67075    0.000
 4710.00    0.70083   0.67110    0.000
 4711.00    0.71100   0.67243    0.000
 4712.00    0.70645   0.67435    0.000
 4713.00    0.68650   0.67602    0.000
 4714.00    0.65616   0.67675    0.000
 4715.00    0.62390   0.67667    0.000
 4716.00    0.60214   0.67632    0.000
 4717.00    0.60526   0.67616    0.000
 4718.00    0.63539   0.67628    0.000
 4719.00    0.67632   0.67638    0.000
 4720.00    0.70794   0.67640    0.000
 4721.00    0.71644   0.67680    0.000
 4722.00    0.70222   0.67762    0.000
 4723.00    0.68122   0.67835    0.000
 4724.00    0.67029   0.67869    0.000
 4725.00    0.67827   0.67824    0.000
 4726.00    0.70131   0.67639    0.000
 4727.00    0.72490   0.67326    0.000
 4728.00    0.74385   0.66952    0.000
 4729.00    0.76646   0.66609    0.000
 4730.00    0.79157   0.66397    0.000
 4731.00    0.80181   0.66369    0.000
 4732.00    0.77973   0.66489    0.000
 4733.00    0.71900   0.66695    0.000
 4734.00    0.64010   0.66918    0.000
 4735.00    0.58663   0.67091    0.000
 4736.00    0.58853   0.67172    0.000
 4737.00    0.64453   0.67145    0.000
 4738.00    0.71228   0.67050    0.000
 4739.00    0.72858   0.66984    0.000
 4740.00    0.68798   0.66986    0.000
 4741.00    0.64543   0.67026    0.000
 4742.00    0.63609   0.67093    0.000
 4743.00    0.65459   0.67181    0.000
 4744.00    0.67513   0.67298    0.000
 4745.00    0.67126   0.67422    0.000
 4746.00    0.65264   0.67508    0.000
 4747.00    0.65513   0.67568    0.000
 4748.00    0.68358   0.67621    0.000
 4749.00    0.71029   0.67653    0.000
 4750.00    0.71423   0.67663    0.000
 4751.00    0.69306   0.67650    0.000
 4752.00    0.66556   0.67596    0.000
 4753.00    0.65538   0.67476    0.000
 4754.00    0.65258   0.67278    0.000
 4755.00    0.63001   0.67017    0.000
 4756.00    0.60027   0.66730    0.000
 4757.00    0.59937   0.66466    0.000
 4758.00    0.62422   0.66255    0.000
 4759.00    0.64579   0.66110    0.000
 4760.00    0.66339   0.65993    0.000
 4761.00    0.69010   0.65798   14.491
 4762.00    0.70395   0.65486   14.205
 4763.00    0.67222   0.65103   14.876
 4764.00    0.61266   0.64733   16.322
 4765.00    0.57118   0.64490   17.507
 4766.00    0.56290   0.64429   17.765
 4767.00    0.57582   0.64552   17.366
 4768.00    0.59495   0.64796   16.808
 4769.00    0.61047   0.65048   16.381
 4770.00    0.62365   0.65253   16.035
 4771.00    0.63821   0.65374   15.669
 4772.00    0.64625   0.65375   15.474
 4773.00    0.63807   0.65308   15.672
 4774.00    0.61863   0.65254   16.165
 4775.00    0.60013   0.65253   16.663
 4776.00    0.58864   0.65288   16.988
 4777.00    0.58580   0.65309   17.071
 4778.00    0.59339   0.65272   16.852
 4779.00    0.61271   0.65166   16.321
 4780.00    0.64277   0.65040   15.558
 4781.00    0.67695   0.64949   14.772
 4782.00    0.70033   0.64899   14.279
 4783.00    0.70266   0.64849   14.232
 4784.00    0.69226   0.64775   14.445
 4785.00    0.68330   0.64670   14.635
 4786.00    0.68052   0.64569   14.695
 4787.00    0.68055   0.64508   14.694
 4788.00    0.67527   0.64507   14.809
 4789.00    0.65873   0.64581   15.181
 4790.00    0.63269   0.64702   15.806
 4791.00    0.59918   0.64846   16.689
 4792.00    0.55546   0.65020   18.003
 4793.00    0.51591   0.65223   19.383
 4794.00    0.52475   0.65430   19.057
 4795.00    0.59223   0.65606   16.885
 4796.00    0.65190   0.65687   15.340
 4797.00    0.66046   0.65629   15.141
 4798.00    0.66769   0.65437   14.977
 4799.00    0.71302   0.65158   14.025
 4800.00    0.75323   0.64886   13.276
 4801.00    0.74273   0.64707   13.464
 4802.00    0.69157   0.64640   14.460
 4803.00    0.63633   0.64646   15.715
 4804.00    0.61313   0.64646   16.310
 4805.00    0.62986   0.64576   15.877
 4806.00    0.65611   0.64462   15.241
 4807.00    0.66898   0.64328   14.948
 4808.00    0.67703   0.64192   14.770
 4809.00    0.68843   0.64044   14.526
 4810.00    0.69510   0.63863   14.386
 4811.00    0.69532   0.63680   14.382
 4812.00    0.70188   0.63558   14.247
 4813.00    0.71431   0.63503   13.999
 4814.00    0.70981   0.63521   14.088
 4815.00    0.67512   0.63616   14.812
 4816.00    0.62095   0.63741   16.104
 4817.00    0.57036   0.63854   17.533
 4818.00    0.54836   0.63919   18.236
 4819.00    0.56237   0.63907   17.782
 4820.00    0.59668   0.63812   16.759
 4821.00    0.62690   0.63629   15.952
 4822.00    0.63069   0.63396   15.856
 4823.00    0.60418   0.63169   16.551
 4824.00    0.56530   0.62948   17.690
 4825.00    0.54017   0.62756   18.513
 4826.00    0.55186   0.62657   18.121
 4827.00    0.60040   0.62645   16.656
 4828.00    0.66107   0.62646   15.127
 4829.00    0.70526   0.62632   14.179
 4830.00    0.71268   0.62586   14.032
 4831.00    0.68591   0.62498   14.579
 4832.00    0.64805   0.62389   15.431
 4833.00    0.61977   0.62263   16.135
 4834.00    0.61062   0.62119   16.377
 4835.00    0.61575   0.61966   16.240
 4836.00    0.62016   0.61781   16.125
 4837.00    0.61302   0.61524   16.313
 4838.00    0.59392   0.61174   16.837
 4839.00    0.57774   0.60722   17.309
 4840.00    0.58438   0.60228   17.112
 4841.00    0.60978   0.59755   16.399
 4842.00    0.63181   0.59359   15.828
 4843.00    0.64349   0.59076   15.540
 4844.00    0.65791   0.58864   15.200
 4845.00    0.69898   0.58634   14.307
 4846.00    0.77522   0.58295   12.900
 4847.00    0.82912   0.57788   -1.000
 4848.00    0.78272   0.57105    0.000
 4849.00    0.65528   0.56304    0.000
 4850.00    0.53375   0.55439    0.000
 4851.00    0.46384   0.54520    0.000
 4852.00    0.44635   0.53517    0.000
 4853.00    0.47376   0.52368    0.000
 4854.00    0.53415   0.51037    0.000
 4855.00    0.60627   0.49549    0.000
 4856.00    0.68188   0.47908    0.000
 4857.00    0.80350   0.46081    0.000
 4858.00    1.02451   0.44069    0.000
 4859.00    1.33357   0.41886    0.000
 4860.00    1.65960   0.39640    0.000
 4861.00    1.90157   0.37664    0.000
 4862.00    1.97707   0.36402    0.000
 4863.00    1.88538   0.36211    0.000
 4864.00    1.67639   0.37202    0.000
 4865.00    1.39461   0.39111    0.000
 4866.00    1.08508   0.41446    0.000
 4867.00    0.81012   0.43794    0.000
 4868.00    0.62419   0.45911    0.000
 4869.00    0.53926   0.47673    0.000
 4870.00    0.53506   0.49084    0.000
 4871.00    0.57728   0.50238    0.000
 4872.00    0.62634   0.51244    0.000
 4873.00    0.64648   0.52200    0.000
 4874.00    0.62314   0.53172    0.000
 4875.00    0.57876   0.54149   17.278
 4876.00    0.54332   0.55075   18.405
 4877.00    0.52322   0.55907   19.112
 4878.00    0.52154   0.56627   19.174
 4879.00    0.55785   0.57227   17.926
 4880.00    0.63171   0.57692   15.830
 4881.00    0.69241   0.58040   14.442
 4882.00    0.70315   0.58308   14.222
 4883.00    0.69514   0.58549   14.385
 4884.00    0.70155   0.58800   14.254
 4885.00    0.70196   0.59063   14.246
 4886.00    0.67390   0.59313   14.839
 4887.00    0.63446   0.59506   15.762
 4888.00    0.60126   0.59619   16.632
 4889.00    0.56354   0.59653   17.745
 4890.00    0.51438   0.59642   19.441
 4891.00    0.47241   0.59654   21.168
 4892.00    0.45133   0.59768   22.157
 4893.00    0.44111   0.60036   -1.000
 4894.00    0.43640   0.60462   -1.000
 4895.00    0.45202   0.60962   -1.000
 4896.00    0.49247   0.61414   20.306
 4897.00    0.53636   0.61746   18.644
 4898.00    0.56664   0.61921   17.648
 4899.00    0.58648   0.61952   17.051
 4900.00    0.59949   0.61899   16.681
 4901.00    0.60134   0.61809   16.630
 4902.00    0.60032   0.61713   16.658
 4903.00    0.62110   0.61626   16.100
 4904.00    0.66327   0.61569   15.077
 4905.00    0.68935   0.61564   14.506
 4906.00    0.67597   0.61608   14.794
 4907.00    0.63635   0.61647   15.715
 4908.00    0.60148   0.61618   16.626
 4909.00    0.60323   0.61505   16.577
 4910.00    0.64241   0.61332   15.566
 4911.00    0.68391   0.61172   14.622
 4912.00    0.69759   0.61102   14.335
 4913.00    0.67535   0.61132   14.807
 4914.00    0.62639   0.61211   15.964
 4915.00    0.57207   0.61263   17.480
 4916.00    0.53460   0.61218   18.706
 4917.00    0.52887   0.61048   18.908
 4918.00    0.54950   0.60745   18.198
 4919.00    0.57240   0.60355   17.470
 4920.00    0.57690   0.59953   17.334
 4921.00    0.55780   0.59634   17.928
 4922.00    0.53821   0.59487   18.580
 4923.00    0.55531   0.59528   18.008
 4924.00    0.60414   0.59722   16.552
 4925.00    0.64055   0.60022   15.612
 4926.00    0.64317   0.60383   15.548
 4927.00    0.62240   0.60762   16.067
 4928.00    0.59184   0.61116   16.897
 4929.00    0.55974   0.61397   17.866
 4930.00    0.52922   0.61556   18.896
 4931.00    0.50418   0.61564   19.834
 4932.00    0.50321   0.61421   19.873
 4933.00    0.54681   0.61155   18.288
 4934.00    0.61858   0.60825   16.166
 4935.00    0.67487   0.60503   14.818
 4936.00    0.68866   0.60244   14.521
 4937.00    0.65968   0.60055   15.159
 4938.00    0.61284   0.59918   16.317
 4939.00    0.58190   0.59840   17.185
 4940.00    0.57715   0.59880    0.000
 4941.00    0.58809   0.60082    0.000
 4942.00    0.60252   0.60419    0.000
 4943.00    0.61268   0.60800    0.000
 4944.00    0.61913   0.61121    0.000
 4945.00    0.62611   0.61334    0.000
 4946.00    0.63205   0.61464    0.000
 4947.00    0.63050   0.61550    0.000
 4948.00    0.61501   0.61625    0.000
 4949.00    0.58523   0.61699    0.000
 4950.00    0.55492   0.61739    0.000
 4951.00    0.54285   0.61712    0.000
 4952.00    0.55718   0.61595    0.000
 4953.00    0.60092   0.61377    0.000
 4954.00    0.68273   0.61059    0.000
 4955.00    0.80597   0.60653    0.000
 4956.00    0.95219   0.60211    0.000
 4957.00    1.09545   0.59794    0.000
 4958.00    1.22315   0.59478    0.000
 4959.00    1.32108   0.59355    0.000
 4960.00    1.35328   0.59455    0.000
 4961.00    1.29088   0.59720    0.000
 4962.00    1.14880   0.59998    0.000
 4963.00    0.97368   0.60137    0.000
 4964.00    0.82262   0.60114    0.000
 4965.00    0.73300   0.59982    0.000
 4966.00    0.69483   0.59791    0.000
 4967.00    0.68230   0.59600    0.000
 4968.00    0.68804   0.59473    0.000
 4969.00    0.70439   0.59462    0.000
 4970.00    0.70447   0.59563    0.000
 4971.00    0.67246   0.59737    0.000
 4972.00    0.63059   0.59938    0.000
 4973.00    0.60805   0.60108    0.000
 4974.00    0.61109   0.60203    0.000
 4975.00    0.62391   0.60218    0.000
 4976.00    0.61571   0.60158    0.000
 4977.00    0.57704   0.60029    0.000
 4978.00    0.54299   0.59826    0.000
 4979.00    0.54540   0.59549    0.000
 4980.00    0.57673   0.59201    0.000
 4981.00    0.60889   0.58783    0.000
 4982.00    0.61317   0.58330    0.000
 4983.00    0.58982   0.57909    0.000
 4984.00    0.57917   0.57608    0.000
 4985.00    0.60226   0.57513    0.000
 4986.00    0.62883   0.57657    0.000
 4987.00    0.63168   0.57986    0.000
 4988.00    0.61818   0.58385    0.000
 4989.00    0.60315   0.58738    0.000
 4990.00    0.59220   0.58958    0.000
 4991.00    0.58675   0.59014    0.000
 4992.00    0.58725   0.58954    0.000
 4993.00    0.59237   0.58873    0.000
 4994.00    0.59855   0.58847    0.000
 4995.00    0.60078   0.58911    0.000
 4996.00    0.59432   0.59026    0.000
 4997.00    0.58083   0.59116    0.000
 4998.00    0.56971   0.59114    0.000
 4999.00    0.57030   0.58994    0.000
 5000.00    0.59240   0.58787    0.000
 5001.00    0.66514   0.58547    0.000
 5002.00    0.83723   0.58322    0.000
 5003.00    1.14327   0.58137    0.000
 5004.00    1.58339   0.57978    0.000
 5005.00    2.10168   0.57826    0.000
 5006.00    2.58823   0.57700    0.000
 5007.00    2.91917   0.57641    0.000
 5008.00    2.98849   0.57665    0.000
 5009.00    2.76390   0.57757    0.000
 5010.00    2.30334   0.57836    0.000
 5011.00    1.73948   0.57798    0.000
 5012.00    1.23973   0.57602    0.000
 5013.00    0.89907   0.57284    0.000
 5014.00    0.71799   0.56930    0.000
 5015.00    0.64549   0.56621    0.000
 5016.00    0.61253   0.56404    0.000
 5017.00    0.58711   0.56290    0.000
 5018.00    0.57675   0.56258    0.000
 5019.00    0.58993   0.56293    0.000
 5020.00    0.62137   0.56400    0.000
 5021.00    0.64389   0.56578    0.000
 5022.00    0.62638   0.56812    0.000
 5023.00    0.58253   0.57069    0.000
 5024.00    0.55529   0.57303    0.000
 5025.00    0.55135   0.57477    0.000
 5026.00    0.54781   0.57582    0.000
 5027.00    0.54298   0.57620    0.000
 5028.00    0.55126   0.57614    0.000
 5029.00    0.56734   0.57618   17.626
 5030.00    0.57490   0.57675   17.394
 5031.00    0.57956   0.57797   17.254
 5032.00    0.59695   0.57949   16.752
 5033.00    0.61707   0.58055   16.206
 5034.00    0.61700   0.58052   16.207
 5035.00    0.59667   0.57913   16.760
 5036.00    0.57325   0.57647   17.444
 5037.00    0.55944   0.57290   17.875
 5038.00    0.55864   0.56891   17.901
 5039.00    0.56368   0.56496   17.740
 5040.00    0.56209   0.56155   17.791
 5041.00    0.54515   0.55930   18.343
 5042.00    0.51763   0.55897   19.319
 5043.00    0.50842   0.56107   19.669
 5044.00    0.54011   0.56525   18.515
 5045.00    0.58534   0.57038   17.084
 5046.00    0.60464   0.57493   16.539
 5047.00    0.60446   0.57768   16.544
 5048.00    0.60706   0.57829   16.473
 5049.00    0.60305   0.57721   16.582
 5050.00    0.57584   0.57524   17.366
 5051.00    0.53825   0.57325   18.579
 5052.00    0.51458   0.57185   19.433
 5053.00    0.51441   0.57128   19.440
 5054.00    0.53329   0.57140   18.752
 5055.00    0.55747   0.57194   17.938
 5056.00    0.57109   0.57275   17.511
 5057.00    0.56412   0.57365   17.727
 5058.00    0.54205   0.57455   18.449
 5059.00    0.53198   0.57540   18.798
 5060.00    0.55167   0.57601   18.127
 5061.00    0.58155   0.57614   17.195
 5062.00    0.59159   0.57560   16.904
 5063.00    0.56907   0.57434   17.572
 5064.00    0.52301   0.57249   19.120
 5065.00    0.48299   0.57034   20.704
 5066.00    0.47361   0.56833   21.115
 5067.00    0.49412   0.56680   20.238
 5068.00    0.52846   0.56588   18.923
 5069.00    0.55677   0.56545   17.961
 5070.00    0.57243   0.56525   17.469
 5071.00    0.59074   0.56514   16.928
 5072.00    0.62050   0.56511   16.116
 5073.00    0.64657   0.56515   15.466
 5074.00    0.65509   0.56515   15.265
 5075.00    0.64964   0.56501   15.393
 5076.00    0.63668   0.56466   15.706
 5077.00    0.61692   0.56401   16.210
 5078.00    0.59559   0.56291   16.790
 5079.00    0.58594   0.56136   17.067
 5080.00    0.59000   0.55962   16.949
 5081.00    0.59095   0.55819   16.922
 5082.00    0.57551   0.55762   17.376
 5083.00    0.54668   0.55828   18.292
 5084.00    0.52213   0.56011   19.152
 5085.00    0.52659   0.56257   18.990
 5086.00    0.56030   0.56497   17.848
 5087.00    0.59229   0.56685   16.884
 5088.00    0.60578   0.56800   16.508
 5089.00    0.61262   0.56856   16.323
 5090.00    0.61612   0.56881   16.230
 5091.00    0.60186   0.56904   16.615
 5092.00    0.57316   0.56934   17.447
 5093.00    0.55650   0.56957   17.969
 5094.00    0.55850   0.56935   17.905
 5095.00    0.55753   0.56824   17.936
 5096.00    0.54259   0.56606   18.430
 5097.00    0.52493   0.56298   19.050
 5098.00    0.52196   0.55953   19.159
 5099.00    0.54636   0.55643   18.303
 5100.00    0.59063   0.55429   16.931
 5101.00    0.62930   0.55335   15.891
 5102.00    0.64469   0.55338   15.511
 5103.00    0.63568   0.55394   15.731
 5104.00    0.61685   0.55455   16.211
 5105.00    0.60871   0.55480   16.428
 5106.00    0.61036   0.55451   16.384
 5107.00    0.60282   0.55374   16.589
 5108.00    0.58230   0.55281   17.173
 5109.00    0.56130   0.55220   17.816
 5110.00    0.54504   0.55224   18.347
 5111.00    0.53153   0.55316   18.814
 5112.00    0.52889   0.55485   18.907
 5113.00    0.54964   0.55686   18.194
 5114.00    0.58571   0.55874   17.073
 5115.00    0.61472   0.56035   16.268
 5116.00    0.62852   0.56166   15.910
 5117.00    0.63283   0.56267   15.802
 5118.00    0.63100   0.56332   15.848
 5119.00    0.62326   0.56339   16.045
 5120.00    0.61296   0.56263   16.314
 5121.00    0.60257   0.56095   16.596
 5122.00    0.58360   0.55852   17.135
 5123.00    0.54803   0.55574   18.247
 5124.00    0.51305   0.55307   19.491
 5125.00    0.50415   0.55088   19.836
 5126.00    0.51654   0.54936   19.360
 5127.00    0.52626   0.54848   19.002
 5128.00    0.52128   0.54798   19.184
 5129.00    0.50442   0.54765   19.825
 5130.00    0.48864   0.54735   20.465
 5131.00    0.48671   0.54708   20.546
 5132.00    0.49695   0.54693   20.123
 5133.00    0.51111   0.54697   19.565
 5134.00    0.52900   0.54720   18.903
 5135.00    0.55222   0.54751   18.109
 5136.00    0.57260   0.54762   17.464
 5137.00    0.57951   0.54728   17.256
 5138.00    0.57157   0.54636   17.496
 5139.00    0.55487   0.54497   18.022
 5140.00    0.53824   0.54339   18.579
 5141.00    0.52850   0.54194   18.921
 5142.00    0.52560   0.54081   19.026
 5143.00    0.52509   0.54003   19.044
 5144.00    0.52195   0.53962   19.159
 5145.00    0.51442   0.53949   19.439
 5146.00    0.50736   0.53954   19.710
 5147.00    0.50860   0.53966   19.662
 5148.00    0.52391   0.53976   19.087
 5149.00    0.54834   0.53974   18.237
 5150.00    0.56064   0.53950   17.837
 5151.00    0.55047   0.53901   18.166
 5152.00    0.54102   0.53831   18.484
 5153.00    0.55168   0.53767   18.126
 5154.00    0.56555   0.53758   17.682
 5155.00    0.56146   0.53843   17.811
 5156.00    0.54232   0.54041   18.439
 5157.00    0.51894   0.54323   19.270
 5158.00    0.49586   0.54625   20.167
 5159.00    0.48015   0.54875   20.827
 5160.00    0.48677   0.55022   20.544
 5161.00    0.51996   0.55040   19.232
 5162.00    0.56168   0.54918   17.804
 5163.00    0.59025   0.54640   16.942
 5164.00    0.59489   0.54176   16.810
 5165.00    0.57912   0.53506   17.268
 5166.00    0.56044   0.52656   17.843
 5167.00    0.55698   0.51722   17.954
 5168.00    0.57708   0.50847   17.329
 5169.00    0.61008   0.50150   16.391
 5170.00    0.62672   0.49680   15.956
 5171.00    0.61303   0.49418   16.312
 5172.00    0.58488   0.49341   17.098
 5173.00    0.55807   0.49466   17.919
 5174.00    0.53368   0.49828   18.738
 5175.00    0.51157   0.50420   19.548
 5176.00    0.49569   0.51152   20.174
 5177.00    0.48349   0.51866   20.683
 5178.00    0.46517   0.52397   21.497
 5179.00    0.44613   0.52624   22.415
 5180.00    0.44886   0.52491   22.279
 5181.00    0.47350   0.52025   21.119
 5182.00    0.49048   0.51338   20.388
 5183.00    0.48636   0.50617   20.561
 5184.00    0.47702   0.50087   20.963
 5185.00    0.47932   0.49935   20.863
 5186.00    0.49877   0.50214   20.049
 5187.00    0.52909   0.50813   18.900
 5188.00    0.55548   0.51529   18.003
 5189.00    0.56644   0.52160   17.654
 5190.00    0.55983   0.52583    0.000
 5191.00    0.54794   0.52774    0.000
 5192.00    0.55046   0.52788    0.000
 5193.00    0.56651   0.52721    0.000
 5194.00    0.57658   0.52666    0.000
 5195.00    0.57744   0.52682    0.000
 5196.00    0.58207   0.52788    0.000
 5197.00    0.58639   0.52967    0.000
 5198.00    0.57220   0.53181    0.000
 5199.00    0.54320   0.53384    0.000
 5200.00    0.52287   0.53534    0.000
 5201.00    0.52079   0.53595    0.000
 5202.00    0.52870   0.53538    0.000
 5203.00    0.53430   0.53348    0.000
 5204.00    0.53062   0.53037    0.000
 5205.00    0.52907   0.52649    0.000
 5206.00    0.54597   0.52249    0.000
 5207.00    0.56588   0.51904    0.000
 5208.00    0.55851   0.51674    0.000
 5209.00    0.53335   0.51598    0.000
 5210.00    0.52565   0.51693    0.000
 5211.00    0.54270   0.51941   18.426
 5212.00    0.56686   0.52288   17.641
 5213.00    0.58391   0.52658   17.126
 5214.00    0.58687   0.52973   17.040
 5215.00    0.57251   0.53190   17.467
 5216.00    0.54535   0.53316   18.337
 5217.00    0.52505   0.53403   19.046
 5218.00    0.52861   0.53510   18.918
 5219.00    0.53915   0.53667   18.548
 5220.00    0.52782   0.53854   18.946
 5221.00    0.49679   0.54006   20.129
 5222.00    0.47098   0.54040   21.232
 5223.00    0.47404   0.53890   21.095
 5224.00    0.51279   0.53543   19.501
 5225.00    0.56142   0.53052   17.812
 5226.00    0.58529   0.52529   17.085
 5227.00    0.57648   0.52106   17.347
 5228.00    0.54721   0.51884   18.274
 5229.00    0.51454   0.51893   19.435
 5230.00    0.49641   0.52077   20.145
 5231.00    0.50834   0.52326   19.672
 5232.00    0.55148   0.52540   18.133
 5233.00    0.60039   0.52671   16.656
 5234.00    0.62607   0.52743   15.973
 5235.00    0.62325   0.52822   16.045
 5236.00    0.60469   0.52964   16.537
 5237.00    0.59029   0.53174   16.941
 5238.00    0.59122   0.53411   16.914
 5239.00    0.59617   0.53618   16.774
 5240.00    0.58977   0.53758   16.956
 5241.00    0.57164   0.53828   17.493
 5242.00    0.55254   0.53846   18.098
 5243.00    0.54720   0.53825   18.275
 5244.00    0.55762   0.53766   17.933
 5245.00    0.56205   0.53652   17.792
 5246.00    0.54739   0.53474   18.268
 5247.00    0.53326   0.53241   18.752
 5248.00    0.53402   0.52984   18.726
 5249.00    0.53116   0.52747   18.827
 5250.00    0.51154   0.52563   19.549
 5251.00    0.49413   0.52447   20.237
 5252.00    0.49692   0.52399   20.124
 5253.00    0.51343   0.52413   19.477
 5254.00    0.52935   0.52484   18.891
 5255.00    0.53583   0.52605   18.663
 5256.00    0.53329   0.52768   18.751
 5257.00    0.53068   0.52948   18.844
 5258.00    0.52834   0.53101   18.927
 5259.00    0.51196   0.53164   19.533
 5260.00    0.48245   0.53075   20.727
 5261.00    0.46681   0.52802   21.422
 5262.00    0.47549   0.52358   21.031
 5263.00    0.48444   0.51807   20.642
 5264.00    0.47344   0.51243   21.122
 5265.00    0.44665   0.50757   22.389
 5266.00    0.42644   0.50402   23.450
 5267.00    0.44162   0.50175   22.644
 5268.00    0.48877   0.50032   20.459
 5269.00    0.52608   0.49934   19.009
 5270.00    0.53246   0.49888   18.781
 5271.00    0.52618   0.49941   19.005
 5272.00    0.52195   0.50136   19.159
 5273.00    0.51662   0.50465   19.356
 5274.00    0.51150   0.50871   19.550
 5275.00    0.51759   0.51286   19.320
 5276.00    0.53785   0.51672   18.593
 5277.00    0.56340   0.52019   17.749
 5278.00    0.58702   0.52325   17.035
 5279.00    0.60586   0.52567   16.506
 5280.00    0.61229   0.52710   16.332
 5281.00    0.59620   0.52734   16.773
 5282.00    0.56358   0.52659   17.744
 5283.00    0.53474   0.52545   18.701
 5284.00    0.51779   0.52466   19.313
 5285.00    0.50551   0.52481   19.782
 5286.00    0.49260   0.52601   20.300
 5287.00    0.47914   0.52793   20.871
 5288.00    0.46438   0.53000   21.534
 5289.00    0.44765   0.53172   22.339
 5290.00    0.43582   0.53285   22.945
 5291.00    0.43981   0.53338   22.737
 5292.00    0.46036   0.53339   21.722
 5293.00    0.48948   0.53288   20.430
 5294.00    0.52367   0.53174   19.096
 5295.00    0.56123   0.52981   17.818
 5296.00    0.58832   0.52710   16.998
 5297.00    0.58786   0.52389   17.011
 5298.00    0.56669   0.52076   17.646
 5299.00    0.54861   0.51837   18.228
 5300.00    0.54640   0.51720   18.302
 5301.00    0.55982   0.51738   17.863
 5302.00    0.58412   0.51875   17.120
 5303.00    0.61086   0.52090   16.370
 5304.00    0.62628   0.52332   15.967
 5305.00    0.61928   0.52540   16.148
 5306.00    0.59604   0.52668   16.777
 5307.00    0.57216   0.52698   17.477
 5308.00    0.55426   0.52651   18.042
 5309.00    0.54035   0.52571   18.507
 5310.00    0.52612   0.52499   19.007
 5311.00    0.50816   0.52447   19.679
 5312.00    0.48738   0.52394   20.518
 5313.00    0.46932   0.52313   21.307
 5314.00    0.46323   0.52190   21.588
 5315.00    0.47510   0.52038   21.048
 5316.00    0.49829   0.51889   20.069
 5317.00    0.52041   0.51782   19.216
 5318.00    0.53448   0.51739   18.710
 5319.00    0.53918   0.51746   18.547
 5320.00    0.53694   0.51764   18.624
 5321.00    0.53163   0.51745   18.810
 5322.00    0.52577   0.51659   19.020
 5323.00    0.51873   0.51503   19.278
 5324.00    0.50544   0.51291   19.785
 5325.00    0.48411   0.51039   20.657
 5326.00    0.46404   0.50761   21.550
 5327.00    0.45524   0.50488   21.966
 5328.00    0.45701   0.50284   21.882
 5329.00    0.46476   0.50236   21.517
 5330.00    0.47779   0.50397   20.930
 5331.00    0.49513   0.50738   20.197
 5332.00    0.51094   0.51146   19.572
 5333.00    0.51723   0.51487   19.334
 5334.00    0.50754   0.51679   19.703
 5335.00    0.48594   0.51728   20.579
 5336.00    0.47194   0.51678   21.189
 5337.00    0.47695   0.51572   20.967
 5338.00    0.48724   0.51428   20.524
 5339.00    0.49006   0.51251   20.406
 5340.00    0.49327   0.51057   20.273
 5341.00    0.50685   0.50883   19.730
 5342.00    0.52841   0.50764   18.925
 5343.00    0.54763   0.50721   18.260
 5344.00    0.55183   0.50746   18.122
 5345.00    0.53724   0.50818   18.614
 5346.00    0.51510   0.50917   19.414
 5347.00    0.50133   0.51035   19.947
 5348.00    0.50788   0.51173   19.690
 5349.00    0.53223   0.51335   18.789
 5350.00    0.55487   0.51517   18.022
 5351.00    0.56149   0.51708   17.810
 5352.00    0.55456   0.51890   18.032
 5353.00    0.54310   0.52049   18.413
 5354.00    0.53543   0.52175   18.677
 5355.00    0.53296   0.52265   18.763
 5356.00    0.52885   0.52318   18.909
 5357.00    0.51730   0.52333   19.331
 5358.00    0.49920   0.52303   20.032
 5359.00    0.48567   0.52222   20.590
 5360.00    0.49455   0.52089   20.220
 5361.00    0.52742   0.51909   18.960
 5362.00    0.56473   0.51700   17.708
 5363.00    0.59056   0.51485   16.933
 5364.00    0.60164   0.51277   16.621
 5365.00    0.59853   0.51073   16.708
 5366.00    0.58168   0.50860   17.192
 5367.00    0.55144   0.50630   18.134
 5368.00    0.51041   0.50386   19.592
 5369.00    0.47144   0.50145   21.211
 5370.00    0.45386   0.49940   22.033
 5371.00    0.45978   0.49818   21.750
 5372.00    0.47345   0.49824   21.121
 5373.00    0.48730   0.49987   20.521
 5374.00    0.50548   0.50286   19.783
 5375.00    0.52686   0.50656   18.980
 5376.00    0.54358   0.51004   18.397
 5377.00    0.55343   0.51251   18.069
 5378.00    0.55935   0.51359   17.878
 5379.00    0.55706   0.51340   17.951
 5380.00    0.53952   0.51233   18.535
 5381.00    0.51845   0.51086   19.288
 5382.00    0.51705   0.50940   19.341
 5383.00    0.53634   0.50821   18.645
 5384.00    0.55589   0.50745   17.989
 5385.00    0.55746   0.50712   17.939
 5386.00    0.53507   0.50709   18.689
 5387.00    0.50344   0.50718   19.864
 5388.00    0.48595   0.50718   20.578
 5389.00    0.48426   0.50696   20.650
 5390.00    0.48254   0.50639   20.724
 5391.00    0.47078   0.50544   21.241
 5392.00    0.45098   0.50410   22.174
 5393.00    0.43862   0.50244   22.799
 5394.00    0.45130   0.50060   -2.000
 5395.00    0.48723   0.49879   -2.000
 5396.00    0.53083   0.49724   -2.000
 5397.00    0.57037   0.49624   -2.000
 5398.00    0.59673   0.49598   -2.000
 5399.00    0.59627   0.49646   -2.000
 5400.00    0.56096   0.49736   -2.000
 5401.00    0.50643   0.49810   -2.000
 5402.00    0.46306   0.49807   -2.000
 5403.00    0.45671   0.49693   -2.000
 5404.00    0.49317   0.49479   -2.000
 5405.00    0.54134   0.49220   -2.000
 5406.00    0.56316   0.48991   -2.000
 5407.00    0.55795   0.48847   -2.000
 5408.00    0.54624   0.48803   -2.000
 5409.00    0.53972   0.48838   18.528
 5410.00    0.54091   0.48920   18.487
 5411.00    0.54791   0.49029   18.251
 5412.00    0.55710   0.49162   17.950
 5413.00    0.56574   0.49323   17.676
 5414.00    0.57187   0.49507   17.487
 5415.00    0.57378   0.49702   17.428
 5416.00    0.56903   0.49888   17.574
 5417.00    0.55376   0.50046   18.058
 5418.00    0.52746   0.50161   18.959
 5419.00    0.49757   0.50224   20.098
 5420.00    0.47400   0.50234   21.097
 5421.00    0.46299   0.50201   21.599
 5422.00    0.46440   0.50144   21.533
 5423.00    0.47041   0.50083   21.258
 5424.00    0.47286   0.50036   21.148
 5425.00    0.47025   0.50006   21.265
 5426.00    0.46952   0.49978   21.298
 5427.00    0.48500   0.49922   20.619
 5428.00    0.51878   0.49808   19.276
 5429.00    0.54774   0.49633   18.257
 5430.00    0.54787   0.49422   18.253
 5431.00    0.51440   0.49214   19.440
 5432.00    0.46240   0.49041   21.626
 5433.00    0.42258   0.48918   23.664
 5434.00    0.41547   0.48849   24.069
 5435.00    0.43509   0.48843   22.984
 5436.00    0.46337   0.48914   21.581
 5437.00    0.48221   0.49071   20.738
 5438.00    0.48340   0.49303   20.687
 5439.00    0.47312   0.49578   21.136
 5440.00    0.46180   0.49850   21.655
 5441.00    0.45712   0.50070   21.876
 5442.00    0.46071   0.50195   21.705
 5443.00    0.46786   0.50195   21.374
 5444.00    0.47608   0.50057   21.005
 5445.00    0.48811   0.49799   20.487
 5446.00    0.50311   0.49472   19.877
 5447.00    0.51402   0.49154   19.454
 5448.00    0.51866   0.48918   19.281
 5449.00    0.52228   0.48802   19.147
 5450.00    0.52371   0.48795   19.094
 5451.00    0.51380   0.48843   19.463
 5452.00    0.49836   0.48879   20.066
 5453.00    0.50014   0.48850   19.994
 5454.00    0.52260   0.48744   19.135
 5455.00    0.54234   0.48588   18.439
 5456.00    0.54256   0.48434   18.431
 5457.00    0.52545   0.48336   19.031
 5458.00    0.50561   0.48316   19.778
 5459.00    0.50126   0.48358   19.950
 5460.00    0.51268   0.48418   19.505
 5461.00    0.52201   0.48457   19.157
 5462.00    0.51932   0.48464   19.256
 5463.00    0.50865   0.48455   19.660
 5464.00    0.49669   0.48461   20.133
 5465.00    0.48788   0.48504   20.497
 5466.00    0.48132   0.48583   20.776
 5467.00    0.47154   0.48676   21.207
 5468.00    0.45329   0.48752   22.061
 5469.00    0.42649   0.48790   23.447
 5470.00    0.40528   0.48777   24.674
 5471.00    0.40997   0.48710   24.392
 5472.00    0.43957   0.48593   22.749
 5473.00    0.47383   0.48428   21.104
 5474.00    0.49755   0.48228   20.099
 5475.00    0.50486   0.48013   19.807
 5476.00    0.49426   0.47817   20.232
 5477.00    0.47045   0.47678   21.256
 5478.00    0.45125   0.47623   22.160
 5479.00    0.45544   0.47653   21.957
 5480.00    0.47377   0.47744   21.107
 5481.00    0.47995   0.47863   20.836
 5482.00    0.46603   0.47986   21.458
 5483.00    0.44241   0.48105   22.603
 5484.00    0.42288   0.48225   23.647
 5485.00    0.41866   0.48350   23.886
 5486.00    0.43316   0.48485   23.086
 5487.00    0.46215   0.48639   21.638
 5488.00    0.49595   0.48817   20.163
 5489.00    0.52392   0.49010   19.087
 5490.00    0.54112   0.49180   18.480
 5491.00    0.54743   0.49279   18.267
 5492.00    0.54433   0.49270   18.371
 5493.00    0.53497   0.49154   18.693
 5494.00    0.52511   0.48967   19.044
 5495.00    0.52053   0.48756   19.211
 5496.00    0.52317   0.48558   19.114
 5497.00    0.52968   0.48391   18.879
 5498.00    0.53079   0.48262   18.840
 5499.00    0.51839   0.48167   19.291
 5500.00    0.49464   0.48097   20.217
 5501.00    0.46856   0.48043   21.342
 5502.00    0.44980   0.47994   22.232
 5503.00    0.44287   0.47945   22.580
 5504.00    0.44205   0.47893   22.622
 5505.00    0.44256   0.47832   -2.000
 5506.00    0.45280   0.47766   -2.000
 5507.00    0.48115   0.47702   -2.000
 5508.00    0.52104   0.47648   -2.000
 5509.00    0.56154   0.47607   -2.000
 5510.00    0.59834   0.47566   -2.000
 5511.00    0.61759   0.47513   -2.000
 5512.00    0.58314   0.47445   -2.000
 5513.00    0.47841   0.47379   -2.000
 5514.00    0.34692   0.47345   -2.000
 5515.00    0.29118   0.47367   -2.000
 5516.00    0.45322   0.47456   -2.000
 5517.00    0.87560   0.47601   -2.000
 5518.00    1.40606   0.47776   -2.000
 5519.00    1.88372   0.47950   -2.000
 5520.00    2.27523   0.48094   -2.000
 5521.00    2.50551   0.48190   -2.000
 5522.00    2.36007   0.48228   -2.000
 5523.00    1.79115   0.48205   -2.000
 5524.00    1.10127   0.48118   -2.000
 5525.00    0.61298   0.47975   -2.000
 5526.00    0.43233   0.47793   -2.000
 5527.00    0.47674   0.47602   -2.000
 5528.00    0.53828   0.47444   18.578
 5529.00    0.50396   0.47352   19.843
 5530.00    0.45967   0.47336   21.755
 5531.00    0.48080   0.47381   20.799
 5532.00    0.52163   0.47450   19.171
 5533.00    0.52934   0.47505   18.892
 5534.00    0.50698   0.47528   19.725
 5535.00    0.47936   0.47523   20.861
 5536.00    0.46921   0.47511   21.312
 5537.00    0.47977   0.47516   20.843
 5538.00    0.49250   0.47554   20.304
 5539.00    0.49765   0.47622   20.094
 5540.00    0.50468   0.47706   19.815
 5541.00    0.51971   0.47781   19.242
 5542.00    0.53667   0.47828   18.633
 5543.00    0.54622   0.47838   18.308
 5544.00    0.54234   0.47816   18.439
 5545.00    0.53191   0.47780   18.800
 5546.00    0.53336   0.47751   18.749
 5547.00    0.55569   0.47744   17.996
 5548.00    0.59201   0.47764   16.892
 5549.00    0.62768   0.47801   15.932
 5550.00    0.64696   0.47835   15.457
 5551.00    0.64459   0.47843   15.514
 5552.00    0.62710   0.47806   15.946
 5553.00    0.60321   0.47720   16.578
 5554.00    0.57914   0.47602   17.267
 5555.00    0.55514   0.47475   18.014
 5556.00    0.52830   0.47364   18.929
 5557.00    0.50433   0.47281   19.828
 5558.00    0.49533   0.47224   20.189
 5559.00    0.50277   0.47183   19.890
 5560.00    0.51685   0.47142   19.348
 5561.00    0.52858   0.47090   18.919
 5562.00    0.53306   0.47023   18.760
 5563.00    0.52864   0.46948   18.917
 5564.00    0.51656   0.46875   19.359
 5565.00    0.50070   0.46812   19.972
 5566.00    0.48659   0.46760   20.551
 5567.00    0.47950   0.46713   20.855
 5568.00    0.48286   0.46665   20.710
 5569.00    0.49602   0.46614   20.160
 5570.00    0.51472   0.46559   19.428
 5571.00    0.53313   0.46505   18.757
 5572.00    0.54593   0.46453   18.317
 5573.00    0.55148   0.46411   18.133
 5574.00    0.55172   0.46387   18.125
 5575.00    0.55062   0.46392   18.161
 5576.00    0.55182   0.46433   18.122
 5577.00    0.55494   0.46509   18.020
 5578.00    0.55685   0.46603   17.958
 5579.00    0.55497   0.46693   18.019
 5580.00    0.54770   0.46755   18.258
 5581.00    0.53399   0.46774   18.727
 5582.00    0.51477   0.46741   19.426
 5583.00    0.49503   0.46657   20.201
 5584.00    0.48035   0.46523   20.818
 5585.00    0.47149   0.46344   21.210
 5586.00    0.46725   0.46131   21.402
 5587.00    0.46951   0.45909   21.299
 5588.00    0.47786   0.45713   20.927
 5589.00    0.48220   0.45578   20.738
 5590.00    0.47313   0.45524   21.136
 5591.00    0.45617   0.45549   21.922
 5592.00    0.44367   0.45629   22.540
 5593.00    0.44245   0.45733   22.601
 5594.00    0.45060   0.45832   22.193
 5595.00    0.45641   0.45905   21.910
 5596.00    0.45088   0.45938   22.179
 5597.00    0.44092   0.45919   22.680
 5598.00    0.43745   0.45845   22.860
 5599.00    0.44150   0.45731   22.650
 5600.00    0.44763   0.45607   22.340
 5601.00    0.44942   0.45512   22.251
 5602.00    0.44624   0.45481   22.410
 5603.00    0.44804   0.45536   22.319
 5604.00    0.46239   0.45678   21.627
 5605.00    0.48312   0.45887   20.699
 5606.00    0.50013   0.46126   19.995
 5607.00    0.50907   0.46353   19.644
 5608.00    0.51363   0.46532   19.469
 5609.00    0.52495   0.46643   19.050
 5610.00    0.54623   0.46679   18.307
 5611.00    0.56279   0.46643   17.769
 5612.00    0.56032   0.46541   17.847
 5613.00    0.53887   0.46377   18.557
 5614.00    0.50954   0.46163   19.626
 5615.00    0.48883   0.45925   20.457
 5616.00    0.48062   0.45700   20.807
 5617.00    0.46827   0.45528   21.355
 5618.00    0.44341   0.45432   22.553
 5619.00    0.42111   0.45411   23.747
 5620.00    0.41445   0.45445   24.129
 5621.00    0.41986   0.45505   23.817
 5622.00    0.42795   0.45565   23.367
 5623.00    0.43129   0.45609   23.186
 5624.00    0.42931   0.45635   23.293
 5625.00    0.42927   0.45652   23.295
 5626.00    0.43780   0.45676   22.841
 5627.00    0.45553   0.45712   21.952
 5628.00    0.47383   0.45760   21.105
 5629.00    0.47705   0.45810   20.962
 5630.00    0.46059   0.45852   21.711
 5631.00    0.43641   0.45879   22.914
 5632.00    0.41786   0.45890   23.931
 5633.00    0.41245   0.45884   24.245
 5634.00    0.42153   0.45858   23.723
 5635.00    0.44109   0.45808   22.671
 5636.00    0.46499   0.45735   21.506
 5637.00    0.48679   0.45646   20.543
 5638.00    0.50158   0.45551   19.937
 5639.00    0.50734   0.45463   19.711
 5640.00    0.50732   0.45390   19.711
 5641.00    0.50804   0.45335   19.683
 5642.00    0.50937   0.45300   19.632
 5643.00    0.50509   0.45285   19.799
 5644.00    0.49662   0.45290   20.136
 5645.00    0.49281   0.45314   20.292
 5646.00    0.49475   0.45351   20.212
 5647.00    0.49486   0.45396   20.208
 5648.00    0.48899   0.45445   20.450
 5649.00    0.47863   0.45492   20.893
 5650.00    0.46637   0.45538   21.442
 5651.00    0.45409   0.45580   22.022
 5652.00    0.44158   0.45618   22.646
 5653.00    0.42783   0.45641   23.374
 5654.00    0.41507   0.45636   24.092
 5655.00    0.40754   0.45589   24.537
 5656.00    0.40606   0.45491   24.627
 5657.00    0.40902   0.45349   24.449
 5658.00    0.41774   0.45185   23.938
 5659.00    0.43368   0.45031   23.059
 5660.00    0.44958   0.44914   22.243
 5661.00    0.45452   0.44846   22.001
 5662.00    0.44814   0.44824   22.314
 5663.00    0.43871   0.44839   22.794
 5664.00    0.43288   0.44880   23.101
 5665.00    0.43441   0.44936   23.020
 5666.00    0.44563   0.44998   22.440
 5667.00    0.46624   0.45058   21.448
 5668.00    0.49048   0.45110   20.388
 5669.00    0.50789   0.45154   19.689
 5670.00    0.50565   0.45193   19.776
 5671.00    0.47781   0.45235   20.929
 5672.00    0.43871   0.45279   22.794
 5673.00    0.41213   0.45323   24.264
 5674.00    0.41081   0.45357   24.342
 5675.00    0.43255   0.45376   23.119
 5676.00    0.46007   0.45377   21.736
 5677.00    0.47486   0.45362   21.059
 5678.00    0.47613   0.45333   21.003
 5679.00    0.47380   0.45294   21.106
 5680.00    0.47523   0.45246   21.042
 5681.00    0.48174   0.45191   20.758
 5682.00    0.48679   0.45133   20.543
 5683.00    0.48351   0.45073   20.682
 5684.00    0.47355   0.45012   21.117
 5685.00    0.46138   0.44950   21.674
 5686.00    0.44677   0.44892   22.383
 5687.00    0.42906   0.44844   23.307
 5688.00    0.41264   0.44822   24.234
 5689.00    0.40585   0.44839   24.640
 5690.00    0.41814   0.44895   23.915
 5691.00    0.44827   0.44980   22.308
 5692.00    0.47500   0.45070   21.053
 5693.00    0.48013   0.45139   20.828
 5694.00    0.46976   0.45168   21.288
 5695.00    0.45950   0.45153   21.763
 5696.00    0.45908   0.45096   21.783
 5697.00    0.46873   0.45010   21.334
 5698.00    0.47867   0.44907   20.891
 5699.00    0.48149   0.44799   20.769
 5700.00    0.48131   0.44699   20.777
 5701.00    0.48412   0.44618   20.656
 5702.00    0.48994   0.44560   20.411
 5703.00    0.49381   0.44524   20.250
 5704.00    0.48805   0.44495   20.490
 5705.00    0.46983   0.44455   21.284
 5706.00    0.44546   0.44387   22.449
 5707.00    0.42340   0.44287   23.619
 5708.00    0.40893   0.44164   24.454
 5709.00    0.40241   0.44042   24.850
 5710.00    0.39936   0.43953   25.040
 5711.00    0.39703   0.43922   25.187
 5712.00    0.39714   0.43963   25.180
 5713.00    0.39804   0.44071   25.123
 5714.00    0.39223   0.44225   25.496
 5715.00    0.37813   0.44393   26.446
 5716.00    0.36441   0.44547   27.441
 5717.00    0.35771   0.44669   27.956
 5718.00    0.35788   0.44757   27.942
 5719.00    0.36740   0.44818   27.218
 5720.00    0.39239   0.44862   25.485
 5721.00    0.42494   0.44895   23.533
 5722.00    0.44199   0.44913   22.625
 5723.00    0.43775   0.44908   22.844
 5724.00    0.43263   0.44874   23.114
 5725.00    0.44788   0.44810   22.327
 5726.00    0.49044   0.44725   20.390
 5727.00    0.53791   0.44633   18.590
 5728.00    0.54706   0.44551   18.279
 5729.00    0.50770   0.44493   19.697
 5730.00    0.45170   0.44469   22.139
 5731.00    0.40895   0.44482   24.453
 5732.00    0.39177   0.44529   25.525
 5733.00    0.39903   0.44601   25.061
 5734.00    0.42037   0.44682   23.789
 5735.00    0.44451   0.44754   22.497
 5736.00    0.46224   0.44798   21.634
 5737.00    0.46705   0.44807   21.411
 5738.00    0.45638   0.44782   21.911
 5739.00    0.43470   0.44736   23.004
 5740.00    0.41133   0.44688    0.000
 5741.00    0.39193   0.44652    0.000
 5742.00    0.37760   0.44637    0.000
 5743.00    0.36922   0.44638    0.000
 5744.00    0.36761   0.44648    0.000
 5745.00    0.37111   0.44654    0.000
 5746.00    0.37644   0.44651    0.000
 5747.00    0.38209   0.44642    0.000
 5748.00    0.38832   0.44631    0.000
 5749.00    0.39510   0.44622    0.000
 5750.00    0.40165   0.44611    0.000
 5751.00    0.40632   0.44586    0.000
 5752.00    0.40711   0.44538    0.000
 5753.00    0.40272   0.44466    0.000
 5754.00    0.39479   0.44383    0.000
 5755.00    0.39174   0.44312    0.000
 5756.00    0.40317   0.44271    0.000
 5757.00    0.42819   0.44265    0.000
 5758.00    0.45549   0.44278    0.000
 5759.00    0.46784   0.44287    0.000
 5760.00    0.45389   0.44270    0.000
 5761.00    0.42606   0.44217    0.000
 5762.00    0.40873   0.44137    0.000
 5763.00    0.41450   0.44052    0.000
 5764.00    0.44013   0.43986    0.000
 5765.00    0.46705   0.43954    0.000
 5766.00    0.47565   0.43956    0.000
 5767.00    0.46546   0.43983    0.000
 5768.00    0.44966   0.44019    0.000
 5769.00    0.44287   0.44053    0.000
 5770.00    0.45130   0.44079    0.000
 5771.00    0.46284   0.44097    0.000
 5772.00    0.46237   0.44106    0.000
 5773.00    0.45175   0.44109    0.000
 5774.00    0.44161   0.44106    0.000
 5775.00    0.43875   0.44097    0.000
 5776.00    0.44625   0.44080    0.000
 5777.00    0.46497   0.44049    0.000
 5778.00    0.49072   0.43997    0.000
 5779.00    0.51172   0.43916    0.000
 5780.00    0.51804   0.43803    0.000
 5781.00    0.51099   0.43665    0.000
 5782.00    0.49795   0.43520    0.000
 5783.00    0.48608   0.43391    0.000
 5784.00    0.47986   0.43300    0.000
 5785.00    0.47946   0.43260    0.000
 5786.00    0.48286   0.43272    0.000
 5787.00    0.48791   0.43324    0.000
 5788.00    0.49279   0.43397    0.000
 5789.00    0.49598   0.43472    0.000
 5790.00    0.49415   0.43535    0.000
 5791.00    0.48140   0.43582    0.000
 5792.00    0.45718   0.43618    0.000
 5793.00    0.43128   0.43648    0.000
 5794.00    0.41476   0.43678    0.000
 5795.00    0.41276   0.43706    0.000
 5796.00    0.42285   0.43729    0.000
 5797.00    0.43540   0.43745    0.000
 5798.00    0.44185   0.43759    0.000
 5799.00    0.44040   0.43781    0.000
 5800.00    0.43677   0.43820    0.000
 5801.00    0.44202   0.43875    0.000
 5802.00    0.45803   0.43939    0.000
 5803.00    0.47192   0.43995    0.000
 5804.00    0.47359   0.44030    0.000
 5805.00    0.46500   0.44037    0.000
 5806.00    0.45436   0.44023    0.000
 5807.00    0.45089   0.44001    0.000
 5808.00    0.45598   0.43981    0.000
 5809.00    0.46092   0.43969    0.000
 5810.00    0.45731   0.43957    0.000
 5811.00    0.44205   0.43933    0.000
 5812.00    0.41580   0.43886    0.000
 5813.00    0.38339   0.43816    0.000
 5814.00    0.35853   0.43731    0.000
 5815.00    0.35988   0.43652    0.000
 5816.00    0.38613   0.43597    0.000
 5817.00    0.41361   0.43578    0.000
 5818.00    0.42836   0.43594    0.000
 5819.00    0.43399   0.43632   -2.000
 5820.00    0.43229   0.43673   -2.000
 5821.00    0.42029   0.43700   -2.000
 5822.00    0.40694   0.43705   -2.000
 5823.00    0.41020   0.43688   -2.000
 5824.00    0.42725   0.43663   -2.000
 5825.00    0.43561   0.43645   -2.000
 5826.00    0.42950   0.43646   -2.000
 5827.00    0.42455   0.43668   -2.000
 5828.00    0.43525   0.43705   -2.000
 5829.00    0.46471   0.43745   -2.000
 5830.00    0.49655   0.43777   -2.000
 5831.00    0.50337   0.43796   -2.000
 5832.00    0.47611   0.43802   -2.000
 5833.00    0.42798   0.43795   -2.000
 5834.00    0.38290   0.43779   -2.000
 5835.00    0.36441   0.43754   -2.000
 5836.00    0.37692   0.43722   -2.000
 5837.00    0.40794   0.43688   -2.000
 5838.00    0.44446   0.43658   -2.000
 5839.00    0.47693   0.43638    0.000
 5840.00    0.49887   0.43630    0.000
 5841.00    0.50645   0.43625    0.000
 5842.00    0.49762   0.43612    0.000
 5843.00    0.47406   0.43576    0.000
 5844.00    0.44512   0.43513    0.000
 5845.00    0.42248   0.43426    0.000
 5846.00    0.40838   0.43327    0.000
 5847.00    0.39879   0.43230    0.000
 5848.00    0.39317   0.43143    0.000
 5849.00    0.39351   0.43067    0.000
 5850.00    0.39961   0.42994    0.000
 5851.00    0.40969   0.42917    0.000
 5852.00    0.42266   0.42828    0.000
 5853.00    0.43598   0.42725    0.000
 5854.00    0.44197   0.42607    0.000
 5855.00    0.43487   0.42477    0.000
 5856.00    0.42180   0.42343    0.000
 5857.00    0.41497   0.42216    0.000
 5858.00    0.41838   0.42113    0.000
 5859.00    0.42929   0.42050    0.000
 5860.00    0.44277   0.42034    0.000
 5861.00    0.45358   0.42061    0.000
 5862.00    0.45804   0.42115    0.000
 5863.00    0.45809   0.42177    0.000
 5864.00    0.46495   0.42231    0.000
 5865.00    0.48500   0.42271    0.000
 5866.00    0.50423   0.42300    0.000
 5867.00    0.50603   0.42327    0.000
 5868.00    0.49219   0.42361    0.000
 5869.00    0.47287   0.42401    0.000
 5870.00    0.45399   0.42440    0.000
 5871.00    0.44211   0.42462    0.000
 5872.00    0.44958   0.42454    0.000
 5873.00    0.48318   0.42411    0.000
 5874.00    0.53310   0.42336    0.000
 5875.00    0.57726   0.42242    0.000
 5876.00    0.58846   0.42144    0.000
 5877.00    0.55506   0.42053    0.000
 5878.00    0.49632   0.41978    0.000
 5879.00    0.44154   0.41918    0.000
 5880.00    0.41050   0.41869    0.000
 5881.00    0.40565   0.41825    0.000
 5882.00    0.40962   0.41778    0.000
 5883.00    0.40647   0.41718    0.000
 5884.00    0.39674   0.41625    0.000
 5885.00    0.38817   0.41472    0.000
 5886.00    0.38764   0.41223    0.000
 5887.00    0.39684   0.40860    0.000
 5888.00    0.41032   0.40399    0.000
 5889.00    0.42063   0.39890    0.000
 5890.00    0.42216   0.39410    0.000
 5891.00    0.41428   0.39031    0.000
 5892.00    0.40226   0.38789    0.000
 5893.00    0.39225   0.38673    0.000
 5894.00    0.38780   0.38648    0.000
 5895.00    0.38758   0.38671    0.000
 5896.00    0.38593   0.38729    0.000
 5897.00    0.38236   0.38836    0.000
 5898.00    0.38390   0.39019    0.000
 5899.00    0.39141   0.39286    0.000
 5900.00    0.39623   0.39622    0.000
 5901.00    0.39751   0.39989   25.156
 5902.00    0.40671   0.40345   24.588
 5903.00    0.42889   0.40655   23.316
 5904.00    0.45682   0.40903   21.890
 5905.00    0.48296   0.41085   20.705
 5906.00    0.50337   0.41210   19.866
 5907.00    0.51157   0.41286   19.548
 5908.00    0.49925   0.41327   20.030
 5909.00    0.46872   0.41335   21.335
 5910.00    0.43489   0.41313   22.994
 5911.00    0.41412   0.41262   24.148
 5912.00    0.41647   0.41185   24.011
 5913.00    0.43407   0.41093   23.038
 5914.00    0.44515   0.41001   22.465
 5915.00    0.44054   0.40926   22.699
 5916.00    0.42729   0.40880   23.403
 5917.00    0.41103   0.40866   24.329
 5918.00    0.39158   0.40877   25.537
 5919.00    0.36702   0.40900   27.247
 5920.00    0.33734   0.40929   29.644
 5921.00    0.31091   0.40957   -1.000
 5922.00    0.30067   0.40985   -1.000
 5923.00    0.30922   0.41016   -1.000
 5924.00    0.32874   0.41047   30.419
 5925.00    0.35132   0.41072   28.464
 5926.00    0.37091   0.41085   26.960
 5927.00    0.38129   0.41085   26.227
 5928.00    0.37753   0.41074   26.488
 5929.00    0.36050   0.41062   27.740
 5930.00    0.33674   0.41054   29.697
 5931.00    0.31557   0.41054   31.689
 5932.00    0.30412   0.41062   -1.000
 5933.00    0.29865   0.41077   -1.000
 5934.00    0.29115   0.41093   -1.000
 5935.00    0.28566   0.41110   -1.000
 5936.00    0.29254   0.41125   -1.000
 5937.00    0.31166   0.41136   -1.000
 5938.00    0.33415   0.41136   29.926
 5939.00    0.35159   0.41120   28.442
 5940.00    0.35831   0.41087   27.909
 5941.00    0.35253   0.41037   28.366
 5942.00    0.33752   0.40978   29.628
 5943.00    0.32284   0.40921   30.976
 5944.00    0.31794   0.40873   31.453
 5945.00    0.32231   0.40834   31.026
 5946.00    0.33131   0.40802   30.183
 5947.00    0.34672   0.40773   28.842
 5948.00    0.37159   0.40741   26.911
 5949.00    0.40120   0.40705   24.925
 5950.00    0.42517   0.40667   23.520
 5951.00    0.43254   0.40634   23.119
 5952.00    0.41964   0.40608   23.830
 5953.00    0.39844   0.40587   25.098
 5954.00    0.38707   0.40571   25.835
 5955.00    0.39659   0.40561   25.215
 5956.00    0.42501   0.40556   23.529
 5957.00    0.45346   0.40559   22.053
 5958.00    0.46320   0.40579   21.589
 5959.00    0.45415   0.40621   22.019
 5960.00    0.43766   0.40683   22.849
 5961.00    0.42635   0.40758   23.455
 5962.00    0.42660   0.40834   23.441
 5963.00    0.43304   0.40897   23.092
 5964.00    0.43879   0.40939   22.790
 5965.00    0.44482   0.40957   22.481
 5966.00    0.45251   0.40955   22.099
 5967.00    0.45704   0.40944   21.880
 5968.00    0.45464   0.40933   21.996
 5969.00    0.44874   0.40928   22.285
 5970.00    0.44446   0.40926   22.499
 5971.00    0.44334   0.40921   22.556
 5972.00    0.44105   0.40904   22.673
 5973.00    0.42771   0.40869   23.380
 5974.00    0.40242   0.40812   24.850
 5975.00    0.38137   0.40736   26.221
 5976.00    0.37882   0.40653   26.398
 5977.00    0.39428   0.40578   25.363
 5978.00    0.42035   0.40521   23.790
 5979.00    0.44851   0.40487   22.296
 5980.00    0.46829   0.40473   21.354
 5981.00    0.46797   0.40465   21.369
 5982.00    0.44289   0.40454   22.579
 5983.00    0.40041   0.40430   24.974
 5984.00    0.35902   0.40393   27.854
 5985.00    0.34280   0.40351   29.172
 5986.00    0.35508   0.40317   28.162
 5987.00    0.37044   0.40305   26.995
 5988.00    0.36850   0.40320   27.137
 5989.00    0.35067   0.40362   28.517
 5990.00    0.33263   0.40426   30.063
 5991.00    0.33509   0.40502   29.843
 5992.00    0.36083   0.40579   27.714
 5993.00    0.39015   0.40644   25.631
 5994.00    0.40862   0.40684   24.473
 5995.00    0.41657   0.40692   24.006
 5996.00    0.41478   0.40669   24.109
 5997.00    0.40081   0.40621   24.950
 5998.00    0.37964   0.40558   26.341
 5999.00    0.36430   0.40492   27.450
 6000.00    0.36153   0.40432   27.661
 6001.00    0.36829   0.40383   27.153
 6002.00    0.37993   0.40345   26.321
 6003.00    0.39263   0.40312   25.470
 6004.00    0.40144   0.40277   24.911
 6005.00    0.40092   0.40235   24.943
 6006.00    0.38946   0.40188   25.676
 6007.00    0.37124   0.40139   26.937
 6008.00    0.35753   0.40099   27.969
 6009.00    0.36115   0.40074   27.689
 6010.00    0.37944   0.40068   26.355
 6011.00    0.39600   0.40080   25.253
 6012.00    0.39974   0.40107   25.016
 6013.00    0.39103   0.40139   25.573
 6014.00    0.38296   0.40165   26.112
 6015.00    0.39196   0.40184   25.513
 6016.00    0.41422   0.40192   24.142
 6017.00    0.42959   0.40186   23.278
 6018.00    0.42546   0.40167   23.504
 6019.00    0.40229   0.40136   24.858
 6020.00    0.37239   0.40096   26.854
 6021.00    0.35098   0.40054   28.492
 6022.00    0.33811   0.40019   29.576
 6023.00    0.32477   0.39997   30.791
 6024.00    0.31324   0.39991   31.924
 6025.00    0.31276   0.40005   31.973
 6026.00    0.32278   0.40036   30.981
 6027.00    0.33593   0.40081   29.768
 6028.00    0.34970   0.40135   28.596
 6029.00    0.36597   0.40194   27.325
 6030.00    0.38633   0.40255   25.885
 6031.00    0.41040   0.40315   24.367
 6032.00    0.43450   0.40372   23.015
 6033.00    0.45348   0.40422   22.052
 6034.00    0.46384   0.40459   21.559
 6035.00    0.46497   0.40478   21.507
 6036.00    0.46003   0.40477   21.738
 6037.00    0.45431   0.40455   22.012
 6038.00    0.45249   0.40417   22.100
 6039.00    0.45670   0.40372   21.896
 6040.00    0.46428   0.40332   21.539
 6041.00    0.46892   0.40305   21.326
 6042.00    0.46278   0.40297   21.609
 6043.00    0.44173   0.40307   22.638
 6044.00    0.41114   0.40331   24.323
 6045.00    0.38059   0.40360   26.275
 6046.00    0.35681   0.40391   28.026
 6047.00    0.34405   0.40417   29.066
 6048.00    0.34516   0.40440   28.972
 6049.00    0.35953   0.40460   27.814
 6050.00    0.38096   0.40472   26.249
 6051.00    0.40045   0.40473   24.972
 6052.00    0.40978   0.40457   24.404
 6053.00    0.40670   0.40420   24.588
 6054.00    0.39866   0.40363   25.084
 6055.00    0.39240   0.40294   25.484
 6056.00    0.38497   0.40225   25.976
 6057.00    0.37357   0.40164   26.769
 6058.00    0.36397   0.40116   27.475
 6059.00    0.36150   0.40079   27.663
 6060.00    0.36341   0.40046   27.517
 6061.00    0.36474   0.40004   27.417
 6062.00    0.36362   0.39942   27.501
 6063.00    0.36322   0.39858   27.532
 6064.00    0.37161   0.39766   26.910
 6065.00    0.39210   0.39686   25.504
 6066.00    0.41733   0.39634   23.962
 6067.00    0.43882   0.39626   22.788
 6068.00    0.45363   0.39666   22.044
 6069.00    0.46344   0.39748   21.578
 6070.00    0.47274   0.39855   21.153
 6071.00    0.48265   0.39966   20.719
 6072.00    0.48805   0.40065   20.490
 6073.00    0.48307   0.40137   20.701
 6074.00    0.46508   0.40172   21.502
 6075.00    0.43788   0.40166   22.837
 6076.00    0.41213   0.40125   24.264
 6077.00    0.39803   0.40057   25.123
 6078.00    0.40115   0.39971   24.928
 6079.00    0.42094   0.39874   23.756
 6080.00    0.45040   0.39780   22.202
 6081.00    0.47733   0.39699   20.950
 6082.00    0.48771   0.39639   20.504
 6083.00    0.47790   0.39606   20.925
 6084.00    0.45760   0.39602   21.853
 6085.00    0.43757   0.39623   22.853
 6086.00    0.42371   0.39659   23.601
 6087.00    0.41569   0.39697   24.056
 6088.00    0.40871   0.39723   24.467
 6089.00    0.40199   0.39732   24.876
 6090.00    0.40070   0.39724   24.956
 6091.00    0.41017   0.39708   24.380
 6092.00    0.43144   0.39695   23.178
 6093.00    0.45405   0.39695   22.024
 6094.00    0.45983   0.39709   21.747
 6095.00    0.44442   0.39732   22.501
 6096.00    0.41993   0.39753   23.814
 6097.00    0.39983   0.39760   25.011
 6098.00    0.39235   0.39739   25.488
 6099.00    0.39591   0.39676   25.258
 6100.00    0.40113   0.39567   24.930
 6101.00    0.40037   0.39431   24.977
 6102.00    0.39145   0.39296   25.546
 6103.00    0.37974   0.39186   26.334
 6104.00    0.37455   0.39119   26.698
 6105.00    0.37873   0.39104   26.404
 6106.00    0.38796   0.39139   25.776
 6107.00    0.39639   0.39211   25.227
 6108.00    0.39907   0.39301   25.058
 6109.00    0.39441   0.39392   25.354
 6110.00    0.38588   0.39476   25.915
 6111.00    0.38400   0.39547   26.041
 6112.00    0.39909   0.39606   25.057
 6113.00    0.42529   0.39655   23.513
 6114.00    0.44706   0.39694   22.368
 6115.00    0.45893   0.39719   21.790
 6116.00    0.46303   0.39726   21.597
 6117.00    0.45671   0.39706   21.896
 6118.00    0.43707   0.39650   22.880
 6119.00    0.41336   0.39556   24.192
 6120.00    0.39918   0.39431   25.052
 6121.00    0.39519   0.39295   25.304
 6122.00    0.39215   0.39168   25.500
 6123.00    0.38095   0.39064   26.250
 6124.00    0.35877   0.38996   27.873
 6125.00    0.33541   0.38971   29.814
 6126.00    0.32438   0.38986   30.828
 6127.00    0.32835   0.39034   30.455
 6128.00    0.34179   0.39105   29.257
 6129.00    0.35809   0.39181   27.926
 6130.00    0.37264   0.39242   26.836
 6131.00    0.38540   0.39274   25.947
 6132.00    0.39715   0.39263   25.179
 6133.00    0.40438   0.39191   24.729
 6134.00    0.40235   0.39052   24.854
 6135.00    0.38962   0.38867   25.666
 6136.00    0.36948   0.38677   27.065
 6137.00    0.35034   0.38523   28.544
 6138.00    0.33856   0.38424   29.536
 6139.00    0.33097   0.38390   30.214
 6140.00    0.32101   0.38426   31.152
 6141.00    0.30620   0.38522   32.659
 6142.00    0.28859   0.38658   -1.000
 6143.00    0.27412   0.38812   -1.000
 6144.00    0.26859   0.38960   -1.000
 6145.00    0.27386   0.39083   -1.000
 6146.00    0.28779   0.39164   -1.000
 6147.00    0.30496   0.39197   32.791
 6148.00    0.31990   0.39186   31.260
 6149.00    0.33007   0.39136   30.297
 6150.00    0.33628   0.39062   29.737
 6151.00    0.34227   0.38982   29.217
 6152.00    0.34964   0.38907   28.601
 6153.00    0.35481   0.38843   28.184
 6154.00    0.35622   0.38791   28.073
 6155.00    0.35896   0.38741   27.858
 6156.00    0.36743   0.38678   27.216
 6157.00    0.38024   0.38588   26.299
 6158.00    0.39381   0.38449   25.393
 6159.00    0.40534   0.38250   24.671
 6160.00    0.41496   0.37997   24.099
 6161.00    0.42619   0.37716   23.464
 6162.00    0.44058   0.37442   22.697
 6163.00    0.45456   0.37207   21.999
 6164.00    0.46065   0.37037   21.709
 6165.00    0.44986   0.36944   22.229
 6166.00    0.42029   0.36913   23.793
 6167.00    0.38083   0.36914   26.258
 6168.00    0.34553   0.36934   28.941
 6169.00    0.32832   0.36962   30.458
 6170.00    0.33298   0.36993   30.032
 6171.00    0.35039   0.37028   28.540
 6172.00    0.37007   0.37076   27.022
 6173.00    0.38599   0.37143   25.907
 6174.00    0.39726   0.37226   25.172
 6175.00    0.40680   0.37318   24.582
 6176.00    0.41503   0.37411   24.095
 6177.00    0.41863   0.37492   23.887
 6178.00    0.41667   0.37556   24.000
 6179.00    0.41154   0.37607   24.299
 6180.00    0.40276   0.37650   24.829
 6181.00    0.38661   0.37683   25.866
 6182.00    0.36428   0.37699   27.451
 6183.00    0.34291   0.37697   29.162
 6184.00    0.32889   0.37670   30.406
 6185.00    0.32370   0.37616   30.893
 6186.00    0.31897   0.37542   31.351
 6187.00    0.30157   0.37450   33.160
 6188.00    0.27470   0.37342   -1.000
 6189.00    0.25672   0.37225   -1.000
 6190.00    0.25774   0.37126   -1.000
 6191.00    0.27496   0.37067   -1.000
 6192.00    0.30035   0.37050   33.295
 6193.00    0.32466   0.37072   30.801
 6194.00    0.34205   0.37126   29.236
 6195.00    0.35110   0.37191   28.482
 6196.00    0.35434   0.37247   28.222
 6197.00    0.35647   0.37281   28.053
 6198.00    0.36075   0.37290   27.720
 6199.00    0.36655   0.37281   27.282
 6200.00    0.36621   0.37267   27.307
 6201.00    0.35181   0.37264   28.424
 6202.00    0.33105   0.37284   30.206
 6203.00    0.32025   0.37325   31.225
 6204.00    0.32271   0.37381   30.987
 6205.00    0.33080   0.37444   30.230
 6206.00    0.33920   0.37504   29.481
 6207.00    0.34647   0.37549   28.862
 6208.00    0.35270   0.37570   28.352
 6209.00    0.35691   0.37561   28.019
 6210.00    0.35349   0.37514   28.289
 6211.00    0.33818   0.37422   29.570
 6212.00    0.31878   0.37292   31.370
 6213.00    0.30841   0.37136   32.425
 6214.00    0.31166   0.36975   32.086
 6215.00    0.32442   0.36835   30.824
 6216.00    0.33748   0.36728   29.631
 6217.00    0.34374   0.36658   29.092
 6218.00    0.34733   0.36622   28.791
 6219.00    0.35565   0.36616   28.117
 6220.00    0.36659   0.36634   27.278
 6221.00    0.37321   0.36657   26.795
 6222.00    0.37210   0.36673   26.875
 6223.00    0.36042   0.36682   27.746
 6224.00    0.33163   0.36680   30.154
 6225.00    0.28901   0.36668   34.601
 6226.00    0.26069   0.36645   -2.000
 6227.00    0.27650   0.36603   -2.000
 6228.00    0.33871   0.36537   -2.000
 6229.00    0.41590   0.36458   -2.000
 6230.00    0.44468   0.36387   -2.000
 6231.00    0.38722   0.36333   -2.000
 6232.00    0.28618   0.36306   -2.000
 6233.00    0.20940   0.36312   -2.000
 6234.00    0.18967   0.36343   -2.000
 6235.00    0.22501   0.36387   -2.000
 6236.00    0.28629   0.36433   -2.000
 6237.00    0.33756   0.36469   29.625
 6238.00    0.35490   0.36477   28.177
 6239.00    0.33652   0.36459   29.715
 6240.00    0.30717   0.36418   32.556
 6241.00    0.29360   0.36357   34.060
 6242.00    0.30450   0.36292   32.841
 6243.00    0.33298   0.36226   30.032
 6244.00    0.36163   0.36165   27.653
 6245.00    0.37677   0.36125   26.541
 6246.00    0.37806   0.36112   26.451
 6247.00    0.37212   0.36120   26.873
 6248.00    0.36667   0.36139   27.272
 6249.00    0.36454   0.36156   27.432
 6250.00    0.36130   0.36154   27.678
 6251.00    0.35514   0.36123   28.158
 6252.00    0.35157   0.36071   28.444
 6253.00    0.35299   0.35998   28.330
 6254.00    0.35368   0.35911   28.274
 6255.00    0.34866   0.35822   28.681
 6256.00    0.33890   0.35744   29.507
 6257.00    0.33044   0.35695   30.262
 6258.00    0.33185   0.35685   30.134
 6259.00    0.34427   0.35707   29.047
 6260.00    0.35874   0.35761   27.875
 6261.00    0.36855   0.35846   27.133
 6262.00    0.37459   0.35946   26.696
 6263.00    0.38079   0.36055   26.262
 6264.00    0.39088   0.36163   25.583
 6265.00    0.40450   0.36259   24.722
 6266.00    0.41629   0.36336   24.022
 6267.00    0.41980   0.36390   23.821
 6268.00    0.41040   0.36424   24.367
 6269.00    0.38993   0.36451   25.646
 6270.00    0.36688   0.36479   27.257
 6271.00    0.34965   0.36506   28.600
 6272.00    0.34338   0.36530   29.122
 6273.00    0.34786   0.36547   28.747
 6274.00    0.35800   0.36552   27.933
 6275.00    0.36794   0.36547   27.178
 6276.00    0.37350   0.36522   26.774
 6277.00    0.37533   0.36470   26.643
 6278.00    0.37776   0.36408   26.472
 6279.00    0.38225   0.36350   26.161
 6280.00    0.38682   0.36308    0.000
 6281.00    0.39028   0.36297    0.000
 6282.00    0.39263   0.36315    0.000
 6283.00    0.39243   0.36351    0.000
 6284.00    0.38818   0.36410    0.000
 6285.00    0.38388   0.36492    0.000
 6286.00    0.38662   0.36576    0.000
 6287.00    0.39683   0.36644    0.000
 6288.00    0.40846   0.36689    0.000
 6289.00    0.41567   0.36708    0.000
 6290.00    0.41314   0.36698    0.000
 6291.00    0.39350   0.36669    0.000
 6292.00    0.35342   0.36629    0.000
 6293.00    0.30764   0.36574    0.000
 6294.00    0.28076   0.36505    0.000
 6295.00    0.28442   0.36432    0.000
 6296.00    0.31617   0.36361    0.000
 6297.00    0.36703   0.36293    0.000
 6298.00    0.42550   0.36222    0.000
 6299.00    0.48215   0.36147    0.000
 6300.00    0.52812   0.36082    0.000
 6301.00    0.55111   0.36040    0.000
 6302.00    0.54222   0.36031    0.000
 6303.00    0.50808   0.36059    0.000
 6304.00    0.46630   0.36116    0.000
 6305.00    0.43449   0.36201    0.000
 6306.00    0.42299   0.36302    0.000
 6307.00    0.42705   0.36405    0.000
 6308.00    0.43514   0.36491    0.000
 6309.00    0.44258   0.36547    0.000
 6310.00    0.44937   0.36573    0.000
 6311.00    0.45464   0.36575    0.000
 6312.00    0.45520   0.36555    0.000
 6313.00    0.44526   0.36511    0.000
 6314.00    0.42262   0.36456    0.000
 6315.00    0.39604   0.36403    0.000
 6316.00    0.37709   0.36351    0.000
 6317.00    0.36965   0.36310    0.000
 6318.00    0.37094   0.36290    0.000
 6319.00    0.37449   0.36287    0.000
 6320.00    0.37506   0.36301    0.000
 6321.00    0.37317   0.36334   26.797
 6322.00    0.37101   0.36379   26.953
 6323.00    0.36798   0.36426   27.175
 6324.00    0.36387   0.36474   27.482
 6325.00    0.36196   0.36515   27.627
 6326.00    0.36510   0.36552   27.390
 6327.00    0.37191   0.36585   26.888
 6328.00    0.37859   0.36615   26.414
 6329.00    0.38119   0.36639   26.233
 6330.00    0.37954   0.36659   26.347
 6331.00    0.37933   0.36666   26.362
 6332.00    0.38364   0.36651   26.066
 6333.00    0.38722   0.36606   25.825
 6334.00    0.38637   0.36530   25.882
 6335.00    0.38577   0.36438   25.922
 6336.00    0.39014   0.36350   25.632
 6337.00    0.39815   0.36279   25.116
 6338.00    0.40498   0.36237   24.692
 6339.00    0.40501   0.36230   24.691
 6340.00    0.39599   0.36253   25.253
 6341.00    0.38127   0.36294   26.228
 6342.00    0.36664   0.36329   27.275
 6343.00    0.35760   0.36338   27.964
 6344.00    0.35572   0.36310   28.112
 6345.00    0.35755   0.36255   27.968
 6346.00    0.36073   0.36186   27.721
 6347.00    0.36671   0.36127   27.269
 6348.00    0.37646   0.36091   26.563
 6349.00    0.38829   0.36083   25.754
 6350.00    0.39905   0.36103   25.059
 6351.00    0.40594   0.36133   24.634
 6352.00    0.41143   0.36150   24.305
 6353.00    0.42326   0.36145   23.626
 6354.00    0.44280   0.36116   22.584
 6355.00    0.46214   0.36056   21.639
 6356.00    0.47449   0.35967   21.075
 6357.00    0.47837   0.35869   20.904
 6358.00    0.47495   0.35779   21.055
 6359.00    0.46589   0.35697   21.464
 6360.00    0.44960   0.35633   22.242
 6361.00    0.42256   0.35590   23.666
 6362.00    0.38969   0.35570   25.662
 6363.00    0.36417   0.35580   27.460
 6364.00    0.35290   0.35619   28.337
 6365.00    0.35325   0.35687   28.309
 6366.00    0.36017   0.35773   27.765
 6367.00    0.36851   0.35865   27.136
 6368.00    0.37233   0.35952   26.858
 6369.00    0.36724   0.36026   27.230
 6370.00    0.35786   0.36082   27.944
 6371.00    0.35523   0.36123   28.150
 6372.00    0.36297   0.36165   27.551
 6373.00    0.37565   0.36198   26.620
 6374.00    0.38601   0.36221   25.906
 6375.00    0.38884   0.36237   25.718
 6376.00    0.38574   0.36241   25.924
 6377.00    0.38270   0.36219   26.130
 6378.00    0.38129   0.36169   26.226
 6379.00    0.37847   0.36106   26.422
 6380.00    0.37135   0.36043   26.929
 6381.00    0.35994   0.35988   27.783
 6382.00    0.35044   0.35949   28.535
 6383.00    0.35141   0.35926   28.457
 6384.00    0.36423   0.35913   27.455
 6385.00    0.38347   0.35909   26.078
 6386.00    0.40165   0.35904   24.898
 6387.00    0.41209   0.35882   24.267
 6388.00    0.41231   0.35844   24.253
 6389.00    0.40397   0.35801   24.755
 6390.00    0.39132   0.35749   25.555
 6391.00    0.37886   0.35685   26.395
 6392.00    0.36766   0.35622   27.199
 6393.00    0.35690   0.35575   28.019
 6394.00    0.34734   0.35547   28.790
 6395.00    0.34143   0.35541   29.289
 6396.00    0.34242   0.35549   29.204
 6397.00    0.35261   0.35554   28.360
 6398.00    0.37087   0.35559   26.964
 6399.00    0.39251   0.35578   25.477
 6400.00    0.40976   0.35615   24.405
 6401.00    0.41616   0.35662   24.029
 6402.00    0.41234   0.35718   24.252
 6403.00    0.40431   0.35781   24.734
 6404.00    0.39998   0.35845   25.001
 6405.00    0.40376   0.35906   24.767
 6406.00    0.41074   0.35954   24.346
 6407.00    0.41091   0.35977   24.336
 6408.00    0.39550   0.35970   25.284
 6409.00    0.36302   0.35935   27.546
 6410.00    0.32454   0.35886   30.813
 6411.00    0.29427   0.35843   33.982
 6412.00    0.27910   0.35821   35.830
 6413.00    0.27907   0.35818   35.833
 6414.00    0.28922   0.35826   34.576
 6415.00    0.30289   0.35837   33.015
 6416.00    0.31497   0.35851   31.749
 6417.00    0.32397   0.35867   30.867
 6418.00    0.33304   0.35874   30.026
 6419.00    0.34444   0.35861   29.033
 6420.00    0.35508   0.35843   28.163
 6421.00    0.36111   0.35836   27.692
 6422.00    0.36188   0.35844   27.634
 6423.00    0.35898   0.35861   27.857
 6424.00    0.35498   0.35888   28.170
 6425.00    0.35056   0.35924   28.526
 6426.00    0.34300   0.35967   29.154
 6427.00    0.33114   0.35994   30.199
 6428.00    0.31860   0.35979   31.387
 6429.00    0.31186   0.35925   32.065
 6430.00    0.31773   0.35859   31.473
 6431.00    0.33666   0.35799   29.704
 6432.00    0.35993   0.35753   27.783
 6433.00    0.37859   0.35723   26.413
 6434.00    0.38894   0.35711   25.711
 6435.00    0.39130   0.35713   25.556
 6436.00    0.38889   0.35721   25.714
 6437.00    0.38639   0.35727   25.880
 6438.00    0.38802   0.35732   25.772
 6439.00    0.39179   0.35748   25.524
 6440.00    0.38901   0.35782   25.706
 6441.00    0.37678   0.35832   26.541
 6442.00    0.36195   0.35896   27.628
 6443.00    0.34964   0.35969   28.601
 6444.00    0.33934   0.36045   29.469
 6445.00    0.33273   0.36097   30.055
 6446.00    0.33534   0.36091   29.820
 6447.00    0.34792   0.36016   28.742
 6448.00    0.36380   0.35887   27.488
 6449.00    0.37415   0.35745   26.727
 6450.00    0.37194   0.35626   26.886
 6451.00    0.35843   0.35539   27.899
 6452.00    0.34275   0.35481   29.176
 6453.00    0.33108   0.35453   30.204
 6454.00    0.32484   0.35461   30.785
 6455.00    0.32846   0.35506   30.445
 6456.00    0.34832   0.35561   28.709
 6457.00    0.38018   0.35599   26.303
 6458.00    0.40899   0.35611   24.450
 6459.00    0.42173   0.35599   23.712
 6460.00    0.41332   0.35563   24.195
 6461.00    0.39130   0.35512   25.556
 6462.00    0.37189   0.35469   26.889
 6463.00    0.36499   0.35442   27.398
 6464.00    0.37172   0.35439   26.902
 6465.00    0.38966   0.35463   25.663
 6466.00    0.41412   0.35509   24.148
 6467.00    0.43730   0.35570   22.868
 6468.00    0.44983   0.35633   22.231
 6469.00    0.44471   0.35665   22.486
 6470.00    0.42022   0.35650   23.797
 6471.00    0.38391   0.35594   26.048
 6472.00    0.34905   0.35501   28.649
 6473.00    0.32470   0.35385   30.797
 6474.00    0.31323   0.35276   31.926
 6475.00    0.30988   0.35197   32.270
 6476.00    0.30797   0.35147   32.471
 6477.00    0.30877   0.35117   32.386
 6478.00    0.31899   0.35091   31.349
 6479.00    0.34185   0.35056   29.252
 6480.00    0.37378   0.35010   26.753
 6481.00    0.40179   0.34952   24.888
 6482.00    0.41099   0.34882   24.331
 6483.00    0.39811   0.34812   25.119
 6484.00    0.37293   0.34753   26.814
 6485.00    0.35596   0.34711   28.093
 6486.00    0.36048   0.34692   27.741
 6487.00    0.36694   0.34692   27.252
 6488.00    0.34636   0.34691   28.872
 6489.00    0.29967   0.34666   33.370
 6490.00    0.24996   0.34599   -1.000
 6491.00    0.22272   0.34485   -1.000
 6492.00    0.23194   0.34321   -1.000
 6493.00    0.26619   0.34118   37.546
 6494.00    0.30237   0.33901   33.072
 6495.00    0.32543   0.33698   30.728
 6496.00    0.32907   0.33536   30.389
 6497.00    0.31375   0.33431   31.873
 6498.00    0.28850   0.33397   34.662
 6499.00    0.27213   0.33442   36.747
 6500.00    0.28128   0.33556   35.552
 6501.00    0.31726   0.33713   31.520
 6502.00    0.36805   0.33886   27.170
 6503.00    0.41311   0.34052   24.207
 6504.00    0.43743   0.34202   22.861
 6505.00    0.44401   0.34324   22.522
 6506.00    0.44178   0.34412   22.636
 6507.00    0.43350   0.34468   23.068
 6508.00    0.42005   0.34495   23.807
 6509.00    0.40480   0.34503   24.704
 6510.00    0.39085   0.34492   25.586
 6511.00    0.37856   0.34466   26.416
 6512.00    0.36757   0.34430   27.206
 6513.00    0.35857   0.34384   27.889
 6514.00    0.35301   0.34328   28.328
 6515.00    0.35236   0.34267   28.380
 6516.00    0.35469   0.34203   28.193
 6517.00    0.35347   0.34143   28.291
 6518.00    0.34726   0.34096   28.797
 6519.00    0.34494   0.34069   28.990
 6520.00    0.35401   0.34069   28.248
 6521.00    0.37290   0.34093   26.817
 6522.00    0.39411   0.34129   25.373
 6523.00    0.40768   0.34171   24.529
 6524.00    0.40855   0.34214   24.477
 6525.00    0.40044   0.34246   24.972
 6526.00    0.39276   0.34261   25.461
 6527.00    0.39660   0.34264   25.215
 6528.00    0.41331   0.34263    0.000
 6529.00    0.43083   0.34259    0.000
 6530.00    0.43682   0.34241    0.000
 6531.00    0.42616   0.34210    0.000
 6532.00    0.40287   0.34174    0.000
 6533.00    0.37882   0.34132    0.000
 6534.00    0.36411   0.34084    0.000
 6535.00    0.36274   0.34030    0.000
 6536.00    0.37388   0.33981    0.000
 6537.00    0.39299   0.33941    0.000
 6538.00    0.41345   0.33907    0.000
 6539.00    0.42815   0.33869    0.000
 6540.00    0.43312   0.33820    0.000
 6541.00    0.42943   0.33748    0.000
 6542.00    0.42452   0.33645    0.000
 6543.00    0.42992   0.33503    0.000
 6544.00    0.45120   0.33329    0.000
 6545.00    0.48499   0.33135    0.000
 6546.00    0.52129   0.32936    0.000
 6547.00    0.54723   0.32739    0.000
 6548.00    0.55578   0.32541    0.000
 6549.00    0.54794   0.32337    0.000
 6550.00    0.53034   0.32127    0.000
 6551.00    0.51093   0.31905    0.000
 6552.00    0.48893   0.31649    0.000
 6553.00    0.45786   0.31349    0.000
 6554.00    0.42207   0.31002    0.000
 6555.00    0.39857   0.30609    0.000
 6556.00    0.40929   0.30166    0.000
 6557.00    0.49085   0.29658    0.000
 6558.00    0.72259   0.29080    0.000
 6559.00    1.19792   0.28408    0.000
 6560.00    1.93952   0.27623    0.000
 6561.00    2.86585   0.26793    0.000
 6562.00    3.76569   0.26075    0.000
 6563.00    4.36719   0.25580    0.000
 6564.00    4.49709   0.25336    0.000
 6565.00    4.12392   0.25339    0.000
 6566.00    3.37093   0.25606    0.000
 6567.00    2.46306   0.26159    0.000
 6568.00    1.61842   0.26919    0.000
 6569.00    0.99280   0.27704    0.000
 6570.00    0.61939   0.28399    0.000
 6571.00    0.44000   0.28996    0.000
 6572.00    0.37952   0.29513    0.000
 6573.00    0.37037   0.29969    0.000
 6574.00    0.37131   0.30374    0.000
 6575.00    0.36621   0.30732    0.000
 6576.00    0.35684   0.31058    0.000
 6577.00    0.35435   0.31361    0.000
 6578.00    0.36826   0.31642    0.000
 6579.00    0.40593   0.31898    0.000
 6580.00    0.47387   0.32127    0.000
 6581.00    0.57171   0.32322    0.000
 6582.00    0.68403   0.32482    0.000
 6583.00    0.78528   0.32612    0.000
 6584.00    0.84832   0.32722    0.000
 6585.00    0.85395   0.32824    0.000
 6586.00    0.80133   0.32923    0.000
 6587.00    0.70652   0.33009    0.000
 6588.00    0.59820   0.33076    0.000
 6589.00    0.50434   0.33120    0.000
 6590.00    0.43789   0.33130    0.000
 6591.00    0.39757   0.33111    0.000
 6592.00    0.37143   0.33082    0.000
 6593.00    0.34805   0.33064    0.000
 6594.00    0.32722   0.33071    0.000
 6595.00    0.31459   0.33088    0.000
 6596.00    0.31498   0.33116    0.000
 6597.00    0.32810   0.33173    0.000
 6598.00    0.34562   0.33258    0.000
 6599.00    0.35668   0.33351    0.000
 6600.00    0.35383   0.33423    0.000
 6601.00    0.34086   0.33466    0.000
 6602.00    0.33647   0.33494    0.000
 6603.00    0.35249   0.33517    0.000
 6604.00    0.37843   0.33539    0.000
 6605.00    0.39925   0.33546    0.000
 6606.00    0.40930   0.33537    0.000
 6607.00    0.40891   0.33528    0.000
 6608.00    0.40097   0.33527    0.000
 6609.00    0.38935   0.33546   25.684
 6610.00    0.37788   0.33576   26.464
 6611.00    0.37027   0.33605   27.007
 6612.00    0.36950   0.33633   27.063
 6613.00    0.37455   0.33659   26.698
 6614.00    0.37958   0.33682   26.345
 6615.00    0.38107   0.33698   26.242
 6616.00    0.38136   0.33696   26.222
 6617.00    0.38342   0.33686   26.081
 6618.00    0.38840   0.33680   25.747
 6619.00    0.39834   0.33681   25.104
 6620.00    0.41623   0.33684   24.025
 6621.00    0.43837   0.33678   22.812
 6622.00    0.45260   0.33658   22.094
 6623.00    0.44919   0.33621   22.262
 6624.00    0.42705   0.33565   23.417
 6625.00    0.39762   0.33508   25.150
 6626.00    0.38117   0.33457   26.235
 6627.00    0.38380   0.33409   26.055
 6628.00    0.39247   0.33368   25.480
 6629.00    0.39653   0.33337   25.219
 6630.00    0.39525   0.33321   25.301
 6631.00    0.39097   0.33311   25.577
 6632.00    0.38582   0.33294   25.919
 6633.00    0.38024   0.33275   26.299
 6634.00    0.37352   0.33262   26.773
 6635.00    0.36737   0.33259   27.220
 6636.00    0.36529   0.33258   27.375
 6637.00    0.36605   0.33262   27.319
 6638.00    0.36401   0.33280   27.472
 6639.00    0.35716   0.33300   27.999
 6640.00    0.34850   0.33310   28.695
 6641.00    0.34218   0.33296   29.224
 6642.00    0.34188   0.33266   29.250
 6643.00    0.34957   0.33235   28.607
 6644.00    0.36478   0.33207   27.414
 6645.00    0.38339   0.33188   26.083
 6646.00    0.39855   0.33167   25.091
 6647.00    0.40376   0.33148   24.767
 6648.00    0.39528   0.33151   25.299
 6649.00    0.37589   0.33162   26.604
 6650.00    0.35399   0.33162   28.250
 6651.00    0.33927   0.33145   29.475
 6652.00    0.33933   0.33124   29.470
 6653.00    0.35456   0.33103   28.204
 6654.00    0.37918   0.33083   26.372
 6655.00    0.40562   0.33058   24.653
 6656.00    0.42669   0.33027   23.436
 6657.00    0.43778   0.33002   22.843
 6658.00    0.43725   0.32972   22.870
 6659.00    0.42619   0.32930   23.464
 6660.00    0.40889   0.32871   24.457
 6661.00    0.39374   0.32798   25.397
 6662.00    0.38928   0.32723   25.689
 6663.00    0.39708   0.32657   25.184
 6664.00    0.41226   0.32607   24.256
 6665.00    0.42650   0.32575   23.447
 6666.00    0.43170   0.32563   23.164
 6667.00    0.42504   0.32576   23.527
 6668.00    0.40941   0.32620   24.426
 6669.00    0.39245   0.32675   25.481
 6670.00    0.37990   0.32726   26.323
 6671.00    0.36684   0.32767   27.260
 6672.00    0.34882   0.32796   28.668
 6673.00    0.33744   0.32808   29.635
 6674.00    0.34683   0.32794   28.832
 6675.00    0.37419   0.32745   26.724
 6676.00    0.40596   0.32667   24.633
 6677.00    0.42883   0.32592   23.319
 6678.00    0.43506   0.32532   22.985
 6679.00    0.42684   0.32487   23.428
 6680.00    0.41237   0.32448   24.250
 6681.00    0.40059   0.32422   24.963
 6682.00    0.39731   0.32430   25.169
 6683.00    0.40190   0.32458   24.882
 6684.00    0.40895   0.32475   24.453
 6685.00    0.41076   0.32475   24.345
 6686.00    0.40185   0.32472   24.885
 6687.00    0.38300   0.32477   26.109
 6688.00    0.35970   0.32492   27.801
 6689.00    0.34003   0.32497   29.409
 6690.00    0.33157   0.32493   30.160
 6691.00    0.33859   0.32492   29.534
 6692.00    0.36052   0.32490   27.738
 6693.00    0.39077   0.32483   25.591
 6694.00    0.41751   0.32466   23.952
 6695.00    0.42603   0.32446   23.472
 6696.00    0.41231   0.32434    0.000
 6697.00    0.39050   0.32438    0.000
 6698.00    0.37403   0.32454    0.000
 6699.00    0.36320   0.32473    0.000
 6700.00    0.35638   0.32487    0.000
 6701.00    0.35708   0.32499    0.000
 6702.00    0.36704   0.32508    0.000
 6703.00    0.38207   0.32509    0.000
 6704.00    0.39536   0.32498    0.000
 6705.00    0.40047   0.32478    0.000
 6706.00    0.39535   0.32460    0.000
 6707.00    0.38417   0.32447    0.000
 6708.00    0.37403   0.32433    0.000
 6709.00    0.37271   0.32414    0.000
 6710.00    0.38653   0.32391    0.000
 6711.00    0.42101   0.32361    0.000
 6712.00    0.48947   0.32317    0.000
 6713.00    0.61215   0.32247    0.000
 6714.00    0.79208   0.32153    0.000
 6715.00    1.00359   0.32046    0.000
 6716.00    1.19437   0.31930    0.000
 6717.00    1.29720   0.31819    0.000
 6718.00    1.27421   0.31725    0.000
 6719.00    1.13439   0.31653    0.000
 6720.00    0.92577   0.31602    0.000
 6721.00    0.71931   0.31586    0.000
 6722.00    0.56177   0.31611    0.000
 6723.00    0.46240   0.31652    0.000
 6724.00    0.41228   0.31689    0.000
 6725.00    0.39711   0.31724    0.000
 6726.00    0.41449   0.31767    0.000
 6727.00    0.47417   0.31810    0.000
 6728.00    0.57858   0.31842    0.000
 6729.00    0.71505   0.31872    0.000
 6730.00    0.85240   0.31898    0.000
 6731.00    0.94845   0.31914    0.000
 6732.00    0.97494   0.31922    0.000
 6733.00    0.92611   0.31923    0.000
 6734.00    0.82079   0.31918    0.000
 6735.00    0.69506   0.31911    0.000
 6736.00    0.58148   0.31895    0.000
 6737.00    0.49922   0.31874    0.000
 6738.00    0.44451   0.31859    0.000
 6739.00    0.39970   0.31854    0.000
 6740.00    0.36058   0.31853    0.000
 6741.00    0.33504   0.31843    0.000
 6742.00    0.32439   0.31831    0.000
 6743.00    0.32206   0.31837    0.000
 6744.00    0.32065   0.31846    0.000
 6745.00    0.31642   0.31838    0.000
 6746.00    0.31500   0.31821    0.000
 6747.00    0.32573   0.31808    0.000
 6748.00    0.34833   0.31797    0.000
 6749.00    0.37390   0.31780    0.000
 6750.00    0.39205   0.31756    0.000
 6751.00    0.39413   0.31731    0.000
 6752.00    0.37659   0.31717    0.000
 6753.00    0.34388   0.31714   29.080
 6754.00    0.31163   0.31723   32.089
 6755.00    0.29423   0.31740   33.987
 6756.00    0.28472   0.31760   35.122
 6757.00    0.26877   0.31782   37.207
 6758.00    0.25059   0.31804   37.546
 6759.00    0.24372   0.31822   37.546
 6760.00    0.25191   0.31832   37.546
 6761.00    0.26982   0.31830   37.062
 6762.00    0.28836   0.31816   34.679
 6763.00    0.30040   0.31795   33.289
 6764.00    0.30697   0.31766   32.577
 6765.00    0.31209   0.31730   32.042
 6766.00    0.31544   0.31698   31.702
 6767.00    0.31566   0.31676   31.679
 6768.00    0.31536   0.31661   31.710
 6769.00    0.31835   0.31648   31.412
 6770.00    0.32595   0.31643   30.680
 6771.00    0.33664   0.31660   29.706
 6772.00    0.34636   0.31695   28.872
 6773.00    0.35095   0.31738   28.494
 6774.00    0.34867   0.31777   28.680
 6775.00    0.34151   0.31811   29.282
 6776.00    0.33560   0.31848   29.797
 6777.00    0.33690   0.31879   29.682
 6778.00    0.34687   0.31885   28.829
 6779.00    0.36276   0.31863   27.567
 6780.00    0.37843   0.31824   26.425
 6781.00    0.38766   0.31777   25.796
 6782.00    0.38768   0.31716   25.795
 6783.00    0.38631   0.31638   25.886
 6784.00    0.40404   0.31557   24.750
 6785.00    0.44558   0.31489   22.443
 6786.00    0.48215   0.31439   -1.000
 6787.00    0.48554   0.31401   -1.000
 6788.00    0.45332   0.31372   -1.000
 6789.00    0.40179   0.31352   24.889
 6790.00    0.35662   0.31345   28.041
 6791.00    0.33197   0.31343   30.123
 6792.00    0.31908   0.31339   31.340
 6793.00    0.30194   0.31334   33.119
 6794.00    0.26965   0.31336   37.085
 6795.00    0.22788   0.31346   -1.000
 6796.00    0.20129   0.31357   -1.000
 6797.00    0.20953   0.31370   -1.000
 6798.00    0.25309   0.31398   37.546
 6799.00    0.31371   0.31434   31.877
 6800.00    0.35996   0.31464   27.781
 6801.00    0.37260   0.31486   26.839
 6802.00    0.35516   0.31507   28.156
 6803.00    0.32072   0.31531   31.180
 6804.00    0.28372   0.31549   35.246
 6805.00    0.25514   0.31552   37.546
 6806.00    0.24007   0.31546   37.546
 6807.00    0.23716   0.31544   37.546
 6808.00    0.24014   0.31543   37.546
 6809.00    0.24479   0.31538   37.546
 6810.00    0.25134   0.31531   37.546
 6811.00    0.26207   0.31525   37.546
 6812.00    0.27846   0.31513   35.911
 6813.00    0.29473   0.31489   33.930
 6814.00    0.29935   0.31458   33.405
 6815.00    0.28955   0.31428   34.536
 6816.00    0.27339   0.31399   36.577
 6817.00    0.25904   0.31373   37.546
 6818.00    0.25171   0.31356   37.546
 6819.00    0.25650   0.31352   37.546
 6820.00    0.27659   0.31364   36.154
 6821.00    0.30514   0.31386   32.772
 6822.00    0.32568   0.31406   30.705
 6823.00    0.32095   0.31417   31.158
 6824.00    0.28371   0.31426   35.247
 6825.00    0.23840   0.31431   37.546
 6826.00    0.22548   0.31422   -1.000
 6827.00    0.24562   0.31396   37.546
 6828.00    0.26507   0.31368   37.546
 6829.00    0.26652   0.31349   37.521
 6830.00    0.25680   0.31339   37.546
 6831.00    0.25324   0.31325   37.546
 6832.00    0.27215   0.31311   36.744
 6833.00    0.31091   0.31308   32.164
 6834.00    0.35070   0.31309   28.514
 6835.00    0.37141   0.31301   26.924
 6836.00    0.36177   0.31273   27.642
 6837.00    0.33263   0.31236   30.063
 6838.00    0.30714   0.31202   32.559
 6839.00    0.29647   0.31165   33.730
 6840.00    0.29743   0.31116   33.622
 6841.00    0.29740   0.31070   33.625
 6842.00    0.28597   0.31049   34.969
 6843.00    0.27285   0.31059   36.651
 6844.00    0.27672   0.31076   36.137
 6845.00    0.30156   0.31093   33.161
 6846.00    0.33638   0.31125   29.728
 6847.00    0.36192   0.31168   27.631
 6848.00    0.36239   0.31201   27.594
 6849.00    0.34126   0.31212   29.303
 6850.00    0.31419   0.31206   31.828
 6851.00    0.29533   0.31191   33.860
 6852.00    0.29233   0.31173   34.208
 6853.00    0.30240   0.31148   33.068
 6854.00    0.31695   0.31114   31.551
 6855.00    0.32820   0.31072   30.470
 6856.00    0.33147   0.31036   30.168
 6857.00    0.32677   0.31008   30.603
 6858.00    0.31700   0.30981   31.545
 6859.00    0.30554   0.30954   32.729
 6860.00    0.29282   0.30938   34.151
 6861.00    0.27351   0.30938   36.561
 6862.00    0.24464   0.30944   37.546
 6863.00    0.21416   0.30947   -1.000
 6864.00    0.19638   0.30950   -1.000
 6865.00    0.20528   0.30965   -1.000
 6866.00    0.24272   0.30988   37.546
 6867.00    0.28926   0.31002   34.571
 6868.00    0.32236   0.31000   31.021
 6869.00    0.33356   0.30985   29.980
 6870.00    0.32525   0.30967   30.746
 6871.00    0.30602   0.30950   32.678
 6872.00    0.28631   0.30935   34.927
 6873.00    0.27473   0.30931   36.399
 6874.00    0.27533   0.30939   36.320
 6875.00    0.28571   0.30963   35.001
 6876.00    0.29836   0.31006   33.516
 6877.00    0.30316   0.31060   32.986
 6878.00    0.29776   0.31105   33.584
 6879.00    0.29287   0.31134   34.145
 6880.00    0.29696   0.31143   33.675
 6881.00    0.30672   0.31126   32.603
 6882.00    0.31629   0.31092   31.617
 6883.00    0.32337   0.31047   30.924
 6884.00    0.32733   0.31003   30.550
 6885.00    0.32785   0.30956   30.502
 6886.00    0.32562   0.30925   30.710
 6887.00    0.32290   0.30929   30.969
 6888.00    0.32406   0.30961   30.859
 6889.00    0.33452   0.31005   29.894
 6890.00    0.35333   0.31057   28.302
 6891.00    0.37088   0.31111   26.963
 6892.00    0.37760   0.31159   26.483
 6893.00    0.36921   0.31194   27.085
 6894.00    0.34946   0.31216   28.616
 6895.00    0.33021   0.31218   30.284
 6896.00    0.32600   0.31198   30.675
 6897.00    0.34813   0.31178   28.725
 6898.00    0.39090   0.31166   25.582
 6899.00    0.43058   0.31147   23.225
 6900.00    0.44572   0.31119   -1.000
 6901.00    0.42730   0.31100   23.403
 6902.00    0.38365   0.31093   26.066
 6903.00    0.33711   0.31081   29.664
 6904.00    0.30477   0.31067   32.811
 6905.00    0.29250   0.31080   34.188
 6906.00    0.30005   0.31120   33.328
 6907.00    0.32244   0.31157   31.013
 6908.00    0.34802   0.31180   28.734
 6909.00    0.36265   0.31201   27.575
 6910.00    0.36487   0.31225   27.407
 6911.00    0.36480   0.31229   27.413
 6912.00    0.36639   0.31196   27.294
 6913.00    0.36567   0.31142   27.347
 6914.00    0.36167   0.31089   27.650
 6915.00    0.35788   0.31041   27.942
 6916.00    0.35755   0.30998   27.968
 6917.00    0.36122   0.30967   27.684
 6918.00    0.36415   0.30949   27.461
 6919.00    0.35881   0.30946   27.870
 6920.00    0.34266   0.30954   29.184
 6921.00    0.31883   0.30964   31.365
 6922.00    0.29311   0.30962   34.117
 6923.00    0.27102   0.30951   36.897
 6924.00    0.25322   0.30943   37.546
 6925.00    0.23802   0.30939   37.546
 6926.00    0.22866   0.30946   37.546
 6927.00    0.23044   0.30957   37.546
 6928.00    0.24206   0.30965   37.546
 6929.00    0.25874   0.30975   37.546
 6930.00    0.28118   0.30987   35.564
 6931.00    0.31092   0.30988   32.163
 6932.00    0.33905   0.30968   29.494
 6933.00    0.35311   0.30950   28.320
 6934.00    0.35213   0.30936   28.399
 6935.00    0.34359   0.30909   29.105
 6936.00    0.33406   0.30884   29.934
 6937.00    0.32751   0.30877   30.534
 6938.00    0.32501   0.30881   30.768
 6939.00    0.32581   0.30871   30.693
 6940.00    0.32861   0.30857   30.431
 6941.00    0.33056   0.30855   30.252
 6942.00    0.32582   0.30858   30.692
 6943.00    0.31181   0.30851   32.071
 6944.00    0.29722   0.30837   33.645
 6945.00    0.29288   0.30840   34.144
 6946.00    0.29879   0.30864   33.468
 6947.00    0.30579   0.30889   32.702
 6948.00    0.30041   0.30918   33.288
 6949.00    0.27811   0.30955   35.956
 6950.00    0.25633   0.30991   37.546
 6951.00    0.25413   0.31015   37.546
 6952.00    0.26916   0.31023   37.152
 6953.00    0.28925   0.31008   34.572
 6954.00    0.30706   0.30976   32.567
 6955.00    0.31961   0.30948   31.288
 6956.00    0.32643   0.30928   30.635
 6957.00    0.33087   0.30908   30.224
 6958.00    0.34071   0.30891   29.350
 6959.00    0.35958   0.30895   27.810
 6960.00    0.37997   0.30913   26.318
 6961.00    0.39185   0.30931   25.520
 6962.00    0.39047   0.30955   25.610
 6963.00    0.37429   0.30982   26.717
 6964.00    0.34370   0.31002   29.095
 6965.00    0.30831   0.31009   32.435
 6966.00    0.28987   0.31010   34.498
 6967.00    0.29993   0.31008   33.341
 6968.00    0.32543   0.30999   30.728
 6969.00    0.34733   0.30984   28.791
 6970.00    0.35502   0.30965   28.168
 6971.00    0.34905   0.30953   28.649
 6972.00    0.33975   0.30936   29.434
 6973.00    0.33008   0.30907   30.295
 6974.00    0.30876   0.30866   32.388
 6975.00    0.27598   0.30818   36.235
 6976.00    0.25387   0.30762   37.546
 6977.00    0.25259   0.30702   37.546
 6978.00    0.25583   0.30658   37.546
 6979.00    0.25275   0.30643   37.546
 6980.00    0.25277   0.30654   37.546
 6981.00    0.26609   0.30685   37.546
 6982.00    0.29304   0.30748   34.125
 6983.00    0.32455   0.30834   30.812
 6984.00    0.34577   0.30912   28.921
 6985.00    0.35074   0.30970   28.511
 6986.00    0.34684   0.31014   28.832
 6987.00    0.34350   0.31031   29.112
 6988.00    0.34563   0.31016   28.932
 6989.00    0.34855   0.30997   28.690
 6990.00    0.34065   0.30989   29.356
 6991.00    0.32258   0.30973   31.000
 6992.00    0.30923   0.30944   32.338
 6993.00    0.30718   0.30929   32.555
 6994.00    0.31000   0.30936   32.258
 6995.00    0.31400   0.30940   31.847
 6996.00    0.32147   0.30928   31.108
 6997.00    0.33128   0.30905   30.186
 6998.00    0.33776   0.30879   29.607
 6999.00    0.33790   0.30852   29.595
 7000.00    0.33329   0.30821   30.004
 7001.00    0.32838   0.30781   -2.000
 7002.00    0.32808   0.30733   -2.000
 7003.00    0.33268   0.30688   -2.000
 7004.00    0.33731   0.30655   -2.000
 7005.00    0.33498   0.30639   -2.000
 7006.00    0.32138   0.30633   -2.000
 7007.00    0.30490   0.30633   -2.000
 7008.00    0.30109   0.30645   -2.000
 7009.00    0.31207   0.30670   -2.000
 7010.00    0.32741   0.30691   -2.000
 7011.00    0.33903   0.30696   -2.000
 7012.00    0.34383   0.30686   -2.000
 7013.00    0.34088   0.30665   -2.000
 7014.00    0.33158   0.30623   -2.000
 7015.00    0.32118   0.30562   -2.000
 7016.00    0.31550   0.30516   -2.000
 7017.00    0.31357   0.30503   -2.000
 7018.00    0.31084   0.30500   -2.000
 7019.00    0.30839   0.30499   -2.000
 7020.00    0.30984   0.30529   -2.000
 7021.00    0.31228   0.30595   -2.000
 7022.00    0.31077   0.30657   -2.000
 7023.00    0.30888   0.30701   -2.000
 7024.00    0.31324   0.30751   -2.000
 7025.00    0.32114   0.30801   -2.000
 7026.00    0.32676   0.30834   -2.000
 7027.00    0.33387   0.30863   -2.000
 7028.00    0.34695   0.30910   -2.000
 7029.00    0.35526   0.30951   -2.000
 7030.00    0.34516   0.30966   -2.000
 7031.00    0.32135   0.30976   -2.000
 7032.00    0.29816   0.30988   -2.000
 7033.00    0.28343   0.30983   -2.000
 7034.00    0.27950   0.30964   -2.000
 7035.00    0.28724   0.30939   -2.000
 7036.00    0.30337   0.30908   -2.000
 7037.00    0.31716   0.30879   -2.000
 7038.00    0.32092   0.30883   -2.000
 7039.00    0.32216   0.30925   -2.000
 7040.00    0.33135   0.30981   -2.000
 7041.00    0.34683   0.31043   -2.000
 7042.00    0.35993   0.31122   -2.000
 7043.00    0.36277   0.31211   -2.000
 7044.00    0.35249   0.31281   -2.000
 7045.00    0.33428   0.31310   -2.000
 7046.00    0.31497   0.31297   -2.000
 7047.00    0.29664   0.31244   -2.000
 7048.00    0.28038   0.31134   -2.000
 7049.00    0.27002   0.31014   -2.000
 7050.00    0.27034   0.30930   -2.000
 7051.00    0.28407   0.30841   -2.000
 7052.00    0.30371   0.30698   -2.000
 7053.00    0.30787   0.30585   -2.000
 7054.00    0.28883   0.30537   -2.000
 7055.00    0.27072   0.30483   -2.000
 7056.00    0.27306   0.30391   -2.000
 7057.00    0.28516   0.30300   -2.000
 7058.00    0.29371   0.30213   -2.000
 7059.00    0.30193   0.30134   -2.000
 7060.00    0.31120   0.30068   -2.000
 7061.00    0.31060   0.30006   -2.000
 7062.00    0.29978   0.29949   -2.000
 7063.00    0.29982   0.29911   -2.000
 7064.00    0.32199   0.29881   -2.000
 7065.00    0.35095   0.29862   -2.000
 7066.00    0.36678   0.29858   -2.000
 7067.00    0.36011   0.29861   -2.000
 7068.00    0.33843   0.29859   -2.000
 7069.00    0.32476   0.29870   -2.000
 7070.00    0.33252   0.29904   -2.000
 7071.00    0.35396   0.29939   -2.000
 7072.00    0.37123   0.29972   -2.000
 7073.00    0.36692   0.30010   -2.000
 7074.00    0.34445   0.30051   -2.000
 7075.00    0.33014   0.30073   -2.000
 7076.00    0.33637   0.30077   -2.000
 7077.00    0.35042   0.30079   -2.000
 7078.00    0.36259   0.30072   -2.000
 7079.00    0.37476   0.30037   -2.000
 7080.00    0.38193   0.29993   -2.000
 7081.00    0.36972   0.29945   -2.000
 7082.00    0.33620   0.29868   -2.000
 7083.00    0.29687   0.29759   -2.000
 7084.00    0.26957   0.29645   -2.000
 7085.00    0.26478   0.29518   -2.000
 7086.00    0.27334   0.29361   -2.000
 7087.00    0.27161   0.29186   -2.000
 7088.00    0.25356   0.29022   -2.000
 7089.00    0.23487   0.28873   -2.000
 7090.00    0.22986   0.28724   -2.000
 7091.00    0.24323   0.28589   -2.000
 7092.00    0.26905   0.28485   -2.000
 7093.00    0.29398   0.28416   -2.000
 7094.00    0.30725   0.28381   -2.000
 7095.00    0.30447   0.28380   -2.000
 7096.00    0.28969   0.28396   -2.000
 7097.00    0.27177   0.28437   -2.000
 7098.00    0.25365   0.28516   -2.000
 7099.00    0.23416   0.28609   -2.000
 7100.00    0.21924   0.28694   -2.000
 7101.00    0.21915   0.28773   -2.000
 7102.00    0.23493   0.28865   -2.000
 7103.00    0.25707   0.28943   -2.000
 7104.00    0.27038   0.28992   -2.000
 7105.00    0.26310   0.29015   -2.000
 7106.00    0.24317   0.29032   -2.000
 7107.00    0.22866   0.29054   -2.000
 7108.00    0.22145   0.29067   -2.000
 7109.00    0.21268   0.29064   -2.000
 7110.00    0.20370   0.29065   -2.000
 7111.00    0.20205   0.29090   -2.000
 7112.00    0.20669   0.29117   -2.000
 7113.00    0.21201   0.29139   -2.000
 7114.00    0.21929   0.29175   -2.000
 7115.00    0.23264   0.29226   -2.000
 7116.00    0.24903   0.29278   -2.000
 7117.00    0.26125   0.29322   -2.000
 7118.00    0.26534   0.29357   -2.000
 7119.00    0.26365   0.29383   -2.000
 7120.00    0.26700   0.29389   -2.000
 7121.00    0.28358   0.29364   -2.000
 7122.00    0.30328   0.29321   -2.000
 7123.00    0.30923   0.29260   -2.000
 7124.00    0.29638   0.29163   -2.000
 7125.00    0.26981   0.29034   -2.000
 7126.00    0.23912   0.28906   -2.000
 7127.00    0.21547   0.28777   -2.000
 7128.00    0.20823   0.28644   -2.000
 7129.00    0.21810   0.28514   -2.000
 7130.00    0.23085   0.28416   -2.000
 7131.00    0.23499   0.28363   -2.000
 7132.00    0.24087   0.28340   -2.000
 7133.00    0.26169   0.28338   -2.000
 7134.00    0.29215   0.28356   -2.000
 7135.00    0.32161   0.28394   -2.000
 7136.00    0.34878   0.28444   -2.000
 7137.00    0.37222   0.28490   -2.000
 7138.00    0.38116   0.28525   -2.000
 7139.00    0.37093   0.28549   -2.000
 7140.00    0.35543   0.28576   -2.000
 7141.00    0.34425   0.28594   -2.000
 7142.00    0.32492   0.28601   -2.000
 7143.00    0.29315   0.28596   -2.000
 7144.00    0.27423   0.28590   -2.000
 7145.00    0.28012   0.28581   -2.000
 7146.00    0.28043   0.28561   -2.000
 7147.00    0.25565   0.28532   -2.000
 7148.00    0.23298   0.28520   -2.000
 7149.00    0.23830   0.28531   -2.000
 7150.00    0.26276   0.28560   -2.000
 7151.00    0.28488   0.28603   -2.000
 7152.00    0.28919   0.28677   -2.000
 7153.00    0.27819   0.28767   -2.000
 7154.00    0.27405   0.28860   -2.000
 7155.00    0.28472   0.28943   -2.000
 7156.00    0.28936   0.29013   -2.000
 7157.00    0.27949   0.29061   -2.000
 7158.00    0.27614   0.29079   -2.000
 7159.00    0.28589   0.29074   -2.000
 7160.00    0.28315   0.29057   -2.000
 7161.00    0.25174   0.29018   -2.000
 7162.00    0.20321   0.28933   -2.000
 7163.00    0.15335   0.28837   -2.000
 7164.00    0.11244   0.28754   -2.000
 7165.00    0.09946   0.28691   -2.000
 7166.00    0.13812   0.28605   -2.000
 7167.00    0.20745   0.28533   -2.000
 7168.00    0.24079   0.28499   -2.000
 7169.00    0.21901   0.28507   -2.000
 7170.00    0.19139   0.28515   -2.000
 7171.00    0.19096   0.28517   -2.000
 7172.00    0.20713   0.28535   -2.000
 7173.00    0.22050   0.28562   -2.000
 7174.00    0.21982   0.28577   -2.000
 7175.00    0.21083   0.28577   -2.000
 7176.00    0.21256   0.28577   -2.000
 7177.00    0.23386   0.28580   -2.000
 7178.00    0.26763   0.28568   -2.000
 7179.00    0.30065   0.28534   -2.000
 7180.00    0.31973   0.28510   -2.000
 7181.00    0.32032   0.28502   -2.000
 7182.00    0.30787   0.28487   -2.000
 7183.00    0.29358   0.28454   -2.000
 7184.00    0.28828   0.28436   -2.000
 7185.00    0.28969   0.28430   -2.000
 7186.00    0.28742   0.28415   -2.000
 7187.00    0.28657   0.28387   -2.000
 7188.00    0.29896   0.28366   -2.000
 7189.00    0.30496   0.28351   -2.000
 7190.00    0.27417   0.28344   -2.000
 7191.00    0.23909   0.28343   -2.000
 7192.00    0.26708   0.28346   -2.000
 7193.00    0.35391   0.28367   -2.000
 7194.00    0.43847   0.28402   -2.000
 7195.00    0.49122   0.28418   -2.000
 7196.00    0.51725   0.28403   -2.000
 7197.00    0.51992   0.28394   -2.000
 7198.00    0.49137   0.28393   -2.000
 7199.00    0.41089   0.28374   -2.000
 7200.00    0.27999   0.28329   -2.000
 7201.00    0.18545   0.28289   -2.000
 7202.00    0.22228   0.28266   -2.000
 7203.00    0.33736   0.28260   -2.000
 7204.00    0.40543   0.28240   -2.000
 7205.00    0.40644   0.28200   -2.000
 7206.00    0.38757   0.28167   -2.000
 7207.00    0.35227   0.28160   -2.000
 7208.00    0.28571   0.28153   -2.000
 7209.00    0.22061   0.28127   -2.000
 7210.00    0.19965   0.28117   -2.000
 7211.00    0.20714   0.28139   -2.000
 7212.00    0.21114   0.28176   -2.000
 7213.00    0.23344   0.28215   -2.000
 7214.00    0.29852   0.28265   -2.000
 7215.00    0.35629   0.28318   -2.000
 7216.00    0.34507   0.28372   -2.000
 7217.00    0.28192   0.28433   -2.000
 7218.00    0.22143   0.28487   -2.000
