###################################################################
## OUTPUT of StarlightChains_v04.for    [Cid@UFSC - 01/Apr/2007] ##
###################################################################

## Some input info
2012C.txt                                [arq_obs]
Base.CB07.vall.4m                        [arq_base]
Masks.EmLines.NEW.gm                     [arq_masks]
StCv04.C11.config                        [arq_config]
   66                                    [N_base]
    0                                    [N_YAV_components = # of components with extra extinction!]
    0                                    [i_FitPowerLaw (1/0 = Yes/No)]
-9.99                                    [alpha_PowerLaw]
CCM                                      [red_law_option]
 1.458241                                [q_norm = A(l_norm)/A(V)]

## (Re)Sampling Parameters
 3741.00                                 [l_ini (A)]
 7218.00                                 [l_fin (A)]
    1.00                                 [dl    (A)]     (OBS: dl_cushion =    50.00 A)

## Normalization info
 4020.00                                 [l_norm (A) - for base]
 4010.00                                 [llow_norm (A) - window for f_obs]
 4060.00                                 [lupp_norm (A) - window for f_obs]
3.392481E-16                             [fobs_norm (in input units)]

## S/N
 3691.00                                 [llow_SN (A) - window for S/N]
 7268.00                                 [lupp_SN (A) - window for S/N]
   7.938                                 [S/N in S/N window]
   9.873                                 [S/N in norm. window]
  25.916                                 [S/N_err in S/N window]
  32.232                                 [S/N_err in norm. window]
  1.0000                                 [fscale_chi2]

## etc...
    -2007390                             [idum_orig]
  2384                                   [NOl_eff]
  2379                                   [Nl_eff]
     5    NSIGMA                         [Ntot_cliped & clip_method]
  1923250                                [Nglobal_steps]
   7                                     [N_chains]
  25                                     [NEX0s_base = N_base in EX0s-fits]
 0   0   1        5   2.0   6.967E+01    [Clip-Bug, RC-Crash & Burn-In warning-flags, n_censored_weights, wei_nsig_threshold & wei_limit]
    21     20.559     20.030      0.530  [idt_all, wdt_TotTime, wdt_UsrTime & wdt_SysTime (sec)]

## Synthesis Results - Best model ##

 3.74114E-01                             [chi2/Nl_eff]
     1.70151                             [adev (%)]

   102.85384                             [sum-of-x (%)]
 5.84379E-16                             [Flux_tot (units of input spectrum!)]
 2.78667E-12                             [Mini_tot (???)]
 1.57843E-12                             [Mcor_tot (???)]

-132.34                                  [v0_min  (km/s)]
 154.04                                  [vd_min  (km/s)]
 0.3840                                  [AV_min  (mag)]
 0.0000                                  [YAV_min (mag)]

# j     x_j(%)      Mini_j(%)     Mcor_j(%)     age_j(yr)     Z_j      (L/M)_j    YAV?  Mstars   component_j        a/Fe...       SSP_chi2r SSP_adev(%)   SSP_AV   SSP_x(%)
  1      2.8296     5.2735E-02    9.3102E-02    1.000000E+06  0.00400  1.094E-02    0   1.0000   age020_m42            0.0000     2.6099E+00     5.0462   2.6342    85.6642
  2      1.4845     7.5535E-03    1.3334E-02    3.160000E+06  0.00400  4.007E-02    0   0.9999   age045_m42            0.0000     1.7366E+00     3.6904   1.9047    91.7460
  3      0.0000     0.0000E+00    0.0000E+00    5.010000E+06  0.00400  2.539E-02    0   0.9488   age055_m42            0.0000     2.0137E+00     4.1715   2.2231    89.5442
  4      0.0000     0.0000E+00    0.0000E+00    6.610000E+06  0.00400  2.620E-02    0   0.9220   age061_m42            0.0000     1.5738E+00     3.5608   1.8234    92.2808
  5      0.2944     4.5410E-03    7.1046E-03    1.000000E+07  0.00400  1.322E-02    0   0.8862   age070_m42            0.0000     1.1828E+00     3.1561   1.4826    96.8011
  6      0.0000     0.0000E+00    0.0000E+00    1.445000E+07  0.00400  7.883E-03    0   0.8571   age078_m42            0.0000     1.4243E+00     3.5459   1.8175    93.9994
  7      0.0000     0.0000E+00    0.0000E+00    2.512000E+07  0.00400  5.251E-03    0   0.8174   age090_m42            0.0000     1.1794E+00     3.1449   1.3415    97.8436
  8      0.0000     0.0000E+00    0.0000E+00    4.000000E+07  0.00400  3.649E-03    0   0.7851   age104_m42            0.0000     1.0165E+00     2.8990   1.1185    98.4726
  9      0.0000     0.0000E+00    0.0000E+00    5.500000E+07  0.00400  3.098E-03    0   0.7629   age110_m42            0.0000     1.0397E+00     2.8604   1.2972    97.3715
 10      0.0000     0.0000E+00    0.0000E+00    1.015200E+08  0.00400  2.228E-03    0   0.7207   age116_m42            0.0000     1.1137E+00     2.9873   1.3342    96.8328
 11      0.0000     0.0000E+00    0.0000E+00    2.861200E+08  0.00400  1.093E-03    0   0.6648   age125_m42            0.0000     1.1471E+00     3.0102   0.7368   101.0512
 12      0.0000     0.0000E+00    0.0000E+00    5.088000E+08  0.00400  6.597E-04    0   0.6365   age130_m42            0.0000     1.0592E+00     3.0489   0.7540   100.6744
 13      1.9711     1.8850E+00    1.9296E+00    1.434000E+09  0.00400  2.132E-04    0   0.5798   age139_m42            0.0000     6.2818E-01     2.4818  -0.2062   102.2201
 14      0.0000     0.0000E+00    0.0000E+00    4.250000E+09  0.00400  5.895E-05    0   0.5377   age158_m42            0.0000     1.0946E+00     3.2413  -0.6044    96.4518
 15      2.4132     1.4017E+01    1.2898E+01    7.500000E+09  0.00400  3.510E-05    0   0.5212   age171_m42            0.0000     1.4897E+00     3.7704  -0.7754    95.1125
 16      0.0000     0.0000E+00    0.0000E+00    1.300000E+10  0.00400  2.005E-05    0   0.5034   age193_m42            0.0000     1.9460E+00     4.3091  -0.9246    93.9478
 17      1.3104     1.7520E+01    1.5363E+01    1.800000E+10  0.00400  1.525E-05    0   0.4967   age213_m42            0.0000     1.8878E+00     4.2231  -0.9519    93.7048
 18      3.9438     6.4951E-02    1.1467E-01    1.000000E+06  0.00800  1.238E-02    0   1.0000   age020_m52            0.0000     2.6058E+00     5.0525   2.6319    85.7771
 19      1.3312     8.8292E-03    1.5535E-02    3.160000E+06  0.00800  3.074E-02    0   0.9966   age045_m52            0.0000     2.5491E+00     4.9559   2.5565    86.4884
 20      0.0000     0.0000E+00    0.0000E+00    5.010000E+06  0.00800  2.668E-02    0   0.9443   age055_m52            0.0000     2.0422E+00     4.3036   2.3044    88.7833
 21     10.9368     1.0439E-01    1.6914E-01    6.610000E+06  0.00800  2.136E-02    0   0.9177   age061_m52            0.0000     8.1497E-01     2.8434   0.9880    97.6831
 22      0.3631     6.0926E-03    9.4945E-03    1.000000E+07  0.00800  1.215E-02    0   0.8827   age070_m52            0.0000     1.3430E+00     3.4322   1.6444    97.3481
 23      0.0000     0.0000E+00    0.0000E+00    1.445000E+07  0.00800  8.717E-03    0   0.8552   age078_m52            0.0000     1.2709E+00     3.3376   1.7791    95.4698
 24      0.5745     2.0946E-02    3.0182E-02    2.512000E+07  0.00800  5.592E-03    0   0.8162   age090_m52            0.0000     1.1349E+00     3.0715   1.3999    99.2518
 25      0.0257     1.3462E-03    1.8635E-03    4.000000E+07  0.00800  3.896E-03    0   0.7841   age104_m52            0.0000     1.0355E+00     2.8941   1.3214    99.6286
 26      0.0000     0.0000E+00    0.0000E+00    1.015200E+08  0.00800  2.148E-03    0   0.7226   age116_m52            0.0000     9.4787E-01     2.7811   1.2858    98.3206
 27      0.0000     0.0000E+00    0.0000E+00    2.861200E+08  0.00800  9.925E-04    0   0.6683   age125_m52            0.0000     9.4333E-01     2.8661   0.8158   101.7539
 28      0.0000     0.0000E+00    0.0000E+00    9.047900E+08  0.00800  3.141E-04    0   0.6138   age135_m52            0.0000     9.8025E-01     3.2052   0.0474   104.6571
 29      0.0000     0.0000E+00    0.0000E+00    1.434000E+09  0.00800  1.719E-04    0   0.5853   age139_m52            0.0000     1.0661E+00     3.2172  -0.5283   102.3382
 30      0.0000     0.0000E+00    0.0000E+00    2.500000E+09  0.00800  7.872E-05    0   0.5600   age150_m52            0.0000     1.6396E+00     4.0901  -0.7496    97.5411
 31      0.0000     0.0000E+00    0.0000E+00    4.250000E+09  0.00800  4.336E-05    0   0.5426   age158_m52            0.0000     1.7525E+00     4.1570  -0.7616    96.4884
 32      0.0000     0.0000E+00    0.0000E+00    6.250000E+09  0.00800  3.159E-05    0   0.5319   age166_m52            0.0000     2.4567E+00     4.9639  -0.9388    95.4501
 33      0.0000     0.0000E+00    0.0000E+00    1.300000E+10  0.00800  1.361E-05    0   0.5073   age193_m52            0.0000     6.6295E+00     8.4637  -1.0000    78.6049
 34      0.0000     0.0000E+00    0.0000E+00    1.800000E+10  0.00800  9.886E-06    0   0.4990   age213_m52            0.0000     8.8299E+00     9.8557  -1.0000    74.3842
 35      1.9674     2.5979E-02    4.5866E-02    1.000000E+06  0.02000  1.544E-02    0   1.0000   age020_m62            0.0000     2.6327E+00     5.0978   2.6274    85.9970
 36      2.2177     1.2019E-02    2.0918E-02    3.160000E+06  0.02000  3.762E-02    0   0.9858   age045_m62            0.0000     2.6468E+00     5.0994   2.5684    86.6678
 37      0.0000     0.0000E+00    0.0000E+00    5.010000E+06  0.02000  3.296E-02    0   0.9342   age055_m62            0.0000     1.8980E+00     4.0093   2.1893    90.4053
 38      9.6554     1.7059E-01    2.6687E-01    8.710000E+06  0.02000  1.154E-02    0   0.8861   age067_m62            0.0000     3.8271E+00     6.1760   0.9917   104.9265
 39      0.0000     0.0000E+00    0.0000E+00    1.445000E+07  0.02000  7.663E-03    0   0.8472   age078_m62            0.0000     1.7330E+00     3.9230   1.2551   101.2206
 40      0.0000     0.0000E+00    0.0000E+00    2.512000E+07  0.02000  4.532E-03    0   0.8099   age090_m62            0.0000     2.0093E+00     4.1567   1.2410   101.2426
 41      0.0000     0.0000E+00    0.0000E+00    5.500000E+07  0.02000  2.733E-03    0   0.7595   age110_m62            0.0000     1.0169E+00     2.9004   1.3054    98.8551
 42      0.0000     0.0000E+00    0.0000E+00    1.609000E+08  0.02000  1.369E-03    0   0.6985   age120_m62            0.0000     9.6222E-01     2.8411   1.1721   100.3320
 43      0.0028     6.4378E-04    7.6310E-04    2.861200E+08  0.02000  9.013E-04    0   0.6714   age125_m62            0.0000     9.6607E-01     2.9851   0.9336   102.6795
 44      0.0000     0.0000E+00    0.0000E+00    5.088000E+08  0.02000  5.028E-04    0   0.6449   age130_m62            0.0000     1.1269E+00     3.4120   0.5928   103.7352
 45      0.0000     0.0000E+00    0.0000E+00    9.047900E+08  0.02000  2.428E-04    0   0.6179   age135_m62            0.0000     1.1277E+00     3.4507   0.0239   102.4094
 46      0.0000     0.0000E+00    0.0000E+00    1.434000E+09  0.02000  1.263E-04    0   0.5908   age139_m62            0.0000     1.4339E+00     3.7841  -0.4086   100.3986
 47      0.0000     0.0000E+00    0.0000E+00    2.500000E+09  0.02000  5.985E-05    0   0.5673   age150_m62            0.0000     2.3550E+00     4.8847  -0.7376    97.4253
 48      4.3935     2.7385E+01    2.6437E+01    4.250000E+09  0.02000  3.271E-05    0   0.5468   age158_m62            0.0000     3.6403E+00     6.2156  -1.0000    94.8173
 49      0.0000     0.0000E+00    0.0000E+00    1.000000E+10  0.02000  1.360E-05    0   0.5167   age181_m62            0.0000     7.3969E+00     8.8741  -1.0000    80.5167
 50      0.0000     0.0000E+00    0.0000E+00    1.800000E+10  0.02000  7.124E-06    0   0.5013   age213_m62            0.0000     1.1451E+01    11.2111  -1.0000    72.4047
 51      3.0971     2.4362E-02    4.3002E-02    1.000000E+06  0.05000  2.592E-02    0   0.9998   age020_m72            0.0000     2.6963E+00     5.2135   2.6173    86.0791
 52      0.0045     1.8846E-05    3.1865E-05    3.160000E+06  0.05000  4.845E-02    0   0.9577   age045_m72            0.0000     2.4547E+00     4.7344   2.4574    87.5936
 53      0.0000     0.0000E+00    0.0000E+00    5.010000E+06  0.05000  3.072E-02    0   0.9147   age055_m72            0.0000     2.0208E+00     4.2359   1.8832    95.5546
 54      0.0000     0.0000E+00    0.0000E+00    6.610000E+06  0.05000  1.455E-02    0   0.8877   age061_m72            0.0000     9.7088E+00     9.0592   0.9934   108.1911
 55      0.0000     0.0000E+00    0.0000E+00    1.000000E+07  0.05000  9.074E-03    0   0.8524   age070_m72            0.0000     3.7205E+00     5.1758   2.0650    95.4450
 56      0.0000     0.0000E+00    0.0000E+00    2.512000E+07  0.05000  4.250E-03    0   0.7902   age090_m72            0.0000     2.4352E+00     4.2110   1.7581    97.4710
 57      0.0000     0.0000E+00    0.0000E+00    4.000000E+07  0.05000  3.087E-03    0   0.7618   age104_m72            0.0000     2.4983E+00     4.2108   1.5182    99.6385
 58      0.0000     0.0000E+00    0.0000E+00    1.015200E+08  0.05000  1.700E-03    0   0.7096   age116_m72            0.0000     1.1665E+00     3.0547   1.2954   100.7658
 59      0.0000     0.0000E+00    0.0000E+00    2.861200E+08  0.05000  7.384E-04    0   0.6633   age125_m72            0.0000     9.7416E-01     3.1154   0.8181   103.3526
 60     44.4202     2.3715E+01    2.6678E+01    5.088000E+08  0.05000  3.819E-04    0   0.6372   age130_m72            0.0000     1.0653E+00     3.4103   0.3597   103.5068
 61      6.6154     8.0476E+00    8.6810E+00    9.047900E+08  0.05000  1.676E-04    0   0.6110   age135_m72            0.0000     2.1776E+00     4.8436  -0.2832    99.3840
 62      3.0015     6.9251E+00    7.1815E+00    1.434000E+09  0.05000  8.837E-05    0   0.5874   age139_m72            0.0000     2.6553E+00     5.1879  -0.7362    98.7808
 63      0.0000     0.0000E+00    0.0000E+00    2.500000E+09  0.05000  4.233E-05    0   0.5598   age150_m72            0.0000     4.1641E+00     6.6635  -0.9923    95.2897
 64      0.0000     0.0000E+00    0.0000E+00    6.250000E+09  0.05000  1.435E-05    0   0.5249   age166_m72            0.0000     9.1595E+00    10.0066  -1.0000    76.6299
 65      0.0000     0.0000E+00    0.0000E+00    1.300000E+10  0.05000  6.513E-06    0   0.5036   age193_m72            0.0000     1.5383E+01    13.2241  -1.0000    67.7397
 66      0.0000     0.0000E+00    0.0000E+00    1.800000E+10  0.05000  4.527E-06    0   0.4945   age213_m72            0.0000     1.9685E+01    15.1329  -1.0000    62.5679


## Synthesis Results - Average & Chains ##

# j      x_j: min, <> & last-chain-values for 1 ...  7 chains
  1      2.8296      1.6515      1.6741      2.0681      1.9925      2.5266      1.6178      1.7044      2.1825
  2      1.4845      2.3863      2.5726      2.4991      2.9628      3.4907      1.7218      2.1540      2.3457
  3      0.0000      0.0928      0.0000      0.0000      0.0000      0.0000      0.0000      0.1735      0.0000
  4      0.0000      0.1348      0.0000      0.0000      0.2116      0.0000      0.0000      0.0000      0.0000
  5      0.2944      1.2790      1.0766      1.2919      2.6288      1.5221      1.1274      1.6185      1.5916
  6      0.0000      0.2271      0.3995      0.0000      0.7181      0.0000      0.2702      0.0000      0.4496
  7      0.0000      0.4573      0.5978      0.2249      0.0000      0.0000      0.0000      0.0000      0.3989
  8      0.0000      0.5983      1.0134      0.6819      0.3456      0.0338      0.4626      0.7469      0.0000
  9      0.0000      0.2985      0.2428      0.3565      0.0000      0.0000      0.0000      0.2553      0.0000
 10      0.0000      0.1859      0.0000      0.0000      0.0000      0.0000      0.0000      0.0000      0.0000
 11      0.0000      0.2445      0.0000      0.0000      0.0000      0.1906      0.0822      0.0000      0.1283
 12      0.0000      0.2213      0.5628      0.0000      0.0000      0.1943      0.1661      0.0000      0.0000
 13      1.9711      0.4437      0.0000      0.4609      0.2543      1.6773      1.3804      1.0965      0.0400
 14      0.0000      0.1280      0.8999      0.0606      0.0000      0.0000      0.0000      0.0000      0.0000
 15      2.4132      1.6551      1.3642      1.7542      1.6178      1.7403      2.4486      1.8061      1.7780
 16      0.0000      0.0407      0.1540      0.0000      0.1195      0.0000      0.2628      0.0000      0.0000
 17      1.3104      0.7939      0.9330      0.5315      1.0020      0.8978      0.8695      0.8346      1.2078
 18      3.9438      2.8304      2.9215      3.0462      2.8004      3.2565      3.5581      2.5968      3.4728
 19      1.3312      1.2424      1.2816      1.3173      1.3539      0.9780      1.9670      1.4510      1.1956
 20      0.0000      0.1425      0.0000      0.1780      0.0000      0.0000      0.1034      0.0000      0.1149
 21     10.9368     13.3223     13.5256     13.2739     13.8757     13.5985     13.6475     13.5669     13.4713
 22      0.3631      1.5452      0.0000      0.3454      1.7621      0.7404      1.5548      2.1230      1.3618
 23      0.0000      0.2023      0.3711      0.2995      0.0000      0.0000      0.0717      0.0000      0.4100
 24      0.5745      0.7219      1.7930      1.4615      0.5161      0.0000      0.6435      0.8294      1.4767
 25      0.0257      0.2497      0.0000      0.0000      0.0000      0.5165      1.5841      0.0000      0.4286
 26      0.0000      0.2096      0.0900      0.0000      0.0000      0.0000      0.3409      0.0000      0.0000
 27      0.0000      0.2964      0.0000      0.8893      0.0506      0.0000      0.0000      0.0000      0.2649
 28      0.0000      0.2912      0.0000      0.0000      0.0000      0.0000      0.0000      0.0000      0.0000
 29      0.0000      0.1180      0.0000      0.0639      0.0000      0.0000      0.0000      0.0000      0.0000
 30      0.0000      0.8095      0.8539      0.8429      0.0000      0.8296      0.0000      0.5950      0.9086
 31      0.0000      0.0310      0.0000      0.0000      0.0989      0.0000      0.0000      0.0000      0.0000
 32      0.0000      0.1167      0.0000      0.0000      0.0000      0.5140      0.2102      0.0022      0.0000
 33      0.0000      0.0416      0.0000      0.0000      0.0000      0.0000      0.0000      0.0000      0.0000
 34      0.0000      0.0420      0.0000      0.0000      0.0000      0.0000      0.0000      0.0000      0.1918
 35      1.9674      1.9880      2.1136      1.9987      1.6963      2.8021      2.4033      1.7107      1.7606
 36      2.2177      2.0208      1.6437      1.9594      2.0544      1.9327      1.9423      1.9624      2.1407
 37      0.0000      0.3602      0.6418      0.0000      0.0000      0.7414      0.0000      0.8473      0.0000
 38      9.6554      4.8429      5.3968      5.7500      6.8291      5.0762      4.9592      6.4836      5.3518
 39      0.0000      0.3869      0.1345      1.0368      0.4265      0.0000      0.0000      0.4412      0.0000
 40      0.0000      0.4325      0.1090      0.0000      0.0000      0.0000      0.0000      0.0330      0.5571
 41      0.0000      0.2246      0.8608      0.0064      0.0000      0.0000      0.0000      0.0122      0.6944
 42      0.0000      0.3175      0.0000      0.0000      0.0000      0.2958      0.0000      0.1058      0.0000
 43      0.0028      0.6139      0.8743      0.4346      0.0000      0.6293      1.3048      0.6830      0.1667
 44      0.0000      0.4794      0.0000      0.0000      0.1827      0.1888      0.0000      0.0000      0.2872
 45      0.0000      2.6677      1.5278      2.2549      2.0627      0.0000      1.2038      2.4580      2.4217
 46      0.0000      0.2487      0.0000      0.1668      0.3750      0.0000      0.2519      0.3556      0.0000
 47      0.0000      0.1106      0.0000      0.0000      0.1930      0.0000      0.0000      0.0000      0.2286
 48      4.3935      3.1625      3.4807      3.6407      3.2446      3.9979      3.3181      3.1834      3.0374
 49      0.0000      0.0566      0.0000      0.0000      0.0778      0.0000      0.0000      0.0667      0.1251
 50      0.0000      0.1404      0.3076      0.0000      0.0000      0.0287      0.2501      0.2706      0.0444
 51      3.0971      2.3942      2.6729      2.5494      2.1226      2.9795      3.0414      2.1753      2.3426
 52      0.0045      0.5353      0.9212      0.5957      0.4738      0.3697      0.5315      0.9451      0.5883
 53      0.0000      0.1614      0.0566      0.0000      0.0000      0.7735      0.0465      0.3566      0.0000
 54      0.0000      0.1398      0.0000      0.1786      0.0000      0.0000      0.0000      0.0000      0.0000
 55      0.0000      0.0768      0.0000      0.0132      0.0000      0.1843      0.1516      0.0000      0.0000
 56      0.0000      0.0946      0.0000      0.0000      0.0000      0.0000      0.0784      0.0000      0.0000
 57      0.0000      0.1325      0.0000      0.0000      0.0000      0.0000      0.0000      0.4257      0.0000
 58      0.0000      0.2339      0.0000      0.7448      0.0000      0.0397      0.0000      0.0000      0.0000
 59      0.0000      0.3844      0.0000      0.6455      0.2880      0.3038      0.0000      0.2978      0.0707
 60     44.4202     40.1708     41.3268     40.8154     42.1605     41.9173     41.1622     41.0363     41.2820
 61      6.6154      4.3931      5.1264      5.3519      4.5823      4.9731      5.2241      4.2480      5.1163
 62      3.0015      2.6000      2.7979      2.5997      3.4655      2.7283      2.5564      2.7365      2.8427
 63      0.0000      0.0546      0.0000      0.0000      0.0000      0.0000      0.0000      0.0000      0.0000
 64      0.0000      0.0220      0.0000      0.1457      0.0000      0.0000      0.0000      0.1202      0.0000
 65      0.0000      0.0118      0.0000      0.0000      0.0000      0.0000      0.0000      0.0000      0.0000
 66      0.0000      0.0258      0.0000      0.0000      0.0000      0.0000      0.0000      0.0000      0.0000

# j      m_j: min, <> & last-chain-values for 1 ...  7 chains
  1  9.3102E-02  6.0120E-02  5.8219E-02  8.0997E-02  7.5663E-02  9.1292E-02  5.5908E-02  6.1345E-02  7.7021E-02
  2  1.3334E-02  2.3715E-02  2.4424E-02  2.6720E-02  3.0714E-02  3.4432E-02  1.6244E-02  2.1165E-02  2.2599E-02
  3  0.0000E+00  1.3806E-03  0.0000E+00  0.0000E+00  0.0000E+00  0.0000E+00  0.0000E+00  2.5536E-03  0.0000E+00
  4  0.0000E+00  1.8897E-03  0.0000E+00  0.0000E+00  3.0929E-03  0.0000E+00  0.0000E+00  0.0000E+00  0.0000E+00
  5  7.1046E-03  3.4147E-02  2.7458E-02  3.7107E-02  7.3206E-02  4.0332E-02  2.8572E-02  4.2722E-02  4.1193E-02
  6  0.0000E+00  9.8359E-03  1.6525E-02  0.0000E+00  3.2436E-02  0.0000E+00  1.1108E-02  0.0000E+00  1.8874E-02
  7  0.0000E+00  2.8354E-02  3.5401E-02  1.5003E-02  0.0000E+00  0.0000E+00  0.0000E+00  0.0000E+00  2.3976E-02
  8  0.0000E+00  5.1263E-02  8.2957E-02  6.2857E-02  3.0893E-02  2.8779E-03  3.7628E-02  6.3275E-02  0.0000E+00
  9  0.0000E+00  2.9279E-02  2.2748E-02  3.7619E-02  0.0000E+00  0.0000E+00  0.0000E+00  2.4760E-02  0.0000E+00
 10  0.0000E+00  2.3952E-02  0.0000E+00  0.0000E+00  0.0000E+00  0.0000E+00  0.0000E+00  0.0000E+00  0.0000E+00
 11  0.0000E+00  5.9227E-02  0.0000E+00  0.0000E+00  0.0000E+00  4.5827E-02  1.8899E-02  0.0000E+00  3.0124E-02
 12  0.0000E+00  8.5033E-02  2.0657E-01  0.0000E+00  0.0000E+00  7.4098E-02  6.0574E-02  0.0000E+00  0.0000E+00
 13  1.9296E+00  4.8056E-01  0.0000E+00  5.3702E-01  2.8735E-01  1.8031E+00  1.4192E+00  1.1742E+00  4.1994E-02
 14  0.0000E+00  4.6513E-01  3.1230E+00  2.3682E-01  0.0000E+00  0.0000E+00  0.0000E+00  0.0000E+00  0.0000E+00
 15  1.2898E+01  9.7881E+00  7.7067E+00  1.1161E+01  9.9795E+00  1.0215E+01  1.3746E+01  1.0560E+01  1.0193E+01
 16  0.0000E+00  4.0657E-01  1.4713E+00  0.0000E+00  1.2467E+00  0.0000E+00  2.4941E+00  0.0000E+00  0.0000E+00
 17  1.5363E+01  1.0298E+01  1.1561E+01  7.4175E+00  1.3558E+01  1.1559E+01  1.0707E+01  1.0703E+01  1.5188E+01
 18  1.1467E-01  9.1053E-02  8.9779E-02  1.0543E-01  9.3971E-02  1.0398E-01  1.0866E-01  8.2596E-02  1.0830E-01
 19  1.5535E-02  1.6042E-02  1.5808E-02  1.8299E-02  1.8235E-02  1.2533E-02  2.4109E-02  1.8523E-02  1.4965E-02
 20  0.0000E+00  2.0092E-03  0.0000E+00  2.6996E-03  0.0000E+00  0.0000E+00  1.3830E-03  0.0000E+00  1.5703E-03
 21  1.6914E-01  2.2795E-01  2.2108E-01  2.4435E-01  2.4766E-01  2.3094E-01  2.2167E-01  2.2952E-01  2.2345E-01
 22  9.4945E-03  4.4708E-02  0.0000E+00  1.0750E-02  5.3181E-02  2.1262E-02  4.2704E-02  6.0734E-02  3.8197E-02
 23  0.0000E+00  7.9052E-03  1.3850E-02  1.2589E-02  0.0000E+00  0.0000E+00  2.6577E-03  0.0000E+00  1.5530E-02
 24  3.0182E-02  4.1964E-02  9.9564E-02  9.1399E-02  3.1292E-02  0.0000E+00  3.5507E-02  4.7670E-02  8.3213E-02
 25  1.8635E-03  2.0012E-02  0.0000E+00  0.0000E+00  0.0000E+00  4.1091E-02  1.2053E-01  0.0000E+00  3.3306E-02
 26  0.0000E+00  2.8076E-02  1.1521E-02  0.0000E+00  0.0000E+00  0.0000E+00  4.3354E-02  0.0000E+00  0.0000E+00
 27  0.0000E+00  7.9477E-02  0.0000E+00  2.5657E-01  1.4143E-02  0.0000E+00  0.0000E+00  0.0000E+00  6.8878E-02
 28  0.0000E+00  2.2664E-01  0.0000E+00  0.0000E+00  0.0000E+00  0.0000E+00  0.0000E+00  0.0000E+00  0.0000E+00
 29  0.0000E+00  1.6002E-01  0.0000E+00  9.3177E-02  0.0000E+00  0.0000E+00  0.0000E+00  0.0000E+00  0.0000E+00
 30  0.0000E+00  2.2935E+00  2.3111E+00  2.5691E+00  0.0000E+00  2.3328E+00  0.0000E+00  1.6666E+00  2.4954E+00
 31  0.0000E+00  1.5434E-01  0.0000E+00  0.0000E+00  5.1408E-01  0.0000E+00  0.0000E+00  0.0000E+00  0.0000E+00
 32  0.0000E+00  7.8245E-01  0.0000E+00  0.0000E+00  0.0000E+00  3.4208E+00  1.3382E+00  1.4746E-02  0.0000E+00
 33  0.0000E+00  6.1727E-01  0.0000E+00  0.0000E+00  0.0000E+00  0.0000E+00  0.0000E+00  0.0000E+00  0.0000E+00
 34  0.0000E+00  8.4430E-01  0.0000E+00  0.0000E+00  0.0000E+00  0.0000E+00  0.0000E+00  0.0000E+00  3.7375E+00
 35  4.5866E-02  5.1279E-02  5.2081E-02  5.5463E-02  4.5641E-02  7.1738E-02  5.8847E-02  4.3627E-02  4.4024E-02
 36  2.0918E-02  2.1090E-02  1.6387E-02  2.1999E-02  2.2364E-02  2.0019E-02  1.9242E-02  2.0248E-02  2.1658E-02
 37  0.0000E+00  4.0655E-03  6.9206E-03  0.0000E+00  0.0000E+00  8.3068E-03  0.0000E+00  9.4561E-03  0.0000E+00
 38  2.6687E-01  1.4810E-01  1.5766E-01  1.8917E-01  2.1784E-01  1.5407E-01  1.4396E-01  1.9603E-01  1.5866E-01
 39  0.0000E+00  1.7036E-02  5.6588E-03  4.9114E-02  1.9588E-02  0.0000E+00  0.0000E+00  1.9208E-02  0.0000E+00
 40  0.0000E+00  3.0780E-02  7.4095E-03  0.0000E+00  0.0000E+00  0.0000E+00  0.0000E+00  2.3203E-03  3.8435E-02
 41  0.0000E+00  2.4856E-02  9.1005E-02  7.5910E-04  0.0000E+00  0.0000E+00  0.0000E+00  1.3316E-03  7.4505E-02
 42  0.0000E+00  6.4526E-02  0.0000E+00  0.0000E+00  0.0000E+00  5.9664E-02  0.0000E+00  2.1264E-02  0.0000E+00
 43  7.6310E-04  1.8212E-01  2.4777E-01  1.3873E-01  0.0000E+00  1.8531E-01  3.6747E-01  2.0034E-01  4.7950E-02
 44  0.0000E+00  2.4487E-01  0.0000E+00  0.0000E+00  9.7346E-02  9.5746E-02  0.0000E+00  0.0000E+00  1.4224E-01
 45  0.0000E+00  2.7038E+00  1.4793E+00  2.4587E+00  2.1807E+00  0.0000E+00  1.1582E+00  2.4631E+00  2.3794E+00
 46  0.0000E+00  4.6334E-01  0.0000E+00  3.3428E-01  7.2868E-01  0.0000E+00  4.4550E-01  6.5501E-01  0.0000E+00
 47  0.0000E+00  4.1754E-01  0.0000E+00  0.0000E+00  7.6014E-01  0.0000E+00  0.0000E+00  0.0000E+00  8.3666E-01
 48  2.6437E+01  2.1054E+01  2.2137E+01  2.6076E+01  2.2533E+01  2.6418E+01  2.0970E+01  2.0954E+01  1.9604E+01
 49  0.0000E+00  8.5669E-01  0.0000E+00  0.0000E+00  1.2272E+00  0.0000E+00  0.0000E+00  9.9766E-01  1.8355E+00
 50  0.0000E+00  3.9348E+00  8.2340E+00  0.0000E+00  0.0000E+00  7.9767E-01  6.6546E+00  7.4988E+00  1.2066E+00
 51  4.3002E-02  3.6780E-02  3.9225E-02  4.2133E-02  3.4012E-02  4.5430E-02  4.4351E-02  3.3039E-02  3.4886E-02
 52  3.1865E-05  4.2143E-03  6.9276E-03  5.0450E-03  3.8904E-03  2.8891E-03  3.9716E-03  7.3564E-03  4.4899E-03
 53  0.0000E+00  1.9143E-03  6.4091E-04  0.0000E+00  0.0000E+00  9.1043E-03  5.2333E-04  4.1807E-03  0.0000E+00
 54  0.0000E+00  3.3973E-03  0.0000E+00  4.6684E-03  0.0000E+00  0.0000E+00  0.0000E+00  0.0000E+00  0.0000E+00
 55  0.0000E+00  2.8736E-03  0.0000E+00  5.3268E-04  0.0000E+00  6.8424E-03  5.3824E-03  0.0000E+00  0.0000E+00
 56  0.0000E+00  7.0059E-03  0.0000E+00  0.0000E+00  0.0000E+00  0.0000E+00  5.5097E-03  0.0000E+00  0.0000E+00
 57  0.0000E+00  1.3023E-02  0.0000E+00  0.0000E+00  0.0000E+00  0.0000E+00  0.0000E+00  4.1368E-02  0.0000E+00
 58  0.0000E+00  3.8879E-02  0.0000E+00  1.3321E-01  0.0000E+00  6.5543E-03  0.0000E+00  0.0000E+00  0.0000E+00
 59  0.0000E+00  1.3750E-01  0.0000E+00  2.4844E-01  1.0748E-01  1.0788E-01  0.0000E+00  1.0532E-01  2.4533E-02
 60  2.6678E+01  2.6693E+01  2.6233E+01  2.9178E+01  2.9223E+01  2.7646E+01  2.5965E+01  2.6961E+01  2.6593E+01
 61  8.6810E+00  6.3783E+00  7.1101E+00  8.3597E+00  6.9397E+00  7.1666E+00  7.2000E+00  6.0980E+00  7.2012E+00
 62  7.1815E+00  6.8827E+00  7.0756E+00  7.4041E+00  9.5696E+00  7.1686E+00  6.4241E+00  7.1625E+00  7.2954E+00
 63  0.0000E+00  2.8749E-01  0.0000E+00  0.0000E+00  0.0000E+00  0.0000E+00  0.0000E+00  0.0000E+00  0.0000E+00
 64  0.0000E+00  3.1991E-01  0.0000E+00  2.2827E+00  0.0000E+00  0.0000E+00  0.0000E+00  1.7314E+00  0.0000E+00
 65  0.0000E+00  3.6440E-01  0.0000E+00  0.0000E+00  0.0000E+00  0.0000E+00  0.0000E+00  0.0000E+00  0.0000E+00
 66  0.0000E+00  1.1244E+00  0.0000E+00  0.0000E+00  0.0000E+00  0.0000E+00  0.0000E+00  0.0000E+00  0.0000E+00

# AV, chi2 & Mass for <> & i_chain = 1 ...  7 solutions
AV       0.3840      0.4574      0.4483      0.4584      0.4594      0.4488      0.4526      0.4570      0.4511
chi2 3.7411E-01  3.9147E-01  3.8754E-01  3.8868E-01  3.8742E-01  3.8732E-01  3.8696E-01  3.8879E-01  3.8730E-01
Mass 1.5784E-12  1.5745E-12  1.6282E-12  1.4654E-12  1.5135E-12  1.5681E-12  1.6480E-12  1.5916E-12  1.6105E-12
-132.34                                  [v0_min (km/s) before EX0s...]
 154.04                                  [vd_min (km/s) before EX0s...]


## Synthetic spectrum (Best Model) ##l_obs f_obs f_syn wei
 3478    [Nl_obs]
 3741.00    0.62820   0.71025    0.000
 3742.00    0.62306   0.69245    0.000
 3743.00    0.60756   0.66776    0.000
 3744.00    0.58039   0.63773    0.000
 3745.00    0.54391   0.60444   13.706
 3746.00    0.51543   0.57325   14.098
 3747.00    0.51962   0.55144   13.958
 3748.00    0.55297   0.54572   13.239
 3749.00    0.58649   0.55994   12.685
 3750.00    0.60675   0.59198   12.650
 3751.00    0.62003   0.63349   13.069
 3752.00    0.62914   0.67376   13.557
 3753.00    0.63307   0.70417   13.560
 3754.00    0.64280   0.72105   13.199
 3755.00    0.67234   0.72566   13.068
 3756.00    0.70800   0.72274   13.268
 3757.00    0.72031   0.71900   13.512
 3758.00    0.70759   0.71940   13.654
 3759.00    0.69159   0.72393   13.761
 3760.00    0.68751   0.72906   13.906
 3761.00    0.69800   0.73092   14.119
 3762.00    0.71482   0.72615   14.389
 3763.00    0.72377   0.71314   14.691
 3764.00    0.71328   0.69241   15.059
 3765.00    0.68040   0.66505   15.499
 3766.00    0.63774   0.63427   15.787
 3767.00    0.60503   0.60701   15.688
 3768.00    0.59344   0.59026   15.423
 3769.00    0.60454   0.58810   15.311
 3770.00    0.63249   0.60198   15.212
 3771.00    0.66695   0.62923   14.868
 3772.00    0.69681   0.66296   14.420
 3773.00    0.71570   0.69699   14.132
 3774.00    0.72823   0.72886   14.028
 3775.00    0.74450   0.75859   13.974
 3776.00    0.77166   0.78621   13.795
 3777.00    0.80548   0.81066   13.470
 3778.00    0.82384   0.83079   13.288
 3779.00    0.81480   0.84602   13.453
 3780.00    0.80456   0.85548   13.738
 3781.00    0.81562   0.85792   13.837
 3782.00    0.82467   0.85292   13.827
 3783.00    0.80832   0.84140   13.903
 3784.00    0.78708   0.82452   14.071
 3785.00    0.78379   0.80476   14.246
 3786.00    0.78554   0.78632   14.379
 3787.00    0.77438   0.77142   14.474
 3788.00    0.75399   0.75839   14.594
 3789.00    0.73102   0.74384   14.818
 3790.00    0.70070   0.72458   15.206
 3791.00    0.66381   0.69828   15.714
 3792.00    0.63701   0.66441   16.123
 3793.00    0.62938   0.62542   16.218
 3794.00    0.62890   0.58750   15.999
 3795.00    0.62548   0.55902   15.721
 3796.00    0.62459   0.54728   15.765
 3797.00    0.63288   0.55672   16.176
 3798.00    0.64941   0.58705   16.474
 3799.00    0.66946   0.63146   16.458
 3800.00    0.68800   0.67925   16.616
 3801.00    0.70550   0.72148   17.113
 3802.00    0.72859   0.75373   17.357
 3803.00    0.75833   0.77592   17.024
 3804.00    0.78629   0.79154   16.565
 3805.00    0.80467   0.80551   16.383
 3806.00    0.81146   0.82142   16.528
 3807.00    0.81147   0.83902   16.805
 3808.00    0.81347   0.85357   16.871
 3809.00    0.81769   0.85954   16.712
 3810.00    0.81457   0.85528   16.690
 3811.00    0.80030   0.84341   16.922
 3812.00    0.78124   0.82952   17.173
 3813.00    0.76741   0.81934   17.285
 3814.00    0.76736   0.81430   17.306
 3815.00    0.77928   0.81131   17.245
 3816.00    0.79202   0.80721   17.044
 3817.00    0.79768   0.80118   16.748
 3818.00    0.79496   0.79457   16.498
 3819.00    0.78719   0.78986   16.394
 3820.00    0.77909   0.78761   16.467
 3821.00    0.76999   0.78461   16.687
 3822.00    0.75493   0.77635   16.988
 3823.00    0.73215   0.76185   17.325
 3824.00    0.70455   0.74447   17.662
 3825.00    0.67841   0.72737   17.881
 3826.00    0.65964   0.71033   17.870
 3827.00    0.64635   0.69079   17.774
 3828.00    0.63128   0.66603   17.819
 3829.00    0.61020   0.63469   17.874
 3830.00    0.58449   0.59758   17.675
 3831.00    0.56237   0.55889   17.420
 3832.00    0.55202   0.52622   17.473
 3833.00    0.54925   0.50669   17.726
 3834.00    0.54490   0.50410   17.843
 3835.00    0.54129   0.51864   17.907
 3836.00    0.54877   0.54668   18.165
 3837.00    0.57540   0.58272   18.401
 3838.00    0.61988   0.62255   18.273
 3839.00    0.66461   0.66316   18.036
 3840.00    0.69222   0.70203   18.094
 3841.00    0.70934   0.73684   18.323
 3842.00    0.73086   0.76575   18.391
 3843.00    0.75561   0.78848   18.325
 3844.00    0.77550   0.80583   18.275
 3845.00    0.79048   0.81877   18.134
 3846.00    0.80419   0.82871   17.753
 3847.00    0.81705   0.83702    0.000
 3848.00    0.82850   0.84454    0.000
 3849.00    0.84013   0.85229    0.000
 3850.00    0.85379   0.86048    0.000
 3851.00    0.86913   0.86667    0.000
 3852.00    0.88180   0.86848    0.000
 3853.00    0.88323   0.86642    0.000
 3854.00    0.87281   0.86214    0.000
 3855.00    0.86647   0.85758    0.000
 3856.00    0.87489   0.85521    0.000
 3857.00    0.88711   0.85616    0.000
 3858.00    0.89336   0.86049    0.000
 3859.00    0.90158   0.86855    0.000
 3860.00    0.91740   0.87887    0.000
 3861.00    0.93081   0.88765    0.000
 3862.00    0.93391   0.89240    0.000
 3863.00    0.93232   0.89365    0.000
 3864.00    0.93468   0.89322    0.000
 3865.00    0.94393   0.89210    0.000
 3866.00    0.94975   0.88964    0.000
 3867.00    0.93023   0.88401    0.000
 3868.00    0.88615   0.87382    0.000
 3869.00    0.85133   0.86019    0.000
 3870.00    0.84218   0.84691    0.000
 3871.00    0.83938   0.83789    0.000
 3872.00    0.83380   0.83448    0.000
 3873.00    0.84074   0.83353    0.000
 3874.00    0.85566   0.82973    0.000
 3875.00    0.84600   0.82060    0.000
 3876.00    0.80770   0.80749    0.000
 3877.00    0.77593   0.79316    0.000
 3878.00    0.76584   0.77989    0.000
 3879.00    0.75847   0.76666    0.000
 3880.00    0.74150   0.74924    0.000
 3881.00    0.72084   0.72483   20.112
 3882.00    0.70438   0.69362   19.746
 3883.00    0.69625   0.65637   19.548
 3884.00    0.69830   0.61487   19.589
 3885.00    0.70927   0.57512   19.471
 3886.00    0.72052   0.54621   -1.000
 3887.00    0.72041   0.53525   -1.000
 3888.00    0.70993   0.54506   -1.000
 3889.00    0.70143   0.57349   20.155
 3890.00    0.70263   0.61274   20.270
 3891.00    0.71310   0.65331   20.377
 3892.00    0.72719   0.68909   20.555
 3893.00    0.73733   0.71836   20.694
 3894.00    0.74022   0.74184   20.768
 3895.00    0.73914   0.76130   20.822
 3896.00    0.74558   0.77831   20.743
 3897.00    0.76980   0.79356   20.405
 3898.00    0.80128   0.80756   20.023
 3899.00    0.81914   0.82074   19.914
 3900.00    0.82008   0.83194   20.037
 3901.00    0.81621   0.83888   20.117
 3902.00    0.82106   0.84197   20.011
 3903.00    0.84047   0.84502   19.762
 3904.00    0.86270   0.85142   19.551
 3905.00    0.87447   0.86289   19.515
 3906.00    0.88788   0.87939   19.535
 3907.00    0.91992   0.89761   19.437
 3908.00    0.95680   0.91254   19.321
 3909.00    0.97190   0.92113   19.367
 3910.00    0.95817   0.92329   19.506
 3911.00    0.92657   0.92035   19.617
 3912.00    0.89726   0.91414   19.818
 3913.00    0.88508   0.90671   20.206
 3914.00    0.88424   0.89916   20.480
 3915.00    0.88209   0.89121   20.317
 3916.00    0.87673   0.88312   19.922
 3917.00    0.87215   0.87620   19.616
 3918.00    0.87100   0.87171   19.400
 3919.00    0.87511   0.87054   19.215
 3920.00    0.88601   0.87213   19.188
 3921.00    0.89856   0.87376   19.395
 3922.00    0.89672   0.87175   19.643
 3923.00    0.87200   0.86328   19.743
 3924.00    0.83796   0.84700   19.787
 3925.00    0.80864   0.82328   19.960
 3926.00    0.78080   0.79348   20.362
 3927.00    0.74495   0.75846   21.005
 3928.00    0.69606   0.71915   21.800
 3929.00    0.64024   0.67840   22.554
 3930.00    0.59640   0.64162   22.997
 3931.00    0.57658   0.61579   23.007
 3932.00    0.57459   0.60752   22.762
 3933.00    0.58270   0.62042   22.512
 3934.00    0.60155   0.65240   22.410
 3935.00    0.63231   0.69557   22.437
 3936.00    0.67193   0.74014   22.408
 3937.00    0.71513   0.77883   22.210
 3938.00    0.75590   0.80804   21.910
 3939.00    0.78865   0.82697   21.610
 3940.00    0.80913   0.83739   21.360
 3941.00    0.81681   0.84343   21.150
 3942.00    0.81588   0.84885   20.938
 3943.00    0.81470   0.85544   20.773
 3944.00    0.82279   0.86326   20.792
 3945.00    0.83945   0.87024   20.974
 3946.00    0.85328   0.87374   21.093
 3947.00    0.85984   0.87385   20.991
 3948.00    0.86518   0.87323   20.684
 3949.00    0.87133   0.87333   20.278
 3950.00    0.87329   0.87302   19.903
 3951.00    0.86815   0.87083   19.673
 3952.00    0.85779   0.86680   19.658
 3953.00    0.84667   0.86105   19.798
 3954.00    0.83870   0.85285   19.921
 3955.00    0.83070   0.84219   19.911
 3956.00    0.81459   0.82985   19.790
 3957.00    0.78953   0.81497   19.755
 3958.00    0.76135   0.79465   20.046
 3959.00    0.73166   0.76671   20.570
 3960.00    0.69802   0.73195    0.000
 3961.00    0.66205   0.69299    0.000
 3962.00    0.62869   0.65078    0.000
 3963.00    0.59970   0.60434    0.000
 3964.00    0.57487   0.55411    0.000
 3965.00    0.55785   0.50419    0.000
 3966.00    0.55364   0.46174    0.000
 3967.00    0.56073   0.43501    0.000
 3968.00    0.57274   0.43031    0.000
 3969.00    0.58485   0.44938    0.000
 3970.00    0.59474   0.48824    0.000
 3971.00    0.60225   0.53873    0.000
 3972.00    0.61060   0.59249    0.000
 3973.00    0.62803   0.64428    0.000
 3974.00    0.66039   0.69161    0.000
 3975.00    0.69939   0.73326    0.000
 3976.00    0.73306   0.76870    0.000
 3977.00    0.76316   0.79766    0.000
 3978.00    0.79652   0.81977    0.000
 3979.00    0.82975   0.83526    0.000
 3980.00    0.85385   0.84575    0.000
 3981.00    0.86343   0.85434   20.665
 3982.00    0.86261   0.86420   20.829
 3983.00    0.86933   0.87632   20.684
 3984.00    0.89515   0.88923   19.969
 3985.00    0.92375   0.90110   19.071
 3986.00    0.93573   0.91139   18.391
 3987.00    0.93640   0.92039   17.894
 3988.00    0.94018   0.92813   17.504
 3989.00    0.95211   0.93481   17.389
 3990.00    0.96869   0.94042   17.677
 3991.00    0.98131   0.94358   18.236
 3992.00    0.98563   0.94267   18.873
 3993.00    0.98831   0.93797   19.562
 3994.00    0.99431   0.93246   20.231
 3995.00    0.99733   0.92992   20.558
 3996.00    0.99153   0.93269   20.438
 3997.00    0.98061   0.94091   20.318
 3998.00    0.97289   0.95189   20.504
 3999.00    0.97605   0.96049   20.735
 4000.00    0.98981   0.96254   20.641
 4001.00    1.00269   0.95802   20.150
 4002.00    1.00274   0.94975   19.613
 4003.00    0.98608   0.94131   19.615
 4004.00    0.96513   0.93685   20.122
 4005.00    0.96666   0.93983   20.174
 4006.00    0.99456   0.94942   19.493
 4007.00    1.01787   0.96089   19.088
 4008.00    1.01863   0.97048   19.359
 4009.00    1.01131   0.97739   19.629
 4010.00    1.01123   0.98215   19.442
 4011.00    1.02007   0.98529   19.141
 4012.00    1.03368   0.98765   19.012
 4013.00    1.04615   0.99004   18.974
 4014.00    1.05038   0.99292   18.909
 4015.00    1.04148   0.99624   18.786
 4016.00    1.02935   0.99956   18.594
 4017.00    1.03377   1.00233   18.341
 4018.00    1.04859   1.00287   18.131
 4019.00    1.04337   0.99849   18.121
 4020.00    1.01594   0.98867   18.333
 4021.00    0.99605   0.97626   18.639
 4022.00    0.99620   0.96522   18.957
 4023.00    1.00352   0.95851   19.283
 4024.00    1.00558   0.95726   19.588
 4025.00    0.99937   0.95965   19.785
 4026.00    0.99244   0.96092   19.778
 4027.00    0.99561   0.95669   19.554
 4028.00    1.00335   0.94664   19.364
 4029.00    1.00000   0.93497   19.528
 4030.00    0.98793   0.92797   19.947
 4031.00    0.98246   0.92989   20.218
 4032.00    0.98362   0.94079   20.303
 4033.00    0.98169   0.95806   20.463
 4034.00    0.98319   0.97767   20.643
 4035.00    1.00190   0.99518   20.583
 4036.00    1.02957   1.00704   20.360
 4037.00    1.04590   1.01141   20.242
 4038.00    1.04860   1.00856   20.245
 4039.00    1.04786   0.99994   20.228
 4040.00    1.04615   0.98733   20.208
 4041.00    1.03841   0.97246   20.302
 4042.00    1.01890   0.95704   20.561
 4043.00    0.98821   0.94441   20.897
 4044.00    0.96179   0.93966   21.030
 4045.00    0.95791   0.94593   20.751
 4046.00    0.97843   0.96029   20.329
 4047.00    1.00972   0.97481   20.170
 4048.00    1.02904   0.98348   20.391
 4049.00    1.02113   0.98519   20.872
 4050.00    0.99711   0.98094   21.298
 4051.00    0.97511   0.97266   21.411
 4052.00    0.95528   0.96338   21.366
 4053.00    0.93524   0.95600   21.435
 4054.00    0.92925   0.95223   21.607
 4055.00    0.94679   0.95210   21.716
 4056.00    0.96978   0.95396   21.636
 4057.00    0.97572   0.95588   21.377
 4058.00    0.96235   0.95599   21.122
 4059.00    0.94077   0.95221   21.024
 4060.00    0.92593   0.94404   21.052
 4061.00    0.92731   0.93411   21.093
 4062.00    0.94215   0.92709   21.047
 4063.00    0.96127   0.92637   20.884
 4064.00    0.97526   0.93067   20.672
 4065.00    0.98202   0.93534   20.456
 4066.00    0.99010   0.93771   20.199
 4067.00    1.00176   0.93802   19.909
 4068.00    1.00373   0.93614   19.703
 4069.00    0.98880   0.93164   19.702
 4070.00    0.96827   0.92570   19.957
 4071.00    0.95372   0.91988   20.323
 4072.00    0.94586   0.91325   20.424
 4073.00    0.93990   0.90335   20.204
 4074.00    0.93029   0.89094   20.118
 4075.00    0.91681   0.88135   20.311
 4076.00    0.90633   0.88034   20.358
 4077.00    0.90470   0.88963   20.172
 4078.00    0.91199   0.90507   20.275
 4079.00    0.92049   0.91920   20.736
 4080.00    0.91809   0.92642   20.880
 4081.00    0.90744   0.92565   20.550
 4082.00    0.90758   0.91999   20.441
 4083.00    0.92425   0.91414   20.725
 4084.00    0.94247   0.91127   20.806
 4085.00    0.94847   0.91155   20.534
 4086.00    0.93862   0.91272   20.442
 4087.00    0.91908   0.91173   20.670
 4088.00    0.90148   0.90663   20.836
 4089.00    0.88921   0.89702   20.882
 4090.00    0.87609   0.88299   21.165
 4091.00    0.85767   0.86445   21.655
 4092.00    0.83473   0.84124    0.000
 4093.00    0.81258   0.81291    0.000
 4094.00    0.79810   0.77901    0.000
 4095.00    0.79234   0.74049    0.000
 4096.00    0.79227   0.69925    0.000
 4097.00    0.80047   0.65775    0.000
 4098.00    0.82267   0.62016    0.000
 4099.00    0.85530   0.59297    0.000
 4100.00    0.88460   0.58353    0.000
 4101.00    0.89202   0.59622    0.000
 4102.00    0.86610   0.62818    0.000
 4103.00    0.82425   0.67006    0.000
 4104.00    0.79806   0.71210    0.000
 4105.00    0.79482   0.74814    0.000
 4106.00    0.80189   0.77603    0.000
 4107.00    0.80983   0.79709    0.000
 4108.00    0.81699   0.81430    0.000
 4109.00    0.82924   0.83059    0.000
 4110.00    0.85289   0.84772    0.000
 4111.00    0.88339   0.86540    0.000
 4112.00    0.90927   0.88168    0.000
 4113.00    0.92120   0.89417   21.319
 4114.00    0.91657   0.90129   21.583
 4115.00    0.90344   0.90301   21.693
 4116.00    0.89391   0.90068   21.682
 4117.00    0.89409   0.89683   21.631
 4118.00    0.90308   0.89496   21.634
 4119.00    0.91388   0.89722   21.779
 4120.00    0.91997   0.90289   21.909
 4121.00    0.92280   0.91003   21.445
 4122.00    0.92772   0.91684   20.726
 4123.00    0.93816   0.92138   21.886
 4124.00    0.95186   0.92175   25.134
 4125.00    0.95858   0.91740   21.950
 4126.00    0.95098   0.90995   14.209
 4127.00    0.93487   0.90213   10.605
 4128.00    0.92008   0.89610   10.167
 4129.00    0.91136   0.89287   11.039
 4130.00    0.91008   0.89329   11.505
 4131.00    0.91635   0.89881   10.819
 4132.00    0.92962   0.91037   10.017
 4133.00    0.94878   0.92634   10.833
 4134.00    0.97055   0.94337   15.016
 4135.00    0.98880   0.95795   21.777
 4136.00    0.99853   0.96725   21.797
 4137.00    0.99858   0.97001   18.786
 4138.00    0.99047   0.96520   18.504
 4139.00    0.97728   0.95269   19.478
 4140.00    0.96253   0.93554   19.741
 4141.00    0.94930   0.91958   19.558
 4142.00    0.93901   0.91119   19.572
 4143.00    0.93173   0.91367   19.534
 4144.00    0.93216   0.92398   19.320
 4145.00    0.94920   0.93490   19.342
 4146.00    0.97765   0.94148   19.697
 4147.00    0.99452   0.94285   19.902
 4148.00    0.98746   0.94043   19.817
 4149.00    0.96525   0.93649   19.940
 4150.00    0.94216   0.93229   20.342
 4151.00    0.92877   0.92788   20.433
 4152.00    0.92540   0.92382   20.229
 4153.00    0.92369   0.92164   20.511
 4154.00    0.92330   0.92294   21.193
 4155.00    0.93301   0.92799   21.111
 4156.00    0.95081   0.93574   20.350
 4157.00    0.96241   0.94461   20.268
 4158.00    0.96188   0.95272   20.959
 4159.00    0.95608   0.95907   21.187
 4160.00    0.95524   0.96381   20.737
 4161.00    0.96656   0.96742   20.637
 4162.00    0.98474   0.96931   20.983
 4163.00    0.99534   0.96863   20.957
 4164.00    0.99175   0.96575   20.562
 4165.00    0.97857   0.96111   20.539
 4166.00    0.96751   0.95482   20.901
 4167.00    0.96776   0.94664   21.062
 4168.00    0.96632   0.93561   21.044
 4169.00    0.94309   0.92140   21.322
 4170.00    0.91502   0.90644   21.661
 4171.00    0.91701   0.89508   21.400
 4172.00    0.94066   0.89043   20.825
 4173.00    0.94943   0.89184   20.706
 4174.00    0.93539   0.89594   21.078
 4175.00    0.91633   0.90005   21.481
 4176.00    0.90848   0.90393   21.709
 4177.00    0.91591   0.90881   21.838
 4178.00    0.92244   0.91528   21.947
 4179.00    0.91099   0.92191   22.059
 4180.00    0.89630   0.92666   22.150
 4181.00    0.90275   0.92926   22.151
 4182.00    0.92312   0.93066   21.961
 4183.00    0.93482   0.93103   21.602
 4184.00    0.93202   0.93041   21.391
 4185.00    0.92326   0.92940   21.593
 4186.00    0.92135   0.92985   22.013
 4187.00    0.93359   0.93418   22.243
 4188.00    0.95179   0.94197   22.121
 4189.00    0.96301   0.95018   21.782
 4190.00    0.96336   0.95628   21.558
 4191.00    0.95463   0.95875   21.671
 4192.00    0.93907   0.95579   21.996
 4193.00    0.92223   0.94597   22.262
 4194.00    0.91531   0.93089   22.308
 4195.00    0.92348   0.91511   22.165
 4196.00    0.93572   0.90254   22.051
 4197.00    0.94103   0.89483   22.142
 4198.00    0.94289   0.89274   22.393
 4199.00    0.94626   0.89543   22.613
 4200.00    0.94660   0.90051   22.578
 4201.00    0.93962   0.90725   22.260
 4202.00    0.92948   0.91620   21.941
 4203.00    0.92484   0.92649   21.839
 4204.00    0.93403   0.93681   21.887
 4205.00    0.95485   0.94630   21.947
 4206.00    0.97085   0.95373   21.952
 4207.00    0.97378   0.95849   21.930
 4208.00    0.97478   0.96094   21.980
 4209.00    0.97880   0.96175   22.099
 4210.00    0.97249   0.96082   22.126
 4211.00    0.95050   0.95725   22.073
 4212.00    0.92745   0.95128   22.220
 4213.00    0.91679   0.94549   22.526
 4214.00    0.92009   0.94349   22.450
 4215.00    0.93370   0.94786   21.921
 4216.00    0.95241   0.95709   21.580
 4217.00    0.96851   0.96572   21.687
 4218.00    0.97312   0.96886   21.887
 4219.00    0.96337   0.96427   21.984
 4220.00    0.94467   0.95128   22.164
 4221.00    0.92585   0.93063   22.408
 4222.00    0.91500   0.90608   22.368
 4223.00    0.91138   0.88371   22.021
 4224.00    0.90627   0.87015   21.764
 4225.00    0.89702   0.87030   21.844
 4226.00    0.89006   0.88473   22.201
 4227.00    0.89312   0.90789   22.476
 4228.00    0.91026   0.92953   22.220
 4229.00    0.93559   0.94181   21.658
 4230.00    0.95540   0.94335   21.461
 4231.00    0.96056   0.93723   21.709
 4232.00    0.95061   0.92882   21.933
 4233.00    0.93450   0.92297   21.892
 4234.00    0.92533   0.92069   21.705
 4235.00    0.92690   0.92139   21.501
 4236.00    0.93336   0.92527   21.352
 4237.00    0.93728   0.93163   21.366
 4238.00    0.93539   0.93968   21.608
 4239.00    0.93643   0.94897   21.880
 4240.00    0.95096   0.95784   21.863
 4241.00    0.96705   0.96375   21.628
 4242.00    0.96447   0.96541   21.504
 4243.00    0.95232   0.96240   21.637
 4244.00    0.95367   0.95460   21.926
 4245.00    0.96394   0.94376   22.032
 4246.00    0.96298   0.93324   21.694
 4247.00    0.94912   0.92560   21.268
 4248.00    0.93377   0.92123   21.243
 4249.00    0.92303   0.91969   21.499
 4250.00    0.91589   0.92126   21.659
 4251.00    0.90680   0.92509   21.755
 4252.00    0.89567   0.92911   21.941
 4253.00    0.90005   0.93264   21.897
 4254.00    0.93039   0.93554   21.361
 4255.00    0.95750   0.93624   20.868
 4256.00    0.95132   0.93319   20.932
 4257.00    0.93215   0.92777   21.218
 4258.00    0.93253   0.92453   21.176
 4259.00    0.94711   0.92759   20.924
 4260.00    0.95714   0.93808   20.882
 4261.00    0.96263   0.95316   21.244
 4262.00    0.96876   0.96698   21.880
 4263.00    0.96938   0.97454   22.221
 4264.00    0.95783   0.97375   21.964
 4265.00    0.93839   0.96462   21.765
 4266.00    0.91910   0.94872   22.141
 4267.00    0.90469   0.92922   22.613
 4268.00    0.89900   0.90940   22.577
 4269.00    0.90656   0.89232   22.221
 4270.00    0.92278   0.88136   21.999
 4271.00    0.92919   0.87938   22.114
 4272.00    0.91774   0.88623   22.456
 4273.00    0.90557   0.89881   22.597
 4274.00    0.90653   0.91425   22.406
 4275.00    0.91365   0.92958   22.377
 4276.00    0.92110   0.94096   22.709
 4277.00    0.93587   0.94604   22.853
 4278.00    0.95504   0.94523   22.581
 4279.00    0.95730   0.94079   22.504
 4280.00    0.93808   0.93537   22.837
 4281.00    0.92252   0.93016   22.925
 4282.00    0.92287   0.92500   22.537
 4283.00    0.92162   0.91890   22.366
 4284.00    0.90608   0.91045   22.729
 4285.00    0.88357   0.89961   23.169
 4286.00    0.86726   0.88787   23.367
 4287.00    0.86664   0.87796   23.513
 4288.00    0.87738   0.87329   -2.000
 4289.00    0.88229   0.87602   -2.000
 4290.00    0.87310   0.88447   -2.000
 4291.00    0.85754   0.89305   -2.000
 4292.00    0.85055   0.89640   -2.000
 4293.00    0.86529   0.89270   -2.000
 4294.00    0.89425   0.88301   -2.000
 4295.00    0.91128   0.86862   -2.000
 4296.00    0.90098   0.85111   -2.000
 4297.00    0.86728   0.83319   -2.000
 4298.00    0.82769   0.81832   -2.000
 4299.00    0.80386   0.80976   -2.000
 4300.00    0.80027   0.80796   -2.000
 4301.00    0.80502   0.81024   -2.000
 4302.00    0.80927   0.81380   -2.000
 4303.00    0.81056   0.81633   -2.000
 4304.00    0.80714   0.81628   23.652
 4305.00    0.79847   0.81472   23.890
 4306.00    0.79016   0.81460   23.824
 4307.00    0.79170   0.81872   23.719
 4308.00    0.80886   0.82806   23.853
 4309.00    0.84028   0.84079   24.174
 4310.00    0.87430   0.85400   23.791
 4311.00    0.89616   0.86647   22.410
 4312.00    0.90298   0.87934   22.481
 4313.00    0.90142   0.89413   25.923
 4314.00    0.89800   0.91048   25.520
 4315.00    0.89786   0.92508   16.747
 4316.00    0.90569   0.93353   11.498
 4317.00    0.92154   0.93386   10.200
 4318.00    0.93415   0.92671   10.595
 4319.00    0.93081   0.91346   11.008
 4320.00    0.91312   0.89564   10.994
 4321.00    0.89102   0.87513   11.059
 4322.00    0.87095   0.85468   11.448
 4323.00    0.85505   0.83874   11.967
 4324.00    0.84245   0.83185   11.927
 4325.00    0.83273   0.83528   11.336
 4326.00    0.82965   0.84509   11.938
 4327.00    0.83677   0.85420   16.023
 4328.00    0.85178   0.85750   24.526
 4329.00    0.86543   0.85402   27.351
 4330.00    0.86248   0.84502    0.000
 4331.00    0.83907   0.83069    0.000
 4332.00    0.81813   0.80930    0.000
 4333.00    0.82383   0.77896    0.000
 4334.00    0.85687   0.73909    0.000
 4335.00    0.90662   0.69208    0.000
 4336.00    0.96419   0.64471    0.000
 4337.00    1.02223   0.60650    0.000
 4338.00    1.07297   0.58556    0.000
 4339.00    1.10009   0.58611    0.000
 4340.00    1.07682   0.60751    0.000
 4341.00    1.00097   0.64337    0.000
 4342.00    0.91432   0.68474    0.000
 4343.00    0.85269   0.72518    0.000
 4344.00    0.81463   0.76105    0.000
 4345.00    0.79203   0.78974    0.000
 4346.00    0.78868   0.80973    0.000
 4347.00    0.80228   0.82100    0.000
 4348.00    0.81654   0.82495    0.000
 4349.00    0.82335   0.82522    0.000
 4350.00    0.83204   0.82751    0.000
 4351.00    0.84869   0.83662   23.063
 4352.00    0.86727   0.85258   22.667
 4353.00    0.88234   0.87106   22.609
 4354.00    0.89423   0.88767   23.113
 4355.00    0.90182   0.90029   23.493
 4356.00    0.90109   0.90896   22.472
 4357.00    0.89409   0.91577   21.530
 4358.00    0.89113   0.92369   23.652
 4359.00    0.90320   0.93403   25.637
 4360.00    0.93518   0.94532   18.256
 4361.00    0.97293   0.95488   11.680
 4362.00    0.98957   0.96059    9.587
 4363.00    0.98471   0.96128    9.787
 4364.00    0.98406   0.95681   10.463
 4365.00    0.99101   0.94874   10.387
 4366.00    0.98415   0.94035    9.780
 4367.00    0.96065   0.93448    9.848
 4368.00    0.93989   0.93136   12.246
 4369.00    0.93342   0.92903   19.102
 4370.00    0.93727   0.92554   26.060
 4371.00    0.93607   0.92055   23.644
 4372.00    0.91523   0.91595   21.494
 4373.00    0.88756   0.91526   22.398
 4374.00    0.88213   0.92083   23.373
 4375.00    0.90205   0.93084   23.063
 4376.00    0.92650   0.93960   22.740
 4377.00    0.93806   0.94117   22.824
 4378.00    0.93017   0.93255   22.830
 4379.00    0.90909   0.91449   22.760
 4380.00    0.88719   0.89071   22.957
 4381.00    0.86949   0.86711   23.243
 4382.00    0.85568   0.85077   23.170
 4383.00    0.84860   0.84666   22.863
 4384.00    0.85272   0.85412   22.735
 4385.00    0.86884   0.86774   22.764
 4386.00    0.89271   0.88199   22.724
 4387.00    0.91454   0.89431   22.676
 4388.00    0.92497   0.90416   22.817
 4389.00    0.92373   0.91161   23.161
 4390.00    0.91623   0.91717   23.546
 4391.00    0.90712   0.92126   23.727
 4392.00    0.90209   0.92432   23.541
 4393.00    0.91064   0.92754   23.125
 4394.00    0.93558   0.93189   22.768
 4395.00    0.96088   0.93619   22.713
 4396.00    0.96736   0.93762   22.996
 4397.00    0.95240   0.93487   23.280
 4398.00    0.92684   0.92942   23.223
 4399.00    0.90810   0.92365   22.965
 4400.00    0.90584   0.91887   22.849
 4401.00    0.90994   0.91446   23.096
 4402.00    0.90923   0.90990   23.599
 4403.00    0.90882   0.90687   23.769
 4404.00    0.91466   0.90785   23.332
 4405.00    0.91989   0.91303   22.995
 4406.00    0.92105   0.92107   23.253
 4407.00    0.92981   0.93099   23.641
 4408.00    0.95026   0.94122   23.627
 4409.00    0.96406   0.94855   23.407
 4410.00    0.95969   0.94980   23.342
 4411.00    0.95103   0.94400   23.500
 4412.00    0.94990   0.93305   23.748
 4413.00    0.94909   0.92177   23.843
 4414.00    0.94126   0.91602   23.761
 4415.00    0.93053   0.91856   23.811
 4416.00    0.92277   0.92767   24.097
 4417.00    0.91941   0.93915   24.277
 4418.00    0.91812   0.94842   24.199
 4419.00    0.91475   0.95270   24.175
 4420.00    0.91068   0.95252   24.287
 4421.00    0.91334   0.95075   24.170
 4422.00    0.91984   0.94982   23.840
 4423.00    0.91478   0.94999   23.847
 4424.00    0.89785   0.95022   24.222
 4425.00    0.88894   0.94973   24.264
 4426.00    0.89409   0.94835   23.851
 4427.00    0.89752   0.94594   23.704
 4428.00    0.89078   0.94231   24.037
 4429.00    0.88106   0.93781   24.338
 4430.00    0.87583   0.93301   24.394
 4431.00    0.87766   0.92828   24.530
 4432.00    0.88703   0.92512   24.773
 4433.00    0.90276   0.92622   24.765
 4434.00    0.91958   0.93318   24.545
 4435.00    0.92956   0.94427   24.543
 4436.00    0.92889   0.95467   24.778
 4437.00    0.91985   0.95920   24.841
 4438.00    0.90993   0.95552   24.585
 4439.00    0.90833   0.94547   24.218
 4440.00    0.91746   0.93436   23.931
 4441.00    0.93274   0.92805   23.806
 4442.00    0.94813   0.92975   23.818
 4443.00    0.95870   0.93835   23.845
 4444.00    0.96316   0.94925   23.669
 4445.00    0.96306   0.95782   23.189
 4446.00    0.95982   0.96208   22.809
 4447.00    0.95451   0.96212   23.007
 4448.00    0.94860   0.95846   23.502
 4449.00    0.94342   0.95198   23.591
 4450.00    0.93864   0.94327   23.317
 4451.00    0.93243   0.93247   23.226
 4452.00    0.92236   0.92046   23.440
 4453.00    0.90914   0.90956   23.745
 4454.00    0.90211   0.90211   23.939
 4455.00    0.90931   0.89835   23.937
 4456.00    0.92110   0.89674   23.832
 4457.00    0.92158   0.89618   23.820
 4458.00    0.90909   0.89683   24.069
 4459.00    0.89157   0.89930   24.622
 4460.00    0.87601   0.90412   25.236
 4461.00    0.86837   0.91088    0.000
 4462.00    0.87492   0.91727    0.000
 4463.00    0.89481   0.92063    0.000
 4464.00    0.91224   0.92006    0.000
 4465.00    0.91282   0.91636    0.000
 4466.00    0.90272   0.91154    0.000
 4467.00    0.89760   0.90845    0.000
 4468.00    0.90793   0.90997    0.000
 4469.00    0.93159   0.91747    0.000
 4470.00    0.95001   0.93029    0.000
 4471.00    0.95035   0.94590    0.000
 4472.00    0.94440   0.96076    0.000
 4473.00    0.94559   0.97160    0.000
 4474.00    0.94878   0.97649    0.000
 4475.00    0.94614   0.97439    0.000
 4476.00    0.94019   0.96488    0.000
 4477.00    0.93189   0.94960    0.000
 4478.00    0.91333   0.93326    0.000
 4479.00    0.88896   0.92235    0.000
 4480.00    0.88592   0.92171    0.000
 4481.00    0.91394   0.93131    0.000
 4482.00    0.94419   0.94598   25.154
 4483.00    0.95506   0.95899   25.020
 4484.00    0.95725   0.96552   25.240
 4485.00    0.96138   0.96426   25.703
 4486.00    0.96081   0.95745   25.927
 4487.00    0.95121   0.94954   25.797
 4488.00    0.94007   0.94445   25.837
 4489.00    0.93560   0.94331   26.171
 4490.00    0.94053   0.94456   26.192
 4491.00    0.95182   0.94594   25.768
 4492.00    0.96197   0.94671   25.572
 4493.00    0.96447   0.94825   25.790
 4494.00    0.95705   0.95207   25.881
 4495.00    0.94428   0.95809   25.881
 4496.00    0.93645   0.96495   26.486
 4497.00    0.94072   0.97117   26.948
 4498.00    0.95749   0.97650   25.495
 4499.00    0.98068   0.98226   24.539
 4500.00    0.99970   0.99006   28.381
 4501.00    1.00595   0.99938   31.250
 4502.00    0.99722   1.00728   19.566
 4503.00    0.98384   1.01122   11.670
 4504.00    0.98322   1.01080    9.507
 4505.00    0.99726   1.00750    9.701
 4506.00    1.01121   1.00362   10.125
 4507.00    1.01064   1.00071    9.998
 4508.00    0.99028   0.99839   10.028
 4509.00    0.96346   0.99499   10.365
 4510.00    0.95257   0.98947   10.471
 4511.00    0.95993   0.98236   10.362
 4512.00    0.97046   0.97515   10.471
 4513.00    0.97524   0.96962   10.428
 4514.00    0.97405   0.96680    9.782
 4515.00    0.96825   0.96621    9.855
 4516.00    0.96006   0.96666   13.026
 4517.00    0.95425   0.96701   23.302
 4518.00    0.95442   0.96597   33.992
 4519.00    0.95572   0.96253   28.509
 4520.00    0.95071   0.95625   25.523
 4521.00    0.94207   0.94781   27.058
 4522.00    0.93649   0.93826   28.155
 4523.00    0.93097   0.92785   27.476
 4524.00    0.91817   0.91724   27.154
 4525.00    0.89836   0.90780   27.533
 4526.00    0.87970   0.90092   27.772
 4527.00    0.87511   0.89768   27.642
 4528.00    0.89162   0.89795   27.414
 4529.00    0.91706   0.90024   27.249
 4530.00    0.93295   0.90305   27.222
 4531.00    0.93310   0.90606   27.445
 4532.00    0.92156   0.91089   27.917
 4533.00    0.90702   0.91959   28.307
 4534.00    0.90034   0.93183   28.267
 4535.00    0.91169   0.94443   27.881
 4536.00    0.94046   0.95326   27.486
 4537.00    0.96678   0.95651   27.379
 4538.00    0.97356   0.95546   27.560
 4539.00    0.96743   0.95295   27.555
 4540.00    0.95951   0.95124   27.136
 4541.00    0.94709   0.95036   26.909
 4542.00    0.92886   0.94891   27.298
 4543.00    0.91757   0.94596   27.803
 4544.00    0.92073   0.94125   27.918
 4545.00    0.92644   0.93483   27.960
 4546.00    0.92501   0.92747   28.183
 4547.00    0.92414   0.92093   28.133
 4548.00    0.93050   0.91702   27.676
 4549.00    0.93717   0.91565   27.564
 4550.00    0.93439   0.91514    0.000
 4551.00    0.91851   0.91488    0.000
 4552.00    0.89795   0.91600    0.000
 4553.00    0.89281   0.92029    0.000
 4554.00    0.91193   0.92877    0.000
 4555.00    0.94265   0.94029    0.000
 4556.00    0.97188   0.95212    0.000
 4557.00    0.99592   0.96170    0.000
 4558.00    1.00808   0.96731    0.000
 4559.00    0.99673   0.96810    0.000
 4560.00    0.96828   0.96453    0.000
 4561.00    0.95001   0.95873    0.000
 4562.00    0.95168   0.95409    0.000
 4563.00    0.95616   0.95343    0.000
 4564.00    0.95520   0.95718    0.000
 4565.00    0.95904   0.96319    0.000
 4566.00    0.97145   0.96818    0.000
 4567.00    0.98367   0.96994    0.000
 4568.00    0.98952   0.96838    0.000
 4569.00    0.98946   0.96548    0.000
 4570.00    0.98427   0.96398    0.000
 4571.00    0.97417   0.96497    0.000
 4572.00    0.96363   0.96705    0.000
 4573.00    0.95956   0.96824    0.000
 4574.00    0.96133   0.96709    0.000
 4575.00    0.96145   0.96278    0.000
 4576.00    0.95612   0.95530    0.000
 4577.00    0.94749   0.94574    0.000
 4578.00    0.94108   0.93607    0.000
 4579.00    0.94150   0.92821    0.000
 4580.00    0.94381   0.92330    0.000
 4581.00    0.93870   0.92185    0.000
 4582.00    0.92890   0.92396    0.000
 4583.00    0.92533   0.92898    0.000
 4584.00    0.93057   0.93556    0.000
 4585.00    0.93966   0.94210    0.000
 4586.00    0.94937   0.94694    0.000
 4587.00    0.95799   0.94889    0.000
 4588.00    0.96168   0.94778    0.000
 4589.00    0.95763   0.94467    0.000
 4590.00    0.95090   0.94129    0.000
 4591.00    0.94874   0.93903    0.000
 4592.00    0.94976   0.93829    0.000
 4593.00    0.94800   0.93888    0.000
 4594.00    0.94203   0.94042    0.000
 4595.00    0.93519   0.94228    0.000
 4596.00    0.93346   0.94379    0.000
 4597.00    0.94054   0.94454    0.000
 4598.00    0.95183   0.94472    0.000
 4599.00    0.95980   0.94504    0.000
 4600.00    0.96185   0.94601    0.000
 4601.00    0.96024   0.94790    0.000
 4602.00    0.96061   0.95104    0.000
 4603.00    0.96710   0.95587    0.000
 4604.00    0.97737   0.96253    0.000
 4605.00    0.98606   0.97024    0.000
 4606.00    0.98931   0.97729    0.000
 4607.00    0.98727   0.98179    0.000
 4608.00    0.98557   0.98290    0.000
 4609.00    0.98747   0.98121    0.000
 4610.00    0.98759   0.97815    0.000
 4611.00    0.98209   0.97511    0.000
 4612.00    0.97671   0.97268    0.000
 4613.00    0.97545   0.97052    0.000
 4614.00    0.97239   0.96828    0.000
 4615.00    0.96559   0.96596    0.000
 4616.00    0.96548   0.96413    0.000
 4617.00    0.97416   0.96398    0.000
 4618.00    0.97446   0.96612    0.000
 4619.00    0.96056   0.96978    0.000
 4620.00    0.95340   0.97355    0.000
 4621.00    0.96376   0.97603    0.000
 4622.00    0.97418   0.97636    0.000
 4623.00    0.97466   0.97472    0.000
 4624.00    0.97864   0.97190    0.000
 4625.00    0.99076   0.96866    0.000
 4626.00    0.99432   0.96573    0.000
 4627.00    0.98236   0.96387    0.000
 4628.00    0.96878   0.96310    0.000
 4629.00    0.96191   0.96228    0.000
 4630.00    0.95506   0.96036    0.000
 4631.00    0.94310   0.95725    0.000
 4632.00    0.92943   0.95349    0.000
 4633.00    0.92182   0.94971    0.000
 4634.00    0.92764   0.94632    0.000
 4635.00    0.94333   0.94378    0.000
 4636.00    0.95556   0.94250    0.000
 4637.00    0.96068   0.94265    0.000
 4638.00    0.96612   0.94392    0.000
 4639.00    0.97033   0.94517    0.000
 4640.00    0.96243   0.94465    0.000
 4641.00    0.94390   0.94103    0.000
 4642.00    0.92865   0.93397    0.000
 4643.00    0.92228   0.92465    0.000
 4644.00    0.91989   0.91584    0.000
 4645.00    0.91819   0.91054    0.000
 4646.00    0.91845   0.91050    0.000
 4647.00    0.92461   0.91542    0.000
 4648.00    0.93890   0.92322    0.000
 4649.00    0.95283   0.93105    0.000
 4650.00    0.95462   0.93652    0.000
 4651.00    0.95090   0.93874    0.000
 4652.00    0.95763   0.93898    0.000
 4653.00    0.97043   0.93973    0.000
 4654.00    0.97434   0.94320    0.000
 4655.00    0.97557   0.94997    0.000
 4656.00    0.98966   0.95826    0.000
 4657.00    1.00800   0.96484    0.000
 4658.00    1.01022   0.96683    0.000
 4659.00    0.99665   0.96296    0.000
 4660.00    0.97954   0.95379    0.000
 4661.00    0.95973   0.94085    0.000
 4662.00    0.93421   0.92576    0.000
 4663.00    0.91291   0.91039    0.000
 4664.00    0.90557   0.89736    0.000
 4665.00    0.90034   0.88960    0.000
 4666.00    0.88472   0.88892    0.000
 4667.00    0.87618   0.89502    0.000
 4668.00    0.89442   0.90559    0.000
 4669.00    0.92317   0.91744    0.000
 4670.00    0.93938   0.92808    0.000
 4671.00    0.95139   0.93642    0.000
 4672.00    0.97124   0.94234    0.000
 4673.00    0.98152   0.94578    0.000
 4674.00    0.96771   0.94644    0.000
 4675.00    0.95230   0.94430    0.000
 4676.00    0.95685   0.94009    0.000
 4677.00    0.96485   0.93526    0.000
 4678.00    0.95551   0.93143    0.000
 4679.00    0.93632   0.92970    0.000
 4680.00    0.92505   0.93002    0.000
 4681.00    0.93120   0.93150    0.000
 4682.00    0.94943   0.93320    0.000
 4683.00    0.95882   0.93456    0.000
 4684.00    0.94962   0.93545    0.000
 4685.00    0.93939   0.93601    0.000
 4686.00    0.94114   0.93637    0.000
 4687.00    0.94346   0.93665    0.000
 4688.00    0.93610   0.93718    0.000
 4689.00    0.92588   0.93842    0.000
 4690.00    0.92318   0.94057    0.000
 4691.00    0.93222   0.94333    0.000
 4692.00    0.94752   0.94564    0.000
 4693.00    0.95505   0.94596    0.000
 4694.00    0.94791   0.94316    0.000
 4695.00    0.93321   0.93730    0.000
 4696.00    0.92259   0.92952    0.000
 4697.00    0.92429   0.92135    0.000
 4698.00    0.93033   0.91417    0.000
 4699.00    0.91869   0.90895    0.000
 4700.00    0.88923   0.90616    0.000
 4701.00    0.86967   0.90563    0.000
 4702.00    0.87231   0.90654    0.000
 4703.00    0.88315   0.90789    0.000
 4704.00    0.89211   0.90902    0.000
 4705.00    0.90190   0.90998    0.000
 4706.00    0.91552   0.91143    0.000
 4707.00    0.93137   0.91383    0.000
 4708.00    0.94316   0.91681    0.000
 4709.00    0.94364   0.91955    0.000
 4710.00    0.93602   0.92154    0.000
 4711.00    0.93165   0.92335    0.000
 4712.00    0.93228   0.92628    0.000
 4713.00    0.93075   0.93144    0.000
 4714.00    0.92760   0.93897    0.000
 4715.00    0.92979   0.94779    0.000
 4716.00    0.93531   0.95619    0.000
 4717.00    0.93604   0.96275    0.000
 4718.00    0.93441   0.96689    0.000
 4719.00    0.93945   0.96883    0.000
 4720.00    0.94879   0.96897    0.000
 4721.00    0.95246   0.96732    0.000
 4722.00    0.94949   0.96332    0.000
 4723.00    0.94504   0.95640    0.000
 4724.00    0.93763   0.94671    0.000
 4725.00    0.92312   0.93552    0.000
 4726.00    0.90659   0.92506    0.000
 4727.00    0.89819   0.91761    0.000
 4728.00    0.90200   0.91445    0.000
 4729.00    0.91303   0.91549    0.000
 4730.00    0.91656   0.91939    0.000
 4731.00    0.90336   0.92433    0.000
 4732.00    0.89189   0.92883    0.000
 4733.00    0.90467   0.93229    0.000
 4734.00    0.93104   0.93490    0.000
 4735.00    0.94543   0.93724    0.000
 4736.00    0.93904   0.93967    0.000
 4737.00    0.92092   0.94217    0.000
 4738.00    0.91267   0.94448    0.000
 4739.00    0.92725   0.94649    0.000
 4740.00    0.94689   0.94830    0.000
 4741.00    0.94943   0.95006    0.000
 4742.00    0.93895   0.95180    0.000
 4743.00    0.93077   0.95344    0.000
 4744.00    0.93243   0.95484    0.000
 4745.00    0.94166   0.95574    0.000
 4746.00    0.94754   0.95580    0.000
 4747.00    0.94304   0.95467    0.000
 4748.00    0.93506   0.95209    0.000
 4749.00    0.93133   0.94807    0.000
 4750.00    0.92955   0.94307    0.000
 4751.00    0.92655   0.93799    0.000
 4752.00    0.92554   0.93390    0.000
 4753.00    0.92957   0.93163    0.000
 4754.00    0.93655   0.93138    0.000
 4755.00    0.94249   0.93247    0.000
 4756.00    0.94414   0.93348    0.000
 4757.00    0.93986   0.93275    0.000
 4758.00    0.93003   0.92916    0.000
 4759.00    0.91681   0.92269    0.000
 4760.00    0.90356   0.91461    0.000
 4761.00    0.89263   0.90696   30.827
 4762.00    0.88459   0.90177   30.492
 4763.00    0.88145   0.90039   29.998
 4764.00    0.88719   0.90303   29.788
 4765.00    0.90180   0.90875   29.924
 4766.00    0.91911   0.91586   30.009
 4767.00    0.93079   0.92267   29.928
 4768.00    0.93036   0.92819   30.045
 4769.00    0.92166   0.93252   30.382
 4770.00    0.91802   0.93641   30.456
 4771.00    0.92323   0.94049   30.218
 4772.00    0.92880   0.94476   30.210
 4773.00    0.93384   0.94857   30.523
 4774.00    0.94692   0.95107   30.668
 4775.00    0.96445   0.95171   30.529
 4776.00    0.97022   0.95041   30.513
 4777.00    0.96071   0.94745   30.739
 4778.00    0.94760   0.94335   30.936
 4779.00    0.93823   0.93865   31.007
 4780.00    0.93106   0.93380   31.111
 4781.00    0.92164   0.92920   31.316
 4782.00    0.90693   0.92515   31.560
 4783.00    0.89197   0.92192   31.821
 4784.00    0.88711   0.91977   32.114
 4785.00    0.89627   0.91902   32.357
 4786.00    0.91490   0.91998   32.434
 4787.00    0.93284   0.92292   32.451
 4788.00    0.94029   0.92793   32.615
 4789.00    0.93936   0.93471   32.810
 4790.00    0.93867   0.94241   32.727
 4791.00    0.93700   0.94962   32.378
 4792.00    0.92860   0.95468   32.050
 4793.00    0.92034   0.95631   32.005
 4794.00    0.92419   0.95428   32.310
 4795.00    0.93742   0.94962   32.598
 4796.00    0.94783   0.94424   32.438
 4797.00    0.94917   0.94005   32.108
 4798.00    0.94362   0.93797   32.126
 4799.00    0.94094   0.93763   32.370
 4800.00    0.94809   0.93768   32.419
 4801.00    0.95466   0.93678   32.282
 4802.00    0.94727   0.93444   32.280
 4803.00    0.93223   0.93119   32.682
 4804.00    0.92352   0.92810   33.472
 4805.00    0.92288   0.92613   34.037
 4806.00    0.92526   0.92563   33.795
 4807.00    0.92860   0.92643   33.175
 4808.00    0.93278   0.92812   32.854
 4809.00    0.93697   0.93036   32.866
 4810.00    0.94008   0.93303   32.979
 4811.00    0.94172   0.93616   33.130
 4812.00    0.94298   0.93975   33.268
 4813.00    0.94682   0.94357   33.179
 4814.00    0.95344   0.94710   32.796
 4815.00    0.95679   0.94954   32.465
 4816.00    0.95317   0.94997   32.511
 4817.00    0.94820   0.94755   32.907
 4818.00    0.94524   0.94198   33.446
 4819.00    0.93672   0.93386   33.894
 4820.00    0.91856   0.92481   34.106
 4821.00    0.90044   0.91699   34.125
 4822.00    0.89189   0.91208   34.038
 4823.00    0.89236   0.91046   33.882
 4824.00    0.89841   0.91107   33.703
 4825.00    0.90845   0.91221   33.589
 4826.00    0.91760   0.91253   33.542
 4827.00    0.91601   0.91165   33.434
 4828.00    0.90081   0.91001   33.259
 4829.00    0.88197   0.90840   33.216
 4830.00    0.87274   0.90740   33.334
 4831.00    0.88184   0.90705   33.360
 4832.00    0.90277   0.90683   33.307
 4833.00    0.91379   0.90599   33.591
 4834.00    0.90594   0.90387   34.211
 4835.00    0.89200   0.90031   34.503
 4836.00    0.88147   0.89572   34.303
 4837.00    0.87193   0.89088   34.262
 4838.00    0.86423   0.88665   34.498
 4839.00    0.86570   0.88352   34.344
 4840.00    0.87467   0.88149   33.792
 4841.00    0.87851   0.88001   33.648
 4842.00    0.87121   0.87816   33.982
 4843.00    0.85909   0.87502   33.996
 4844.00    0.85589   0.87007   33.574
 4845.00    0.87324   0.86350   33.446
 4846.00    0.89564   0.85597   33.828
 4847.00    0.88970   0.84798   34.275
 4848.00    0.85781   0.83927    0.000
 4849.00    0.83441   0.82877    0.000
 4850.00    0.82568   0.81524    0.000
 4851.00    0.81112   0.79803    0.000
 4852.00    0.79683   0.77731    0.000
 4853.00    0.81571   0.75364    0.000
 4854.00    0.88995   0.72734    0.000
 4855.00    1.02490   0.69861    0.000
 4856.00    1.21768   0.66846    0.000
 4857.00    1.44617   0.63984    0.000
 4858.00    1.64093   0.61767    0.000
 4859.00    1.71738   0.60717    0.000
 4860.00    1.65453   0.61134    0.000
 4861.00    1.48938   0.62931    0.000
 4862.00    1.27267   0.65677    0.000
 4863.00    1.05699   0.68776    0.000
 4864.00    0.89072   0.71690    0.000
 4865.00    0.80243   0.74058    0.000
 4866.00    0.77742   0.75743    0.000
 4867.00    0.77735   0.76814    0.000
 4868.00    0.77799   0.77491    0.000
 4869.00    0.77368   0.78063    0.000
 4870.00    0.77385   0.78771    0.000
 4871.00    0.78708   0.79731    0.000
 4872.00    0.80083   0.80914    0.000
 4873.00    0.80130   0.82212    0.000
 4874.00    0.80167   0.83507    0.000
 4875.00    0.81938   0.84703   17.379
 4876.00    0.84493   0.85718   31.330
 4877.00    0.86064   0.86465   39.153
 4878.00    0.86597   0.86881   31.963
 4879.00    0.86811   0.86953   29.986
 4880.00    0.86910   0.86743   32.093
 4881.00    0.86875   0.86362   33.062
 4882.00    0.86877   0.85933   32.568
 4883.00    0.86895   0.85551   32.696
 4884.00    0.86417   0.85258   33.294
 4885.00    0.85316   0.85054   33.389
 4886.00    0.84519   0.84944   32.847
 4887.00    0.84738   0.84993   32.203
 4888.00    0.85491   0.85336   32.150
 4889.00    0.86234   0.86115   32.765
 4890.00    0.87218   0.87364   33.055
 4891.00    0.88665   0.88939   32.437
 4892.00    0.90194   0.90545   31.791
 4893.00    0.91397   0.91857   31.753
 4894.00    0.92207   0.92653   31.892
 4895.00    0.92539   0.92881   31.824
 4896.00    0.92122   0.92651   31.844
 4897.00    0.91038   0.92171   32.174
 4898.00    0.89935   0.91662   32.559
 4899.00    0.89323   0.91292   32.693
 4900.00    0.89240   0.91147   32.505
 4901.00    0.89673   0.91220   32.122
 4902.00    0.90666   0.91421   31.794
 4903.00    0.91644   0.91598   31.777
 4904.00    0.91429   0.91589   32.224
 4905.00    0.89857   0.91297   32.809
 4906.00    0.88120   0.90767   32.761
 4907.00    0.86876   0.90173   32.210
 4908.00    0.85788   0.89749   32.240
 4909.00    0.85017   0.89658   33.001
 4910.00    0.85420   0.89896   33.422
 4911.00    0.86889   0.90274   33.137
 4912.00    0.88208   0.90488   32.930
 4913.00    0.88801   0.90237   33.018
 4914.00    0.88967   0.89360   32.892
 4915.00    0.88541   0.87916   32.722
 4916.00    0.86972   0.86188   33.274
 4917.00    0.84941   0.84590   34.307
 4918.00    0.84043   0.83502   34.605
 4919.00    0.84410   0.83146   34.233
 4920.00    0.84833   0.83534   34.415
 4921.00    0.84981   0.84535   35.093
 4922.00    0.85478   0.85953   35.118
 4923.00    0.86538   0.87586   34.612
 4924.00    0.87831   0.89236   34.663
 4925.00    0.89001   0.90703   35.155
 4926.00    0.89863   0.91800   35.118
 4927.00    0.90555   0.92389   34.674
 4928.00    0.91189   0.92420   34.688
 4929.00    0.91134   0.91955   35.191
 4930.00    0.89762   0.91155   35.608
 4931.00    0.88125   0.90228   35.807
 4932.00    0.87770   0.89350   36.032
 4933.00    0.88071   0.88625   36.279
 4934.00    0.87503   0.88100   36.382
 4935.00    0.86557   0.87825   36.363
 4936.00    0.86668   0.87876   36.333
 4937.00    0.87755   0.88317   36.231
 4938.00    0.88856   0.89121   35.987
 4939.00    0.89639   0.90141   35.801
 4940.00    0.90267   0.91156    0.000
 4941.00    0.90906   0.91977    0.000
 4942.00    0.91646   0.92528    0.000
 4943.00    0.92491   0.92850    0.000
 4944.00    0.93247   0.93046    0.000
 4945.00    0.93406   0.93204    0.000
 4946.00    0.92644   0.93349    0.000
 4947.00    0.91367   0.93439    0.000
 4948.00    0.90322   0.93398    0.000
 4949.00    0.90093   0.93146    0.000
 4950.00    0.90954   0.92625    0.000
 4951.00    0.92785   0.91819    0.000
 4952.00    0.95232   0.90780    0.000
 4953.00    0.97877   0.89661    0.000
 4954.00    1.00277   0.88714    0.000
 4955.00    1.02008   0.88211    0.000
 4956.00    1.02722   0.88315    0.000
 4957.00    1.02227   0.88974    0.000
 4958.00    1.00705   0.89923    0.000
 4959.00    0.98790   0.90813    0.000
 4960.00    0.96881   0.91362    0.000
 4961.00    0.94716   0.91463    0.000
 4962.00    0.91988   0.91182    0.000
 4963.00    0.88835   0.90694    0.000
 4964.00    0.86092   0.90199    0.000
 4965.00    0.85146   0.89863    0.000
 4966.00    0.86166   0.89777    0.000
 4967.00    0.87464   0.89956    0.000
 4968.00    0.87952   0.90353    0.000
 4969.00    0.88217   0.90877    0.000
 4970.00    0.88668   0.91408    0.000
 4971.00    0.88784   0.91816    0.000
 4972.00    0.88490   0.91987    0.000
 4973.00    0.88554   0.91839    0.000
 4974.00    0.89210   0.91340    0.000
 4975.00    0.89740   0.90501    0.000
 4976.00    0.89467   0.89371    0.000
 4977.00    0.88224   0.88033    0.000
 4978.00    0.86402   0.86618    0.000
 4979.00    0.84796   0.85314    0.000
 4980.00    0.84018   0.84351    0.000
 4981.00    0.84222   0.83932    0.000
 4982.00    0.84972   0.84147    0.000
 4983.00    0.85510   0.84910    0.000
 4984.00    0.85781   0.85979    0.000
 4985.00    0.86353   0.87053    0.000
 4986.00    0.87186   0.87894    0.000
 4987.00    0.87636   0.88403    0.000
 4988.00    0.87571   0.88628    0.000
 4989.00    0.87390   0.88699    0.000
 4990.00    0.87168   0.88746    0.000
 4991.00    0.86762   0.88832    0.000
 4992.00    0.86604   0.88936    0.000
 4993.00    0.87347   0.88969    0.000
 4994.00    0.88557   0.88819    0.000
 4995.00    0.89018   0.88409    0.000
 4996.00    0.88059   0.87742    0.000
 4997.00    0.86078   0.86906    0.000
 4998.00    0.84924   0.86038    0.000
 4999.00    0.86896   0.85258    0.000
 5000.00    0.92692   0.84632    0.000
 5001.00    1.01551   0.84177    0.000
 5002.00    1.12210   0.83902    0.000
 5003.00    1.22613   0.83837    0.000
 5004.00    1.29234   0.84004    0.000
 5005.00    1.29072   0.84357    0.000
 5006.00    1.22859   0.84745    0.000
 5007.00    1.13573   0.84959    0.000
 5008.00    1.03515   0.84834    0.000
 5009.00    0.94402   0.84345    0.000
 5010.00    0.88029   0.83614    0.000
 5011.00    0.85267   0.82848    0.000
 5012.00    0.84762   0.82230    0.000
 5013.00    0.84464   0.81860    0.000
 5014.00    0.83674   0.81749    0.000
 5015.00    0.82763   0.81868    0.000
 5016.00    0.82506   0.82184    0.000
 5017.00    0.83112   0.82668    0.000
 5018.00    0.83431   0.83282    0.000
 5019.00    0.82742   0.83973    0.000
 5020.00    0.82404   0.84669    0.000
 5021.00    0.83592   0.85298    0.000
 5022.00    0.85226   0.85806    0.000
 5023.00    0.86069   0.86174    0.000
 5024.00    0.86561   0.86442    0.000
 5025.00    0.87253   0.86693    0.000
 5026.00    0.87553   0.87018    0.000
 5027.00    0.87069   0.87450    0.000
 5028.00    0.86556   0.87937    0.000
 5029.00    0.86680   0.88349   39.105
 5030.00    0.87145   0.88531   38.363
 5031.00    0.87330   0.88370   37.965
 5032.00    0.86815   0.87839   38.154
 5033.00    0.85674   0.86994   38.885
 5034.00    0.84522   0.85946   39.891
 5035.00    0.83675   0.84824   40.660
 5036.00    0.82819   0.83772   40.581
 5037.00    0.81971   0.82964   39.827
 5038.00    0.81801   0.82595   39.439
 5039.00    0.82396   0.82821   39.818
 5040.00    0.82925   0.83645   40.297
 5041.00    0.83193   0.84873   40.241
 5042.00    0.84035   0.86149   39.650
 5043.00    0.85599   0.87108   38.926
 5044.00    0.86892   0.87522   38.555
 5045.00    0.87349   0.87386   38.598
 5046.00    0.87298   0.86894   38.694
 5047.00    0.87078   0.86335   38.736
 5048.00    0.86721   0.85972   38.975
 5049.00    0.86144   0.85952   39.317
 5050.00    0.85357   0.86281   39.264
 5051.00    0.84877   0.86862   38.725
 5052.00    0.85507   0.87559   38.118
 5053.00    0.87162   0.88258   37.748
 5054.00    0.88880   0.88894   37.651
 5055.00    0.90013   0.89439   37.679
 5056.00    0.90505   0.89867   37.610
 5057.00    0.90580   0.90132   37.416
 5058.00    0.90477   0.90163   37.252
 5059.00    0.90016   0.89895   37.205
 5060.00    0.88887   0.89322   37.240
 5061.00    0.87615   0.88521   37.184
 5062.00    0.87136   0.87644   36.911
 5063.00    0.87273   0.86865   36.722
 5064.00    0.87120   0.86309   37.057
 5065.00    0.86645   0.86011   37.731
 5066.00    0.86460   0.85917   38.107
 5067.00    0.86647   0.85925   37.935
 5068.00    0.86872   0.85947   37.408
 5069.00    0.87068   0.85930   36.799
 5070.00    0.87261   0.85864   36.357
 5071.00    0.87067   0.85749   36.315
 5072.00    0.86084   0.85570   36.722
 5073.00    0.84671   0.85281   37.147
 5074.00    0.83473   0.84834   37.098
 5075.00    0.82499   0.84220   36.848
 5076.00    0.81594   0.83519   36.933
 5077.00    0.81275   0.82884   37.276
 5078.00    0.81955   0.82492   37.474
 5079.00    0.82786   0.82463   37.375
 5080.00    0.82816   0.82810   37.158
 5081.00    0.82595   0.83438   37.264
 5082.00    0.83078   0.84204   37.900
 5083.00    0.84108   0.84974   38.478
 5084.00    0.85037   0.85664   38.404
 5085.00    0.85606   0.86246   38.143
 5086.00    0.85932   0.86737   38.304
 5087.00    0.86338   0.87165   38.630
 5088.00    0.86912   0.87535   38.718
 5089.00    0.87158   0.87809   38.797
 5090.00    0.86781   0.87910   39.126
 5091.00    0.86341   0.87748   39.398
 5092.00    0.86323   0.87268   39.314
 5093.00    0.86358   0.86490   39.113
 5094.00    0.86050   0.85540   39.160
 5095.00    0.85631   0.84622   39.570
 5096.00    0.85377   0.83953   40.200
 5097.00    0.85183   0.83679   40.664
 5098.00    0.85070   0.83806   40.746
 5099.00    0.85458   0.84208   40.679
 5100.00    0.86352   0.84677   40.707
 5101.00    0.86949   0.85013   40.807
 5102.00    0.86703   0.85109   40.908
 5103.00    0.85919   0.84968   41.037
 5104.00    0.85106   0.84683   41.207
 5105.00    0.84551   0.84391   41.376
 5106.00    0.84204   0.84224   41.555
 5107.00    0.83738   0.84271   41.840
 5108.00    0.83110   0.84554   42.221
 5109.00    0.82773   0.85035   42.504
 5110.00    0.83264   0.85635   42.485
 5111.00    0.84847   0.86264   42.075
 5112.00    0.86887   0.86841   41.407
 5113.00    0.87950   0.87299   40.798
 5114.00    0.87434   0.87582   40.588
 5115.00    0.86032   0.87631   40.995
 5116.00    0.84786   0.87394   41.703
 5117.00    0.84434   0.86855   41.931
 5118.00    0.84511   0.86050   41.643
 5119.00    0.83676   0.85073   41.573
 5120.00    0.81932   0.84060   41.588
 5121.00    0.80690   0.83152   40.829
 5122.00    0.80445   0.82455   39.816
 5123.00    0.80508   0.82016   39.977
 5124.00    0.80492   0.81829   41.056
 5125.00    0.80561   0.81852   41.301
 5126.00    0.80803   0.82039   40.573
 5127.00    0.81144   0.82353   40.314
 5128.00    0.81622   0.82758   40.723
 5129.00    0.82315   0.83206   40.891
 5130.00    0.83000   0.83630   40.696
 5131.00    0.83319   0.83953   40.722
 5132.00    0.83332   0.84101   40.876
 5133.00    0.83300   0.84032   40.625
 5134.00    0.82956   0.83756   40.170
 5135.00    0.81946   0.83343   40.088
 5136.00    0.80992   0.82899   40.210
 5137.00    0.81141   0.82524   39.988
 5138.00    0.81947   0.82273   39.581
 5139.00    0.82193   0.82146   39.515
 5140.00    0.81738   0.82106   39.806
 5141.00    0.81216   0.82105   40.111
 5142.00    0.81003   0.82109   40.203
 5143.00    0.81177   0.82100   40.011
 5144.00    0.81730   0.82080   39.546
 5145.00    0.82427   0.82058   38.926
 5146.00    0.82608   0.82038   38.405
 5147.00    0.81922   0.82009   38.212
 5148.00    0.81293   0.81966   38.360
 5149.00    0.81719   0.81937   38.664
 5150.00    0.82665   0.81982   38.770
 5151.00    0.83120   0.82177   38.540
 5152.00    0.83065   0.82574   38.455
 5153.00    0.83079   0.83163   38.937
 5154.00    0.83680   0.83854   39.612
 5155.00    0.84888   0.84502   39.888
 5156.00    0.85919   0.84949   39.748
 5157.00    0.85992   0.85067   39.545
 5158.00    0.85116   0.84779   39.625
 5159.00    0.83618   0.84047   40.010
 5160.00    0.81681   0.82864   40.205
 5161.00    0.79567   0.81263   40.002
 5162.00    0.77783   0.79338   40.109
 5163.00    0.76452   0.77271   40.992
 5164.00    0.74934   0.75309   42.013
 5165.00    0.72937   0.73708   42.473
 5166.00    0.71245   0.72646   42.603
 5167.00    0.70577   0.72176   42.845
 5168.00    0.70809   0.72260   43.233
 5169.00    0.71483   0.72836   43.584
 5170.00    0.72231   0.73864   43.689
 5171.00    0.73062   0.75298   43.513
 5172.00    0.74402   0.77017   43.273
 5173.00    0.76375   0.78787   43.176
 5174.00    0.78466   0.80306   43.253
 5175.00    0.80069   0.81284   43.282
 5176.00    0.80784   0.81532   42.894
 5177.00    0.80349   0.81010   42.321
 5178.00    0.78703   0.79874   42.419
 5179.00    0.76429   0.78448   43.261
 5180.00    0.74713   0.77145   43.796
 5181.00    0.74170   0.76345   43.553
 5182.00    0.74517   0.76284   43.242
 5183.00    0.75466   0.76947   43.226
 5184.00    0.76949   0.78074   43.168
 5185.00    0.78525   0.79283   43.061
 5186.00    0.79417   0.80232   43.353
 5187.00    0.79526   0.80736   43.902
 5188.00    0.79481   0.80798   43.922
 5189.00    0.79539   0.80580   43.346
 5190.00    0.79456   0.80311    0.000
 5191.00    0.79322   0.80186    0.000
 5192.00    0.79595   0.80303    0.000
 5193.00    0.80389   0.80663    0.000
 5194.00    0.81504   0.81206    0.000
 5195.00    0.83122   0.81832    0.000
 5196.00    0.85531   0.82397    0.000
 5197.00    0.87942   0.82761    0.000
 5198.00    0.88908   0.82814    0.000
 5199.00    0.88098   0.82487    0.000
 5200.00    0.86269   0.81784    0.000
 5201.00    0.84192   0.80804    0.000
 5202.00    0.82282   0.79731    0.000
 5203.00    0.80392   0.78787    0.000
 5204.00    0.78297   0.78181    0.000
 5205.00    0.76724   0.78051    0.000
 5206.00    0.76698   0.78430    0.000
 5207.00    0.77965   0.79239    0.000
 5208.00    0.79465   0.80312    0.000
 5209.00    0.80654   0.81418    0.000
 5210.00    0.81453   0.82349    0.000
 5211.00    0.81785   0.82992   41.154
 5212.00    0.81763   0.83359   41.143
 5213.00    0.82053   0.83565   41.072
 5214.00    0.83194   0.83775   40.373
 5215.00    0.84579   0.84101   39.586
 5216.00    0.85291   0.84535   39.492
 5217.00    0.85365   0.84939   40.023
 5218.00    0.85231   0.85112   40.648
 5219.00    0.84819   0.84865   40.971
 5220.00    0.83754   0.84118   40.967
 5221.00    0.81773   0.82951   41.103
 5222.00    0.79245   0.81601   41.749
 5223.00    0.77592   0.80394   42.533
 5224.00    0.77877   0.79628   42.769
 5225.00    0.79412   0.79456   42.160
 5226.00    0.80970   0.79834   41.132
 5227.00    0.82073   0.80534   40.751
 5228.00    0.82596   0.81271   41.558
 5229.00    0.82349   0.81840   42.762
 5230.00    0.81539   0.82198   43.310
 5231.00    0.81071   0.82440   43.146
 5232.00    0.81523   0.82736   42.821
 5233.00    0.82406   0.83214   42.868
 5234.00    0.83109   0.83877   43.323
 5235.00    0.83586   0.84632   43.511
 5236.00    0.83924   0.85350   43.097
 5237.00    0.84047   0.85923   42.726
 5238.00    0.84021   0.86303   42.934
 5239.00    0.84194   0.86490   43.559
 5240.00    0.84669   0.86501   44.258
 5241.00    0.85071   0.86347   44.804
 5242.00    0.85141   0.86028   44.937
 5243.00    0.85012   0.85552   44.392
 5244.00    0.84749   0.84962   43.573
 5245.00    0.84171   0.84341   43.510
 5246.00    0.83259   0.83792   44.505
 5247.00    0.82327   0.83394   45.684
 5248.00    0.81794   0.83188   45.984
 5249.00    0.81997   0.83185   44.996
 5250.00    0.82891   0.83366   43.458
 5251.00    0.84006   0.83689   42.681
 5252.00    0.84823   0.84114   43.024
 5253.00    0.85004   0.84599   43.786
 5254.00    0.84615   0.85041   44.177
 5255.00    0.84059   0.85278   43.847
 5256.00    0.83556   0.85139   43.199
 5257.00    0.82987   0.84499   43.018
 5258.00    0.82067   0.83332   43.274
 5259.00    0.80557   0.81737   43.221
 5260.00    0.78717   0.79931   42.877
 5261.00    0.77164   0.78179   42.990
 5262.00    0.76036   0.76704   43.542
 5263.00    0.75050   0.75628   43.748
 5264.00    0.74364   0.74971   43.353
 5265.00    0.74445   0.74696   42.759
 5266.00    0.75113   0.74750   42.217
 5267.00    0.75687   0.75100   41.770
 5268.00    0.75929   0.75723   41.579
 5269.00    0.76139   0.76584   41.680
 5270.00    0.76803   0.77604   41.319
 5271.00    0.78253   0.78706   39.833
 5272.00    0.80129   0.79832   38.496
 5273.00    0.81730   0.80917   38.815
 5274.00    0.82902   0.81884   39.820
 5275.00    0.83831   0.82670   39.369
 5276.00    0.84340   0.83212   38.134
 5277.00    0.84187   0.83463   38.011
 5278.00    0.83803   0.83460   38.669
 5279.00    0.83788   0.83341   38.705
 5280.00    0.83926   0.83303   38.254
 5281.00    0.83705   0.83530   38.265
 5282.00    0.83311   0.84106   38.737
 5283.00    0.83300   0.84976   39.200
 5284.00    0.83895   0.85974   39.725
 5285.00    0.85015   0.86908   40.456
 5286.00    0.86442   0.87629   40.739
 5287.00    0.87833   0.88052   40.109
 5288.00    0.88730   0.88146   39.630
 5289.00    0.88848   0.87929   40.282
 5290.00    0.88383   0.87438   41.280
 5291.00    0.87693   0.86710   41.439
 5292.00    0.86904   0.85799   41.163
 5293.00    0.86007   0.84806   41.376
 5294.00    0.85002   0.83879   42.170
 5295.00    0.83989   0.83174   43.095
 5296.00    0.83222   0.82812   43.569
 5297.00    0.82822   0.82838   43.387
 5298.00    0.82572   0.83218   43.097
 5299.00    0.82462   0.83859   43.205
 5300.00    0.83045   0.84634   43.566
 5301.00    0.84395   0.85411   43.836
 5302.00    0.85435   0.86092   43.869
 5303.00    0.85366   0.86637   43.782
 5304.00    0.84682   0.87050   43.888
 5305.00    0.84372   0.87343   44.123
 5306.00    0.85208   0.87522   43.814
 5307.00    0.87039   0.87592   42.859
 5308.00    0.88593   0.87544   42.207
 5309.00    0.88947   0.87359   42.474
 5310.00    0.88319   0.87026   43.380
 5311.00    0.87266   0.86569   44.321
 5312.00    0.86218   0.86061   44.707
 5313.00    0.85609   0.85596   44.247
 5314.00    0.85813   0.85252   43.188
 5315.00    0.86435   0.85052   42.428
 5316.00    0.86320   0.84955   43.079
 5317.00    0.85267   0.84861   44.654
 5318.00    0.84404   0.84651   44.647
 5319.00    0.84176   0.84229   42.847
 5320.00    0.83825   0.83537   42.022
 5321.00    0.82938   0.82584   43.005
 5322.00    0.81880   0.81465   44.146
 5323.00    0.80874   0.80334   44.255
 5324.00    0.79807   0.79376   43.783
 5325.00    0.78812   0.78784   43.327
 5326.00    0.78309   0.78703   43.077
 5327.00    0.78414   0.79169   43.118
 5328.00    0.78882   0.80079   43.447
 5329.00    0.79591   0.81237   43.687
 5330.00    0.80551   0.82414   43.310
 5331.00    0.81476   0.83384   42.612
 5332.00    0.81902   0.83984   42.405
 5333.00    0.81831   0.84175   42.693
 5334.00    0.81723   0.84040   42.846
 5335.00    0.82004   0.83703   42.878
 5336.00    0.82800   0.83301   43.251
 5337.00    0.83645   0.82966   43.565
 5338.00    0.83843   0.82805   43.020
 5339.00    0.83403   0.82862   42.241
 5340.00    0.82903   0.83085   42.455
 5341.00    0.82745   0.83372   43.368
 5342.00    0.83033   0.83627   43.716
 5343.00    0.83641   0.83792   43.382
 5344.00    0.84384   0.83868   43.157
 5345.00    0.85281   0.83928   43.275
 5346.00    0.86339   0.84083   43.478
 5347.00    0.87134   0.84411   43.533
 5348.00    0.87179   0.84932   43.404
 5349.00    0.86627   0.85606   43.362
 5350.00    0.85958   0.86358   43.705
 5351.00    0.85357   0.87116   44.339
 5352.00    0.84799   0.87797   44.987
 5353.00    0.84316   0.88321   45.588
 5354.00    0.84082   0.88633   46.153
 5355.00    0.84452   0.88704   46.471
 5356.00    0.85460   0.88515   46.378
 5357.00    0.86259   0.88070   46.136
 5358.00    0.86039   0.87411   46.098
 5359.00    0.85110   0.86620   46.289
 5360.00    0.84252   0.85782   46.478
 5361.00    0.83858   0.84965   46.332
 5362.00    0.83842   0.84202   45.776
 5363.00    0.83682   0.83494   45.272
 5364.00    0.82920   0.82827   45.245
 5365.00    0.81635   0.82196   45.631
 5366.00    0.80368   0.81644   46.164
 5367.00    0.79917   0.81278   46.641
 5368.00    0.80540   0.81217   46.792
 5369.00    0.81432   0.81540   46.250
 5370.00    0.81955   0.82234   45.193
 5371.00    0.82517   0.83183   44.546
 5372.00    0.83505   0.84200   44.643
 5373.00    0.84556   0.85091   44.609
 5374.00    0.85342   0.85695   43.865
 5375.00    0.86025   0.85953   -2.000
 5376.00    0.86462   0.85917   -2.000
 5377.00    0.85899   0.85703   -2.000
 5378.00    0.84386   0.85430   -2.000
 5379.00    0.83326   0.85196   -2.000
 5380.00    0.83499   0.85055   -2.000
 5381.00    0.84206   0.85013   -2.000
 5382.00    0.84854   0.85041   -2.000
 5383.00    0.85610   0.85069   -2.000
 5384.00    0.86205   0.85013   -2.000
 5385.00    0.85698   0.84818   -2.000
 5386.00    0.84202   0.84471   -2.000
 5387.00    0.83175   0.83996   -2.000
 5388.00    0.83061   0.83448   -2.000
 5389.00    0.82782   0.82888   -2.000
 5390.00    0.81914   0.82352   42.502
 5391.00    0.81220   0.81861   43.574
 5392.00    0.81187   0.81435   44.281
 5393.00    0.81580   0.81104   44.550
 5394.00    0.81955   0.80902   44.411
 5395.00    0.81950   0.80843   43.994
 5396.00    0.81594   0.80888   43.785
 5397.00    0.81238   0.80949   44.362
 5398.00    0.81014   0.80920   45.383
 5399.00    0.80778   0.80722   45.786
 5400.00    0.80421   0.80314   45.767
 5401.00    0.79976   0.79739   46.548
 5402.00    0.79636   0.79142   47.863
 5403.00    0.79627   0.78685   48.127
 5404.00    0.79918   0.78463   47.407
 5405.00    0.80280   0.78514   47.090
 5406.00    0.80610   0.78828   47.028
 5407.00    0.80934   0.79351   46.355
 5408.00    0.81219   0.80008   46.373
 5409.00    0.81411   0.80733   48.436
 5410.00    0.81574   0.81484   48.125
 5411.00    0.81844   0.82239   42.640
 5412.00    0.82280   0.82958   43.125
 5413.00    0.82814   0.83567   61.357
 5414.00    0.83232   0.84008   55.245
 5415.00    0.83378   0.84261   22.298
 5416.00    0.83492   0.84337   12.660
 5417.00    0.83905   0.84261   10.932
 5418.00    0.84468   0.84066   11.672
 5419.00    0.84759   0.83808   12.213
 5420.00    0.84525   0.83557   11.893
 5421.00    0.83866   0.83355   11.685
 5422.00    0.83365   0.83201   11.949
 5423.00    0.83466   0.83060   12.357
 5424.00    0.83688   0.82864   12.021
 5425.00    0.83303   0.82582   11.138
 5426.00    0.82269   0.82224   12.015
 5427.00    0.81005   0.81809   18.831
 5428.00    0.79965   0.81384   44.929
 5429.00    0.79383   0.81032   66.417
 5430.00    0.79082   0.80856   45.369
 5431.00    0.79019   0.80937   40.684
 5432.00    0.79754   0.81290   44.527
 5433.00    0.81444   0.81871   45.410
 5434.00    0.82985   0.82648   43.711
 5435.00    0.83507   0.83561   44.067
 5436.00    0.83638   0.84471   45.004
 5437.00    0.84298   0.85198   44.122
 5438.00    0.85603   0.85583   42.851
 5439.00    0.86985   0.85544   42.804
 5440.00    0.87473   0.85103   43.400
 5441.00    0.86612   0.84374   43.724
 5442.00    0.85022   0.83540   43.854
 5443.00    0.83532   0.82809   44.246
 5444.00    0.82565   0.82345   45.153
 5445.00    0.82180   0.82219   46.304
 5446.00    0.82159   0.82383   46.797
 5447.00    0.82252   0.82688   46.443
 5448.00    0.82313   0.82953   46.355
 5449.00    0.82236   0.83031   47.102
 5450.00    0.81965   0.82864   47.948
 5451.00    0.81696   0.82532   48.216
 5452.00    0.81869   0.82215   48.052
 5453.00    0.82509   0.82064   47.689
 5454.00    0.83101   0.82131   47.143
 5455.00    0.83450   0.82359   46.726
 5456.00    0.83894   0.82636   47.022
 5457.00    0.84459   0.82853   47.897
 5458.00    0.84647   0.82921   48.355
 5459.00    0.84133   0.82819   48.111
 5460.00    0.83021   0.82639   47.936
 5461.00    0.81719   0.82511   48.041
 5462.00    0.80777   0.82514   47.848
 5463.00    0.80542   0.82648   47.314
 5464.00    0.81029   0.82856   47.034
 5465.00    0.81941   0.83050   47.123
 5466.00    0.82825   0.83129   47.112
 5467.00    0.83520   0.83026   46.677
 5468.00    0.84111   0.82734   45.912
 5469.00    0.84399   0.82258   45.368
 5470.00    0.84029   0.81639   45.610
 5471.00    0.83222   0.80960   46.211
 5472.00    0.82598   0.80327   46.153
 5473.00    0.82243   0.79820   45.715
 5474.00    0.81861   0.79508   45.961
 5475.00    0.81695   0.79439   46.468
 5476.00    0.82187   0.79609   45.970
 5477.00    0.82795   0.79964   45.072
 5478.00    0.82573   0.80460   45.224
 5479.00    0.81893   0.81021   45.857
 5480.00    0.81846   0.81533   45.337
 5481.00    0.82446   0.81940   44.057
 5482.00    0.82975   0.82252   43.457
 5483.00    0.83227   0.82480   43.589
 5484.00    0.83393   0.82612   43.723
 5485.00    0.83485   0.82654   43.680
 5486.00    0.83390   0.82643   -2.000
 5487.00    0.83112   0.82628   -2.000
 5488.00    0.82851   0.82645   -2.000
 5489.00    0.83033   0.82692   -2.000
 5490.00    0.83720   0.82729   -2.000
 5491.00    0.83901   0.82724   -2.000
 5492.00    0.83036   0.82691   -2.000
 5493.00    0.82980   0.82636   -2.000
 5494.00    0.85156   0.82557   -2.000
 5495.00    0.87093   0.82463   -2.000
 5496.00    0.86160   0.82349   -2.000
 5497.00    0.84026   0.82189   -2.000
 5498.00    0.83340   0.81978   -2.000
 5499.00    0.83813   0.81736   -2.000
 5500.00    0.84054   0.81483   -2.000
 5501.00    0.83776   0.81233   -2.000
 5502.00    0.83296   0.81028   -2.000
 5503.00    0.82861   0.80907   -2.000
 5504.00    0.82609   0.80852   -2.000
 5505.00    0.82594   0.80809   -2.000
 5506.00    0.82788   0.80746   -2.000
 5507.00    0.83095   0.80670   -2.000
 5508.00    0.83324   0.80611   -2.000
 5509.00    0.83228   0.80593   47.499
 5510.00    0.82850   0.80640   46.905
 5511.00    0.82690   0.80812   46.196
 5512.00    0.83075   0.81144   45.893
 5513.00    0.83782   0.81613   46.298
 5514.00    0.84443   0.82164   47.090
 5515.00    0.84836   0.82711   47.185
 5516.00    0.84975   0.83167   46.240
 5517.00    0.85096   0.83470   45.286
 5518.00    0.85314   0.83590   44.840
 5519.00    0.85478   0.83513   44.371
 5520.00    0.85404   0.83231   43.843
 5521.00    0.85013   0.82770   44.086
 5522.00    0.84327   0.82216   45.073
 5523.00    0.83463   0.81666   45.451
 5524.00    0.82636   0.81199   44.877
 5525.00    0.82104   0.80886   44.664
 5526.00    0.81960   0.80766   45.182
 5527.00    0.82080   0.80826   45.369
 5528.00    0.82260   0.81003   45.014
 5529.00    0.82336   0.81235   45.148
 5530.00    0.82405   0.81469   45.826
 5531.00    0.82760   0.81649   45.903
 5532.00    0.83381   0.81777   45.417
 5533.00    0.83914   0.81917   45.658
 5534.00    0.84206   0.82121   46.580
 5535.00    0.84380   0.82377   46.764
 5536.00    0.84489   0.82640   46.207
 5537.00    0.84474   0.82863   46.215
 5538.00    0.84340   0.82986   46.435
 5539.00    0.84135   0.82992   45.558
 5540.00    0.83743   0.82933   45.221
 5541.00    0.83041   0.82872   47.958
 5542.00    0.82387   0.82861   49.694
 5543.00    0.82360   0.82939   44.700
 5544.00    0.82880   0.83123   44.223
 5545.00    0.83374   0.83382   63.381
 5546.00    0.83594   0.83636   62.691
 5547.00    0.83677   0.83805   24.102
 5548.00    0.83893   0.83859   12.954
 5549.00    0.84483   0.83794   10.860
 5550.00    0.85458   0.83623   11.464
 5551.00    0.86501   0.83395   11.916
 5552.00    0.86881   0.83172   11.578
 5553.00    0.86033   0.82985   11.529
 5554.00    0.84526   0.82839   11.825
 5555.00    0.83496   0.82716   11.921
 5556.00    0.83511   0.82588   11.936
 5557.00    0.84383   0.82424   12.135
 5558.00    0.85206   0.82203   11.837
 5559.00    0.85051   0.81932   10.978
 5560.00    0.83907   0.81641   11.667
 5561.00    0.82405   0.81354   17.752
 5562.00    0.81269   0.81088   41.084
 5563.00    0.80899   0.80867   64.856
 5564.00    0.80976   0.80719   46.005
 5565.00    0.80983   0.80632   41.376
 5566.00    0.80835   0.80574   46.281
 5567.00    0.80731   0.80560   48.485
 5568.00    0.80912   0.80609   46.625
 5569.00    0.81420   0.80703   46.062
 5570.00    0.81928   0.80837   46.626
 5571.00    0.82160   0.81027   46.451
 5572.00    0.82270   0.81256   45.819
 5573.00    0.82510   0.81489   45.661
 5574.00    0.82913   0.81725   46.035
 5575.00    0.83303   0.81940   46.545
 5576.00    0.83356   0.82065   46.758
 5577.00    0.82934   0.82076   46.554
 5578.00    0.82293   0.81969   46.321
 5579.00    0.81759   0.81692   46.434
 5580.00    0.81473   0.81213   46.915
 5581.00    0.81326   0.80552   47.535
 5582.00    0.80985   0.79760   47.926
 5583.00    0.80241   0.78941   47.935
 5584.00    0.79214   0.78221   47.825
 5585.00    0.78246   0.77683   47.936
 5586.00    0.77766   0.77381   48.435
 5587.00    0.77944   0.77338   49.060
 5588.00    0.78538   0.77546   49.116
 5589.00    0.79152   0.77959   48.498
 5590.00    0.79425   0.78470   47.988
 5591.00    0.79306   0.78950   48.052
 5592.00    0.79103   0.79311   48.447
 5593.00    0.79084   0.79529   48.653
 5594.00    0.79294   0.79597   48.257
 5595.00    0.79558   0.79526   47.658
 5596.00    0.79594   0.79364   47.834
 5597.00    0.79412   0.79194   48.654
 5598.00    0.79350   0.79109   48.679
 5599.00    0.79619   0.79224   47.312
 5600.00    0.80146   0.79611   45.420
 5601.00    0.80644   0.80226   44.032
 5602.00    0.80802   0.80968   43.706
 5603.00    0.80798   0.81747   43.983
 5604.00    0.81186   0.82468   43.759
 5605.00    0.82067   0.83033   43.068
 5606.00    0.83019   0.83357   42.859
 5607.00    0.83633   0.83394   43.001
 5608.00    0.83671   0.83127   42.559
 5609.00    0.83091   0.82591   41.842
 5610.00    0.82031   0.81903   42.014
 5611.00    0.80795   0.81187   43.161
 5612.00    0.79741   0.80532   44.363
 5613.00    0.79067   0.80014   44.938
 5614.00    0.78753   0.79705   44.808
 5615.00    0.78576   0.79629   44.287
 5616.00    0.78300   0.79754   43.901
 5617.00    0.78045   0.79978   44.233
 5618.00    0.78136   0.80137   45.558
 5619.00    0.78669   0.80145   47.025
 5620.00    0.79460   0.80058   47.335
 5621.00    0.80103   0.79969   46.959
 5622.00    0.80265   0.79952   47.216
 5623.00    0.80126   0.80060   48.003
 5624.00    0.80134   0.80310   48.420
 5625.00    0.80501   0.80692   48.382
 5626.00    0.81136   0.81162   48.371
 5627.00    0.81687   0.81608   48.572
 5628.00    0.81807   0.81905   48.863
 5629.00    0.81525   0.82007   48.987
 5630.00    0.81155   0.81924   48.816
 5631.00    0.81108   0.81677   48.647
 5632.00    0.81524   0.81332   48.900
 5633.00    0.81915   0.80969   49.744
 5634.00    0.81756   0.80628   50.830
 5635.00    0.81165   0.80338   51.047
 5636.00    0.80501   0.80136   49.879
 5637.00    0.79880   0.80034   48.679
 5638.00    0.79337   0.80023   48.537
 5639.00    0.79026   0.80103   48.761
 5640.00    0.79071   0.80254   48.479
 5641.00    0.79415   0.80441   48.088
 5642.00    0.79882   0.80644   48.102
 5643.00    0.80257   0.80849   48.196
 5644.00    0.80462   0.81028   48.050
 5645.00    0.80662   0.81166   48.008
 5646.00    0.81016   0.81266   48.313
 5647.00    0.81486   0.81304   48.575
 5648.00    0.81814   0.81245   48.442
 5649.00    0.81608   0.81086   48.088
 5650.00    0.80848   0.80843   47.807
 5651.00    0.80104   0.80484   47.723
 5652.00    0.79640   0.79978   47.774
 5653.00    0.79012   0.79407   47.746
 5654.00    0.78079   0.78879   47.523
 5655.00    0.77440   0.78438   47.219
 5656.00    0.77470   0.78122   47.075
 5657.00    0.77890   0.77987   47.316
 5658.00    0.78432   0.78040   47.726
 5659.00    0.79090   0.78262   47.640
 5660.00    0.79691   0.78627   47.138
 5661.00    0.79832   0.79025   47.213
 5662.00    0.79587   0.79353   48.057
 5663.00    0.79590   0.79628   48.694
 5664.00    0.80010   0.79903   48.789
 5665.00    0.80356   0.80175   49.133
 5666.00    0.80447   0.80438   49.847
 5667.00    0.80613   0.80715   50.039
 5668.00    0.80994   0.81018   49.560
 5669.00    0.81385   0.81339   49.269
 5670.00    0.81633   0.81655   49.511
 5671.00    0.81743   0.81919   49.898
 5672.00    0.81766   0.82081   50.121
 5673.00    0.81766   0.82124   50.156
 5674.00    0.81829   0.82049   50.040
 5675.00    0.82005   0.81849   49.815
 5676.00    0.82122   0.81529   49.589
 5677.00    0.81901   0.81145   49.488
 5678.00    0.81377   0.80747   49.486
 5679.00    0.80810   0.80355   49.440
 5680.00    0.80221   0.79995   49.265
 5681.00    0.79568   0.79689   48.904
 5682.00    0.79378   0.79456   48.177
 5683.00    0.80305   0.79333   47.001
 5684.00    0.81886   0.79367   45.823
 5685.00    0.82945   0.79541   45.214
 5686.00    0.82933   0.79811   45.181
 5687.00    0.82085   0.80139   45.366
 5688.00    0.81156   0.80498   45.514
 5689.00    0.80886   0.80854   45.549
 5690.00    0.81181   0.81158   45.558
 5691.00    0.81487   0.81337   45.711
 5692.00    0.81648   0.81346   46.133
 5693.00    0.81777   0.81210   46.805
 5694.00    0.81839   0.80953   47.428
 5695.00    0.81701   0.80598   47.651
 5696.00    0.81305   0.80206   47.494
 5697.00    0.80691   0.79839   47.295
 5698.00    0.80010   0.79514   47.490
 5699.00    0.79445   0.79220   48.149
 5700.00    0.79119   0.78940   48.439
 5701.00    0.79006   0.78644   47.786
 5702.00    0.78867   0.78303   47.275
 5703.00    0.78472   0.77928   47.875
 5704.00    0.77859   0.77556   48.655
 5705.00    0.77245   0.77218   48.389
 5706.00    0.76885   0.76970   47.602
 5707.00    0.76911   0.76921   47.329
 5708.00    0.77204   0.77124   47.791
 5709.00    0.77654   0.77536   48.622
 5710.00    0.78372   0.78104   49.127
 5711.00    0.79414   0.78772   49.064
 5712.00    0.80544   0.79440   49.231
 5713.00    0.81459   0.80063   50.012
 5714.00    0.81993   0.80629   50.360
 5715.00    0.82165   0.81094   49.639
 5716.00    0.82180   0.81471   48.948
 5717.00    0.82268   0.81794   49.030
 5718.00    0.82558   0.82052   49.164
 5719.00    0.82994   0.82236   48.768
 5720.00    0.83347   0.82330   48.326
 5721.00    0.83524   0.82305   48.151
 5722.00    0.83702   0.82190   47.803
 5723.00    0.83943   0.82039   47.072
 5724.00    0.84007   0.81865   46.419
 5725.00    0.83615   0.81664   46.354
 5726.00    0.82668   0.81474   47.085
 5727.00    0.81582   0.81352   48.163
 5728.00    0.81231   0.81329   48.420
 5729.00    0.81887   0.81398   47.448
 5730.00    0.82911   0.81501   46.135
 5731.00    0.83691   0.81589   45.332
 5732.00    0.84039   0.81664   45.358
 5733.00    0.84043   0.81743   46.027
 5734.00    0.83926   0.81799   46.738
 5735.00    0.83770   0.81796   47.082
 5736.00    0.83500   0.81737   47.072
 5737.00    0.83197   0.81653   46.869
 5738.00    0.83126   0.81585   46.663
 5739.00    0.83461   0.81561   46.717
 5740.00    0.84147   0.81565    0.000
 5741.00    0.84831   0.81548    0.000
 5742.00    0.84992   0.81475    0.000
 5743.00    0.84407   0.81366    0.000
 5744.00    0.83260   0.81261    0.000
 5745.00    0.82008   0.81147    0.000
 5746.00    0.81175   0.80970    0.000
 5747.00    0.80922   0.80701    0.000
 5748.00    0.81091   0.80392    0.000
 5749.00    0.81571   0.80152    0.000
 5750.00    0.82302   0.80052    0.000
 5751.00    0.83059   0.80063    0.000
 5752.00    0.83549   0.80135    0.000
 5753.00    0.83724   0.80251    0.000
 5754.00    0.83731   0.80383    0.000
 5755.00    0.83690   0.80481    0.000
 5756.00    0.83663   0.80487    0.000
 5757.00    0.83692   0.80380    0.000
 5758.00    0.83784   0.80238    0.000
 5759.00    0.83882   0.80175    0.000
 5760.00    0.83926   0.80229    0.000
 5761.00    0.83951   0.80404    0.000
 5762.00    0.84012   0.80687    0.000
 5763.00    0.84036   0.81025    0.000
 5764.00    0.83940   0.81353    0.000
 5765.00    0.83815   0.81598    0.000
 5766.00    0.83784   0.81685    0.000
 5767.00    0.83791   0.81627    0.000
 5768.00    0.83778   0.81491    0.000
 5769.00    0.83919   0.81315    0.000
 5770.00    0.84226   0.81134    0.000
 5771.00    0.84106   0.80976    0.000
 5772.00    0.83138   0.80822    0.000
 5773.00    0.81903   0.80630    0.000
 5774.00    0.81098   0.80352    0.000
 5775.00    0.80591   0.79936    0.000
 5776.00    0.80060   0.79408    0.000
 5777.00    0.79662   0.78852    0.000
 5778.00    0.79530   0.78311    0.000
 5779.00    0.79326   0.77812    0.000
 5780.00    0.78847   0.77432    0.000
 5781.00    0.78493   0.77267    0.000
 5782.00    0.78627   0.77352    0.000
 5783.00    0.79071   0.77638    0.000
 5784.00    0.79518   0.78019    0.000
 5785.00    0.79853   0.78396    0.000
 5786.00    0.80126   0.78757    0.000
 5787.00    0.80486   0.79129    0.000
 5788.00    0.81008   0.79473    0.000
 5789.00    0.81596   0.79754    0.000
 5790.00    0.82107   0.79982    0.000
 5791.00    0.82433   0.80148    0.000
 5792.00    0.82488   0.80262    0.000
 5793.00    0.82239   0.80382    0.000
 5794.00    0.81899   0.80534    0.000
 5795.00    0.81920   0.80700    0.000
 5796.00    0.82468   0.80858    0.000
 5797.00    0.83225   0.80990    0.000
 5798.00    0.83741   0.81073    0.000
 5799.00    0.83679   0.81097   -2.000
 5800.00    0.83118   0.81068   -2.000
 5801.00    0.82553   0.80977   -2.000
 5802.00    0.82313   0.80849   -2.000
 5803.00    0.82358   0.80730   -2.000
 5804.00    0.82394   0.80653   -2.000
 5805.00    0.82057   0.80643   -2.000
 5806.00    0.81342   0.80707   -2.000
 5807.00    0.80661   0.80798   -2.000
 5808.00    0.80499   0.80863   -2.000
 5809.00    0.81159   0.80868   -2.000
 5810.00    0.82346   0.80802   -2.000
 5811.00    0.83287   0.80708   -2.000
 5812.00    0.83448   0.80656   -2.000
 5813.00    0.82785   0.80685   -2.000
 5814.00    0.81794   0.80787   -2.000
 5815.00    0.81216   0.80946   -2.000
 5816.00    0.81257   0.81141   -2.000
 5817.00    0.81615   0.81348   -2.000
 5818.00    0.82053   0.81542   -2.000
 5819.00    0.82475   0.81690    0.000
 5820.00    0.82788   0.81774    0.000
 5821.00    0.82881   0.81804    0.000
 5822.00    0.82648   0.81807    0.000
 5823.00    0.82100   0.81805    0.000
 5824.00    0.81568   0.81815    0.000
 5825.00    0.81498   0.81824    0.000
 5826.00    0.82022   0.81812    0.000
 5827.00    0.82906   0.81770    0.000
 5828.00    0.83636   0.81698    0.000
 5829.00    0.83774   0.81591    0.000
 5830.00    0.83494   0.81473    0.000
 5831.00    0.83255   0.81376    0.000
 5832.00    0.83191   0.81298    0.000
 5833.00    0.83207   0.81236    0.000
 5834.00    0.83251   0.81222    0.000
 5835.00    0.83337   0.81273    0.000
 5836.00    0.83511   0.81375    0.000
 5837.00    0.83736   0.81488    0.000
 5838.00    0.83770   0.81565    0.000
 5839.00    0.83409   0.81584    0.000
 5840.00    0.82775   0.81545    0.000
 5841.00    0.82143   0.81432    0.000
 5842.00    0.81704   0.81236    0.000
 5843.00    0.81471   0.80992    0.000
 5844.00    0.81233   0.80737    0.000
 5845.00    0.80837   0.80473    0.000
 5846.00    0.80442   0.80184    0.000
 5847.00    0.80269   0.79841    0.000
 5848.00    0.80357   0.79449    0.000
 5849.00    0.80480   0.79070    0.000
 5850.00    0.80169   0.78721    0.000
 5851.00    0.79204   0.78342    0.000
 5852.00    0.77942   0.77922    0.000
 5853.00    0.76868   0.77574    0.000
 5854.00    0.76238   0.77407    0.000
 5855.00    0.76196   0.77423    0.000
 5856.00    0.76821   0.77548    0.000
 5857.00    0.77909   0.77707    0.000
 5858.00    0.78912   0.77932    0.000
 5859.00    0.79459   0.78262    0.000
 5860.00    0.79631   0.78611    0.000
 5861.00    0.79632   0.78874    0.000
 5862.00    0.79583   0.79062    0.000
 5863.00    0.79515   0.79245    0.000
 5864.00    0.79412   0.79451    0.000
 5865.00    0.79421   0.79646    0.000
 5866.00    0.79878   0.79786    0.000
 5867.00    0.80905   0.79859    0.000
 5868.00    0.82329   0.79884    0.000
 5869.00    0.84126   0.79853    0.000
 5870.00    0.86434   0.79734    0.000
 5871.00    0.88811   0.79542    0.000
 5872.00    0.90231   0.79320    0.000
 5873.00    0.90255   0.79108    0.000
 5874.00    0.89273   0.78889    0.000
 5875.00    0.87729   0.78668    0.000
 5876.00    0.85870   0.78476    0.000
 5877.00    0.83882   0.78312    0.000
 5878.00    0.81973   0.78106    0.000
 5879.00    0.80472   0.77793    0.000
 5880.00    0.79695   0.77344    0.000
 5881.00    0.79494   0.76733    0.000
 5882.00    0.79303   0.75884    0.000
 5883.00    0.78653   0.74674    0.000
 5884.00    0.77367   0.73047    0.000
 5885.00    0.75675   0.71265    0.000
 5886.00    0.74082   0.69753    0.000
 5887.00    0.72998   0.68655    0.000
 5888.00    0.72589   0.67891    0.000
 5889.00    0.72691   0.67400    0.000
 5890.00    0.72927   0.67117    0.000
 5891.00    0.72989   0.67169    0.000
 5892.00    0.72799   0.67719    0.000
 5893.00    0.72689   0.68581    0.000
 5894.00    0.73098   0.69534    0.000
 5895.00    0.73973   0.70585    0.000
 5896.00    0.74939   0.71776    0.000
 5897.00    0.75773   0.73114    0.000
 5898.00    0.76474   0.74474    0.000
 5899.00    0.77214   0.75617    0.000
 5900.00    0.78122   0.76444    0.000
 5901.00    0.78972   0.77041   47.398
 5902.00    0.79476   0.77484   47.973
 5903.00    0.79729   0.77807   48.431
 5904.00    0.79997   0.78026   48.178
 5905.00    0.80344   0.78164   47.579
 5906.00    0.80665   0.78250   47.320
 5907.00    0.80787   0.78280   47.546
 5908.00    0.80587   0.78207   48.009
 5909.00    0.80106   0.78024   48.296
 5910.00    0.79514   0.77808   48.118
 5911.00    0.79043   0.77637   47.621
 5912.00    0.78882   0.77543   47.246
 5913.00    0.79065   0.77520   47.507
 5914.00    0.79394   0.77567   48.465
 5915.00    0.79424   0.77708   49.267
 5916.00    0.78914   0.77915   49.282
 5917.00    0.78188   0.78118   49.243
 5918.00    0.77698   0.78288   49.828
 5919.00    0.77641   0.78419   50.517
 5920.00    0.77933   0.78507   50.727
 5921.00    0.78269   0.78551   50.801
 5922.00    0.78470   0.78534   51.179
 5923.00    0.78687   0.78454   51.760
 5924.00    0.79014   0.78320   52.178
 5925.00    0.79260   0.78155   52.067
 5926.00    0.79286   0.78026   51.200
 5927.00    0.79205   0.77965   49.735
 5928.00    0.79181   0.77927   49.000
 5929.00    0.79301   0.77887   51.040
 5930.00    0.79600   0.77885   53.466
 5931.00    0.80052   0.77975   48.536
 5932.00    0.80465   0.78126   43.523
 5933.00    0.80504   0.78252   54.356
 5934.00    0.80078   0.78327   69.669
 5935.00    0.79460   0.78361   35.797
 5936.00    0.78923   0.78363   16.188
 5937.00    0.78605   0.78348   11.876
 5938.00    0.78652   0.78321   12.021
 5939.00    0.79208   0.78296   12.970
 5940.00    0.80123   0.78285   12.769
 5941.00    0.80931   0.78274   12.183
 5942.00    0.81258   0.78245   12.108
 5943.00    0.80987   0.78176   12.578
 5944.00    0.80319   0.78067   12.831
 5945.00    0.79656   0.77964   11.999
 5946.00    0.79172   0.77876   11.697
 5947.00    0.78786   0.77752   15.333
 5948.00    0.78516   0.77597   32.454
 5949.00    0.78475   0.77503   69.669
 5950.00    0.78556   0.77509   60.544
 5951.00    0.78493   0.77542   46.291
 5952.00    0.78286   0.77541   50.616
 5953.00    0.78173   0.77553   56.675
 5954.00    0.78251   0.77655   54.403
 5955.00    0.78463   0.77841   51.303
 5956.00    0.78773   0.78045   51.092
 5957.00    0.79182   0.78239   52.221
 5958.00    0.79656   0.78439   52.765
 5959.00    0.80098   0.78632   51.760
 5960.00    0.80339   0.78775   50.393
 5961.00    0.80258   0.78851   50.353
 5962.00    0.80006   0.78902   51.232
 5963.00    0.79893   0.78958   51.449
 5964.00    0.80100   0.79022   50.794
 5965.00    0.80590   0.79091   50.112
 5966.00    0.81060   0.79159   49.759
 5967.00    0.81177   0.79215   49.678
 5968.00    0.80945   0.79230   49.846
 5969.00    0.80532   0.79161   50.221
 5970.00    0.79924   0.78989   50.569
 5971.00    0.79093   0.78725   50.613
 5972.00    0.78281   0.78417   50.295
 5973.00    0.77801   0.78121   49.890
 5974.00    0.77726   0.77874   50.003
 5975.00    0.77893   0.77698   50.909
 5976.00    0.77979   0.77578   51.767
 5977.00    0.77807   0.77478   51.698
 5978.00    0.77639   0.77354   51.321
 5979.00    0.77699   0.77184   51.600
 5980.00    0.77676   0.77021   52.489
 5981.00    0.77227   0.76921   53.382
 5982.00    0.76521   0.76866   53.712
 5983.00    0.76010   0.76850   53.397
 5984.00    0.76121   0.76910   53.106
 5985.00    0.76928   0.77062   53.419
 5986.00    0.77940   0.77256   54.191
 5987.00    0.78625   0.77431   54.863
 5988.00    0.78852   0.77592   54.840
 5989.00    0.78770   0.77751   54.079
 5990.00    0.78640   0.77857   53.329
 5991.00    0.78547   0.77869   53.085
 5992.00    0.78252   0.77797   53.048
 5993.00    0.77567   0.77690   52.986
 5994.00    0.76613   0.77581   53.169
 5995.00    0.75774   0.77471   53.391
 5996.00    0.75562   0.77357   52.634
 5997.00    0.76000   0.77227   51.078
 5998.00    0.76426   0.77084   50.497
 5999.00    0.76436   0.76976   51.331
 6000.00    0.76324   0.76911   51.853
 6001.00    0.76501   0.76822   51.274
 6002.00    0.77136   0.76664   51.016
 6003.00    0.77935   0.76467   51.524
 6004.00    0.78225   0.76334   51.393
 6005.00    0.77769   0.76335   50.443
 6006.00    0.77017   0.76394   50.392
 6007.00    0.76504   0.76409   51.780
 6008.00    0.76522   0.76380   53.246
 6009.00    0.76896   0.76373   53.611
 6010.00    0.77093   0.76414   53.033
 6011.00    0.76939   0.76408   52.507
 6012.00    0.76727   0.76297   53.059
 6013.00    0.76625   0.76164   54.322
 6014.00    0.76544   0.76064   54.636
 6015.00    0.76424   0.75965   53.783
 6016.00    0.76316   0.75858   53.183
 6017.00    0.76356   0.75793   53.287
 6018.00    0.76694   0.75803   53.372
 6019.00    0.77348   0.75871   52.838
 6020.00    0.78151   0.75991   51.752
 6021.00    0.78758   0.76198   51.057
 6022.00    0.78814   0.76463   51.689
 6023.00    0.78394   0.76746   52.632
 6024.00    0.77945   0.77052   51.809
 6025.00    0.77908   0.77366   50.037
 6026.00    0.78481   0.77650   49.578
 6027.00    0.79316   0.77888   50.120
 6028.00    0.79796   0.78100   49.883
 6029.00    0.79736   0.78292   49.091
 6030.00    0.79368   0.78429   49.194
 6031.00    0.79036   0.78506   50.191
 6032.00    0.78981   0.78551   51.021
 6033.00    0.79097   0.78568   51.159
 6034.00    0.79072   0.78544   50.792
 6035.00    0.78719   0.78473   50.377
 6036.00    0.78049   0.78384   50.435
 6037.00    0.77294   0.78309   51.444
 6038.00    0.76758   0.78267   53.339
 6039.00    0.76587   0.78276   54.538
 6040.00    0.76763   0.78318   53.688
 6041.00    0.77144   0.78379   52.699
 6042.00    0.77557   0.78463   53.667
 6043.00    0.77894   0.78556   55.318
 6044.00    0.78137   0.78623   55.208
 6045.00    0.78347   0.78640   53.715
 6046.00    0.78565   0.78608   52.556
 6047.00    0.78701   0.78519   52.420
 6048.00    0.78616   0.78360   53.091
 6049.00    0.78237   0.78152   53.641
 6050.00    0.77682   0.77943   53.323
 6051.00    0.77332   0.77746   52.544
 6052.00    0.77417   0.77572   51.958
 6053.00    0.77659   0.77461   51.624
 6054.00    0.77735   0.77431   51.456
 6055.00    0.77679   0.77451   51.578
 6056.00    0.77646   0.77463   51.846
 6057.00    0.77682   0.77447   51.561
 6058.00    0.77736   0.77398   50.617
 6059.00    0.77697   0.77301   50.108
 6060.00    0.77552   0.77149   50.622
 6061.00    0.77462   0.76998   51.360
 6062.00    0.77504   0.76977   51.561
 6063.00    0.77532   0.77117   51.509
 6064.00    0.77489   0.77340   51.545
 6065.00    0.77549   0.77599   51.477
 6066.00    0.77822   0.77901   51.254
 6067.00    0.78191   0.78234   51.270
 6068.00    0.78510   0.78512   51.770
 6069.00    0.78709   0.78655   52.580
 6070.00    0.78827   0.78668   53.446
 6071.00    0.78979   0.78582   54.188
 6072.00    0.79161   0.78398   54.521
 6073.00    0.79196   0.78111   54.136
 6074.00    0.78938   0.77752   53.464
 6075.00    0.78374   0.77404   53.554
 6076.00    0.77620   0.77107   54.506
 6077.00    0.76888   0.76814   55.182
 6078.00    0.76353   0.76544   54.822
 6079.00    0.76085   0.76369   53.737
 6080.00    0.76041   0.76293   52.585
 6081.00    0.76094   0.76245   51.911
 6082.00    0.76191   0.76210   51.823
 6083.00    0.76351   0.76220   52.050
 6084.00    0.76518   0.76257   52.273
 6085.00    0.76580   0.76257   52.292
 6086.00    0.76560   0.76224   52.232
 6087.00    0.76613   0.76225   52.372
 6088.00    0.76824   0.76264   52.516
 6089.00    0.77159   0.76311   52.210
 6090.00    0.77470   0.76394   51.775
 6091.00    0.77579   0.76524   51.964
 6092.00    0.77448   0.76631   52.557
 6093.00    0.77163   0.76655   52.671
 6094.00    0.76801   0.76608   52.368
 6095.00    0.76427   0.76512   52.381
 6096.00    0.76184   0.76319   52.647
 6097.00    0.76188   0.75960   52.629
 6098.00    0.76309   0.75485   52.591
 6099.00    0.76278   0.75128   53.169
 6100.00    0.75982   0.75054   54.089
 6101.00    0.75502   0.75135   54.570
 6102.00    0.75070   0.75240   54.663
 6103.00    0.74918   0.75411   54.868
 6104.00    0.75055   0.75734   54.993
 6105.00    0.75360   0.76150   54.655
 6106.00    0.75796   0.76464   54.338
 6107.00    0.76361   0.76607   54.673
 6108.00    0.76984   0.76692   55.257
 6109.00    0.77570   0.76803   55.154
 6110.00    0.78087   0.76883   53.947
 6111.00    0.78498   0.76845   52.118
 6112.00    0.78669   0.76693   50.929
 6113.00    0.78495   0.76515   51.114
 6114.00    0.78060   0.76314   51.827
 6115.00    0.77468   0.76017   51.910
 6116.00    0.76665   0.75616   51.552
 6117.00    0.75667   0.75177   51.492
 6118.00    0.74809   0.74798   51.931
 6119.00    0.74467   0.74613   52.558
 6120.00    0.74755   0.74604   52.694
 6121.00    0.75457   0.74653   52.073
 6122.00    0.76050   0.74753   51.462
 6123.00    0.76171   0.74940   51.648
 6124.00    0.75994   0.75191   52.704
 6125.00    0.75912   0.75426   54.191
 6126.00    0.76220   0.75588   55.294
 6127.00    0.76841   0.75650   55.360
 6128.00    0.77221   0.75582   54.485
 6129.00    0.76923   0.75393   53.417
 6130.00    0.76031   0.75081   53.165
 6131.00    0.74895   0.74603   53.986
 6132.00    0.73916   0.73958   54.945
 6133.00    0.73361   0.73330   55.263
 6134.00    0.73263   0.73008   55.230
 6135.00    0.73461   0.73006   55.270
 6136.00    0.73670   0.73107   55.367
 6137.00    0.73778   0.73239   55.418
 6138.00    0.73940   0.73567   55.400
 6139.00    0.74246   0.74146   55.075
 6140.00    0.74594   0.74705   54.005
 6141.00    0.74916   0.75038   52.248
 6142.00    0.75264   0.75217   50.346
 6143.00    0.75633   0.75350   48.311
 6144.00    0.75915   0.75421   45.766
 6145.00    0.76028   0.75393   43.288
 6146.00    0.75977   0.75309   42.047
 6147.00    0.75824   0.75246   42.268
 6148.00    0.75644   0.75215   43.317
 6149.00    0.75427   0.75178   44.808
 6150.00    0.75107   0.75086   46.793
 6151.00    0.74802   0.74950   48.774
 6152.00    0.74756   0.74775   49.655
 6153.00    0.74899   0.74484   49.680
 6154.00    0.74837   0.74053   50.390
 6155.00    0.74246   0.73532   52.061
 6156.00    0.73055   0.72905   53.570
 6157.00    0.71584   0.72151   54.709
 6158.00    0.70386   0.71445   56.353
 6159.00    0.69722   0.71006   58.097
 6160.00    0.69546   0.70829   58.400
 6161.00    0.69783   0.70779   57.597
 6162.00    0.70374   0.70846   57.263
 6163.00    0.71213   0.71105   56.923
 6164.00    0.72106   0.71421   54.899
 6165.00    0.72726   0.71595   51.461
 6166.00    0.72815   0.71737   48.195
 6167.00    0.72574   0.72023   46.185
 6168.00    0.72449   0.72356   45.856
 6169.00    0.72592   0.72599   46.943
 6170.00    0.72888   0.72849   48.660
 6171.00    0.73198   0.73201   49.926
 6172.00    0.73425   0.73555   49.987
 6173.00    0.73562   0.73836   49.547
 6174.00    0.73662   0.74091   49.695
 6175.00    0.73794   0.74322   50.123
 6176.00    0.74006   0.74496   50.031
 6177.00    0.74282   0.74655   49.825
 6178.00    0.74553   0.74802   50.329
 6179.00    0.74710   0.74870   51.463
 6180.00    0.74654   0.74843   52.675
 6181.00    0.74356   0.74733   53.754
 6182.00    0.73817   0.74507   54.583
 6183.00    0.73023   0.74175   54.691
 6184.00    0.71961   0.73818   53.997
 6185.00    0.70649   0.73491   53.538
 6186.00    0.69278   0.73147   54.190
 6187.00    0.68308   0.72783   55.519
 6188.00    0.68114   0.72620   56.604
 6189.00    0.68645   0.72761   57.076
 6190.00    0.69632   0.72999   57.063
 6191.00    0.70814   0.73208   56.874
 6192.00    0.71896   0.73464   56.432
 6193.00    0.72531   0.73802   55.006
 6194.00    0.72587   0.74068   52.477
 6195.00    0.72334   0.74143   49.898
 6196.00    0.72180   0.74152   48.066
 6197.00    0.72429   0.74247   47.012
 6198.00    0.73059   0.74403   46.746
 6199.00    0.73654   0.74529   47.576
 6200.00    0.73849   0.74639   49.456
 6201.00    0.73645   0.74789   51.490
 6202.00    0.73350   0.74956   52.852
 6203.00    0.73463   0.75045   53.482
 6204.00    0.74186   0.75012   -2.000
 6205.00    0.75226   0.74867   -2.000
 6206.00    0.76247   0.74617   -2.000
 6207.00    0.77091   0.74273   -2.000
 6208.00    0.77546   0.73851   -2.000
 6209.00    0.77300   0.73347   -2.000
 6210.00    0.76274   0.72826   -2.000
 6211.00    0.74761   0.72377   -2.000
 6212.00    0.73290   0.72051   -2.000
 6213.00    0.72425   0.71865   -2.000
 6214.00    0.72221   0.71768   -2.000
 6215.00    0.72182   0.71709   -2.000
 6216.00    0.72041   0.71722   46.824
 6217.00    0.71919   0.71850   46.765
 6218.00    0.71805   0.72043   48.601
 6219.00    0.71486   0.72202   51.907
 6220.00    0.70953   0.72296   55.359
 6221.00    0.70470   0.72374   57.462
 6222.00    0.70309   0.72416   57.695
 6223.00    0.70580   0.72362   56.923
 6224.00    0.71004   0.72205   56.218
 6225.00    0.71071   0.71946   56.159
 6226.00    0.70660   0.71622   56.315
 6227.00    0.70088   0.71368   55.671
 6228.00    0.69757   0.71281   54.120
 6229.00    0.69952   0.71316   52.396
 6230.00    0.70586   0.71450   51.015
 6231.00    0.71290   0.71659   50.265
 6232.00    0.71752   0.71866   50.608
 6233.00    0.71815   0.71985   52.309
 6234.00    0.71499   0.71979   54.178
 6235.00    0.70944   0.71850   54.129
 6236.00    0.70302   0.71626   52.185
 6237.00    0.69689   0.71388   50.053
 6238.00    0.69152   0.71135   48.826
 6239.00    0.68740   0.70858   48.903
 6240.00    0.68629   0.70677   50.306
 6241.00    0.68999   0.70632   52.691
 6242.00    0.69790   0.70638   55.079
 6243.00    0.70752   0.70685   56.348
 6244.00    0.71587   0.70813   56.718
 6245.00    0.72033   0.70972   57.133
 6246.00    0.71951   0.71063   57.677
 6247.00    0.71356   0.71030   57.912
 6248.00    0.70435   0.70865   57.713
 6249.00    0.69445   0.70624   57.261
 6250.00    0.68598   0.70359   56.832
 6251.00    0.68041   0.70101   56.536
 6252.00    0.67851   0.69861   56.098
 6253.00    0.68013   0.69680   55.296
 6254.00    0.68396   0.69637   54.395
 6255.00    0.68848   0.69781   53.707
 6256.00    0.69298   0.70074   53.195
 6257.00    0.69730   0.70407   52.832
 6258.00    0.70145   0.70786   52.900
 6259.00    0.70492   0.71235   53.469
 6260.00    0.70637   0.71629   53.954
 6261.00    0.70519   0.71875   53.763
 6262.00    0.70272   0.72059   52.953
 6263.00    0.70065   0.72256   51.914
 6264.00    0.69977   0.72388   51.028
 6265.00    0.70116   0.72418   50.660
 6266.00    0.70671   0.72449   51.106
 6267.00    0.71585   0.72551   51.765
 6268.00    0.72401   0.72678   50.757
 6269.00    0.72751   0.72772   47.470
 6270.00    0.72670   0.72831   43.615
 6271.00    0.72420   0.72877   40.688
 6272.00    0.72312   0.72897   39.254
 6273.00    0.72380   0.72866   39.552
 6274.00    0.72291   0.72786   41.814
 6275.00    0.71872   0.72676   45.909
 6276.00    0.71331   0.72554   50.569
 6277.00    0.70907   0.72473   54.065
 6278.00    0.70683   0.72478   55.741
 6279.00    0.70601   0.72565   56.030
 6280.00    0.70523   0.72712    0.000
 6281.00    0.70402   0.72883    0.000
 6282.00    0.70329   0.73075    0.000
 6283.00    0.70406   0.73276    0.000
 6284.00    0.70693   0.73445    0.000
 6285.00    0.71222   0.73530    0.000
 6286.00    0.71975   0.73514    0.000
 6287.00    0.72774   0.73424    0.000
 6288.00    0.73333   0.73283    0.000
 6289.00    0.73574   0.73094    0.000
 6290.00    0.73673   0.72886    0.000
 6291.00    0.73893   0.72669    0.000
 6292.00    0.74483   0.72410    0.000
 6293.00    0.75585   0.72118    0.000
 6294.00    0.77183   0.71868    0.000
 6295.00    0.79056   0.71702    0.000
 6296.00    0.80811   0.71558    0.000
 6297.00    0.81999   0.71395    0.000
 6298.00    0.82219   0.71308    0.000
 6299.00    0.81295   0.71399    0.000
 6300.00    0.79374   0.71610    0.000
 6301.00    0.77027   0.71815    0.000
 6302.00    0.75005   0.72023    0.000
 6303.00    0.73684   0.72293    0.000
 6304.00    0.73041   0.72568    0.000
 6305.00    0.72823   0.72723    0.000
 6306.00    0.72716   0.72719    0.000
 6307.00    0.72559   0.72605    0.000
 6308.00    0.72357   0.72446    0.000
 6309.00    0.72215   0.72230    0.000
 6310.00    0.72205   0.71898    0.000
 6311.00    0.72180   0.71515    0.000
 6312.00    0.71938   0.71236    0.000
 6313.00    0.71519   0.71056    0.000
 6314.00    0.71107   0.70877    0.000
 6315.00    0.70847   0.70790    0.000
 6316.00    0.70796   0.70925    0.000
 6317.00    0.70908   0.71193    0.000
 6318.00    0.71121   0.71457    0.000
 6319.00    0.71460   0.71747    0.000
 6320.00    0.71930   0.72122    0.000
 6321.00    0.72384   0.72488   56.496
 6322.00    0.72644   0.72736   57.148
 6323.00    0.72649   0.72884   58.473
 6324.00    0.72454   0.73010   58.467
 6325.00    0.72207   0.73107   57.520
 6326.00    0.72030   0.73092   56.804
 6327.00    0.71912   0.72959   56.391
 6328.00    0.71778   0.72798   56.057
 6329.00    0.71550   0.72646   56.007
 6330.00    0.71191   0.72423   56.378
 6331.00    0.70733   0.72083   56.833
 6332.00    0.70318   0.71760   56.994
 6333.00    0.70192   0.71587   56.824
 6334.00    0.70506   0.71512   56.417
 6335.00    0.71174   0.71430   55.832
 6336.00    0.71941   0.71393   55.323
 6337.00    0.72468   0.71470   55.391
 6338.00    0.72509   0.71548   56.190
 6339.00    0.72036   0.71517   57.212
 6340.00    0.71257   0.71447   57.832
 6341.00    0.70581   0.71448   57.816
 6342.00    0.70316   0.71476   57.691
 6343.00    0.70520   0.71496   58.541
 6344.00    0.71125   0.71594   60.171
 6345.00    0.72002   0.71797   60.490
 6346.00    0.72935   0.71993   59.074
 6347.00    0.73631   0.72115   58.224
 6348.00    0.73843   0.72203   58.708
 6349.00    0.73458   0.72227   58.936
 6350.00    0.72640   0.72093   58.481
 6351.00    0.71796   0.71828   58.879
 6352.00    0.71208   0.71550   60.154
 6353.00    0.70907   0.71254   60.188
 6354.00    0.70799   0.70860   58.607
 6355.00    0.70752   0.70438   57.356
 6356.00    0.70739   0.70127   57.033
 6357.00    0.70851   0.69914   56.592
 6358.00    0.71209   0.69734   55.459
 6359.00    0.71871   0.69658   54.070
 6360.00    0.72685   0.69772   53.343
 6361.00    0.73339   0.70016   54.074
 6362.00    0.73631   0.70292   55.749
 6363.00    0.73536   0.70603   56.727
 6364.00    0.73161   0.70972   56.589
 6365.00    0.72679   0.71327   56.365
 6366.00    0.72180   0.71594   56.568
 6367.00    0.71724   0.71808   56.955
 6368.00    0.71522   0.72050   57.141
 6369.00    0.71815   0.72299   56.724
 6370.00    0.72483   0.72468   55.268
 6371.00    0.73150   0.72558   52.926
 6372.00    0.73574   0.72634   51.213
 6373.00    0.73694   0.72681   51.468
 6374.00    0.73545   0.72637   52.675
 6375.00    0.73212   0.72522   52.678
 6376.00    0.72777   0.72405   51.710
 6377.00    0.72334   0.72307   51.402
 6378.00    0.72039   0.72241   51.932
 6379.00    0.71968   0.72219   52.619
 6380.00    0.71904   0.72217   53.420
 6381.00    0.71609   0.72237   54.558
 6382.00    0.71271   0.72310   55.491
 6383.00    0.71222   0.72400   55.483
 6384.00    0.71453   0.72422   54.843
 6385.00    0.71725   0.72356   54.351
 6386.00    0.71801   0.72256   54.297
 6387.00    0.71537   0.72138   54.710
 6388.00    0.70956   0.71954   55.715
 6389.00    0.70237   0.71698   57.243
 6390.00    0.69681   0.71489   58.590
 6391.00    0.69536   0.71401   59.225
 6392.00    0.69813   0.71349   59.860
 6393.00    0.70295   0.71290   61.027
 6394.00    0.70594   0.71285   61.498
 6395.00    0.70470   0.71294   60.478
 6396.00    0.70101   0.71251   59.711
 6397.00    0.69799   0.71276   60.571
 6398.00    0.69742   0.71439   61.896
 6399.00    0.69991   0.71586   61.867
 6400.00    0.70525   0.71646   60.106
 6401.00    0.71206   0.71736   57.235
 6402.00    0.71767   0.71843   53.998
 6403.00    0.72002   0.71810   50.957
 6404.00    0.71901   0.71648   48.471
 6405.00    0.71573   0.71533   47.038
 6406.00    0.71183   0.71480   47.358
 6407.00    0.70883   0.71361   49.293
 6408.00    0.70760   0.71230   51.128
 6409.00    0.70762   0.71231   51.642
 6410.00    0.70706   0.71298   51.854
 6411.00    0.70514   0.71298   52.723
 6412.00    0.70321   0.71259   53.846
 6413.00    0.70253   0.71243   54.727
 6414.00    0.70312   0.71233   55.514
 6415.00    0.70408   0.71212   56.498
 6416.00    0.70412   0.71183   57.760
 6417.00    0.70327   0.71186   58.978
 6418.00    0.70323   0.71312   59.494
 6419.00    0.70510   0.71573   59.234
 6420.00    0.70842   0.71849   58.890
 6421.00    0.71135   0.72066   58.764
 6422.00    0.71163   0.72254   58.594
 6423.00    0.70962   0.72391   58.544
 6424.00    0.70828   0.72406   59.145
 6425.00    0.70870   0.72288   59.742
 6426.00    0.70934   0.72072   58.728
 6427.00    0.70859   0.71819   56.574
 6428.00    0.70602   0.71635   55.347
 6429.00    0.70343   0.71554   55.486
 6430.00    0.70375   0.71504   55.945
 6431.00    0.70696   0.71449   56.089
 6432.00    0.71057   0.71452   56.068
 6433.00    0.71383   0.71514   56.217
 6434.00    0.71785   0.71527   56.572
 6435.00    0.72267   0.71481   56.134
 6436.00    0.72701   0.71538   53.859
 6437.00    0.72943   0.71749   51.047
 6438.00    0.72906   0.71973   49.679
 6439.00    0.72659   0.72151   49.808
 6440.00    0.72365   0.72341   50.507
 6441.00    0.72127   0.72472   51.793
 6442.00    0.71939   0.72424   54.279
 6443.00    0.71670   0.72229   57.375
 6444.00    0.71177   0.71952   59.339
 6445.00    0.70503   0.71561   59.357
 6446.00    0.69841   0.71113   58.141
 6447.00    0.69400   0.70796   57.008
 6448.00    0.69313   0.70648   56.749
 6449.00    0.69527   0.70567   56.636
 6450.00    0.69881   0.70560   55.765
 6451.00    0.70240   0.70643   55.066
 6452.00    0.70570   0.70752   55.781
 6453.00    0.70993   0.70881   57.335
 6454.00    0.71590   0.71024   57.921
 6455.00    0.72145   0.71094   56.135
 6456.00    0.72324   0.71102   52.483
 6457.00    0.71942   0.71108   49.368
 6458.00    0.71072   0.71050   48.207
 6459.00    0.70102   0.70939   48.265
 6460.00    0.69469   0.70945   48.565
 6461.00    0.69361   0.71073   49.511
 6462.00    0.69745   0.71183   51.746
 6463.00    0.70438   0.71297   54.676
 6464.00    0.71188   0.71473   56.740
 6465.00    0.71752   0.71635   56.489
 6466.00    0.71981   0.71712   54.369
 6467.00    0.71869   0.71717   52.941
 6468.00    0.71513   0.71690   53.589
 6469.00    0.71061   0.71699   55.092
 6470.00    0.70655   0.71741   55.957
 6471.00    0.70383   0.71737   56.448
 6472.00    0.70251   0.71716   57.006
 6473.00    0.70183   0.71742   56.947
 6474.00    0.70107   0.71725   56.078
 6475.00    0.70020   0.71596   55.546
 6476.00    0.69980   0.71444   55.869
 6477.00    0.70079   0.71300   56.069
 6478.00    0.70283   0.71107   55.383
 6479.00    0.70391   0.70923   54.211
 6480.00    0.70334   0.70856   52.962
 6481.00    0.70282   0.70864   51.558
 6482.00    0.70343   0.70847   50.127
 6483.00    0.70427   0.70799   49.210
 6484.00    0.70443   0.70723   49.494
 6485.00    0.70370   0.70529   51.628
 6486.00    0.70166   0.70110   55.094
 6487.00    0.69732   0.69480   57.496
 6488.00    0.69002   0.68748   57.969
 6489.00    0.67998   0.67957   58.806
 6490.00    0.66902   0.67115   60.932
 6491.00    0.66013   0.66356   62.503
 6492.00    0.65480   0.65866   62.198
 6493.00    0.65257   0.65701   60.945
 6494.00    0.65293   0.65819   60.870
 6495.00    0.65582   0.66185   63.386
 6496.00    0.66109   0.66762   63.833
 6497.00    0.66833   0.67492   56.722
 6498.00    0.67706   0.68266   54.152
 6499.00    0.68651   0.68969   69.669
 6500.00    0.69515   0.69566   69.669
 6501.00    0.70106   0.70057   30.763
 6502.00    0.70328   0.70437   16.112
 6503.00    0.70199   0.70706   13.120
 6504.00    0.69800   0.70864   13.871
 6505.00    0.69280   0.70929   14.926
 6506.00    0.68909   0.70964   14.709
 6507.00    0.69007   0.70965   14.217
 6508.00    0.69765   0.70884   14.181
 6509.00    0.71086   0.70744   14.458
 6510.00    0.72379   0.70602   14.088
 6511.00    0.72882   0.70425   12.859
 6512.00    0.72354   0.70207   13.156
 6513.00    0.71113   0.70046   19.289
 6514.00    0.69836   0.69970   47.699
 6515.00    0.69157   0.69930   69.669
 6516.00    0.69087   0.69958   65.369
 6517.00    0.69272   0.70093   53.274
 6518.00    0.69562   0.70245   59.840
 6519.00    0.69947   0.70335   64.267
 6520.00    0.70329   0.70396   60.856
 6521.00    0.70597   0.70450   59.065
 6522.00    0.70763   0.70439   59.898
 6523.00    0.70850   0.70340   60.136
 6524.00    0.70728   0.70228   59.081
 6525.00    0.70293   0.70147   57.905
 6526.00    0.69684   0.70064   57.483
 6527.00    0.69141   0.69973   57.950
 6528.00    0.68811   0.69903    0.000
 6529.00    0.68768   0.69852    0.000
 6530.00    0.69058   0.69817    0.000
 6531.00    0.69662   0.69818    0.000
 6532.00    0.70456   0.69851    0.000
 6533.00    0.71212   0.69865    0.000
 6534.00    0.71634   0.69840    0.000
 6535.00    0.71621   0.69803    0.000
 6536.00    0.71458   0.69740    0.000
 6537.00    0.71516   0.69589    0.000
 6538.00    0.72034   0.69324    0.000
 6539.00    0.73542   0.68989    0.000
 6540.00    0.77085   0.68644    0.000
 6541.00    0.83332   0.68285    0.000
 6542.00    0.91905   0.67884    0.000
 6543.00    1.01329   0.67494    0.000
 6544.00    1.09189   0.67190    0.000
 6545.00    1.13149   0.66930    0.000
 6546.00    1.11731   0.66627    0.000
 6547.00    1.05058   0.66262    0.000
 6548.00    0.95094   0.65840    0.000
 6549.00    0.84650   0.65342    0.000
 6550.00    0.76504   0.64724    0.000
 6551.00    0.71904   0.63930    0.000
 6552.00    0.70603   0.62983    0.000
 6553.00    0.74771   0.61937    0.000
 6554.00    0.90475   0.60714    0.000
 6555.00    1.25401   0.59207    0.000
 6556.00    1.85392   0.57630    0.000
 6557.00    2.64655   0.56288    0.000
 6558.00    3.44111   0.55109    0.000
 6559.00    4.01689   0.54113    0.000
 6560.00    4.19135   0.53809    0.000
 6561.00    3.91046   0.54383    0.000
 6562.00    3.26892   0.55369    0.000
 6563.00    2.46069   0.56567    0.000
 6564.00    1.71879   0.58089    0.000
 6565.00    1.18323   0.59667    0.000
 6566.00    0.87297   0.60967    0.000
 6567.00    0.73626   0.62023    0.000
 6568.00    0.68862   0.62910    0.000
 6569.00    0.67259   0.63603    0.000
 6570.00    0.66720   0.64159    0.000
 6571.00    0.66640   0.64674    0.000
 6572.00    0.67149   0.65180    0.000
 6573.00    0.68773   0.65677    0.000
 6574.00    0.72782   0.66142    0.000
 6575.00    0.82153   0.66568    0.000
 6576.00    1.00168   0.66945    0.000
 6577.00    1.26923   0.67249    0.000
 6578.00    1.58547   0.67480    0.000
 6579.00    1.87330   0.67674    0.000
 6580.00    2.04386   0.67848    0.000
 6581.00    2.04625   0.67991    0.000
 6582.00    1.88011   0.68093    0.000
 6583.00    1.59935   0.68169    0.000
 6584.00    1.28833   0.68227    0.000
 6585.00    1.02061   0.68199    0.000
 6586.00    0.84023   0.68058    0.000
 6587.00    0.74459   0.67909    0.000
 6588.00    0.70319   0.67763    0.000
 6589.00    0.68920   0.67546    0.000
 6590.00    0.68504   0.67354    0.000
 6591.00    0.68355   0.67343    0.000
 6592.00    0.68402   0.67459    0.000
 6593.00    0.68684   0.67606    0.000
 6594.00    0.69158   0.67823    0.000
 6595.00    0.69565   0.68108    0.000
 6596.00    0.69645   0.68391    0.000
 6597.00    0.69377   0.68623    0.000
 6598.00    0.68961   0.68778    0.000
 6599.00    0.68733   0.68852    0.000
 6600.00    0.68867   0.68857    0.000
 6601.00    0.69123   0.68780    0.000
 6602.00    0.69147   0.68636    0.000
 6603.00    0.68798   0.68512    0.000
 6604.00    0.68236   0.68440    0.000
 6605.00    0.67937   0.68380    0.000
 6606.00    0.68234   0.68356    0.000
 6607.00    0.68971   0.68460    0.000
 6608.00    0.69731   0.68667    0.000
 6609.00    0.70075   0.68851   60.608
 6610.00    0.69901   0.69008   59.784
 6611.00    0.69600   0.69209   59.130
 6612.00    0.69521   0.69429   58.933
 6613.00    0.69626   0.69568   59.160
 6614.00    0.69739   0.69637   59.482
 6615.00    0.69738   0.69699   59.373
 6616.00    0.69688   0.69731   58.798
 6617.00    0.69842   0.69676   58.395
 6618.00    0.70264   0.69565   58.322
 6619.00    0.70682   0.69454   57.910
 6620.00    0.70865   0.69314   56.943
 6621.00    0.70807   0.69129   56.114
 6622.00    0.70652   0.68970   56.195
 6623.00    0.70603   0.68860   57.596
 6624.00    0.70662   0.68736   59.590
 6625.00    0.70602   0.68592   60.235
 6626.00    0.70310   0.68448   59.451
 6627.00    0.69896   0.68296   59.484
 6628.00    0.69533   0.68157   60.765
 6629.00    0.69363   0.68041   61.297
 6630.00    0.69437   0.67942   60.531
 6631.00    0.69701   0.67915   60.085
 6632.00    0.70066   0.67984   60.288
 6633.00    0.70430   0.68090   59.941
 6634.00    0.70674   0.68215   59.071
 6635.00    0.70688   0.68343   58.894
 6636.00    0.70457   0.68403   59.292
 6637.00    0.70065   0.68421   58.986
 6638.00    0.69637   0.68467   58.100
 6639.00    0.69315   0.68464   57.886
 6640.00    0.69227   0.68378   58.331
 6641.00    0.69415   0.68357   58.383
 6642.00    0.69697   0.68440   57.945
 6643.00    0.69784   0.68500   57.769
 6644.00    0.69642   0.68527   58.041
 6645.00    0.69420   0.68610   58.386
 6646.00    0.69152   0.68718   58.537
 6647.00    0.68756   0.68770   58.565
 6648.00    0.68184   0.68787   58.998
 6649.00    0.67509   0.68801   60.322
 6650.00    0.67010   0.68796   61.939
 6651.00    0.67005   0.68767   62.621
 6652.00    0.67522   0.68719   62.187
 6653.00    0.68321   0.68635   61.344
 6654.00    0.69031   0.68530   60.610
 6655.00    0.69294   0.68407   60.168
 6656.00    0.68955   0.68220   59.957
 6657.00    0.68130   0.68007   59.745
 6658.00    0.67247   0.67832   59.232
 6659.00    0.66753   0.67654   58.426
 6660.00    0.66710   0.67466   58.016
 6661.00    0.66933   0.67386   58.471
 6662.00    0.67222   0.67422   59.011
 6663.00    0.67446   0.67479   58.757
 6664.00    0.67604   0.67577   58.326
 6665.00    0.67757   0.67746   58.565
 6666.00    0.67948   0.67930   59.069
 6667.00    0.68240   0.68067   59.063
 6668.00    0.68740   0.68148   58.534
 6669.00    0.69446   0.68163   58.031
 6670.00    0.70117   0.68065   58.230
 6671.00    0.70520   0.67861   59.205
 6672.00    0.70645   0.67645   59.869
 6673.00    0.70573   0.67434   59.640
 6674.00    0.70337   0.67172   59.829
 6675.00    0.69997   0.66975   61.092
 6676.00    0.69697   0.66996   61.564
 6677.00    0.69538   0.67133   60.224
 6678.00    0.69500   0.67270   59.266
 6679.00    0.69519   0.67482   59.942
 6680.00    0.69541   0.67766   60.495
 6681.00    0.69486   0.68003   59.609
 6682.00    0.69240   0.68172   58.590
 6683.00    0.68825   0.68314   58.384
 6684.00    0.68471   0.68410   58.198
 6685.00    0.68383   0.68446   57.424
 6686.00    0.68603   0.68455   56.572
 6687.00    0.68980   0.68440   56.164
 6688.00    0.69220   0.68373   56.283
 6689.00    0.69162   0.68262   57.096
 6690.00    0.68887   0.68142   58.901
 6691.00    0.68539   0.68021   60.860
 6692.00    0.68224   0.67877   60.773
 6693.00    0.67923   0.67744   58.896
 6694.00    0.67530   0.67678   58.185
 6695.00    0.67122   0.67657   59.172
 6696.00    0.66966   0.67647    0.000
 6697.00    0.67079   0.67664    0.000
 6698.00    0.67173   0.67697    0.000
 6699.00    0.67085   0.67717    0.000
 6700.00    0.66904   0.67705    0.000
 6701.00    0.66881   0.67677    0.000
 6702.00    0.67271   0.67667    0.000
 6703.00    0.67982   0.67649    0.000
 6704.00    0.68603   0.67602    0.000
 6705.00    0.68848   0.67551    0.000
 6706.00    0.68921   0.67484    0.000
 6707.00    0.70145   0.67356    0.000
 6708.00    0.74635   0.67201    0.000
 6709.00    0.83986   0.67025    0.000
 6710.00    0.98340   0.66788    0.000
 6711.00    1.15026   0.66550    0.000
 6712.00    1.29426   0.66381    0.000
 6713.00    1.37690   0.66252    0.000
 6714.00    1.37630   0.66147    0.000
 6715.00    1.29225   0.66154    0.000
 6716.00    1.14681   0.66306    0.000
 6717.00    0.98243   0.66482    0.000
 6718.00    0.84559   0.66630    0.000
 6719.00    0.75734   0.66801    0.000
 6720.00    0.71542   0.66999    0.000
 6721.00    0.70807   0.67147    0.000
 6722.00    0.72488   0.67222    0.000
 6723.00    0.76987   0.67281    0.000
 6724.00    0.85096   0.67362    0.000
 6725.00    0.96084   0.67422    0.000
 6726.00    1.07726   0.67447    0.000
 6727.00    1.16833   0.67474    0.000
 6728.00    1.20394   0.67501    0.000
 6729.00    1.17042   0.67494    0.000
 6730.00    1.07578   0.67452    0.000
 6731.00    0.95265   0.67399    0.000
 6732.00    0.83922   0.67330    0.000
 6733.00    0.75627   0.67246    0.000
 6734.00    0.70749   0.67148    0.000
 6735.00    0.68357   0.67030    0.000
 6736.00    0.67200   0.66907    0.000
 6737.00    0.66679   0.66819    0.000
 6738.00    0.66550   0.66749    0.000
 6739.00    0.66562   0.66649    0.000
 6740.00    0.66540   0.66548    0.000
 6741.00    0.66482   0.66500    0.000
 6742.00    0.66445   0.66449    0.000
 6743.00    0.66442   0.66356    0.000
 6744.00    0.66382   0.66290    0.000
 6745.00    0.66072   0.66254    0.000
 6746.00    0.65482   0.66205    0.000
 6747.00    0.64908   0.66179    0.000
 6748.00    0.64655   0.66236    0.000
 6749.00    0.64801   0.66309    0.000
 6750.00    0.65251   0.66387    0.000
 6751.00    0.65802   0.66551    0.000
 6752.00    0.66294   0.66740    0.000
 6753.00    0.66681   0.66905   57.566
 6754.00    0.66884   0.67079   57.281
 6755.00    0.66751   0.67250   57.858
 6756.00    0.66330   0.67368   59.249
 6757.00    0.65956   0.67435   60.278
 6758.00    0.65874   0.67454   60.472
 6759.00    0.66097   0.67407   60.651
 6760.00    0.66584   0.67309   59.974
 6761.00    0.67293   0.67174   55.871
 6762.00    0.67955   0.67026   49.278
 6763.00    0.68081   0.66871   43.505
 6764.00    0.67386   0.66709   39.858
 6765.00    0.65939   0.66606   38.301
 6766.00    0.64041   0.66600   38.649
 6767.00    0.62202   0.66629   40.751
 6768.00    0.61228   0.66682   44.013
 6769.00    0.61952   0.66823   46.816
 6770.00    0.64248   0.67015   47.362
 6771.00    0.67015   0.67188   45.380
 6772.00    0.69228   0.67345   42.960
 6773.00    0.70354   0.67481   42.473
 6774.00    0.70531   0.67537   44.093
 6775.00    0.70382   0.67522   46.298
 6776.00    0.70359   0.67451   48.057
 6777.00    0.70554   0.67297   49.477
 6778.00    0.70685   0.67089   50.685
 6779.00    0.70340   0.66871   51.542
 6780.00    0.69526   0.66648   52.036
 6781.00    0.68620   0.66465   52.343
 6782.00    0.67932   0.66366   52.645
 6783.00    0.67532   0.66317   53.115
 6784.00    0.67125   0.66323   53.976
 6785.00    0.66432   0.66390   55.157
 6786.00    0.65977   0.66446   55.493
 6787.00    0.66482   0.66472   53.667
 6788.00    0.67495   0.66511   50.402
 6789.00    0.67947   0.66530   47.452
 6790.00    0.67547   0.66495   45.954
 6791.00    0.66711   0.66469   46.309
 6792.00    0.66037   0.66478   48.001
 6793.00    0.65942   0.66485   49.957
 6794.00    0.66260   0.66511   51.390
 6795.00    0.66539   0.66565   52.152
 6796.00    0.66551   0.66614   52.862
 6797.00    0.66454   0.66651   53.906
 6798.00    0.66854   0.66692   54.059
 6799.00    0.68008   0.66717   52.355
 6800.00    0.68931   0.66693   50.510
 6801.00    0.68769   0.66652   50.136
 6802.00    0.68407   0.66639   50.458
 6803.00    0.68835   0.66588   50.482
 6804.00    0.69277   0.66508   51.289
 6805.00    0.68846   0.66480   53.872
 6806.00    0.68303   0.66450   56.402
 6807.00    0.68501   0.66388   56.489
 6808.00    0.68846   0.66358   55.143
 6809.00    0.68636   0.66358   53.907
 6810.00    0.68292   0.66356   52.114
 6811.00    0.68343   0.66355   49.383
 6812.00    0.68545   0.66365   47.015
 6813.00    0.68535   0.66408   45.960
 6814.00    0.68375   0.66469   46.086
 6815.00    0.68198   0.66521   47.320
 6816.00    0.67963   0.66572   50.234
 6817.00    0.67792   0.66628   54.661
 6818.00    0.68108   0.66692   57.835
 6819.00    0.68877   0.66750   56.963
 6820.00    0.69321   0.66783   53.191
 6821.00    0.69195   0.66779   48.978
 6822.00    0.69326   0.66749   45.661
 6823.00    0.69987   0.66713   43.695
 6824.00    0.70222   0.66657   43.204
 6825.00    0.69425   0.66581   44.448
 6826.00    0.68062   0.66534   47.923
 6827.00    0.66856   0.66531   53.052
 6828.00    0.66291   0.66527   56.577
 6829.00    0.66359   0.66497   56.559
 6830.00    0.66588   0.66451   55.740
 6831.00    0.66651   0.66386   56.011
 6832.00    0.66575   0.66269   56.605
 6833.00    0.66467   0.66080   56.744
 6834.00    0.66373   0.65852   56.540
 6835.00    0.66247   0.65614   55.961
 6836.00    0.65995   0.65378   54.616
 6837.00    0.65711   0.65189   52.423
 6838.00    0.65647   0.65074   49.872
 6839.00    0.65869   0.65048   48.057
 6840.00    0.66193   0.65120   48.100
 6841.00    0.66395   0.65275   50.028
 6842.00    0.66344   0.65474   52.769
 6843.00    0.66222   0.65671   55.122
 6844.00    0.66411   0.65846   56.078
 6845.00    0.67023   0.65981   54.642
 6846.00    0.67833   0.66060   50.799
 6847.00    0.68451   0.66072   46.568
 6848.00    0.68532   0.66001   43.854
 6849.00    0.68132   0.65887   42.609
 6850.00    0.67541   0.65771   42.206
 6851.00    0.66717   0.65596   43.360
 6852.00    0.65461   0.65396   47.476
 6853.00    0.64032   0.65288   53.657
 6854.00    0.63024   0.65214   57.472
 6855.00    0.62844   0.65121   57.188
 6856.00    0.63518   0.65115   55.728
 6857.00    0.64539   0.65174   54.800
 6858.00    0.65292   0.65198   54.493
 6859.00    0.65804   0.65242   54.670
 6860.00    0.66398   0.65341   55.249
 6861.00    0.66961   0.65403   56.306
 6862.00    0.67186   0.65404   57.827
 6863.00    0.67134   0.65407   59.246
 6864.00    0.67070   0.65395   59.682
 6865.00    0.67123   0.65336   58.681
 6866.00    0.67235   0.65290   56.594
 6867.00    0.67175   0.65296   54.490
 6868.00    0.66775   0.65292   53.164
 6869.00    0.66213   0.65274   52.463
 6870.00    0.65845   0.65317   52.059
 6871.00    0.65949   0.65394   52.139
 6872.00    0.66531   0.65434   52.785
 6873.00    0.67167   0.65466   53.251
 6874.00    0.67396   0.65522   52.642
 6875.00    0.67130   0.65539   50.866
 6876.00    0.66565   0.65494   48.521
 6877.00    0.66056   0.65457   46.444
 6878.00    0.65924   0.65434   45.304
 6879.00    0.66295   0.65390   45.539
 6880.00    0.66962   0.65374   47.359
 6881.00    0.67355   0.65451   50.613
 6882.00    0.67068   0.65562   54.552
 6883.00    0.66244   0.65655   57.511
 6884.00    0.65269   0.65802   58.578
 6885.00    0.64502   0.65983   59.318
 6886.00    0.64144   0.66103   60.777
 6887.00    0.64170   0.66187   61.399
 6888.00    0.64414   0.66272   60.291
 6889.00    0.64663   0.66298   59.223
 6890.00    0.64806   0.66272   59.274
 6891.00    0.64903   0.66258   59.458
 6892.00    0.64997   0.66230   58.872
 6893.00    0.65038   0.66180   57.817
 6894.00    0.65061   0.66158   56.806
 6895.00    0.65222   0.66168   56.033
 6896.00    0.65532   0.66171   55.428
 6897.00    0.65779   0.66175   54.825
 6898.00    0.65812   0.66208   54.471
 6899.00    0.65686   0.66252   54.922
 6900.00    0.65677   0.66284   55.729
 6901.00    0.66143   0.66318   55.369
 6902.00    0.66958   0.66347   53.963
 6903.00    0.67490   0.66364   53.441
 6904.00    0.67430   0.66366   54.559
 6905.00    0.66979   0.66328   56.448
 6906.00    0.66363   0.66268   57.797
 6907.00    0.65703   0.66174   57.579
 6908.00    0.65186   0.66034   55.917
 6909.00    0.65021   0.65912   53.886
 6910.00    0.65103   0.65799   52.308
 6911.00    0.65096   0.65672   51.562
 6912.00    0.64959   0.65625   51.868
 6913.00    0.64939   0.65644   53.277
 6914.00    0.65108   0.65658   55.273
 6915.00    0.65323   0.65714   56.803
 6916.00    0.65414   0.65801   57.330
 6917.00    0.65253   0.65847   57.198
 6918.00    0.64798   0.65849   57.196
 6919.00    0.64094   0.65835   57.961
 6920.00    0.63282   0.65793   59.066
 6921.00    0.62508   0.65725   59.541
 6922.00    0.61767   0.65667   59.713
 6923.00    0.61046   0.65638   60.638
 6924.00    0.60645   0.65644   -1.000
 6925.00    0.60927   0.65674   -1.000
 6926.00    0.61754   0.65703   62.210
 6927.00    0.62697   0.65730   60.826
 6928.00    0.63574   0.65777   59.520
 6929.00    0.64394   0.65818   58.954
 6930.00    0.65127   0.65824   58.895
 6931.00    0.65669   0.65854   58.722
 6932.00    0.65851   0.65915   58.232
 6933.00    0.65618   0.65950   57.616
 6934.00    0.65260   0.65973   57.227
 6935.00    0.65122   0.66000   57.132
 6936.00    0.65187   0.65996   56.675
 6937.00    0.65188   0.65951   55.422
 6938.00    0.64813   0.65874   54.208
 6939.00    0.64036   0.65761   53.923
 6940.00    0.63404   0.65657   54.378
 6941.00    0.63469   0.65559   54.892
 6942.00    0.64162   0.65453   54.970
 6943.00    0.65104   0.65409   54.511
 6944.00    0.65991   0.65406   53.867
 6945.00    0.66587   0.65372   53.336
 6946.00    0.66698   0.65365   52.789
 6947.00    0.66249   0.65386   52.288
 6948.00    0.65355   0.65358   52.515
 6949.00    0.64280   0.65347   53.775
 6950.00    0.63386   0.65389   55.190
 6951.00    0.62950   0.65423   55.662
 6952.00    0.63030   0.65470   55.021
 6953.00    0.63476   0.65569   54.058
 6954.00    0.63980   0.65666   54.045
 6955.00    0.64275   0.65753   55.431
 6956.00    0.64289   0.65842   57.157
 6957.00    0.64163   0.65911   57.834
 6958.00    0.64222   0.65973   56.978
 6959.00    0.64665   0.66014   55.258
 6960.00    0.65396   0.66023   53.969
 6961.00    0.66127   0.66049   53.744
 6962.00    0.66509   0.66069   54.291
 6963.00    0.66452   0.66051   55.169
 6964.00    0.66222   0.66046   56.119
 6965.00    0.66006   0.66029   56.876
 6966.00    0.65753   0.65973   57.140
 6967.00    0.65410   0.65896   56.887
 6968.00    0.65008   0.65749   56.433
 6969.00    0.64523   0.65537   56.019
 6970.00    0.63863   0.65310   55.706
 6971.00    0.63079   0.65028   55.617
 6972.00    0.62400   0.64681   55.886
 6973.00    0.62031   0.64392   56.108
 6974.00    0.62034   0.64219   55.532
 6975.00    0.62176   0.64086   54.557
 6976.00    0.62063   0.64057   54.438
 6977.00    0.61750   0.64224   55.136
 6978.00    0.61730   0.64469   55.358
 6979.00    0.62303   0.64716   54.837
 6980.00    0.63399   0.65008   54.491
 6981.00    0.64664   0.65291   54.594
 6982.00    0.65621   0.65489   54.692
 6983.00    0.66033   0.65619   54.653
 6984.00    0.65940   0.65716   54.716
 6985.00    0.65512   0.65776   54.859
 6986.00    0.64966   0.65793   54.863
 6987.00    0.64462   0.65799   54.846
 6988.00    0.64065   0.65807   55.130
 6989.00    0.63734   0.65803   55.664
 6990.00    0.63405   0.65779   56.146
 6991.00    0.63172   0.65730   56.582
 6992.00    0.63210   0.65662   57.135
 6993.00    0.63540   0.65562   57.588
 6994.00    0.64042   0.65429   57.522
 6995.00    0.64550   0.65305   56.903
 6996.00    0.64872   0.65183   56.080
 6997.00    0.64795   0.65045   55.538
 6998.00    0.64265   0.64934   55.588
 6999.00    0.63664   0.64873   56.008
 7000.00    0.63401   0.64821   56.405
 7001.00    0.63274   0.64783   -2.000
 7002.00    0.62867   0.64793   -2.000
 7003.00    0.62210   0.64832   -2.000
 7004.00    0.61615   0.64869   -2.000
 7005.00    0.61348   0.64900   -2.000
 7006.00    0.61505   0.64924   -2.000
 7007.00    0.61938   0.64921   -2.000
 7008.00    0.62382   0.64874   -2.000
 7009.00    0.62609   0.64782   -2.000
 7010.00    0.62546   0.64646   -2.000
 7011.00    0.62353   0.64531   -2.000
 7012.00    0.62239   0.64465   -2.000
 7013.00    0.62260   0.64390   -2.000
 7014.00    0.62374   0.64361   -2.000
 7015.00    0.62501   0.64435   -2.000
 7016.00    0.62558   0.64506   -2.000
 7017.00    0.62495   0.64534   -2.000
 7018.00    0.62375   0.64580   -2.000
 7019.00    0.62400   0.64631   -2.000
 7020.00    0.62598   0.64641   -2.000
 7021.00    0.62639   0.64646   -2.000
 7022.00    0.62369   0.64691   -2.000
 7023.00    0.62138   0.64772   -2.000
 7024.00    0.62286   0.64862   -2.000
 7025.00    0.62798   0.64963   -2.000
 7026.00    0.63428   0.65069   -2.000
 7027.00    0.63836   0.65168   -2.000
 7028.00    0.63831   0.65225   -2.000
 7029.00    0.63493   0.65240   -2.000
 7030.00    0.63003   0.65275   -2.000
 7031.00    0.62538   0.65293   -2.000
 7032.00    0.62175   0.65254   -2.000
 7033.00    0.61866   0.65293   -2.000
 7034.00    0.61559   0.65418   -2.000
 7035.00    0.61273   0.65511   -2.000
 7036.00    0.61196   0.65651   -2.000
 7037.00    0.61612   0.65891   -2.000
 7038.00    0.62443   0.66099   -2.000
 7039.00    0.63225   0.66256   -2.000
 7040.00    0.63813   0.66437   -2.000
 7041.00    0.64458   0.66580   -2.000
 7042.00    0.65029   0.66633   -2.000
 7043.00    0.65000   0.66649   -2.000
 7044.00    0.64463   0.66626   -2.000
 7045.00    0.64123   0.66532   -2.000
 7046.00    0.64143   0.66362   -2.000
 7047.00    0.64021   0.66135   -2.000
 7048.00    0.63443   0.65888   -2.000
 7049.00    0.62498   0.65610   -2.000
 7050.00    0.61529   0.65322   -2.000
 7051.00    0.60944   0.65079   -2.000
 7052.00    0.60839   0.64885   -2.000
 7053.00    0.61011   0.64712   -2.000
 7054.00    0.61242   0.64570   -2.000
 7055.00    0.61359   0.64490   -2.000
 7056.00    0.61208   0.64425   -2.000
 7057.00    0.60754   0.64339   -2.000
 7058.00    0.60318   0.64298   -2.000
 7059.00    0.60341   0.64273   -2.000
 7060.00    0.60819   0.64202   -2.000
 7061.00    0.61427   0.64150   -2.000
 7062.00    0.61987   0.64105   -2.000
 7063.00    0.62451   0.64040   -2.000
 7064.00    0.62728   0.64024   -2.000
 7065.00    0.62700   0.64042   -2.000
 7066.00    0.62314   0.64076   -2.000
 7067.00    0.61662   0.64184   -2.000
 7068.00    0.61070   0.64332   -2.000
 7069.00    0.60835   0.64464   -2.000
 7070.00    0.60858   0.64600   -2.000
 7071.00    0.60988   0.64733   -2.000
 7072.00    0.61544   0.64817   -2.000
 7073.00    0.62757   0.64844   -2.000
 7074.00    0.64014   0.64834   -2.000
 7075.00    0.64498   0.64768   -2.000
 7076.00    0.64053   0.64624   -2.000
 7077.00    0.62983   0.64419   -2.000
 7078.00    0.61699   0.64142   -2.000
 7079.00    0.60588   0.63813   -2.000
 7080.00    0.59914   0.63483   -2.000
 7081.00    0.59713   0.63125   -2.000
 7082.00    0.59734   0.62781   -2.000
 7083.00    0.59750   0.62524   -2.000
 7084.00    0.59837   0.62294   -2.000
 7085.00    0.60132   0.62106   -2.000
 7086.00    0.60608   0.62011   -2.000
 7087.00    0.61045   0.61938   -2.000
 7088.00    0.61079   0.61900   -2.000
 7089.00    0.60594   0.61924   -2.000
 7090.00    0.59960   0.61967   -2.000
 7091.00    0.59551   0.62037   -2.000
 7092.00    0.59407   0.62144   -2.000
 7093.00    0.59406   0.62276   -2.000
 7094.00    0.59415   0.62413   -2.000
 7095.00    0.59415   0.62552   -2.000
 7096.00    0.59526   0.62694   -2.000
 7097.00    0.59698   0.62809   -2.000
 7098.00    0.59628   0.62896   -2.000
 7099.00    0.59307   0.62965   -2.000
 7100.00    0.59187   0.62995   -2.000
 7101.00    0.59454   0.62979   -2.000
 7102.00    0.59787   0.62945   -2.000
 7103.00    0.60060   0.62891   -2.000
 7104.00    0.60528   0.62796   -2.000
 7105.00    0.61118   0.62688   -2.000
 7106.00    0.61279   0.62601   -2.000
 7107.00    0.60829   0.62526   -2.000
 7108.00    0.60158   0.62459   -2.000
 7109.00    0.59619   0.62428   -2.000
 7110.00    0.59319   0.62443   -2.000
 7111.00    0.59300   0.62467   -2.000
 7112.00    0.59546   0.62493   -2.000
 7113.00    0.59769   0.62520   -2.000
 7114.00    0.59532   0.62541   -2.000
 7115.00    0.58879   0.62545   -2.000
 7116.00    0.58323   0.62506   -2.000
 7117.00    0.58175   0.62463   -2.000
 7118.00    0.58411   0.62432   -2.000
 7119.00    0.58899   0.62359   -2.000
 7120.00    0.59389   0.62274   -2.000
 7121.00    0.59348   0.62204   -2.000
 7122.00    0.58340   0.62111   -2.000
 7123.00    0.57052   0.62003   -2.000
 7124.00    0.56688   0.61893   -2.000
 7125.00    0.57033   0.61802   -2.000
 7126.00    0.56953   0.61752   -2.000
 7127.00    0.56420   0.61722   -2.000
 7128.00    0.56251   0.61751   -2.000
 7129.00    0.56690   0.61857   -2.000
 7130.00    0.57534   0.61976   -2.000
 7131.00    0.58933   0.62129   -2.000
 7132.00    0.61094   0.62307   -2.000
 7133.00    0.63523   0.62432   -2.000
 7134.00    0.65215   0.62536   -2.000
 7135.00    0.65232   0.62635   -2.000
 7136.00    0.63324   0.62653   -2.000
 7137.00    0.60675   0.62637   -2.000
 7138.00    0.58862   0.62624   -2.000
 7139.00    0.58208   0.62543   -2.000
 7140.00    0.58347   0.62438   -2.000
 7141.00    0.59270   0.62345   -2.000
 7142.00    0.60697   0.62200   -2.000
 7143.00    0.61223   0.62084   -2.000
 7144.00    0.59829   0.62041   -2.000
 7145.00    0.57706   0.61993   -2.000
 7146.00    0.56597   0.62015   -2.000
 7147.00    0.56744   0.62152   -2.000
 7148.00    0.57480   0.62303   -2.000
 7149.00    0.58121   0.62456   -2.000
 7150.00    0.58362   0.62652   -2.000
 7151.00    0.58506   0.62835   -2.000
 7152.00    0.58819   0.62940   -2.000
 7153.00    0.58968   0.63002   -2.000
 7154.00    0.58653   0.63040   -2.000
 7155.00    0.58146   0.62993   -2.000
 7156.00    0.57769   0.62887   -2.000
 7157.00    0.57480   0.62770   -2.000
 7158.00    0.57202   0.62611   -2.000
 7159.00    0.57069   0.62448   -2.000
 7160.00    0.57169   0.62343   -2.000
 7161.00    0.57392   0.62282   -2.000
 7162.00    0.57702   0.62282   -2.000
 7163.00    0.58258   0.62382   -2.000
 7164.00    0.58932   0.62548   -2.000
 7165.00    0.59141   0.62748   -2.000
 7166.00    0.58706   0.62971   -2.000
 7167.00    0.58231   0.63172   -2.000
 7168.00    0.58362   0.63330   -2.000
 7169.00    0.59356   0.63439   -2.000
 7170.00    0.61038   0.63467   -2.000
 7171.00    0.62870   0.63431   -2.000
 7172.00    0.64327   0.63359   -2.000
 7173.00    0.65029   0.63229   -2.000
 7174.00    0.64519   0.63069   -2.000
 7175.00    0.62494   0.62914   -2.000
 7176.00    0.60207   0.62759   -2.000
 7177.00    0.60148   0.62620   -2.000
 7178.00    0.62514   0.62492   -2.000
 7179.00    0.64748   0.62378   -2.000
 7180.00    0.65013   0.62292   -2.000
 7181.00    0.63277   0.62182   -2.000
 7182.00    0.60422   0.62062   -2.000
 7183.00    0.57700   0.61973   -2.000
 7184.00    0.56076   0.61867   -2.000
 7185.00    0.55909   0.61788   -2.000
 7186.00    0.56711   0.61775   -2.000
 7187.00    0.57489   0.61776   -2.000
 7188.00    0.57889   0.61823   -2.000
 7189.00    0.58240   0.61934   -2.000
 7190.00    0.58799   0.62037   -2.000
 7191.00    0.59480   0.62134   -2.000
 7192.00    0.59725   0.62261   -2.000
 7193.00    0.58967   0.62363   -2.000
 7194.00    0.57729   0.62421   -2.000
 7195.00    0.57181   0.62482   -2.000
 7196.00    0.57653   0.62517   -2.000
 7197.00    0.58599   0.62507   -2.000
 7198.00    0.59215   0.62480   -2.000
 7199.00    0.58980   0.62422   -2.000
 7200.00    0.58400   0.62334   -2.000
 7201.00    0.58209   0.62221   -2.000
 7202.00    0.57787   0.62112   -2.000
 7203.00    0.56205   0.62028   -2.000
 7204.00    0.54317   0.61948   -2.000
 7205.00    0.53556   0.61930   -2.000
 7206.00    0.53620   0.61984   -2.000
 7207.00    0.53636   0.62041   -2.000
 7208.00    0.54274   0.62140   -2.000
 7209.00    0.56452   0.62273   -2.000
 7210.00    0.59263   0.62370   -2.000
 7211.00    0.61102   0.62461   -2.000
 7212.00    0.61415   0.62557   -2.000
 7213.00    0.60453   0.62616   -2.000
 7214.00    0.58716   0.62656   -2.000
 7215.00    0.56881   0.62700   -2.000
 7216.00    0.55748   0.62727   -2.000
 7217.00    0.55592   0.62740   -2.000
 7218.00    0.55603   0.62768   -2.000
