###################################################################
## OUTPUT of StarlightChains_v04.for    [Cid@UFSC - 01/Apr/2007] ##
###################################################################

## Some input info
2012go.txt                               [arq_obs]
Base.CB07.vall.4m                        [arq_base]
Masks.EmLines.NEW.gm                     [arq_masks]
StCv04.C11.config                        [arq_config]
   66                                    [N_base]
    0                                    [N_YAV_components = # of components with extra extinction!]
    0                                    [i_FitPowerLaw (1/0 = Yes/No)]
-9.99                                    [alpha_PowerLaw]
CCM                                      [red_law_option]
 1.458241                                [q_norm = A(l_norm)/A(V)]

## (Re)Sampling Parameters
 3741.00                                 [l_ini (A)]
 7218.00                                 [l_fin (A)]
    1.00                                 [dl    (A)]     (OBS: dl_cushion =    50.00 A)

## Normalization info
 4020.00                                 [l_norm (A) - for base]
 4010.00                                 [llow_norm (A) - window for f_obs]
 4060.00                                 [lupp_norm (A) - window for f_obs]
3.118806E-17                             [fobs_norm (in input units)]

## S/N
 3691.00                                 [llow_SN (A) - window for S/N]
 7268.00                                 [lupp_SN (A) - window for S/N]
   7.182                                 [S/N in S/N window]
   7.538                                 [S/N in norm. window]
  14.906                                 [S/N_err in S/N window]
  15.645                                 [S/N_err in norm. window]
  1.0000                                 [fscale_chi2]

## etc...
    -2007399                             [idum_orig]
  2300                                   [NOl_eff]
  2270                                   [Nl_eff]
    30    NSIGMA                         [Ntot_cliped & clip_method]
  1088430                                [Nglobal_steps]
   7                                     [N_chains]
  18                                     [NEX0s_base = N_base in EX0s-fits]
 0   0   1       19   2.0   2.927E+01    [Clip-Bug, RC-Crash & Burn-In warning-flags, n_censored_weights, wei_nsig_threshold & wei_limit]
    11     10.982     10.479      0.503  [idt_all, wdt_TotTime, wdt_UsrTime & wdt_SysTime (sec)]

## Synthesis Results - Best model ##

 5.40389E-01                             [chi2/Nl_eff]
     3.91391                             [adev (%)]

   102.11123                             [sum-of-x (%)]
 5.60350E-17                             [Flux_tot (units of input spectrum!)]
 5.36144E-13                             [Mini_tot (???)]
 2.94764E-13                             [Mcor_tot (???)]

 -24.44                                  [v0_min  (km/s)]
 186.89                                  [vd_min  (km/s)]
 0.4207                                  [AV_min  (mag)]
 0.0000                                  [YAV_min (mag)]

# j     x_j(%)      Mini_j(%)     Mcor_j(%)     age_j(yr)     Z_j      (L/M)_j    YAV?  Mstars   component_j        a/Fe...       SSP_chi2r SSP_adev(%)   SSP_AV   SSP_x(%)
  1      0.0000     0.0000E+00    0.0000E+00    1.000000E+06  0.00400  1.094E-02    0   1.0000   age020_m42            0.0000     1.7407E+00     7.0871   3.3148    78.9767
  2      0.0000     0.0000E+00    0.0000E+00    3.160000E+06  0.00400  4.007E-02    0   0.9999   age045_m42            0.0000     1.1360E+00     5.7309   2.5269    87.1607
  3      0.0000     0.0000E+00    0.0000E+00    5.010000E+06  0.00400  2.539E-02    0   0.9488   age055_m42            0.0000     1.3336E+00     6.2766   2.8685    84.0725
  4      0.0000     0.0000E+00    0.0000E+00    6.610000E+06  0.00400  2.620E-02    0   0.9220   age061_m42            0.0000     1.0729E+00     5.6240   2.4442    87.7940
  5      0.0000     0.0000E+00    0.0000E+00    1.000000E+07  0.00400  1.322E-02    0   0.8862   age070_m42            0.0000     1.3037E+00     6.2056   2.1418    90.6507
  6      0.0000     0.0000E+00    0.0000E+00    1.445000E+07  0.00400  7.883E-03    0   0.8571   age078_m42            0.0000     1.4314E+00     6.5211   2.4899    87.4314
  7      0.0000     0.0000E+00    0.0000E+00    2.512000E+07  0.00400  5.251E-03    0   0.8174   age090_m42            0.0000     1.3460E+00     6.2692   2.0015    91.6301
  8      0.0000     0.0000E+00    0.0000E+00    4.000000E+07  0.00400  3.649E-03    0   0.7851   age104_m42            0.0000     1.2174E+00     5.9416   1.7663    92.7482
  9      0.0000     0.0000E+00    0.0000E+00    5.500000E+07  0.00400  3.098E-03    0   0.7629   age110_m42            0.0000     9.9908E-01     5.4363   1.9194    92.8054
 10      0.0000     0.0000E+00    0.0000E+00    1.015200E+08  0.00400  2.228E-03    0   0.7207   age116_m42            0.0000     8.7797E-01     5.0996   1.9349    93.2033
 11      0.0000     0.0000E+00    0.0000E+00    2.861200E+08  0.00400  1.093E-03    0   0.6648   age125_m42            0.0000     9.2563E-01     5.1986   1.3516    97.0183
 12      0.0000     0.0000E+00    0.0000E+00    5.088000E+08  0.00400  6.597E-04    0   0.6365   age130_m42            0.0000     7.6176E-01     4.6709   1.3378    97.9268
 13     30.4181     1.4603E+01    1.5400E+01    1.434000E+09  0.00400  2.132E-04    0   0.5798   age139_m42            0.0000     5.9407E-01     4.0452   0.3562   100.1616
 14      0.0000     0.0000E+00    0.0000E+00    4.250000E+09  0.00400  5.895E-05    0   0.5377   age158_m42            0.0000     7.2469E-01     4.3762  -0.0336    93.8519
 15      0.0000     0.0000E+00    0.0000E+00    7.500000E+09  0.00400  3.510E-05    0   0.5212   age171_m42            0.0000     8.1276E-01     4.6445  -0.2059    92.6071
 16      0.0000     0.0000E+00    0.0000E+00    1.300000E+10  0.00400  2.005E-05    0   0.5034   age193_m42            0.0000     9.2799E-01     4.9994  -0.3545    91.4734
 17      0.0000     0.0000E+00    0.0000E+00    1.800000E+10  0.00400  1.525E-05    0   0.4967   age213_m42            0.0000     9.2789E-01     4.9768  -0.3796    91.1225
 18      0.0000     0.0000E+00    0.0000E+00    1.000000E+06  0.00800  1.238E-02    0   1.0000   age020_m52            0.0000     1.7381E+00     7.0877   3.3112    79.1264
 19      0.0000     0.0000E+00    0.0000E+00    3.160000E+06  0.00800  3.074E-02    0   0.9966   age045_m52            0.0000     1.6507E+00     6.9398   3.2276    80.0863
 20      0.0000     0.0000E+00    0.0000E+00    5.010000E+06  0.00800  2.668E-02    0   0.9443   age055_m52            0.0000     1.3983E+00     6.4364   2.9570    83.0397
 21      0.0000     0.0000E+00    0.0000E+00    6.610000E+06  0.00800  2.136E-02    0   0.9177   age061_m52            0.0000     1.3308E+00     6.0947   1.6557    90.9351
 22      0.0018     1.4951E-05    2.4005E-05    1.000000E+07  0.00800  1.215E-02    0   0.8827   age070_m52            0.0000     1.5086E+00     6.6619   2.3290    90.1809
 23      0.0000     0.0000E+00    0.0000E+00    1.445000E+07  0.00800  8.717E-03    0   0.8552   age078_m52            0.0000     1.3744E+00     6.3677   2.4465    89.0141
 24      0.0000     0.0000E+00    0.0000E+00    2.512000E+07  0.00800  5.592E-03    0   0.8162   age090_m52            0.0000     1.3247E+00     6.1987   2.0614    92.9602
 25      0.0000     0.0000E+00    0.0000E+00    4.000000E+07  0.00800  3.896E-03    0   0.7841   age104_m52            0.0000     1.1578E+00     5.8243   1.9682    94.0135
 26      0.0000     0.0000E+00    0.0000E+00    1.015200E+08  0.00800  2.148E-03    0   0.7226   age116_m52            0.0000     9.2607E-01     5.2370   1.9024    94.0153
 27      0.9016     9.2979E-02    1.1302E-01    2.861200E+08  0.00800  9.925E-04    0   0.6683   age125_m52            0.0000     7.0826E-01     4.5484   1.3991    98.9986
 28      0.0000     0.0000E+00    0.0000E+00    9.047900E+08  0.00800  3.141E-04    0   0.6138   age135_m52            0.0000     6.2884E-01     4.2239   0.6012   103.1121
 29      0.0000     0.0000E+00    0.0000E+00    1.434000E+09  0.00800  1.719E-04    0   0.5853   age139_m52            0.0000     6.9663E-01     4.3558   0.0436    99.8831
 30      0.0000     0.0000E+00    0.0000E+00    2.500000E+09  0.00800  7.872E-05    0   0.5600   age150_m52            0.0000     7.6101E-01     4.5891  -0.1958    95.7239
 31      0.0000     0.0000E+00    0.0000E+00    4.250000E+09  0.00800  4.336E-05    0   0.5426   age158_m52            0.0000     8.2267E-01     4.7167  -0.2041    94.4960
 32      0.0000     0.0000E+00    0.0000E+00    6.250000E+09  0.00800  3.159E-05    0   0.5319   age166_m52            0.0000     9.4779E-01     5.1154  -0.3966    94.0937
 33      0.0000     0.0000E+00    0.0000E+00    1.300000E+10  0.00800  1.361E-05    0   0.5073   age193_m52            0.0000     1.1857E+00     5.7868  -0.8534    92.9873
 34      0.0000     0.0000E+00    0.0000E+00    1.800000E+10  0.00800  9.886E-06    0   0.4990   age213_m52            0.0000     1.4089E+00     6.3352  -0.9481    92.0079
 35      0.0000     0.0000E+00    0.0000E+00    1.000000E+06  0.02000  1.544E-02    0   1.0000   age020_m62            0.0000     1.7504E+00     7.1255   3.3089    79.2425
 36      0.0000     0.0000E+00    0.0000E+00    3.160000E+06  0.02000  3.762E-02    0   0.9858   age045_m62            0.0000     1.6996E+00     7.0723   3.2454    80.0461
 37      0.0000     0.0000E+00    0.0000E+00    5.010000E+06  0.02000  3.296E-02    0   0.9342   age055_m62            0.0000     1.1767E+00     5.9356   2.8183    85.5551
 38      0.0000     0.0000E+00    0.0000E+00    8.710000E+06  0.02000  1.154E-02    0   0.8861   age067_m62            0.0000     3.2225E+00     9.5911   1.7695    93.3713
 39      0.0000     0.0000E+00    0.0000E+00    1.445000E+07  0.02000  7.663E-03    0   0.8472   age078_m62            0.0000     1.8871E+00     7.3054   1.9696    92.6739
 40      0.0000     0.0000E+00    0.0000E+00    2.512000E+07  0.02000  4.532E-03    0   0.8099   age090_m62            0.0000     1.9124E+00     7.4017   1.9541    92.8619
 41      0.0000     0.0000E+00    0.0000E+00    5.500000E+07  0.02000  2.733E-03    0   0.7595   age110_m62            0.0000     1.1727E+00     5.8361   1.9541    93.1429
 42      0.0000     0.0000E+00    0.0000E+00    1.609000E+08  0.02000  1.369E-03    0   0.6985   age120_m62            0.0000     8.1171E-01     4.9269   1.7686    96.9007
 43      8.7967     9.9897E-01    1.2199E+00    2.861200E+08  0.02000  9.013E-04    0   0.6714   age125_m62            0.0000     7.0244E-01     4.5174   1.4982   100.6287
 44     15.7413     3.2044E+00    3.7588E+00    5.088000E+08  0.02000  5.028E-04    0   0.6449   age130_m62            0.0000     6.3279E-01     4.2491   1.1244   103.1298
 45      0.0000     0.0000E+00    0.0000E+00    9.047900E+08  0.02000  2.428E-04    0   0.6179   age135_m62            0.0000     6.0866E-01     4.1089   0.5626   101.3370
 46      0.0000     0.0000E+00    0.0000E+00    1.434000E+09  0.02000  1.263E-04    0   0.5908   age139_m62            0.0000     7.0104E-01     4.3240   0.1372    98.8740
 47      0.0000     0.0000E+00    0.0000E+00    2.500000E+09  0.02000  5.985E-05    0   0.5673   age150_m62            0.0000     8.8067E-01     4.9043  -0.2038    96.3426
 48      0.0000     0.0000E+00    0.0000E+00    4.250000E+09  0.02000  3.271E-05    0   0.5468   age158_m62            0.0000     1.1338E+00     5.7047  -0.4930    94.8096
 49      0.0074     5.5847E-02    5.2486E-02    1.000000E+10  0.02000  1.360E-05    0   0.5167   age181_m62            0.0000     1.5820E+00     6.7867  -0.8240    93.7598
 50      0.0480     6.9002E-01    6.2916E-01    1.800000E+10  0.02000  7.124E-06    0   0.5013   age213_m62            0.0000     1.9874E+00     7.6531  -1.0000    91.6759
 51      0.0000     0.0000E+00    0.0000E+00    1.000000E+06  0.05000  2.592E-02    0   0.9998   age020_m72            0.0000     1.8237E+00     7.2578   3.3038    79.1118
 52      0.0000     0.0000E+00    0.0000E+00    3.160000E+06  0.05000  4.845E-02    0   0.9577   age045_m72            0.0000     1.4665E+00     6.6083   3.1084    81.9327
 53      0.0000     0.0000E+00    0.0000E+00    5.010000E+06  0.05000  3.072E-02    0   0.9147   age055_m72            0.0000     1.7456E+00     7.2236   2.6031    87.2819
 54      0.0000     0.0000E+00    0.0000E+00    6.610000E+06  0.05000  1.455E-02    0   0.8877   age061_m72            0.0000     4.7801E+00    11.6729   1.8522    93.8857
 55      0.0000     0.0000E+00    0.0000E+00    1.000000E+07  0.05000  9.074E-03    0   0.8524   age070_m72            0.0000     1.8849E+00     7.5897   2.8174    86.3794
 56      0.0000     0.0000E+00    0.0000E+00    2.512000E+07  0.05000  4.250E-03    0   0.7902   age090_m72            0.0000     1.5715E+00     6.8913   2.4620    90.0322
 57      0.0000     0.0000E+00    0.0000E+00    4.000000E+07  0.05000  3.087E-03    0   0.7618   age104_m72            0.0000     1.5736E+00     6.8407   2.2121    92.5269
 58      0.0000     0.0000E+00    0.0000E+00    1.015200E+08  0.05000  1.700E-03    0   0.7096   age116_m72            0.0000     9.4955E-01     5.3410   1.9129    96.5324
 59      6.9042     9.5704E-01    1.1546E+00    2.861200E+08  0.05000  7.384E-04    0   0.6633   age125_m72            0.0000     6.4568E-01     4.3048   1.3638   102.1360
 60     11.8016     3.1630E+00    3.6659E+00    5.088000E+08  0.05000  3.819E-04    0   0.6372   age130_m72            0.0000     5.6321E-01     4.0420   0.8833   103.0720
 61     17.7241     1.0824E+01    1.2029E+01    9.047900E+08  0.05000  1.676E-04    0   0.6110   age135_m72            0.0000     7.6494E-01     4.5569   0.2320    99.0583
 62      0.0000     0.0000E+00    0.0000E+00    1.434000E+09  0.05000  8.837E-05    0   0.5874   age139_m72            0.0000     9.3064E-01     5.0363  -0.2099    98.0244
 63      4.2802     1.0350E+01    1.0538E+01    2.500000E+09  0.05000  4.233E-05    0   0.5598   age150_m72            0.0000     1.2483E+00     5.9839  -0.4915    95.5445
 64      3.6320     2.5906E+01    2.4733E+01    6.250000E+09  0.05000  1.435E-05    0   0.5249   age166_m72            0.0000     1.7143E+00     7.1576  -0.9172    93.1941
 65      1.8522     2.9107E+01    2.6662E+01    1.300000E+10  0.05000  6.513E-06    0   0.5036   age193_m72            0.0000     2.4394E+00     8.5059  -1.0000    86.2525
 66      0.0021     4.7863E-02    4.3050E-02    1.800000E+10  0.05000  4.527E-06    0   0.4945   age213_m72            0.0000     3.1770E+00     9.8073  -1.0000    80.0830


## Synthesis Results - Average & Chains ##

# j      x_j: min, <> & last-chain-values for 1 ...  7 chains
  1      0.0000      0.0236      0.0000      0.0000      0.0000      0.0000      0.0000      0.0000      0.0000
  2      0.0000      0.1260      0.0000      0.0000      0.8068      0.0000      0.2742      0.0000      0.0000
  3      0.0000      0.0477      0.0000      0.0000      0.0000      0.0000      0.0000      0.0000      0.0000
  4      0.0000      0.1964      0.0000      0.0000      0.0000      0.0000      0.1290      0.0000      0.0000
  5      0.0000      0.1416      0.0000      0.4652      0.6481      0.0000      0.0000      0.0000      0.0000
  6      0.0000      0.0649      0.0000      0.0000      0.0000      0.0000      0.5076      0.0000      0.0000
  7      0.0000      0.1301      0.0000      0.0000      0.0000      0.4606      0.0000      0.0000      0.0000
  8      0.0000      0.1424      0.0000      0.0000      0.0000      0.0000      0.0000      0.3474      0.4592
  9      0.0000      0.1623      0.0000      0.0000      0.2631      0.1688      0.0000      0.0000      0.0000
 10      0.0000      0.1769      0.0000      0.0000      0.0000      0.0000      0.0000      0.0291      0.0000
 11      0.0000      0.4838      0.2355      0.2280      0.0000      0.7283      0.1593      0.0269      0.2359
 12      0.0000      0.2672      0.0000      0.0000      0.6351      0.0000      0.0925      0.4530      1.1239
 13     30.4181     26.2820     34.3517     28.9465     26.3098     26.7046     27.0933     28.0605     27.0651
 14      0.0000      0.3926      0.6259      1.4835      2.0827      0.0000      0.1858      0.4435      0.0000
 15      0.0000      0.3831      0.0000      0.9972      0.9792      0.3648      0.0000      1.1494      0.0302
 16      0.0000      0.1453      0.0000      0.0000      0.0000      0.0000      0.0000      0.0000      0.0000
 17      0.0000      0.1007      0.0000      0.0000      0.0000      0.0000      0.0000      0.0000      0.0000
 18      0.0000      0.0393      0.0000      0.0000      0.0000      0.0000      0.0000      0.0000      0.0000
 19      0.0000      0.0301      0.0000      0.0000      0.0000      0.0000      0.0000      0.0000      0.0000
 20      0.0000      0.0351      0.0000      0.0000      0.0000      0.0000      0.0000      0.1844      0.0000
 21      0.0000      0.1002      0.0000      0.0000      0.0000      0.0000      0.2725      0.0000      0.0000
 22      0.0018      0.1283      0.2431      0.0000      0.0000      0.2532      0.6914      0.0000      0.0000
 23      0.0000      0.1525      0.0000      0.0000      0.0000      0.0000      0.0000      0.0000      0.0000
 24      0.0000      0.1119      0.0612      0.0000      0.0000      0.1177      0.3300      0.0000      0.0000
 25      0.0000      0.1105      0.0000      0.0000      0.0000      0.0000      0.0000      0.0000      0.0000
 26      0.0000      0.1012      0.0000      0.0000      0.0000      0.1471      0.3208      0.1466      0.0000
 27      0.9016      0.7438      0.0000      0.8577      0.9535      2.4166      0.7854      2.2116      0.0000
 28      0.0000      0.6170      0.0000      0.5755      0.3712      0.0000      0.0000      0.4880      0.0000
 29      0.0000      0.3546      0.0000      0.3629      0.0000      0.0000      0.0000      0.0000      0.0000
 30      0.0000      0.2119      0.0000      0.0000      0.0000      0.6323      0.2282      0.0000      0.0564
 31      0.0000      0.3445      0.9578      0.0000      0.0000      0.0000      0.0580      0.0000      0.2227
 32      0.0000      0.1087      0.0000      0.0000      0.8161      0.0000      0.0000      0.3223      0.0000
 33      0.0000      0.0976      0.0467      0.4814      0.0000      0.0000      0.0000      0.0000      0.0000
 34      0.0000      0.0342      0.0000      0.0000      0.0000      0.0000      0.0000      0.0000      0.0000
 35      0.0000      0.0454      0.0000      0.0000      0.0000      0.0000      0.0000      0.0000      0.0000
 36      0.0000      0.0744      0.0000      0.0000      0.0000      0.0000      0.0000      0.0000      0.0000
 37      0.0000      0.1238      0.3122      0.0000      0.4053      0.0000      0.0000      0.0000      0.0000
 38      0.0000      0.0404      0.0383      0.0000      0.0000      0.0000      0.0000      0.0000      0.0000
 39      0.0000      0.0844      0.0000      0.0000      0.0000      0.0000      0.0430      0.0000      0.0000
 40      0.0000      0.0915      0.0000      0.0000      0.0000      0.0000      0.0000      0.0000      0.3770
 41      0.0000      0.1410      0.4863      0.0000      0.0000      0.0055      0.0000      0.0000      0.0052
 42      0.0000      0.5008      0.2175      1.8656      1.1900      0.0000      0.0000      0.5300      0.0000
 43      8.7967      4.7551      4.5458      5.5577      5.3626      4.9672      4.5664      5.9432      5.3145
 44     15.7413     14.9943     16.1541     14.1178     15.0487     14.2040     17.2395     15.2716     17.3067
 45      0.0000      1.8562      0.0000      1.2086      0.0000      3.0997      0.8485      0.0000      0.3305
 46      0.0000      1.1851      0.0000      0.5768      0.0000      0.0073      0.7691      0.0000      0.0635
 47      0.0000      0.2870      0.0000      0.0000      0.0000      0.5338      0.0000      0.0000      0.1421
 48      0.0000      0.1406      0.2182      0.0000      0.0424      0.0000      0.0000      0.0000      0.0000
 49      0.0074      1.6073      2.0368      1.4481      0.8661      1.0307      2.0325      0.7766      1.7316
 50      0.0480      0.2228      0.0000      0.0570      0.0641      0.0000      0.3527      0.3442      0.0000
 51      0.0000      0.0365      0.0000      0.0000      0.0000      0.0000      0.0000      0.0000      0.0000
 52      0.0000      0.0427      0.0000      0.0000      0.0000      0.0000      0.0000      0.0000      0.4250
 53      0.0000      0.0410      0.0000      0.0000      0.0000      0.0000      0.0000      0.0000      0.0000
 54      0.0000      0.0553      0.0000      0.0000      0.0000      0.0000      0.0000      0.0000      0.0000
 55      0.0000      0.0628      0.0576      0.0000      0.0000      0.0000      0.0000      0.0000      0.4372
 56      0.0000      0.0561      0.0000      0.0000      0.0000      0.0000      0.0000      0.0000      0.0000
 57      0.0000      0.1189      0.0000      0.0000      0.0000      0.4148      0.0000      0.0000      0.0000
 58      0.0000      0.1242      0.0000      0.0000      0.0000      0.5626      0.0000      0.0000      0.0640
 59      6.9042      5.5454      4.7656      4.8862      5.2472      5.6966      6.5695      5.7885      6.5147
 60     11.8016     11.8865     11.1499     13.0605     14.2452     10.8964     10.9122     12.9006     12.2920
 61     17.7241     12.1959     13.5142     12.5156     12.0639     16.3568     15.9771     12.4306     14.6473
 62      0.0000      0.3464      0.5133      0.0000      0.4327      0.0000      0.0000      0.3574      0.0000
 63      4.2802      5.0945      4.9760      5.2852      5.2990      4.0511      4.6882      6.0456      4.5378
 64      3.6320      4.0301      3.4797      3.9162      3.9719      3.8779      3.4592      4.6494      4.7521
 65      1.8522      2.9895      2.8276      2.6997      3.0338      3.0772      2.8205      3.3022      3.4239
 66      0.0021      0.4865      0.0000      0.3130      0.6812      1.0526      0.4864      0.0000      0.5932

# j      m_j: min, <> & last-chain-values for 1 ...  7 chains
  1  0.0000E+00  2.7299E-04  0.0000E+00  0.0000E+00  0.0000E+00  0.0000E+00  0.0000E+00  0.0000E+00  0.0000E+00
  2  0.0000E+00  3.9769E-04  0.0000E+00  0.0000E+00  2.5725E-03  0.0000E+00  9.0727E-04  0.0000E+00  0.0000E+00
  3  0.0000E+00  2.2545E-04  0.0000E+00  0.0000E+00  0.0000E+00  0.0000E+00  0.0000E+00  0.0000E+00  0.0000E+00
  4  0.0000E+00  8.7464E-04  0.0000E+00  0.0000E+00  0.0000E+00  0.0000E+00  6.0194E-04  0.0000E+00  0.0000E+00
  5  0.0000E+00  1.2007E-03  0.0000E+00  4.1913E-03  5.5507E-03  0.0000E+00  0.0000E+00  0.0000E+00  0.0000E+00
  6  0.0000E+00  8.9268E-04  0.0000E+00  0.0000E+00  0.0000E+00  0.0000E+00  7.3183E-03  0.0000E+00  0.0000E+00
  7  0.0000E+00  2.5617E-03  0.0000E+00  0.0000E+00  0.0000E+00  9.0706E-03  0.0000E+00  0.0000E+00  0.0000E+00
  8  0.0000E+00  3.8770E-03  0.0000E+00  0.0000E+00  0.0000E+00  0.0000E+00  0.0000E+00  9.7878E-03  1.2103E-02
  9  0.0000E+00  5.0566E-03  0.0000E+00  0.0000E+00  8.2782E-03  5.2589E-03  0.0000E+00  0.0000E+00  0.0000E+00
 10  0.0000E+00  7.2387E-03  0.0000E+00  0.0000E+00  0.0000E+00  0.0000E+00  0.0000E+00  1.2317E-03  0.0000E+00
 11  0.0000E+00  3.7229E-02  2.0300E-02  1.8641E-02  0.0000E+00  5.6038E-02  1.2850E-02  2.1436E-03  1.7577E-02
 12  0.0000E+00  3.2614E-02  0.0000E+00  0.0000E+00  7.8298E-02  0.0000E+00  1.1838E-02  5.7238E-02  1.3285E-01
 13  1.5400E+01  9.0429E+00  1.3238E+01  1.0581E+01  9.1418E+00  9.1873E+00  9.7701E+00  9.9927E+00  9.0170E+00
 14  0.0000E+00  4.5311E-01  8.0893E-01  1.8187E+00  2.4272E+00  0.0000E+00  2.2475E-01  5.2971E-01  0.0000E+00
 15  0.0000E+00  7.1972E-01  0.0000E+00  1.9903E+00  1.8578E+00  6.8523E-01  0.0000E+00  2.2349E+00  5.4890E-02
 16  0.0000E+00  4.6142E-01  0.0000E+00  0.0000E+00  0.0000E+00  0.0000E+00  0.0000E+00  0.0000E+00  0.0000E+00
 17  0.0000E+00  4.1514E-01  0.0000E+00  0.0000E+00  0.0000E+00  0.0000E+00  0.0000E+00  0.0000E+00  0.0000E+00
 18  0.0000E+00  4.0169E-04  0.0000E+00  0.0000E+00  0.0000E+00  0.0000E+00  0.0000E+00  0.0000E+00  0.0000E+00
 19  0.0000E+00  1.2364E-04  0.0000E+00  0.0000E+00  0.0000E+00  0.0000E+00  0.0000E+00  0.0000E+00  0.0000E+00
 20  0.0000E+00  1.5713E-04  0.0000E+00  0.0000E+00  0.0000E+00  0.0000E+00  0.0000E+00  8.5444E-04  0.0000E+00
 21  0.0000E+00  5.4490E-04  0.0000E+00  0.0000E+00  0.0000E+00  0.0000E+00  1.5526E-03  0.0000E+00  0.0000E+00
 22  2.4005E-05  1.1793E-03  2.5024E-03  0.0000E+00  0.0000E+00  2.3270E-03  6.6605E-03  0.0000E+00  0.0000E+00
 23  0.0000E+00  1.8927E-03  0.0000E+00  0.0000E+00  0.0000E+00  0.0000E+00  0.0000E+00  0.0000E+00  0.0000E+00
 24  0.0000E+00  2.0668E-03  1.2658E-03  0.0000E+00  0.0000E+00  2.1733E-03  6.3876E-03  0.0000E+00  0.0000E+00
 25  0.0000E+00  2.8147E-03  0.0000E+00  0.0000E+00  0.0000E+00  0.0000E+00  0.0000E+00  0.0000E+00  0.0000E+00
 26  0.0000E+00  4.3093E-03  0.0000E+00  0.0000E+00  0.0000E+00  6.2612E-03  1.4308E-02  6.4562E-03  0.0000E+00
 27  1.1302E-01  6.3363E-02  0.0000E+00  7.7624E-02  8.2029E-02  2.0585E-01  7.0124E-02  1.9500E-01  0.0000E+00
 28  0.0000E+00  1.5254E-01  0.0000E+00  1.5115E-01  9.2688E-02  0.0000E+00  0.0000E+00  1.2486E-01  0.0000E+00
 29  0.0000E+00  1.5274E-01  0.0000E+00  1.6610E-01  0.0000E+00  0.0000E+00  0.0000E+00  0.0000E+00  0.0000E+00
 30  0.0000E+00  1.9071E-01  0.0000E+00  0.0000E+00  0.0000E+00  5.6904E-01  2.1526E-01  0.0000E+00  4.9175E-02
 31  0.0000E+00  5.4539E-01  1.6985E+00  0.0000E+00  0.0000E+00  0.0000E+00  9.6293E-02  0.0000E+00  3.4145E-01
 32  0.0000E+00  2.3154E-01  0.0000E+00  0.0000E+00  1.7558E+00  0.0000E+00  0.0000E+00  7.1052E-01  0.0000E+00
 33  0.0000E+00  4.6019E-01  2.4640E-01  2.4116E+00  0.0000E+00  0.0000E+00  0.0000E+00  0.0000E+00  0.0000E+00
 34  0.0000E+00  2.1858E-01  0.0000E+00  0.0000E+00  0.0000E+00  0.0000E+00  0.0000E+00  0.0000E+00  0.0000E+00
 35  0.0000E+00  3.7238E-04  0.0000E+00  0.0000E+00  0.0000E+00  0.0000E+00  0.0000E+00  0.0000E+00  0.0000E+00
 36  0.0000E+00  2.4664E-04  0.0000E+00  0.0000E+00  0.0000E+00  0.0000E+00  0.0000E+00  0.0000E+00  0.0000E+00
 37  0.0000E+00  4.4382E-04  1.2540E-03  0.0000E+00  1.4677E-03  0.0000E+00  0.0000E+00  0.0000E+00  0.0000E+00
 38  0.0000E+00  3.9272E-04  4.1635E-04  0.0000E+00  0.0000E+00  0.0000E+00  0.0000E+00  0.0000E+00  0.0000E+00
 39  0.0000E+00  1.1801E-03  0.0000E+00  0.0000E+00  0.0000E+00  0.0000E+00  6.2986E-04  0.0000E+00  0.0000E+00
 40  0.0000E+00  2.0690E-03  0.0000E+00  0.0000E+00  0.0000E+00  0.0000E+00  0.0000E+00  0.0000E+00  8.2536E-03
 41  0.0000E+00  4.9560E-03  1.9150E-02  0.0000E+00  0.0000E+00  1.9317E-04  0.0000E+00  0.0000E+00  1.7818E-04
 42  0.0000E+00  3.2326E-02  1.5726E-02  1.2794E-01  7.7577E-02  0.0000E+00  0.0000E+00  3.5413E-02  0.0000E+00
 43  1.2199E+00  4.4815E-01  4.7984E-01  5.5646E-01  5.1041E-01  4.6810E-01  4.5106E-01  5.7974E-01  4.8499E-01
 44  3.7588E+00  2.4332E+00  2.9360E+00  2.4338E+00  2.4662E+00  2.3047E+00  2.9320E+00  2.5649E+00  2.7194E+00
 45  0.0000E+00  5.9767E-01  0.0000E+00  4.1342E-01  0.0000E+00  9.9792E-01  2.8635E-01  0.0000E+00  1.0304E-01
 46  0.0000E+00  7.0137E-01  0.0000E+00  3.6267E-01  0.0000E+00  4.3114E-03  4.7707E-01  0.0000E+00  3.6370E-02
 47  0.0000E+00  3.4420E-01  0.0000E+00  0.0000E+00  0.0000E+00  6.4010E-01  0.0000E+00  0.0000E+00  1.6502E-01
 48  0.0000E+00  2.9743E-01  5.1690E-01  0.0000E+00  9.0658E-02  0.0000E+00  0.0000E+00  0.0000E+00  0.0000E+00
 49  5.2486E-02  7.7262E+00  1.0965E+01  7.3947E+00  4.2041E+00  4.9540E+00  1.0239E+01  3.8636E+00  8.0595E+00
 50  6.2916E-01  1.9834E+00  0.0000E+00  5.3951E-01  5.7669E-01  0.0000E+00  3.2908E+00  3.1719E+00  0.0000E+00
 51  0.0000E+00  1.7833E-04  0.0000E+00  0.0000E+00  0.0000E+00  0.0000E+00  0.0000E+00  0.0000E+00  0.0000E+00
 52  0.0000E+00  1.0690E-04  0.0000E+00  0.0000E+00  0.0000E+00  0.0000E+00  0.0000E+00  0.0000E+00  1.0291E-03
 53  0.0000E+00  1.5460E-04  0.0000E+00  0.0000E+00  0.0000E+00  0.0000E+00  0.0000E+00  0.0000E+00  0.0000E+00
 54  0.0000E+00  4.2709E-04  0.0000E+00  0.0000E+00  0.0000E+00  0.0000E+00  0.0000E+00  0.0000E+00  0.0000E+00
 55  0.0000E+00  7.4661E-04  7.6619E-04  0.0000E+00  0.0000E+00  0.0000E+00  0.0000E+00  0.0000E+00  5.0311E-03
 56  0.0000E+00  1.3206E-03  0.0000E+00  0.0000E+00  0.0000E+00  0.0000E+00  0.0000E+00  0.0000E+00  0.0000E+00
 57  0.0000E+00  3.7115E-03  0.0000E+00  0.0000E+00  0.0000E+00  1.2951E-02  0.0000E+00  0.0000E+00  0.0000E+00
 58  0.0000E+00  6.5586E-03  0.0000E+00  0.0000E+00  0.0000E+00  2.9707E-02  0.0000E+00  0.0000E+00  3.2749E-03
 59  1.1546E+00  6.3025E-01  6.0661E-01  5.8995E-01  6.0224E-01  6.4735E-01  7.8253E-01  6.8089E-01  7.1693E-01
 60  3.6659E+00  2.5092E+00  2.6362E+00  2.9289E+00  3.0368E+00  2.3000E+00  2.4143E+00  2.8186E+00  2.5125E+00
 61  1.2029E+01  5.6252E+00  6.9813E+00  6.1326E+00  5.6193E+00  7.5436E+00  7.7235E+00  5.9341E+00  6.5417E+00
 62  0.0000E+00  2.9127E-01  4.8348E-01  0.0000E+00  3.6753E-01  0.0000E+00  0.0000E+00  3.1108E-01  0.0000E+00
 63  1.0538E+01  8.5239E+00  9.3248E+00  9.3944E+00  8.9538E+00  6.7775E+00  8.2213E+00  1.0469E+01  7.3519E+00
 64  2.4733E+01  1.8651E+01  1.8036E+01  1.9254E+01  1.8563E+01  1.7945E+01  1.6778E+01  2.2270E+01  2.1295E+01
 65  2.6662E+01  2.9246E+01  3.0981E+01  2.8057E+01  2.9972E+01  3.0101E+01  2.8919E+01  3.3435E+01  3.2433E+01
 66  4.3050E-02  6.7237E+00  0.0000E+00  4.5957E+00  9.5066E+00  1.4546E+01  7.0450E+00  0.0000E+00  7.9382E+00

# AV, chi2 & Mass for <> & i_chain = 1 ...  7 solutions
AV       0.4207      0.3097      0.3015      0.3059      0.3208      0.3205      0.3329      0.3033      0.3077
chi2 5.4039E-01  5.5165E-01  5.4795E-01  5.4841E-01  5.4841E-01  5.4848E-01  5.4745E-01  5.4753E-01  5.4809E-01
Mass 2.9476E-13  3.7364E-13  3.2998E-13  3.4996E-13  3.7555E-13  3.7917E-13  3.6781E-13  3.5794E-13  3.8488E-13
 -24.44                                  [v0_min (km/s) before EX0s...]
 186.89                                  [vd_min (km/s) before EX0s...]


## Synthetic spectrum (Best Model) ##l_obs f_obs f_syn wei
 3478    [Nl_obs]
 3741.00    0.52964   0.51199    0.000
 3742.00    0.58042   0.50926    0.000
 3743.00    0.61336   0.49476    0.000
 3744.00    0.62343   0.47153    0.000
 3745.00    0.60980   0.44297   -1.000
 3746.00    0.56378   0.41298   17.737
 3747.00    0.48713   0.38621   20.528
 3748.00    0.40033   0.36810   24.980
 3749.00    0.32878   0.36363   29.274
 3750.00    0.29254   0.37541   29.274
 3751.00    0.29334   0.40202   -1.000
 3752.00    0.31638   0.43800   -1.000
 3753.00    0.35597   0.47550   -1.000
 3754.00    0.41437   0.50699   24.133
 3755.00    0.46831   0.52766   21.354
 3756.00    0.47347   0.53685   21.120
 3757.00    0.40571   0.53783   24.648
 3758.00    0.27872   0.53567   -1.000
 3759.00    0.15644   0.53456   -1.000
 3760.00    0.11868   0.53592   -1.000
 3761.00    0.18729   0.53831   -1.000
 3762.00    0.32526   0.53886   -1.000
 3763.00    0.46375   0.53493   21.563
 3764.00    0.54441   0.52505   18.369
 3765.00    0.57292   0.50927   17.455
 3766.00    0.58309   0.48929   17.150
 3767.00    0.58103   0.46818   17.211
 3768.00    0.55976   0.44991   17.865
 3769.00    0.52363   0.43857   19.097
 3770.00    0.48562   0.43731   20.592
 3771.00    0.46158   0.44723   21.665
 3772.00    0.46434   0.46702   21.536
 3773.00    0.49806   0.49370   20.078
 3774.00    0.54930   0.52401   18.205
 3775.00    0.58579   0.55551   17.071
 3776.00    0.58849   0.58677   16.993
 3777.00    0.57059   0.61686   17.526
 3778.00    0.56784   0.64474   17.611
 3779.00    0.61810   0.66912   16.179
 3780.00    0.69536   0.68852   14.381
 3781.00    0.70955   0.70163   14.094
 3782.00    0.63112   0.70739   15.845
 3783.00    0.52248   0.70510   -1.000
 3784.00    0.46481   0.69481   -1.000
 3785.00    0.50903   0.67786   19.645
 3786.00    0.61309   0.65694   16.311
 3787.00    0.67482   0.63522   14.819
 3788.00    0.66380   0.61497   15.065
 3789.00    0.61840   0.59656   16.171
 3790.00    0.56122   0.57835   17.818
 3791.00    0.49332   0.55770   20.271
 3792.00    0.42078   0.53251   23.765
 3793.00    0.35728   0.50248   -1.000
 3794.00    0.31908   0.46966   -1.000
 3795.00    0.31639   0.43815   -1.000
 3796.00    0.34224   0.41335   29.219
 3797.00    0.37089   0.40064   26.962
 3798.00    0.36173   0.40375   27.645
 3799.00    0.30545   0.42326   -1.000
 3800.00    0.26569   0.45602   -1.000
 3801.00    0.29984   0.49615   -1.000
 3802.00    0.38754   0.53707   -1.000
 3803.00    0.48885   0.57361   20.456
 3804.00    0.59182   0.60347   16.897
 3805.00    0.67584   0.62735   14.796
 3806.00    0.69466   0.64769   14.396
 3807.00    0.64531   0.66674   15.496
 3808.00    0.59469   0.68473   16.815
 3809.00    0.59352   0.69963   16.849
 3810.00    0.63563   0.70839   15.732
 3811.00    0.68611   0.70927   14.575
 3812.00    0.70599   0.70323   14.165
 3813.00    0.69314   0.69382   14.427
 3814.00    0.68162   0.68527   14.671
 3815.00    0.68706   0.68024   14.555
 3816.00    0.69850   0.67859   14.316
 3817.00    0.70938   0.67798   14.097
 3818.00    0.72215   0.67579   13.848
 3819.00    0.73693   0.67064   13.570
 3820.00    0.74576   0.66252   13.409
 3821.00    0.72767   0.65170   13.742
 3822.00    0.66766   0.63800   14.978
 3823.00    0.59182   0.62104   16.897
 3824.00    0.54556   0.60120   18.330
 3825.00    0.54825   0.57976   18.240
 3826.00    0.58484   0.55816   17.099
 3827.00    0.60766   0.53687   16.457
 3828.00    0.58377   0.51497   17.130
 3829.00    0.54545   0.49084   18.333
 3830.00    0.52629   0.46337   19.001
 3831.00    0.49589   0.43318   20.166
 3832.00    0.42616   0.40302   23.465
 3833.00    0.35100   0.37703   28.490
 3834.00    0.32034   0.35941   29.274
 3835.00    0.35802   0.35298   27.932
 3836.00    0.44613   0.35852   22.415
 3837.00    0.52701   0.37508   -1.000
 3838.00    0.56570   0.40084   -1.000
 3839.00    0.57546   0.43371   17.377
 3840.00    0.56196   0.47147   17.795
 3841.00    0.50877   0.51151   19.655
 3842.00    0.43954   0.55093   22.751
 3843.00    0.42470   0.58706   -1.000
 3844.00    0.50507   0.61810   19.799
 3845.00    0.66378   0.64345   15.065
 3846.00    0.83217   0.66351   12.017
 3847.00    0.92101   0.67928    0.000
 3848.00    0.89793   0.69212    0.000
 3849.00    0.79695   0.70339    0.000
 3850.00    0.68818   0.71394    0.000
 3851.00    0.64376   0.72360    0.000
 3852.00    0.68509   0.73128    0.000
 3853.00    0.77826   0.73577    0.000
 3854.00    0.84838   0.73665    0.000
 3855.00    0.83404   0.73464    0.000
 3856.00    0.76270   0.73137    0.000
 3857.00    0.70464   0.72889    0.000
 3858.00    0.69678   0.72916    0.000
 3859.00    0.73134   0.73351    0.000
 3860.00    0.75906   0.74203    0.000
 3861.00    0.74331   0.75329    0.000
 3862.00    0.70862   0.76475    0.000
 3863.00    0.69628   0.77400    0.000
 3864.00    0.72246   0.77977    0.000
 3865.00    0.78025   0.78200    0.000
 3866.00    0.84619   0.78117    0.000
 3867.00    0.89704   0.77742    0.000
 3868.00    0.91634   0.77048    0.000
 3869.00    0.87148   0.76034    0.000
 3870.00    0.72522   0.74806    0.000
 3871.00    0.55054   0.73580    0.000
 3872.00    0.52207   0.72562    0.000
 3873.00    0.65834   0.71806    0.000
 3874.00    0.78424   0.71153    0.000
 3875.00    0.78100   0.70332    0.000
 3876.00    0.66698   0.69151    0.000
 3877.00    0.55923   0.67618    0.000
 3878.00    0.57362   0.65892    0.000
 3879.00    0.60729   0.64124    0.000
 3880.00    0.46917   0.62328    0.000
 3881.00    0.29171   0.60373   -1.000
 3882.00    0.34674   0.58075   -1.000
 3883.00    0.51733   0.55315   19.330
 3884.00    0.50746   0.52129   19.706
 3885.00    0.35794   0.48757   -1.000
 3886.00    0.28046   0.45641   -1.000
 3887.00    0.29637   0.43321   -1.000
 3888.00    0.32800   0.42273   29.274
 3889.00    0.37546   0.42726   26.634
 3890.00    0.46759   0.44568   21.386
 3891.00    0.58666   0.47395   17.046
 3892.00    0.68785   0.50670   14.538
 3893.00    0.73104   0.53935   13.679
 3894.00    0.73256   0.56921   13.651
 3895.00    0.78502   0.59548   12.739
 3896.00    0.90751   0.61847   -1.000
 3897.00    0.97034   0.63890   -1.000
 3898.00    0.90057   0.65747   11.104
 3899.00    0.78402   0.67463   12.755
 3900.00    0.71202   0.69037   14.045
 3901.00    0.70158   0.70422   14.254
 3902.00    0.72391   0.71575   13.814
 3903.00    0.73183   0.72541   13.664
 3904.00    0.70737   0.73486   14.137
 3905.00    0.67132   0.74641   14.896
 3906.00    0.65162   0.76169   15.346
 3907.00    0.66774   0.78055   14.976
 3908.00    0.71853   0.80085   13.917
 3909.00    0.78662   0.81938   12.713
 3910.00    0.85782   0.83330   11.657
 3911.00    0.92074   0.84117   10.861
 3912.00    0.95540   0.84326   10.467
 3913.00    0.93879   0.84100   10.652
 3914.00    0.86046   0.83610   11.622
 3915.00    0.74025   0.82982   13.509
 3916.00    0.64852   0.82284   15.420
 3917.00    0.65213   0.81551   15.334
 3918.00    0.73693   0.80838   13.570
 3919.00    0.83272   0.80223   12.009
 3920.00    0.86154   0.79776   11.607
 3921.00    0.80196   0.79494   12.469
 3922.00    0.73911   0.79258   13.530
 3923.00    0.75333   0.78839   13.274
 3924.00    0.82207   0.77971   12.164
 3925.00    0.88277   0.76436   11.328
 3926.00    0.89241   0.74119   11.206
 3927.00    0.85000   0.71017   11.765
 3928.00    0.79929   0.67220   12.511
 3929.00    0.77008   0.62908   12.986
 3930.00    0.75080   0.58403   13.319
 3931.00    0.72759   0.54218   13.744
 3932.00    0.70159   0.51029   -1.000
 3933.00    0.67331   0.49506   -1.000
 3934.00    0.64341   0.50044   15.542
 3935.00    0.64190   0.52566   15.579
 3936.00    0.71000   0.56525   14.085
 3937.00    0.80876   0.61109   12.365
 3938.00    0.84333   0.65528   11.858
 3939.00    0.81053   0.69229   12.338
 3940.00    0.78885   0.71979   12.677
 3941.00    0.81414   0.73841   12.283
 3942.00    0.85887   0.75076   11.643
 3943.00    0.85613   0.76003   11.681
 3944.00    0.76849   0.76858   13.013
 3945.00    0.69414   0.77718   14.406
 3946.00    0.75534   0.78519   13.239
 3947.00    0.90486   0.79164   11.051
 3948.00    1.02291   0.79600    9.776
 3949.00    1.08125   0.79842    9.249
 3950.00    1.09124   0.79925    9.164
 3951.00    1.02460   0.79862    9.760
 3952.00    0.87365   0.79618   11.446
 3953.00    0.71243   0.79130   14.036
 3954.00    0.62228   0.78340   16.070
 3955.00    0.62298   0.77221   16.052
 3956.00    0.68086   0.75777   14.687
 3957.00    0.72978   0.73993   13.703
 3958.00    0.74201   0.71806   13.477
 3959.00    0.75785   0.69124   13.195
 3960.00    0.79539   0.65893    0.000
 3961.00    0.81183   0.62150    0.000
 3962.00    0.77060   0.57983    0.000
 3963.00    0.67466   0.53480    0.000
 3964.00    0.56258   0.48717    0.000
 3965.00    0.48936   0.43838    0.000
 3966.00    0.46771   0.39157    0.000
 3967.00    0.46789   0.35177    0.000
 3968.00    0.48214   0.32479    0.000
 3969.00    0.52430   0.31531    0.000
 3970.00    0.57540   0.32510    0.000
 3971.00    0.59620   0.35252    0.000
 3972.00    0.58848   0.39333    0.000
 3973.00    0.58917   0.44214    0.000
 3974.00    0.62955   0.49406    0.000
 3975.00    0.71230   0.54540    0.000
 3976.00    0.78956   0.59377    0.000
 3977.00    0.81169   0.63762    0.000
 3978.00    0.80061   0.67587    0.000
 3979.00    0.79990   0.70785    0.000
 3980.00    0.80069   0.73359    0.000
 3981.00    0.77945   0.75415   12.829
 3982.00    0.74781   0.77137   13.372
 3983.00    0.73137   0.78718   13.673
 3984.00    0.74504   0.80288   13.422
 3985.00    0.79844   0.81878   12.524
 3986.00    0.89709   0.83443   11.147
 3987.00    1.00512   0.84914    9.949
 3988.00    1.03551   0.86245    9.657
 3989.00    0.95773   0.87423   10.441
 3990.00    0.84524   0.88443   11.831
 3991.00    0.76439   0.89275   13.082
 3992.00    0.72166   0.89854   13.857
 3993.00    0.70657   0.90124   14.153
 3994.00    0.71559   0.90108   13.974
 3995.00    0.76088   0.89956   13.143
 3996.00    0.85820   0.89901   11.652
 3997.00    0.97640   0.90159   10.242
 3998.00    1.04923   0.90794    9.531
 3999.00    1.06004   0.91669    9.434
 4000.00    1.04284   0.92497    9.589
 4001.00    1.02053   0.92982    9.799
 4002.00    0.99861   0.92974   10.014
 4003.00    0.98670   0.92554   10.135
 4004.00    0.99174   0.92014   10.083
 4005.00    0.99713   0.91720   10.029
 4006.00    0.97869   0.91930   10.218
 4007.00    0.93671   0.92667   10.676
 4008.00    0.89222   0.93730   11.208
 4009.00    0.87322   0.94830   11.452
 4010.00    0.89712   0.95744   11.147
 4011.00    0.95302   0.96398   10.493
 4012.00    1.01542   0.96845    9.848
 4013.00    1.06158   0.97188    9.420
 4014.00    1.07625   0.97514    9.291
 4015.00    1.05614   0.97869    9.468
 4016.00    1.02204   0.98261    9.784
 4017.00    1.02015   0.98663    9.802
 4018.00    1.06419   0.99009    9.397
 4019.00    1.10473   0.99210    9.052
 4020.00    1.08614   0.99193    9.207
 4021.00    0.99091   0.98962   10.092
 4022.00    0.88302   0.98622   11.325
 4023.00    0.88644   0.98331   11.281
 4024.00    1.00000   0.98202   10.000
 4025.00    1.07907   0.98198    9.267
 4026.00    1.07731   0.98120    9.282
 4027.00    1.08203   0.97693    9.242
 4028.00    1.12227   0.96745    8.911
 4029.00    1.14214   0.95340    8.756
 4030.00    1.10840   0.93795    9.022
 4031.00    1.03342   0.92569    9.677
 4032.00    0.95335   0.92061   10.489
 4033.00    0.91142   0.92463   10.972
 4034.00    0.93440   0.93703   10.702
 4035.00    1.01359   0.95473    9.866
 4036.00    1.08277   0.97347    9.236
 4037.00    1.07418   0.98908    9.309
 4038.00    1.00781   0.99857    9.923
 4039.00    0.94077   1.00063   10.630
 4040.00    0.88288   0.99536   11.327
 4041.00    0.82759   0.98380   12.083
 4042.00    0.79769   0.96780   12.536
 4043.00    0.80707   0.95027   12.391
 4044.00    0.82181   0.93525   12.168
 4045.00    0.80691   0.92693   12.393
 4046.00    0.76946   0.92770   12.996
 4047.00    0.74941   0.93677   13.344
 4048.00    0.79984   0.95030   12.503
 4049.00    0.92040   0.96323   10.865
 4050.00    1.03072   0.97148    9.702
 4051.00    1.06539   0.97336    9.386
 4052.00    1.02371   0.96957    9.768
 4053.00    0.93927   0.96238   10.647
 4054.00    0.85958   0.95445   11.634
 4055.00    0.82956   0.94791   12.055
 4056.00    0.87407   0.94387   11.441
 4057.00    0.96137   0.94220   10.402
 4058.00    1.01841   0.94158    9.819
 4059.00    1.01807   0.93996    9.822
 4060.00    0.98768   0.93561   10.125
 4061.00    0.95661   0.92822   10.454
 4062.00    0.94287   0.91950   10.606
 4063.00    0.95600   0.91247   10.460
 4064.00    0.99533   0.90972   10.047
 4065.00    1.04538   0.91202    9.566
 4066.00    1.08588   0.91787    9.209
 4067.00    1.11000   0.92449    9.009
 4068.00    1.12123   0.92912    8.919
 4069.00    1.12347   0.93019    8.901
 4070.00    1.11203   0.92769    8.993
 4071.00    1.06654   0.92261    9.376
 4072.00    0.98234   0.91590   10.180
 4073.00    0.90180   0.90780   11.089
 4074.00    0.86328   0.89826   11.584
 4075.00    0.85346   0.88812   11.717
 4076.00    0.85301   0.87970   11.723
 4077.00    0.87340   0.87600   11.450
 4078.00    0.91786   0.87878   10.895
 4079.00    0.95675   0.88707   10.452
 4080.00    0.96612   0.89738   10.351
 4081.00    0.95006   0.90568   10.526
 4082.00    0.92319   0.90949   10.832
 4083.00    0.90038   0.90903   11.106
 4084.00    0.89725   0.90645   11.145
 4085.00    0.92340   0.90409   10.830
 4086.00    0.95493   0.90298   10.472
 4087.00    0.94446   0.90222   10.588
 4088.00    0.89279   0.89973   11.201
 4089.00    0.85182   0.89339   11.740
 4090.00    0.85781   0.88198   11.658
 4091.00    0.90910   0.86525   11.000
 4092.00    0.96330   0.84353    0.000
 4093.00    0.96808   0.81721    0.000
 4094.00    0.92803   0.78662    0.000
 4095.00    0.88117   0.75213    0.000
 4096.00    0.82734   0.71448    0.000
 4097.00    0.75385   0.67498    0.000
 4098.00    0.69716   0.63584    0.000
 4099.00    0.69599   0.60056    0.000
 4100.00    0.71518   0.57370    0.000
 4101.00    0.71712   0.55983    0.000
 4102.00    0.75341   0.56184    0.000
 4103.00    0.85296   0.57938    0.000
 4104.00    0.90734   0.60865    0.000
 4105.00    0.83970   0.64388    0.000
 4106.00    0.75075   0.67932    0.000
 4107.00    0.73472   0.71117    0.000
 4108.00    0.74179   0.73821    0.000
 4109.00    0.72946   0.76138    0.000
 4110.00    0.75408   0.78257    0.000
 4111.00    0.84016   0.80338    0.000
 4112.00    0.91959   0.82430    0.000
 4113.00    0.94590   0.84451   10.572
 4114.00    0.94158   0.86237   10.620
 4115.00    0.93333   0.87628   10.714
 4116.00    0.92633   0.88549   10.795
 4117.00    0.92347   0.89052   10.829
 4118.00    0.92696   0.89298   10.788
 4119.00    0.91848   0.89487   10.888
 4120.00    0.87614   0.89769   11.414
 4121.00    0.83930   0.90199   11.915
 4122.00    0.87738   0.90736   11.398
 4123.00    0.97039   0.91264   10.305
 4124.00    1.03272   0.91644    9.683
 4125.00    1.02533   0.91755    9.753
 4126.00    0.96423   0.91547   10.371
 4127.00    0.89028   0.91055   11.232
 4128.00    0.84650   0.90394   11.813
 4129.00    0.85145   0.89721   11.745
 4130.00    0.89720   0.89215   11.146
 4131.00    0.95369   0.89049   10.486
 4132.00    0.98919   0.89367   10.109
 4133.00    0.99298   0.90229   10.071
 4134.00    0.96818   0.91569   10.329
 4135.00    0.92251   0.93186   10.840
 4136.00    0.87653   0.94790   11.409
 4137.00    0.86698   0.96071   11.534
 4138.00    0.90852   0.96777   11.007
 4139.00    0.97077   0.96769   10.301
 4140.00    1.02392   0.96077    9.766
 4141.00    1.06512   0.94931    9.389
 4142.00    1.08773   0.93713    9.193
 4143.00    1.07176   0.92829    9.330
 4144.00    1.02924   0.92532    9.716
 4145.00    1.00936   0.92815    9.907
 4146.00    1.02329   0.93441    9.772
 4147.00    1.03038   0.94089    9.705
 4148.00    1.00738   0.94518    9.927
 4149.00    0.96840   0.94641   10.326
 4150.00    0.94380   0.94500   10.595
 4151.00    0.95761   0.94192   10.443
 4152.00    0.98728   0.93824   10.129
 4153.00    0.98357   0.93499   10.167
 4154.00    0.94145   0.93327   10.622
 4155.00    0.89688   0.93405   11.150
 4156.00    0.88535   0.93790   11.295
 4157.00    0.91912   0.94458   10.880
 4158.00    0.96538   0.95315   10.359
 4159.00    0.98835   0.96224   10.118
 4160.00    1.01414   0.97058    9.861
 4161.00    1.07236   0.97723    9.325
 4162.00    1.11336   0.98168    8.982
 4163.00    1.08397   0.98371    9.225
 4164.00    1.01818   0.98335    9.821
 4165.00    0.96510   0.98085   10.362
 4166.00    0.91525   0.97645   10.926
 4167.00    0.85970   0.97013   11.632
 4168.00    0.83702   0.96157   11.947
 4169.00    0.86395   0.95044   11.575
 4170.00    0.89226   0.93714   11.207
 4171.00    0.87870   0.92318   11.380
 4172.00    0.82962   0.91096   12.054
 4173.00    0.78772   0.90266   12.695
 4174.00    0.80806   0.89926   12.375
 4175.00    0.88791   0.90024   11.262
 4176.00    0.95458   0.90419   10.476
 4177.00    0.95058   0.90972   10.520
 4178.00    0.87363   0.91600   11.447
 4179.00    0.78830   0.92259   12.686
 4180.00    0.78710   0.92913   12.705
 4181.00    0.86653   0.93519   11.540
 4182.00    0.93746   0.94030   10.667
 4183.00    0.95021   0.94408   10.524
 4184.00    0.91946   0.94637   10.876
 4185.00    0.90234   0.94744   11.082
 4186.00    0.94605   0.94812   10.570
 4187.00    1.00176   0.94956    9.982
 4188.00    0.99151   0.95281   10.086
 4189.00    0.94307   0.95814   10.604
 4190.00    0.93202   0.96470   10.729
 4191.00    0.96780   0.97068   10.333
 4192.00    1.01685   0.97390    9.834
 4193.00    1.05187   0.97256    9.507
 4194.00    1.05422   0.96599    9.485
 4195.00    1.01239   0.95501    9.878
 4196.00    0.94569   0.94179   10.575
 4197.00    0.91727   0.92906   10.902
 4198.00    0.95319   0.91925   10.489
 4199.00    0.99025   0.91375   10.099
 4200.00    0.98264   0.91283   10.183
 4201.00    0.96560   0.91603   10.352
 4202.00    0.96569   0.92262   10.339
 4203.00    0.95502   0.93182   10.486
 4204.00    0.91342   0.94270   10.998
 4205.00    0.85739   0.95415   11.600
 4206.00    0.81438   0.96494   12.114
 4207.00    0.80603   0.97396   12.650
 4208.00    0.83222   0.98051   12.477
 4209.00    0.87435   0.98435   10.652
 4210.00    0.92584   0.98548    8.589
 4211.00    0.98842   0.98398    7.487
 4212.00    1.03234   0.98023   -2.000
 4213.00    1.01469   0.97528   -2.000
 4214.00    0.95162   0.97094   -2.000
 4215.00    0.90116   0.96934   -2.000
 4216.00    0.88802   0.97177   -2.000
 4217.00    0.90102   0.97770   -2.000
 4218.00    0.91938   0.98458   -2.000
 4219.00    0.92718   0.98860   -2.000
 4220.00    0.92740   0.98614   -2.000
 4221.00    0.92743   0.97511   -2.000
 4222.00    0.91756   0.95586   -2.000
 4223.00    0.89085   0.93132   -2.000
 4224.00    0.86795   0.90668   -2.000
 4225.00    0.86895   0.88796   -2.000
 4226.00    0.88434   0.88011   -2.000
 4227.00    0.90326   0.88489    8.627
 4228.00    0.93768   0.89995    8.271
 4229.00    0.99076   0.91970    7.677
 4230.00    1.03553   0.93769    7.474
 4231.00    1.04873   0.94934    7.859
 4232.00    1.03356   0.95342    8.387
 4233.00    1.01233   0.95185    8.510
 4234.00    1.01316   0.94804    8.233
 4235.00    1.03042   0.94518    7.869
 4236.00    1.02108   0.94523    7.657
 4237.00    0.97334   0.94881    7.591
 4238.00    0.92386   0.95558    7.507
 4239.00    0.90907   0.96466    7.471
 4240.00    0.94232   0.97485    7.750
 4241.00    1.00279   0.98460    8.302
 4242.00    1.04679   0.99218    8.681
 4243.00    1.04778   0.99598    8.725
 4244.00    1.00616   0.99492    8.704
 4245.00    0.94518   0.98892    8.641
 4246.00    0.89855   0.97911    8.394
 4247.00    0.88766   0.96755    8.156
 4248.00    0.91051   0.95663    8.199
 4249.00    0.93296   0.94835    8.451
 4250.00    0.92417   0.94379    8.659
 4251.00    0.90958   0.94293    8.760
 4252.00    0.92265   0.94505    8.829
 4253.00    0.93536   0.94895    8.863
 4254.00    0.91635   0.95329    8.826
 4255.00    0.90099   0.95669    8.733
 4256.00    0.92231   0.95814    8.642
 4257.00    0.94303   0.95743    8.624
 4258.00    0.93059   0.95553    8.708
 4259.00    0.91853   0.95467    8.841
 4260.00    0.93911   0.95742    8.903
 4261.00    0.97500   0.96529    8.761
 4262.00    0.99728   0.97756    8.483
 4263.00    0.99359   0.99128    8.339
 4264.00    0.97536   1.00233    8.423
 4265.00    0.97252   1.00688    8.553
 4266.00    0.99333   1.00268    8.515
 4267.00    1.01333   0.98965    8.249
 4268.00    1.01040   0.96979    7.930
 4269.00    0.98154   0.94666    7.816
 4270.00    0.94845   0.92465    7.908
 4271.00    0.94149   0.90794    8.003
 4272.00    0.94753   0.89961    8.080
 4273.00    0.92808   0.90083    8.288
 4274.00    0.90666   0.91056    8.487
 4275.00    0.94194   0.92590    8.368
 4276.00    1.01635   0.94295    8.160
 4277.00    1.06160   0.95798    8.242
 4278.00    1.05733   0.96832    8.277
 4279.00    1.02449   0.97299    7.865
 4280.00    0.98117   0.97271    7.772
 4281.00    0.94001   0.96908    8.881
 4282.00    0.91487   0.96357   10.825
 4283.00    0.91205   0.95694   11.481
 4284.00    0.91914   0.94908   10.884
 4285.00    0.92022   0.93958   10.688
 4286.00    0.91324   0.92843   10.961
 4287.00    0.90437   0.91658   11.170
 4288.00    0.90042   0.90596   11.082
 4289.00    0.90425   0.89878   10.891
 4290.00    0.91238   0.89640   11.038
 4291.00    0.92041   0.89848   11.305
 4292.00    0.92635   0.90283   10.474
 4293.00    0.92642   0.90610    8.874
 4294.00    0.91496   0.90520    7.968
 4295.00    0.89838   0.89828    7.928
 4296.00    0.89386   0.88529    8.194
 4297.00    0.88982   0.86779    8.399
 4298.00    0.84805   0.84855    8.653
 4299.00    0.78264   0.83083    8.934
 4300.00    0.75808   0.81733    8.931
 4301.00    0.77792   0.80930    8.671
 4302.00    0.78383   0.80623    8.511
 4303.00    0.76440   0.80633    8.510
 4304.00    0.75742   0.80737    8.455
 4305.00    0.77439   0.80791    8.226
 4306.00    0.79657   0.80792    7.895
 4307.00    0.80878   0.80871    7.664
 4308.00    0.81072   0.81223    7.710
 4309.00    0.82246   0.81995    8.014
 4310.00    0.85683   0.83220    8.428
 4311.00    0.87689   0.84844    8.824
 4312.00    0.84448   0.86774    9.138
 4313.00    0.79347   0.88913    9.419
 4314.00    0.77899   0.91157    9.724
 4315.00    0.80599   0.93350    9.967
 4316.00    0.85091   0.95258   10.016
 4317.00    0.89377   0.96605    9.865
 4318.00    0.92520   0.97148    9.582
 4319.00    0.94809   0.96756    9.221
 4320.00    0.96256   0.95453    8.890
 4321.00    0.95617   0.93418    8.757
 4322.00    0.91895   0.90969    8.884
 4323.00    0.85527   0.88526    9.157
 4324.00    0.78947   0.86519    9.401
 4325.00    0.76039   0.85283    9.483
 4326.00    0.77935   0.84945    9.489
 4327.00    0.82002   0.85365    9.676
 4328.00    0.86734   0.86177    9.838
 4329.00    0.92871   0.86942    9.334
 4330.00    0.99382   0.87284    0.000
 4331.00    1.03088   0.86963    0.000
 4332.00    1.02471   0.85848    0.000
 4333.00    0.98347   0.83877    0.000
 4334.00    0.92179   0.81038    0.000
 4335.00    0.85647   0.77397    0.000
 4336.00    0.80758   0.73184    0.000
 4337.00    0.79289   0.68841    0.000
 4338.00    0.81567   0.64999    0.000
 4339.00    0.85813   0.62302    0.000
 4340.00    0.87635   0.61216    0.000
 4341.00    0.84014   0.61886    0.000
 4342.00    0.79151   0.64123    0.000
 4343.00    0.78727   0.67459    0.000
 4344.00    0.81404   0.71310    0.000
 4345.00    0.82954   0.75138    0.000
 4346.00    0.82286   0.78512    0.000
 4347.00    0.81083   0.81147    0.000
 4348.00    0.82405   0.82962    0.000
 4349.00    0.87252   0.84065    0.000
 4350.00    0.92275   0.84706    0.000
 4351.00    0.94484   0.85236    9.301
 4352.00    0.94604   0.86003    9.219
 4353.00    0.94805   0.87194    9.113
 4354.00    0.96816   0.88780    9.068
 4355.00    1.00583   0.90580    9.094
 4356.00    1.03990   0.92374    9.091
 4357.00    1.04905   0.93999    9.099
 4358.00    1.02416   0.95402    9.310
 4359.00    0.97638   0.96667    9.620
 4360.00    0.93533   0.97907    9.572
 4361.00    0.93081   0.99134    9.206
 4362.00    0.97686   1.00249    9.031
 4363.00    1.04481   1.01104    9.119
 4364.00    1.07725   1.01563    9.181
 4365.00    1.04632   1.01560    9.227
 4366.00    0.96949   1.01147    9.493
 4367.00    0.90682   1.00487    9.824
 4368.00    0.91767   0.99758    9.791
 4369.00    0.97998   0.99064    9.483
 4370.00    1.02493   0.98430    9.289
 4371.00    1.02294   0.97856    9.264
 4372.00    0.98853   0.97363    9.290
 4373.00    0.96320   0.97020    9.345
 4374.00    0.98006   0.96926    9.416
 4375.00    1.02436   0.97160    9.365
 4376.00    1.06271   0.97649    9.119
 4377.00    1.08068   0.98133    8.874
 4378.00    1.08161   0.98248    8.837
 4379.00    1.07923   0.97682    9.057
 4380.00    1.07635   0.96320    9.463
 4381.00    1.05168   0.94342    9.864
 4382.00    0.99089   0.92208   10.160
 4383.00    0.90921   0.90492   10.530
 4384.00    0.84760   0.89642   10.928
 4385.00    0.85713   0.89810   10.802
 4386.00    0.93412   0.90838   10.147
 4387.00    1.00539   0.92362    9.690
 4388.00    1.02028   0.93988    9.715
 4389.00    0.98681   0.95390    9.994
 4390.00    0.93972   0.96410   10.212
 4391.00    0.91716   0.97093   10.153
 4392.00    0.92912   0.97595    9.880
 4393.00    0.95432   0.98046    9.661
 4394.00    0.96389   0.98507    9.666
 4395.00    0.94150   0.98974    9.927
 4396.00    0.91427   0.99373   10.307
 4397.00    0.92604   0.99595   10.539
 4398.00    0.96391   0.99568   10.506
 4399.00    0.98022   0.99269   10.316
 4400.00    0.96415   0.98713   10.177
 4401.00    0.93713   0.97964   10.239
 4402.00    0.92239   0.97162   10.440
 4403.00    0.92792   0.96476   10.635
 4404.00    0.93185   0.96052   10.814
 4405.00    0.91124   0.96004   11.017
 4406.00    0.87829   0.96392   11.155
 4407.00    0.86494   0.97206   11.103
 4408.00    0.89884   0.98363   10.852
 4409.00    0.97188   0.99641   10.514
 4410.00    1.02268   1.00704   10.251
 4411.00    1.01463   1.01281   10.138
 4412.00    0.98898   1.01302   10.107
 4413.00    0.99065   1.00864   10.079
 4414.00    1.01767   1.00199   10.048
 4415.00    1.04224   0.99639   10.096
 4416.00    1.03313   0.99473   10.354
 4417.00    0.99522   0.99796   10.782
 4418.00    0.97468   1.00500   11.060
 4419.00    0.99418   1.01347   10.949
 4420.00    1.03114   1.02059   10.567
 4421.00    1.04756   1.02460   10.266
 4422.00    1.01528   1.02563   10.371
 4423.00    0.95694   1.02480   10.758
 4424.00    0.93055   1.02343   10.916
 4425.00    0.94965   1.02248   10.781
 4426.00    0.98024   1.02214   10.763
 4427.00    0.98957   1.02174   11.005
 4428.00    0.96907   1.02037   11.296
 4429.00    0.95426   1.01760   11.214
 4430.00    0.98501   1.01360   10.578
 4431.00    1.02999   1.00891    9.949
 4432.00    1.03364   1.00446    9.841
 4433.00    1.00787   1.00164   10.118
 4434.00    0.99704   1.00207   10.377
 4435.00    1.01200   1.00632   10.449
 4436.00    1.03619   1.01335   10.407
 4437.00    1.04474   1.02111   10.404
 4438.00    1.02690   1.02716   10.517
 4439.00    1.00311   1.02939   10.632
 4440.00    0.99297   1.02715   10.623
 4441.00    0.98878   1.02191   10.534
 4442.00    0.98262   1.01688   10.438
 4443.00    0.98471   1.01511   10.338
 4444.00    0.99829   1.01808   10.283
 4445.00    1.00711   1.02516   10.388
 4446.00    1.00436   1.03399   10.601
 4447.00    1.00410   1.04158   10.619
 4448.00    1.01420   1.04547   10.398
 4449.00    1.02590   1.04432   10.272
 4450.00    1.02795   1.03833   10.412
 4451.00    1.01456   1.02879   10.699
 4452.00    0.99104   1.01683   10.893
 4453.00    0.97085   1.00368   10.796
 4454.00    0.96099   0.99100   10.564
 4455.00    0.96188   0.98014   10.530
 4456.00    0.97952   0.97185   10.625
 4457.00    1.01661   0.96668   10.510
 4458.00    1.04571   0.96492   10.222
 4459.00    1.03177   0.96630   10.077
 4460.00    0.98808   0.97001   10.254
 4461.00    0.95660   0.97535    0.000
 4462.00    0.95489   0.98194    0.000
 4463.00    0.97583   0.98906    0.000
 4464.00    1.00191   0.99544    0.000
 4465.00    1.01751   1.00029    0.000
 4466.00    1.02130   1.00362    0.000
 4467.00    1.01943   1.00590    0.000
 4468.00    1.01612   1.00869    0.000
 4469.00    1.01601   1.01391    0.000
 4470.00    1.02622   1.02242    0.000
 4471.00    1.04835   1.03384    0.000
 4472.00    1.07273   1.04689    0.000
 4473.00    1.08884   1.05962    0.000
 4474.00    1.09334   1.06949    0.000
 4475.00    1.09130   1.07430    0.000
 4476.00    1.09222   1.07302    0.000
 4477.00    1.08691   1.06589    0.000
 4478.00    1.04773   1.05451    0.000
 4479.00    0.98790   1.04193    0.000
 4480.00    0.96619   1.03165    0.000
 4481.00    0.99405   1.02625    0.000
 4482.00    1.02371   1.02703   11.082
 4483.00    1.03880   1.03341   10.918
 4484.00    1.06357   1.04281   10.868
 4485.00    1.09451   1.05159   10.930
 4486.00    1.10076   1.05650   11.092
 4487.00    1.07839   1.05616   11.322
 4488.00    1.04918   1.05173   11.551
 4489.00    1.02644   1.04581   11.648
 4490.00    1.01108   1.04055   11.522
 4491.00    0.99953   1.03723   11.310
 4492.00    0.98890   1.03638   11.215
 4493.00    0.98273   1.03777   11.264
 4494.00    0.98498   1.04067   11.368
 4495.00    0.99098   1.04453   11.451
 4496.00    0.99789   1.04945   11.500
 4497.00    1.01733   1.05579   11.605
 4498.00    1.05328   1.06383   11.819
 4499.00    1.08031   1.07304   11.996
 4500.00    1.07860   1.08269   12.013
 4501.00    1.06486   1.09233   12.000
 4502.00    1.06086   1.10151   12.073
 4503.00    1.06756   1.10967   12.137
 4504.00    1.07701   1.11627   12.088
 4505.00    1.08236   1.12080   11.955
 4506.00    1.08039   1.12250   11.748
 4507.00    1.07253   1.12108   11.415
 4508.00    1.06379   1.11758   11.090
 4509.00    1.06115   1.11318   11.051
 4510.00    1.06954   1.10827   11.277
 4511.00    1.08848   1.10281   11.387
 4512.00    1.10677   1.09666   11.239
 4513.00    1.10608   1.08998   11.106
 4514.00    1.07917   1.08340   11.260
 4515.00    1.03576   1.07806   11.816
 4516.00    1.00086   1.07468   12.486
 4517.00    0.99904   1.07301   12.661
 4518.00    1.01843   1.07227   12.445
 4519.00    1.02375   1.07123   12.440
 4520.00    1.00235   1.06847   12.582
 4521.00    0.96842   1.06329   12.406
 4522.00    0.95126   1.05556   11.936
 4523.00    0.96974   1.04527   11.490
 4524.00    0.99800   1.03301   11.166
 4525.00    0.99865   1.02005   10.992
 4526.00    0.97379   1.00823   11.134
 4527.00    0.94854   0.99870   11.657
 4528.00    0.94222   0.99163   12.144
 4529.00    0.95482   0.98740   12.188
 4530.00    0.96046   0.98624   12.180
 4531.00    0.94586   0.98801   12.518
 4532.00    0.93913   0.99255   12.863
 4533.00    0.96066   0.99963   12.761
 4534.00    0.98931   1.00895   12.321
 4535.00    1.00248   1.02009   11.910
 4536.00    1.00167   1.03224   11.813
 4537.00    0.99582   1.04448   12.071
 4538.00    0.99053   1.05530   12.446
 4539.00    0.98767   1.06285   12.684
 4540.00    0.98632   1.06612   12.696
 4541.00    0.98699   1.06558   12.528
 4542.00    0.99246   1.06283   12.297
 4543.00    1.00450   1.05901   12.124
 4544.00    1.02203   1.05430   12.087
 4545.00    1.03955   1.04861   12.156
 4546.00    1.04936   1.04182   12.214
 4547.00    1.04875   1.03447   12.164
 4548.00    1.03972   1.02782   12.009
 4549.00    1.02354   1.02255   11.934
 4550.00    1.00081   1.01867    0.000
 4551.00    0.97426   1.01656    0.000
 4552.00    0.95093   1.01700    0.000
 4553.00    0.94432   1.02035    0.000
 4554.00    0.96101   1.02596    0.000
 4555.00    0.98178   1.03335    0.000
 4556.00    0.98770   1.04281    0.000
 4557.00    0.99536   1.05383    0.000
 4558.00    1.02549   1.06462    0.000
 4559.00    1.06480   1.07297    0.000
 4560.00    1.09140   1.07722    0.000
 4561.00    1.10274   1.07738    0.000
 4562.00    1.10551   1.07517    0.000
 4563.00    1.10476   1.07261    0.000
 4564.00    1.10271   1.07119    0.000
 4565.00    1.09955   1.07156    0.000
 4566.00    1.10054   1.07367    0.000
 4567.00    1.11610   1.07713    0.000
 4568.00    1.13790   1.08085    0.000
 4569.00    1.13634   1.08332    0.000
 4570.00    1.11022   1.08387    0.000
 4571.00    1.09647   1.08315    0.000
 4572.00    1.11221   1.08239    0.000
 4573.00    1.13911   1.08211    0.000
 4574.00    1.15424   1.08202    0.000
 4575.00    1.14429   1.08130    0.000
 4576.00    1.11353   1.07827    0.000
 4577.00    1.07853   1.07186    0.000
 4578.00    1.04889   1.06302    0.000
 4579.00    1.02540   1.05350    0.000
 4580.00    1.00784   1.04463    0.000
 4581.00    0.99820   1.03756    0.000
 4582.00    1.00296   1.03354    0.000
 4583.00    1.02396   1.03338    0.000
 4584.00    1.04377   1.03672    0.000
 4585.00    1.04355   1.04224    0.000
 4586.00    1.03103   1.04861    0.000
 4587.00    1.02247   1.05474    0.000
 4588.00    1.01616   1.05952    0.000
 4589.00    1.00473   1.06209    0.000
 4590.00    0.99092   1.06231    0.000
 4591.00    0.97770   1.06062    0.000
 4592.00    0.95989   1.05796    0.000
 4593.00    0.94427   1.05548    0.000
 4594.00    0.96039   1.05414    0.000
 4595.00    1.01566   1.05419    0.000
 4596.00    1.07155   1.05518    0.000
 4597.00    1.09706   1.05647    0.000
 4598.00    1.09728   1.05775    0.000
 4599.00    1.08509   1.05901    0.000
 4600.00    1.06714   1.06021    0.000
 4601.00    1.05217   1.06163    0.000
 4602.00    1.05118   1.06382    0.000
 4603.00    1.06269   1.06765    0.000
 4604.00    1.07256   1.07363    0.000
 4605.00    1.07296   1.08110    0.000
 4606.00    1.06655   1.08908    0.000
 4607.00    1.05961   1.09681    0.000
 4608.00    1.05762   1.10345    0.000
 4609.00    1.05988   1.10825    0.000
 4610.00    1.06333   1.11061    0.000
 4611.00    1.07295   1.11028    0.000
 4612.00    1.09280   1.10794    0.000
 4613.00    1.10638   1.10477    0.000
 4614.00    1.09466   1.10173    0.000
 4615.00    1.06912   1.09945    0.000
 4616.00    1.05221   1.09816    0.000
 4617.00    1.04433   1.09766    0.000
 4618.00    1.03870   1.09775    0.000
 4619.00    1.04269   1.09875    0.000
 4620.00    1.05844   1.10048    0.000
 4621.00    1.06371   1.10244    0.000
 4622.00    1.04534   1.10454    0.000
 4623.00    1.02664   1.10607    0.000
 4624.00    1.03130   1.10579    0.000
 4625.00    1.05575   1.10401    0.000
 4626.00    1.08476   1.10180    0.000
 4627.00    1.10473   1.09948    0.000
 4628.00    1.11119   1.09721    0.000
 4629.00    1.11003   1.09521    0.000
 4630.00    1.10351   1.09311    0.000
 4631.00    1.08753   1.09049    0.000
 4632.00    1.07088   1.08753    0.000
 4633.00    1.07398   1.08408    0.000
 4634.00    1.09331   1.07955    0.000
 4635.00    1.10227   1.07445    0.000
 4636.00    1.09606   1.07049    0.000
 4637.00    1.09311   1.06846    0.000
 4638.00    1.09883   1.06778    0.000
 4639.00    1.10340   1.06769    0.000
 4640.00    1.10094   1.06762    0.000
 4641.00    1.09113   1.06666    0.000
 4642.00    1.07297   1.06394    0.000
 4643.00    1.04742   1.05940    0.000
 4644.00    1.02381   1.05341    0.000
 4645.00    1.01253   1.04703    0.000
 4646.00    1.01233   1.04212    0.000
 4647.00    1.01438   1.04021    0.000
 4648.00    1.01044   1.04176    0.000
 4649.00    0.99861   1.04633    0.000
 4650.00    0.98766   1.05256    0.000
 4651.00    0.98612   1.05854    0.000
 4652.00    0.99138   1.06300    0.000
 4653.00    0.99414   1.06601    0.000
 4654.00    0.98539   1.06875    0.000
 4655.00    0.97360   1.07231    0.000
 4656.00    0.98984   1.07694    0.000
 4657.00    1.03994   1.08256    0.000
 4658.00    1.08388   1.08830    0.000
 4659.00    1.09571   1.09247    0.000
 4660.00    1.08968   1.09318    0.000
 4661.00    1.08017   1.08845    0.000
 4662.00    1.06575   1.07759    0.000
 4663.00    1.04678   1.06233    0.000
 4664.00    1.02951   1.04585    0.000
 4665.00    1.01390   1.03120    0.000
 4666.00    0.99533   1.02065    0.000
 4667.00    0.98314   1.01512    0.000
 4668.00    0.99483   1.01458    0.000
 4669.00    1.02650   1.01928    0.000
 4670.00    1.05684   1.02904    0.000
 4671.00    1.07382   1.04171    0.000
 4672.00    1.07822   1.05405    0.000
 4673.00    1.07796   1.06374    0.000
 4674.00    1.08057   1.06981    0.000
 4675.00    1.08303   1.07250    0.000
 4676.00    1.07761   1.07261    0.000
 4677.00    1.06293   1.07084    0.000
 4678.00    1.04375   1.06792    0.000
 4679.00    1.02834   1.06452    0.000
 4680.00    1.02351   1.06165    0.000
 4681.00    1.02968   1.06069    0.000
 4682.00    1.04362   1.06195    0.000
 4683.00    1.06151   1.06459    0.000
 4684.00    1.07992   1.06772    0.000
 4685.00    1.09606   1.07051    0.000
 4686.00    1.10589   1.07194    0.000
 4687.00    1.10356   1.07186    0.000
 4688.00    1.08618   1.07116    0.000
 4689.00    1.05761   1.07058    0.000
 4690.00    1.03188   1.07067    0.000
 4691.00    1.02908   1.07181    0.000
 4692.00    1.04892   1.07346    0.000
 4693.00    1.06717   1.07467    0.000
 4694.00    1.06940   1.07489    0.000
 4695.00    1.06004   1.07364    0.000
 4696.00    1.04666   1.07036    0.000
 4697.00    1.03378   1.06488    0.000
 4698.00    1.02154   1.05745    0.000
 4699.00    1.00946   1.04910    0.000
 4700.00    1.00612   1.04168    0.000
 4701.00    1.02090   1.03675    0.000
 4702.00    1.04142   1.03419    0.000
 4703.00    1.04713   1.03281    0.000
 4704.00    1.04275   1.03215    0.000
 4705.00    1.04635   1.03274    0.000
 4706.00    1.06040   1.03513    0.000
 4707.00    1.07412   1.03850    0.000
 4708.00    1.07418   1.04166    0.000
 4709.00    1.05468   1.04466    0.000
 4710.00    1.02643   1.04823    0.000
 4711.00    1.00527   1.05284    0.000
 4712.00    0.99865   1.05846    0.000
 4713.00    1.00535   1.06442    0.000
 4714.00    1.01703   1.07015    0.000
 4715.00    1.02379   1.07615    0.000
 4716.00    1.01977   1.08316    0.000
 4717.00    1.01242   1.09125    0.000
 4718.00    1.02293   1.09934    0.000
 4719.00    1.05279   1.10577    0.000
 4720.00    1.07265   1.10996    0.000
 4721.00    1.06610   1.11199    0.000
 4722.00    1.04654   1.11119    0.000
 4723.00    1.03081   1.10689    0.000
 4724.00    1.02534   1.09962    0.000
 4725.00    1.02089   1.09059    0.000
 4726.00    1.00055   1.08053    0.000
 4727.00    0.97085   1.06998    0.000
 4728.00    0.95822   1.06019    0.000
 4729.00    0.97122   1.05288    0.000
 4730.00    0.99745   1.04972    0.000
 4731.00    1.02210   1.05071    0.000
 4732.00    1.03437   1.05393    0.000
 4733.00    1.03067   1.05824    0.000
 4734.00    1.01448   1.06356    0.000
 4735.00    0.99454   1.06875    0.000
 4736.00    0.98287   1.07283    0.000
 4737.00    0.99150   1.07610    0.000
 4738.00    1.02212   1.07896    0.000
 4739.00    1.05467   1.08232    0.000
 4740.00    1.06980   1.08635    0.000
 4741.00    1.07442   1.08966    0.000
 4742.00    1.07980   1.09213    0.000
 4743.00    1.07881   1.09474    0.000
 4744.00    1.06563   1.09763    0.000
 4745.00    1.05245   1.10026    0.000
 4746.00    1.05215   1.10202    0.000
 4747.00    1.06519   1.10271    0.000
 4748.00    1.08640   1.10240    0.000
 4749.00    1.10945   1.10052    0.000
 4750.00    1.12343   1.09680    0.000
 4751.00    1.11451   1.09208    0.000
 4752.00    1.08340   1.08702    0.000
 4753.00    1.04848   1.08193    0.000
 4754.00    1.02324   1.07757    0.000
 4755.00    1.00971   1.07475    0.000
 4756.00    1.00967   1.07324    0.000
 4757.00    1.02485   1.07188    0.000
 4758.00    1.04496   1.06960    0.000
 4759.00    1.05304   1.06604    0.000
 4760.00    1.04884   1.06092    0.000
 4761.00    1.04493   1.05417   14.963
 4762.00    1.04342   1.04662   15.536
 4763.00    1.03995   1.03971   15.840
 4764.00    1.04169   1.03534   15.772
 4765.00    1.05930   1.03504   15.524
 4766.00    1.08744   1.03819   15.219
 4767.00    1.11110   1.04318   14.933
 4768.00    1.11983   1.04962   14.827
 4769.00    1.11086   1.05738   14.961
 4770.00    1.09000   1.06540   15.072
 4771.00    1.06892   1.07251   14.928
 4772.00    1.06065   1.07822   14.747
 4773.00    1.06712   1.08296   14.747
 4774.00    1.07053   1.08756   14.766
 4775.00    1.06002   1.09178   14.668
 4776.00    1.05103   1.09449   14.656
 4777.00    1.05889   1.09485   14.844
 4778.00    1.07953   1.09286   14.998
 4779.00    1.09558   1.08937   14.966
 4780.00    1.08548   1.08483   14.921
 4781.00    1.04805   1.07947   14.968
 4782.00    1.00993   1.07387   14.983
 4783.00    0.99961   1.06897   14.838
 4784.00    1.03041   1.06480   14.543
 4785.00    1.08332   1.06147   14.278
 4786.00    1.11617   1.06021   14.276
 4787.00    1.11635   1.06087   14.505
 4788.00    1.10507   1.06282   14.694
 4789.00    1.09560   1.06740   14.769
 4790.00    1.08705   1.07453   14.866
 4791.00    1.08076   1.08236   14.930
 4792.00    1.08072   1.09014   14.791
 4793.00    1.08517   1.09689   14.586
 4794.00    1.08913   1.10117   14.553
 4795.00    1.09259   1.10264   14.560
 4796.00    1.09642   1.10156   14.387
 4797.00    1.09374   1.09854   14.277
 4798.00    1.07832   1.09480   14.548
 4799.00    1.05795   1.09141   15.004
 4800.00    1.04741   1.08854   15.225
 4801.00    1.05685   1.08632   15.154
 4802.00    1.08177   1.08513   14.946
 4803.00    1.09694   1.08415   14.671
 4804.00    1.08563   1.08221   14.435
 4805.00    1.06367   1.07927   14.473
 4806.00    1.05008   1.07614   14.842
 4807.00    1.04412   1.07408   15.197
 4808.00    1.04124   1.07394   15.219
 4809.00    1.04394   1.07509   14.996
 4810.00    1.05462   1.07729   14.762
 4811.00    1.07012   1.08071   14.682
 4812.00    1.07868   1.08477   14.812
 4813.00    1.06515   1.08895   15.087
 4814.00    1.04017   1.09320   15.296
 4815.00    1.03869   1.09739   15.165
 4816.00    1.06631   1.10083   14.737
 4817.00    1.09322   1.10266   14.346
 4818.00    1.10217   1.10198   14.157
 4819.00    1.09803   1.09787   14.142
 4820.00    1.08868   1.09118   14.251
 4821.00    1.07928   1.08391   14.438
 4822.00    1.07236   1.07677   14.635
 4823.00    1.06681   1.07011   14.796
 4824.00    1.05616   1.06435   15.001
 4825.00    1.03552   1.06024   15.308
 4826.00    1.01408   1.05914   15.424
 4827.00    1.00522   1.05983   15.092
 4828.00    1.00814   1.05953   14.791
 4829.00    1.01532   1.05800   15.024
 4830.00    1.02591   1.05640   15.503
 4831.00    1.04163   1.05521   15.648
 4832.00    1.05993   1.05420   15.459
 4833.00    1.07556   1.05294   15.246
 4834.00    1.08312   1.05143   15.167
 4835.00    1.07966   1.04961   15.213
 4836.00    1.06644   1.04670   15.251
 4837.00    1.04635   1.04247   15.221
 4838.00    1.02261   1.03752   15.257
 4839.00    1.00353   1.03229   15.458
 4840.00    1.00217   1.02717   15.744
 4841.00    1.01616   1.02295   15.917
 4842.00    1.02297   1.02006   15.785
 4843.00    1.01285   1.01749   15.503
 4844.00    0.99840   1.01351   15.526
 4845.00    0.98471   1.00818   15.972
 4846.00    0.96353   1.00276   16.488
 4847.00    0.93888   0.99646   16.728
 4848.00    0.92854   0.98779    0.000
 4849.00    0.93892   0.97677    0.000
 4850.00    0.96150   0.96364    0.000
 4851.00    0.98511   0.94849    0.000
 4852.00    0.99989   0.93119    0.000
 4853.00    0.99862   0.91106    0.000
 4854.00    0.97953   0.88773    0.000
 4855.00    0.95106   0.86089    0.000
 4856.00    0.92989   0.83022    0.000
 4857.00    0.93523   0.79810    0.000
 4858.00    0.97561   0.76967    0.000
 4859.00    1.03212   0.74780    0.000
 4860.00    1.07601   0.73260    0.000
 4861.00    1.09429   0.72566    0.000
 4862.00    1.08764   0.72941    0.000
 4863.00    1.06378   0.74482    0.000
 4864.00    1.03173   0.76989    0.000
 4865.00    0.99694   0.79870    0.000
 4866.00    0.96242   0.82489    0.000
 4867.00    0.93037   0.84609    0.000
 4868.00    0.90497   0.86275    0.000
 4869.00    0.89323   0.87620    0.000
 4870.00    0.89848   0.88760    0.000
 4871.00    0.91717   0.89765    0.000
 4872.00    0.94442   0.90725    0.000
 4873.00    0.97583   0.91844    0.000
 4874.00    1.00096   0.93303    0.000
 4875.00    1.00547   0.94997   17.023
 4876.00    0.99134   0.96603   17.582
 4877.00    0.97797   0.97923   17.785
 4878.00    0.97718   0.98981   17.582
 4879.00    0.98665   0.99812   17.208
 4880.00    0.99717   1.00356   16.926
 4881.00    0.99870   1.00553   16.875
 4882.00    0.98987   1.00368   16.908
 4883.00    0.97820   0.99960   16.763
 4884.00    0.97487   0.99593   16.536
 4885.00    0.98714   0.99285   16.501
 4886.00    1.00664   0.98915   16.652
 4887.00    1.01759   0.98559   16.828
 4888.00    1.01397   0.98521   17.048
 4889.00    1.00254   0.98985   17.337
 4890.00    1.00169   0.99858   17.377
 4891.00    1.02397   1.01013   16.925
 4892.00    1.05604   1.02402   16.359
 4893.00    1.07662   1.04041   16.131
 4894.00    1.07840   1.05823   16.337
 4895.00    1.06946   1.07313   16.724
 4896.00    1.06993   1.08206   16.689
 4897.00    1.08971   1.08597   16.089
 4898.00    1.11387   1.08618   15.672
 4899.00    1.12599   1.08351   15.864
 4900.00    1.12374   1.07935   16.316
 4901.00    1.10938   1.07577   16.614
 4902.00    1.08459   1.07463   16.732
 4903.00    1.05626   1.07531   16.784
 4904.00    1.03706   1.07539   16.834
 4905.00    1.03369   1.07405   16.894
 4906.00    1.04329   1.07195   16.924
 4907.00    1.06056   1.06925   16.802
 4908.00    1.07950   1.06572   16.427
 4909.00    1.08987   1.06171   16.022
 4910.00    1.08159   1.05848   15.961
 4911.00    1.05978   1.05711   16.233
 4912.00    1.04063   1.05766   16.521
 4913.00    1.03082   1.05860   16.683
 4914.00    1.02682   1.05680   16.777
 4915.00    1.02459   1.04993   16.748
 4916.00    1.02188   1.03862   16.557
 4917.00    1.01852   1.02516   16.496
 4918.00    1.01463   1.01170   16.828
 4919.00    1.00791   0.99969   17.188
 4920.00    0.99612   0.99084   17.053
 4921.00    0.98097   0.98818   16.685
 4922.00    0.96892   0.99391   16.523
 4923.00    0.97078   1.00668   16.440
 4924.00    0.99264   1.02244   16.255
 4925.00    1.02708   1.03821   16.213
 4926.00    1.05719   1.05360   16.279
 4927.00    1.06308   1.06824   15.694
 4928.00    1.03901   1.07952   14.451
 4929.00    1.00317   1.08455   13.669
 4930.00    0.97601   1.08370   13.748
 4931.00    0.96646   1.07954   14.130
 4932.00    0.97855   1.07328   14.427
 4933.00    1.01298   1.06491   14.989
 4934.00    1.05351   1.05462   15.952
 4935.00    1.06926   1.04489   16.701
 4936.00    1.05306   1.03984   16.825
 4937.00    1.02783   1.04018   16.696
 4938.00    1.00895   1.04303   16.627
 4939.00    0.99586   1.04751   16.622
 4940.00    0.99045   1.05512    0.000
 4941.00    0.99856   1.06595    0.000
 4942.00    1.01782   1.07758    0.000
 4943.00    1.03791   1.08739    0.000
 4944.00    1.04952   1.09483    0.000
 4945.00    1.04939   1.10050    0.000
 4946.00    1.04568   1.10435    0.000
 4947.00    1.04966   1.10657    0.000
 4948.00    1.05980   1.10794    0.000
 4949.00    1.06707   1.10803    0.000
 4950.00    1.06697   1.10579    0.000
 4951.00    1.05932   1.10105    0.000
 4952.00    1.04576   1.09354    0.000
 4953.00    1.03077   1.08213    0.000
 4954.00    1.02240   1.06819    0.000
 4955.00    1.02373   1.05662    0.000
 4956.00    1.02610   1.05004    0.000
 4957.00    1.02462   1.04673    0.000
 4958.00    1.02955   1.04547    0.000
 4959.00    1.04788   1.04829    0.000
 4960.00    1.07051   1.05659    0.000
 4961.00    1.08178   1.06576    0.000
 4962.00    1.06820   1.07037    0.000
 4963.00    1.02963   1.07070    0.000
 4964.00    0.98294   1.06920    0.000
 4965.00    0.95118   1.06682    0.000
 4966.00    0.95339   1.06374    0.000
 4967.00    0.98581   1.06140    0.000
 4968.00    1.02247   1.06187    0.000
 4969.00    1.04367   1.06512    0.000
 4970.00    1.04549   1.06978    0.000
 4971.00    1.03648   1.07499    0.000
 4972.00    1.03056   1.07971    0.000
 4973.00    1.03199   1.08283    0.000
 4974.00    1.03660   1.08294    0.000
 4975.00    1.04344   1.07920    0.000
 4976.00    1.05434   1.07211    0.000
 4977.00    1.06772   1.06186    0.000
 4978.00    1.07727   1.04832    0.000
 4979.00    1.07238   1.03263    0.000
 4980.00    1.04932   1.01773    0.000
 4981.00    1.02598   1.00642    0.000
 4982.00    1.02229   0.99929    0.000
 4983.00    1.03430   0.99638    0.000
 4984.00    1.04577   0.99854    0.000
 4985.00    1.04462   1.00560    0.000
 4986.00    1.02864   1.01536    0.000
 4987.00    1.00794   1.02525    0.000
 4988.00    0.99445   1.03416    0.000
 4989.00    0.99301   1.04128    0.000
 4990.00    1.00113   1.04538    0.000
 4991.00    1.01069   1.04730    0.000
 4992.00    1.01655   1.04885    0.000
 4993.00    1.02080   1.05029    0.000
 4994.00    1.02735   1.05074    0.000
 4995.00    1.03782   1.04904    0.000
 4996.00    1.04718   1.04523    0.000
 4997.00    1.04521   1.03983    0.000
 4998.00    1.02942   1.03267    0.000
 4999.00    1.00755   1.02435    0.000
 5000.00    0.98845   1.01576    0.000
 5001.00    0.97939   1.00716    0.000
 5002.00    0.98749   0.99921    0.000
 5003.00    1.01644   0.99344    0.000
 5004.00    1.05803   0.99130    0.000
 5005.00    1.09585   0.99203    0.000
 5006.00    1.11799   0.99311    0.000
 5007.00    1.11911   0.99376    0.000
 5008.00    1.09912   0.99479    0.000
 5009.00    1.06174   0.99547    0.000
 5010.00    1.01299   0.99373    0.000
 5011.00    0.96439   0.98902    0.000
 5012.00    0.93649   0.98325    0.000
 5013.00    0.94252   0.97743    0.000
 5014.00    0.96975   0.97155    0.000
 5015.00    0.99531   0.96736    0.000
 5016.00    1.00500   0.96710    0.000
 5017.00    0.99492   0.97017    0.000
 5018.00    0.97086   0.97365    0.000
 5019.00    0.94457   0.97689    0.000
 5020.00    0.92951   0.98252    0.000
 5021.00    0.93181   0.99088    0.000
 5022.00    0.94583   0.99896    0.000
 5023.00    0.96378   1.00489    0.000
 5024.00    0.98140   1.00971    0.000
 5025.00    0.99725   1.01558    0.000
 5026.00    1.01133   1.02209    0.000
 5027.00    1.02135   1.02738    0.000
 5028.00    1.02347   1.03163    0.000
 5029.00    1.02088   1.03659   18.189
 5030.00    1.02263   1.04243   18.012
 5031.00    1.02984   1.04610   18.039
 5032.00    1.03477   1.04505   18.082
 5033.00    1.03087   1.04077   18.166
 5034.00    1.01736   1.03509   18.465
 5035.00    1.00262   1.02642   18.843
 5036.00    0.99748   1.01355   18.922
 5037.00    1.00028   0.99908   18.611
 5038.00    1.00182   0.98792   18.177
 5039.00    0.99936   0.98297   18.049
 5040.00    0.99514   0.98286   18.497
 5041.00    0.99043   0.98608   19.232
 5042.00    0.98650   0.99361   19.659
 5043.00    0.98668   1.00571   19.552
 5044.00    0.98999   1.01890   19.127
 5045.00    0.98488   1.02824   18.780
 5046.00    0.96334   1.03266   18.770
 5047.00    0.93456   1.03377   19.027
 5048.00    0.91632   1.03199   19.218
 5049.00    0.92420   1.02828   18.880
 5050.00    0.95427   1.02586   18.191
 5051.00    0.97708   1.02693   18.077
 5052.00    0.97856   1.03093   18.771
 5053.00    0.97974   1.03672   19.224
 5054.00    0.99718   1.04444   18.819
 5055.00    1.02321   1.05336   18.328
 5056.00    1.04151   1.06123   17.953
 5057.00    1.03938   1.06705   17.010
 5058.00    1.02389   1.07132   15.663
 5059.00    1.01837   1.07371   14.756
 5060.00    1.02693   1.07259   14.555
 5061.00    1.03124   1.06730   14.834
 5062.00    1.01954   1.06003   15.035
 5063.00    0.99423   1.05280   14.678
 5064.00    0.96722   1.04471   14.539
 5065.00    0.95290   1.03561   15.858
 5066.00    0.95565   1.02850   18.260
 5067.00    0.96938   1.02558   19.109
 5068.00    0.98278   1.02439   18.090
 5069.00    0.98562   1.02260   17.389
 5070.00    0.97730   1.02191   17.438
 5071.00    0.96447   1.02266   17.694
 5072.00    0.95505   1.02206   17.813
 5073.00    0.95428   1.01946   17.731
 5074.00    0.96108   1.01679   17.565
 5075.00    0.97005   1.01325   17.485
 5076.00    0.97480   1.00636   17.588
 5077.00    0.97308   0.99834   17.801
 5078.00    0.97029   0.99273   17.829
 5079.00    0.97012   0.98879   17.626
 5080.00    0.96811   0.98488   17.665
 5081.00    0.96306   0.98379   18.157
 5082.00    0.96310   0.98838   18.588
 5083.00    0.97079   0.99632   18.572
 5084.00    0.97685   1.00421   18.426
 5085.00    0.97749   1.01226   18.392
 5086.00    0.98127   1.02136   18.317
 5087.00    0.99694   1.02980   18.151
 5088.00    1.02629   1.03620   18.081
 5089.00    1.05954   1.04152   18.133
 5090.00    1.07886   1.04620   18.141
 5091.00    1.07632   1.04873   18.136
 5092.00    1.05771   1.04810   18.338
 5093.00    1.03573   1.04488   18.728
 5094.00    1.02187   1.03945   19.054
 5095.00    1.01208   1.03142   19.253
 5096.00    0.99447   1.02187   19.464
 5097.00    0.97332   1.01389   19.731
 5098.00    0.96417   1.00892   19.996
 5099.00    0.97477   1.00615   20.242
 5100.00    1.00022   1.00510   20.471
 5101.00    1.02197   1.00651   20.628
 5102.00    1.02261   1.00973   20.646
 5103.00    1.00598   1.01200   20.539
 5104.00    0.98802   1.01154   20.343
 5105.00    0.98172   1.00977   20.041
 5106.00    0.98926   1.00810   19.681
 5107.00    0.99732   1.00651   19.465
 5108.00    0.99398   1.00606   19.524
 5109.00    0.98339   1.00802   19.755
 5110.00    0.97668   1.01219   19.986
 5111.00    0.98276   1.01788   20.113
 5112.00    1.00161   1.02473   20.015
 5113.00    1.02218   1.03239   19.576
 5114.00    1.03500   1.03961   19.071
 5115.00    1.03903   1.04485   19.088
 5116.00    1.03818   1.04720   19.532
 5117.00    1.03753   1.04653   19.462
 5118.00    1.03574   1.04312   18.867
 5119.00    1.02531   1.03675   18.835
 5120.00    1.00571   1.02700   19.485
 5121.00    0.98477   1.01546   19.785
 5122.00    0.96713   1.00463   19.434
 5123.00    0.95283   0.99533   19.162
 5124.00    0.94399   0.98737   19.235
 5125.00    0.94470   0.98143   19.340
 5126.00    0.95595   0.97875   19.131
 5127.00    0.97255   0.97945   18.563
 5128.00    0.97991   0.98249   18.160
 5129.00    0.96812   0.98640   18.393
 5130.00    0.95668   0.99060   18.808
 5131.00    0.97180   0.99569   18.628
 5132.00    1.00587   1.00147   18.149
 5133.00    1.03293   1.00528   18.010
 5134.00    1.03797   1.00574   18.093
 5135.00    1.02260   1.00415   18.002
 5136.00    1.00534   1.00153   17.694
 5137.00    1.00048   0.99868   17.379
 5138.00    0.99911   0.99485   17.309
 5139.00    0.98922   0.98933   17.530
 5140.00    0.97353   0.98498   17.745
 5141.00    0.95937   0.98423   17.770
 5142.00    0.95015   0.98443   17.863
 5143.00    0.94623   0.98263   18.205
 5144.00    0.94643   0.98073   18.585
 5145.00    0.95138   0.98113   18.763
 5146.00    0.96399   0.98231   18.715
 5147.00    0.98263   0.98168   18.570
 5148.00    0.99991   0.98004   18.494
 5149.00    1.01148   0.97969   18.504
 5150.00    1.01727   0.98053   18.485
 5151.00    1.01293   0.98152   18.497
 5152.00    0.99274   0.98357   18.759
 5153.00    0.96787   0.98794   19.247
 5154.00    0.96039   0.99427   19.688
 5155.00    0.97297   1.00124   19.970
 5156.00    0.99036   1.00815   20.182
 5157.00    1.00207   1.01458   20.317
 5158.00    1.00614   1.01827   20.295
 5159.00    1.00598   1.01669   20.187
 5160.00    1.00493   1.01018   20.093
 5161.00    0.99880   0.99938   19.893
 5162.00    0.98176   0.98301   19.515
 5163.00    0.95664   0.96053   19.303
 5164.00    0.93010   0.93440   19.584
 5165.00    0.90468   0.90886   20.159
 5166.00    0.88051   0.88708   20.600
 5167.00    0.85822   0.86966   20.730
 5168.00    0.83917   0.85504   20.671
 5169.00    0.82539   0.84464   20.708
 5170.00    0.81972   0.84428   20.870
 5171.00    0.82573   0.85506   20.687
 5172.00    0.84570   0.86989   20.023
 5173.00    0.87867   0.88403   19.460
 5174.00    0.91761   0.90094   19.262
 5175.00    0.94925   0.92171   19.080
 5176.00    0.96261   0.93951   18.827
 5177.00    0.95499   0.94877   18.888
 5178.00    0.93801   0.95045   19.204
 5179.00    0.93286   0.94565   19.106
 5180.00    0.94172   0.93409   18.516
 5181.00    0.94571   0.92088   18.094
 5182.00    0.93734   0.91279   18.128
 5183.00    0.92670   0.90966   18.413
 5184.00    0.92589   0.90921   18.533
 5185.00    0.94155   0.91363   18.163
 5186.00    0.96845   0.92622   17.640
 5187.00    0.99265   0.94232   17.547
 5188.00    1.00185   0.95291   17.853
 5189.00    0.99282   0.95712   18.134
 5190.00    0.97992   0.96116    0.000
 5191.00    0.98128   0.96576    0.000
 5192.00    0.99446   0.96650    0.000
 5193.00    1.00655   0.96541    0.000
 5194.00    1.01396   0.96815    0.000
 5195.00    1.02210   0.97455    0.000
 5196.00    1.04065   0.98113    0.000
 5197.00    1.07150   0.98671    0.000
 5198.00    1.09845   0.99141    0.000
 5199.00    1.10469   0.99419    0.000
 5200.00    1.08920   0.99393    0.000
 5201.00    1.06113   0.98895    0.000
 5202.00    1.03317   0.97930    0.000
 5203.00    1.01385   0.96839    0.000
 5204.00    1.00325   0.95859    0.000
 5205.00    0.99726   0.94900    0.000
 5206.00    0.99115   0.94167    0.000
 5207.00    0.98398   0.94062    0.000
 5208.00    0.97996   0.94575    0.000
 5209.00    0.98498   0.95426    0.000
 5210.00    1.00233   0.96510    0.000
 5211.00    1.02344   0.97748   18.507
 5212.00    1.03146   0.98871   18.630
 5213.00    1.02406   0.99782   18.863
 5214.00    1.01518   1.00567   19.228
 5215.00    1.01817   1.01234   19.564
 5216.00    1.03794   1.01714   19.631
 5217.00    1.06440   1.02068   19.505
 5218.00    1.08075   1.02414   19.472
 5219.00    1.08374   1.02639   19.617
 5220.00    1.08001   1.02515   19.840
 5221.00    1.07217   1.01975   20.029
 5222.00    1.05954   1.01075   20.141
 5223.00    1.04347   0.99850   20.275
 5224.00    1.02759   0.98543   20.507
 5225.00    1.01667   0.97606   20.669
 5226.00    1.01287   0.97109   20.614
 5227.00    1.01201   0.96893   20.573
 5228.00    1.00998   0.97084   20.734
 5229.00    1.00870   0.97728   20.847
 5230.00    1.00861   0.98500   20.703
 5231.00    1.00283   0.99175   20.556
 5232.00    0.98791   0.99818   20.621
 5233.00    0.97101   1.00470   20.745
 5234.00    0.95984   1.01104   20.729
 5235.00    0.95622   1.01796   20.556
 5236.00    0.95956   1.02591   20.327
 5237.00    0.96931   1.03447   20.160
 5238.00    0.98587   1.04258   19.954
 5239.00    1.00999   1.04846   19.450
 5240.00    1.03864   1.05177   18.803
 5241.00    1.06429   1.05403   18.498
 5242.00    1.07928   1.05498   18.592
 5243.00    1.07874   1.05192   18.730
 5244.00    1.06462   1.04545   18.766
 5245.00    1.04448   1.03969   18.827
 5246.00    1.02476   1.03452   18.926
 5247.00    1.00820   1.02676   18.966
 5248.00    0.99227   1.01866   19.020
 5249.00    0.97380   1.01503   19.213
 5250.00    0.95844   1.01485   19.345
 5251.00    0.95511   1.01451   19.156
 5252.00    0.96355   1.01513   18.929
 5253.00    0.97776   1.01974   19.035
 5254.00    0.99446   1.02654   19.214
 5255.00    1.01283   1.03149   19.096
 5256.00    1.03232   1.03368   18.997
 5257.00    1.04887   1.03396   19.249
 5258.00    1.05195   1.03069   19.446
 5259.00    1.03528   1.02139   19.254
 5260.00    1.00617   1.00685   19.222
 5261.00    0.97437   0.98898   19.694
 5262.00    0.94279   0.96853   19.996
 5263.00    0.91482   0.94784   19.697
 5264.00    0.89881   0.93156   19.520
 5265.00    0.89973   0.91974   19.868
 5266.00    0.91422   0.90891   20.171
 5267.00    0.93401   0.90185   20.076
 5268.00    0.94918   0.90399   20.029
 5269.00    0.95391   0.91175   20.316
 5270.00    0.94909   0.91884   20.723
 5271.00    0.94190   0.92783   20.994
 5272.00    0.94274   0.94215   21.052
 5273.00    0.95552   0.95852   20.969
 5274.00    0.97610   0.97387   20.886
 5275.00    0.99763   0.98784   20.834
 5276.00    1.01354   0.99932   20.752
 5277.00    1.02076   1.00808   20.663
 5278.00    1.02017   1.01557   20.630
 5279.00    1.01546   1.02091   20.578
 5280.00    1.01085   1.02258   -2.000
 5281.00    1.00734   1.02270   -2.000
 5282.00    1.00480   1.02558   -2.000
 5283.00    1.00653   1.03186   -2.000
 5284.00    1.01648   1.03905   -2.000
 5285.00    1.03437   1.04675   -2.000
 5286.00    1.05632   1.05675   -2.000
 5287.00    1.07651   1.06769   -2.000
 5288.00    1.08696   1.07566   -2.000
 5289.00    1.07826   1.07909   -2.000
 5290.00    1.05196   1.07918   -2.000
 5291.00    1.02920   1.07696   -2.000
 5292.00    1.02780   1.07188   -2.000
 5293.00    1.04445   1.06303   -2.000
 5294.00    1.06456   1.05112   18.649
 5295.00    1.07228   1.03943   18.461
 5296.00    1.06308   1.03096   18.608
 5297.00    1.04776   1.02511   18.883
 5298.00    1.03563   1.02050   19.119
 5299.00    1.02754   1.01946   19.336
 5300.00    1.02500   1.02462   19.530
 5301.00    1.03264   1.03365   19.595
 5302.00    1.05101   1.04251   19.445
 5303.00    1.07388   1.05074   19.125
 5304.00    1.08900   1.05935   18.939
 5305.00    1.08442   1.06774   19.244
 5306.00    1.06492   1.07437   19.832
 5307.00    1.04838   1.07852   20.060
 5308.00    1.04555   1.08064   19.919
 5309.00    1.05591   1.08148   19.929
 5310.00    1.07055   1.08102   20.168
 5311.00    1.07789   1.07909   20.354
 5312.00    1.07313   1.07560   20.371
 5313.00    1.05804   1.07041   20.331
 5314.00    1.03789   1.06472   20.456
 5315.00    1.01954   1.06048   20.864
 5316.00    1.00925   1.05692   21.292
 5317.00    1.00916   1.05238   21.392
 5318.00    1.01400   1.04813   21.215
 5319.00    1.01713   1.04513   20.985
 5320.00    1.01677   1.04032   20.786
 5321.00    1.01351   1.03143   20.709
 5322.00    1.00765   1.02126   20.972
 5323.00    0.99972   1.01177   21.559
 5324.00    0.99093   0.99998   21.965
 5325.00    0.98227   0.98536   21.878
 5326.00    0.97390   0.97508   21.667
 5327.00    0.96505   0.97295   21.680
 5328.00    0.95468   0.97417   21.891
 5329.00    0.94430   0.97635   22.135
 5330.00    0.93948   0.98422   22.239
 5331.00    0.94993   0.99849   22.091
 5332.00    0.98426   1.01256   21.693
 5333.00    1.03159   1.02190   21.174
 5334.00    1.06476   1.02814   20.732
 5335.00    1.07153   1.03345   20.521
 5336.00    1.05984   1.03575   20.585
 5337.00    1.04405   1.03316   20.703
 5338.00    1.03598   1.02908   20.567
 5339.00    1.03365   1.02757   20.314
 5340.00    1.02815   1.02729   20.271
 5341.00    1.02238   1.02632   20.273
 5342.00    1.02461   1.02642   19.967
 5343.00    1.03104   1.02901   19.553
 5344.00    1.03213   1.03247   19.436
 5345.00    1.02663   1.03477   19.637
 5346.00    1.02070   1.03576   19.906
 5347.00    1.02344   1.03789   19.920
 5348.00    1.03935   1.04292   19.607
 5349.00    1.06137   1.04884   19.404
 5350.00    1.08016   1.05444   19.641
 5351.00    1.09351   1.06216   20.056
 5352.00    1.10162   1.07244   20.242
 5353.00    1.10303   1.08185   20.131
 5354.00    1.09964   1.08873   19.932
 5355.00    1.09892   1.09439   19.956
 5356.00    1.10336   1.09863   20.263
 5357.00    1.10571   1.09965   20.533
 5358.00    1.10135   1.09692   20.566
 5359.00    1.09386   1.09141   20.515
 5360.00    1.08799   1.08433   20.377
 5361.00    1.08588   1.07594   19.908
 5362.00    1.08645   1.06592   19.265
 5363.00    1.08680   1.05533   18.922
 5364.00    1.08785   1.04553   18.931
 5365.00    1.09280   1.03649   18.964
 5366.00    1.09664   1.02782   18.948
 5367.00    1.08861   1.01979   19.105
 5368.00    1.06665   1.01323   19.511
 5369.00    1.03817   1.01022   20.069
 5370.00    1.01287   1.01152   20.679
 5371.00    0.99832   1.01552   21.259
 5372.00    0.99491   1.02205   21.675
 5373.00    0.99895   1.03191   21.834
 5374.00    1.00911   1.04313   21.855
 5375.00    1.02486   1.05267   21.875
 5376.00    1.04270   1.05970   21.736
 5377.00    1.05853   1.06382   21.326
 5378.00    1.07131   1.06530   20.972
 5379.00    1.08151   1.06530   20.903
 5380.00    1.08924   1.06391   20.777
 5381.00    1.09487   1.06164   20.361
 5382.00    1.09959   1.06023   20.061
 5383.00    1.10310   1.05951   19.972
 5384.00    1.10230   1.05814   19.462
 5385.00    1.09645   1.05673   19.066
 5386.00    1.08914   1.05512   20.837
 5387.00    1.07797   1.05170   22.851
 5388.00    1.05254   1.04681   -2.000
 5389.00    1.01747   1.04131   -2.000
 5390.00    0.99688   1.03460   -2.000
 5391.00    0.99925   1.02729   -2.000
 5392.00    1.00513   1.02123   -2.000
 5393.00    0.98345   1.01550   -2.000
 5394.00    0.91499   1.00907   -2.000
 5395.00    0.84618   1.00485   -2.000
 5396.00    0.87308   1.00421   -2.000
 5397.00    1.04436   1.00312   -2.000
 5398.00    1.34900   1.00069   -2.000
 5399.00    1.75647   1.00063   -2.000
 5400.00    2.18973   1.00128   -2.000
 5401.00    2.45267   0.99797   -2.000
 5402.00    2.37939   0.99192   -2.000
 5403.00    2.12517   0.98691   -2.000
 5404.00    1.98216   0.98300   -2.000
 5405.00    2.00317   0.97956   -2.000
 5406.00    2.02325   0.97749   -2.000
 5407.00    1.79242   0.97836   -2.000
 5408.00    1.25664   0.98350   -2.000
 5409.00    0.82516   0.99174   -2.000
 5410.00    0.83589   1.00020   -2.000
 5411.00    1.02406   1.00840   21.007
 5412.00    1.05313   1.01799   21.317
 5413.00    0.99861   1.02832   21.556
 5414.00    1.01277   1.03683   22.134
 5415.00    1.05537   1.04262   22.530
 5416.00    1.05926   1.04688   22.301
 5417.00    1.04304   1.04996   21.777
 5418.00    1.03833   1.05105   21.387
 5419.00    1.04692   1.05057   21.261
 5420.00    1.06066   1.04899   21.238
 5421.00    1.07315   1.04590   20.989
 5422.00    1.08211   1.04267   20.563
 5423.00    1.08863   1.04088   20.387
 5424.00    1.09107   1.03912   20.573
 5425.00    1.08488   1.03571   20.852
 5426.00    1.06903   1.03111   21.027
 5427.00    1.04797   1.02680   21.030
 5428.00    1.03076   1.02352   20.642
 5429.00    1.02587   1.01918   19.942
 5430.00    1.02963   1.01277   20.215
 5431.00    1.02812   1.00859   22.211
 5432.00    1.00698   1.00910   20.940
 5433.00    0.96214   1.01111   14.619
 5434.00    0.91392   1.01412   10.770
 5435.00    0.89107   1.02073    9.927
 5436.00    0.90302   1.03057   10.096
 5437.00    0.94143   1.04090    9.848
 5438.00    0.98859   1.05021   10.330
 5439.00    1.02736   1.05773   13.646
 5440.00    1.05101   1.06204   20.082
 5441.00    1.06099   1.06244   21.892
 5442.00    1.06306   1.05913   19.771
 5443.00    1.06195   1.05260   19.867
 5444.00    1.05775   1.04450   20.310
 5445.00    1.05122   1.03770   19.575
 5446.00    1.04715   1.03318   21.124
 5447.00    1.04903   1.02982   24.534
 5448.00    1.05553   1.02828   18.562
 5449.00    1.06111   1.02945   11.355
 5450.00    1.05821   1.03115    8.999
 5451.00    1.04503   1.03104    9.187
 5452.00    1.02774   1.02889    9.919
 5453.00    1.01414   1.02652    9.988
 5454.00    1.00958   1.02576    9.844
 5455.00    1.01245   1.02582    9.859
 5456.00    1.01612   1.02523    9.823
 5457.00    1.01960   1.02589    9.759
 5458.00    1.02631   1.02913    9.878
 5459.00    1.03243   1.03167    9.832
 5460.00    1.02980   1.03130    9.294
 5461.00    1.01943   1.03070    9.440
 5462.00    1.01001   1.03181   12.297
 5463.00    1.00896   1.03205   19.998
 5464.00    1.01847   1.03112   25.066
 5465.00    1.03246   1.03244   21.356
 5466.00    1.04197   1.03492   19.793
 5467.00    1.04378   1.03483   20.803
 5468.00    1.03936   1.03356   21.593
 5469.00    1.03201   1.03272   21.560
 5470.00    1.02614   1.02913   21.503
 5471.00    1.02651   1.02261   21.306
 5472.00    1.03518   1.01693   20.729
 5473.00    1.04875   1.01109   20.253
 5474.00    1.05936   1.00307   20.233
 5475.00    1.05716   0.99751   20.421
 5476.00    1.04029   0.99653   20.587
 5477.00    1.02002   0.99562   20.898
 5478.00    1.00811   0.99505   21.254
 5479.00    1.00895   0.99908   21.024
 5480.00    1.02016   1.00568   20.249
 5481.00    1.03429   1.01051   19.821
 5482.00    1.04423   1.01495   19.994
 5483.00    1.04614   1.02087   20.202
 5484.00    1.04163   1.02557   20.174
 5485.00    1.03681   1.02824   20.195
 5486.00    1.03666   1.03085   20.335
 5487.00    1.04338   1.03251   20.358
 5488.00    1.05744   1.03250   20.271
 5489.00    1.07605   1.03329   20.321
 5490.00    1.08906   1.03462   20.556
 5491.00    1.08563   1.03432   20.805
 5492.00    1.07053   1.03439   20.888
 5493.00    1.05775   1.03563   20.748
 5494.00    1.05227   1.03497   20.585
 5495.00    1.05080   1.03314   20.659
 5496.00    1.04878   1.03327   20.979
 5497.00    1.04405   1.03325   21.367
 5498.00    1.04014   1.03035   21.609
 5499.00    1.04278   1.02739   21.494
 5500.00    1.05497   1.02605   20.884
 5501.00    1.07588   1.02395   20.014
 5502.00    1.10049   1.02052   19.523
 5503.00    1.12150   1.01730   19.617
 5504.00    1.13160   1.01522   19.622
 5505.00    1.12639   1.01434   19.152
 5506.00    1.10664   1.01326   18.878
 5507.00    1.07759   1.01123   19.218
 5508.00    1.04783   1.01028   19.722
 5509.00    1.02575   1.01043   19.908
 5510.00    1.01700   1.00963   19.839
 5511.00    1.02188   1.00912   19.774
 5512.00    1.03500   1.01057   19.885
 5513.00    1.04916   1.01310   20.044
 5514.00    1.05807   1.01672   19.921
 5515.00    1.05945   1.02228   19.710
 5516.00    1.05543   1.02893   19.992
 5517.00    1.04983   1.03498   20.519
 5518.00    1.04633   1.03996   20.343
 5519.00    1.04634   1.04403   19.714
 5520.00    1.04920   1.04612   19.674
 5521.00    1.05423   1.04532   20.168
 5522.00    1.06053   1.04214   20.376
 5523.00    1.06544   1.03782   20.219
 5524.00    1.06650   1.03274   20.185
 5525.00    1.06511   1.02660   20.264
 5526.00    1.06310   1.02092   20.210
 5527.00    1.05676   1.01800   20.195
 5528.00    1.04262   1.01673   20.482
 5529.00    1.02598   1.01582   20.882
 5530.00    1.01644   1.01735   21.106
 5531.00    1.02102   1.02089   21.311
 5532.00    1.03818   1.02328   21.660
 5533.00    1.05416   1.02513   21.830
 5534.00    1.05638   1.02839   21.635
 5535.00    1.04466   1.03143   21.542
 5536.00    1.02499   1.03342   21.871
 5537.00    1.00392   1.03639   22.274
 5538.00    0.98738   1.03991   22.325
 5539.00    0.98002   1.04208   22.000
 5540.00    0.98464   1.04321   21.572
 5541.00    1.00164   1.04441   21.380
 5542.00    1.02790   1.04568   21.402
 5543.00    1.05676   1.04607   21.245
 5544.00    1.08016   1.04614   20.796
 5545.00    1.09083   1.04781   20.396
 5546.00    1.08672   1.05046   20.489
 5547.00    1.07205   1.05226   21.339
 5548.00    1.05587   1.05389   22.217
 5549.00    1.04882   1.05590   21.716
 5550.00    1.05634   1.05663   20.544
 5551.00    1.07651   1.05552   20.327
 5552.00    1.09970   1.05383   20.689
 5553.00    1.11345   1.05218   20.272
 5554.00    1.11199   1.04997   19.566
 5555.00    1.09719   1.04721   19.796
 5556.00    1.07672   1.04503   20.709
 5557.00    1.05988   1.04342   21.185
 5558.00    1.05193   1.04133   20.887
 5559.00    1.05230   1.03860   20.352
 5560.00    1.05398   1.03566   20.240
 5561.00    1.05118   1.03279   20.766
 5562.00    1.04712   1.02983   21.256
 5563.00    1.04551   1.02604   21.048
 5564.00    1.04266   1.02254   20.601
 5565.00    1.03719   1.02081   20.477
 5566.00    1.03704   1.01876   20.580
 5567.00    1.04706   1.01613   20.686
 5568.00    1.06084   1.01601   20.794
 5569.00    1.06933   1.01699   20.989
 5570.00    1.06725   1.01616   21.320
 5571.00    1.05732   1.01697   21.706
 5572.00    1.04995   1.02067   21.926
 5573.00    1.05243   1.02258   21.879
 5574.00    1.06420   1.02398   21.690
 5575.00    1.07871   1.02806   21.503
 5576.00    1.08713   1.03124   21.408
 5577.00    1.08770   1.03226   21.470
 5578.00    1.08552   1.03358   21.695
 5579.00    1.08241   1.03348   21.853
 5580.00    1.07635   1.03063   21.613
 5581.00    1.06785   1.02666   21.034
 5582.00    1.05940   1.02092   20.463
 5583.00    1.05063   1.01279   20.092
 5584.00    1.03884   1.00400   19.990
 5585.00    1.02216   0.99559   20.252
 5586.00    1.00388   0.98789   20.832
 5587.00    0.99764   0.98171   21.168
 5588.00    1.01480   0.97819   20.759
 5589.00    1.04618   0.97796   20.173
 5590.00    1.07347   0.98033   20.080
 5591.00    1.08624   0.98407   20.270
 5592.00    1.08245   0.98835   20.322
 5593.00    1.06666   0.99348   20.323
 5594.00    1.04799   0.99828   20.460
 5595.00    1.03733   1.00015   20.582
 5596.00    1.03876   1.00078   20.541
 5597.00    1.04433   1.00217   20.474
 5598.00    1.04508   1.00217   20.529
 5599.00    1.03856   1.00060   20.681
 5600.00    1.02680   1.00117   20.814
 5601.00    1.01418   1.00467   20.815
 5602.00    1.00479   1.00957   20.785
 5603.00    1.00157   1.01586   20.994
 5604.00    1.00878   1.02386   21.252
 5605.00    1.03002   1.03286   20.910
 5606.00    1.05705   1.04080   20.154
 5607.00    1.07216   1.04663   19.875
 5608.00    1.07001   1.04996   20.256
 5609.00    1.05958   1.05015   20.799
 5610.00    1.04921   1.04779   21.213
 5611.00    1.04281   1.04341   21.572
 5612.00    1.04165   1.03625   21.917
 5613.00    1.04619   1.02766   22.146
 5614.00    1.05878   1.02116   22.083
 5615.00    1.07886   1.01608   21.662
 5616.00    1.09390   1.01079   21.174
 5617.00    1.09002   1.00847   20.984
 5618.00    1.07048   1.00949   21.170
 5619.00    1.04768   1.01044   21.583
 5620.00    1.02873   1.01104   21.930
 5621.00    1.01537   1.01173   22.001
 5622.00    1.00643   1.01194   21.961
 5623.00    1.00040   1.01277   21.969
 5624.00    0.99761   1.01437   21.799
 5625.00    0.99961   1.01559   21.359
 5626.00    1.00802   1.01823   21.047
 5627.00    1.02100   1.02331   21.045
 5628.00    1.03184   1.02796   20.961
 5629.00    1.03659   1.03137   20.616
 5630.00    1.03853   1.03455   20.415
 5631.00    1.04418   1.03614   20.510
 5632.00    1.05902   1.03545   20.520
 5633.00    1.07893   1.03362   20.238
 5634.00    1.08998   1.03059   19.920
 5635.00    1.08485   1.02645   19.896
 5636.00    1.06795   1.02289   20.349
 5637.00    1.04772   1.02023   20.992
 5638.00    1.03207   1.01740   21.163
 5639.00    1.02344   1.01547   20.969
 5640.00    1.01981   1.01572   21.154
 5641.00    1.02125   1.01647   21.647
 5642.00    1.02916   1.01710   21.711
 5643.00    1.04022   1.01910   21.388
 5644.00    1.04839   1.02180   21.268
 5645.00    1.05151   1.02407   21.298
 5646.00    1.05080   1.02631   21.129
 5647.00    1.04771   1.02818   21.035
 5648.00    1.04429   1.02929   21.411
 5649.00    1.04442   1.02970   21.874
 5650.00    1.05108   1.02924   21.836
 5651.00    1.06267   1.02739   21.570
 5652.00    1.07471   1.02362   21.531
 5653.00    1.08250   1.01911   21.511
 5654.00    1.08305   1.01486   21.237
 5655.00    1.07640   1.00860   20.952
 5656.00    1.06376   1.00107   20.910
 5657.00    1.04626   0.99716   21.014
 5658.00    1.02852   0.99542   21.112
 5659.00    1.01987   0.99228   21.194
 5660.00    1.02443   0.99161   21.125
 5661.00    1.03610   0.99542   20.619
 5662.00    1.04586   0.99926   19.947
 5663.00    1.04732   1.00203   19.878
 5664.00    1.04245   1.00611   20.469
 5665.00    1.04105   1.01081   20.869
 5666.00    1.04791   1.01468   20.801
 5667.00    1.05952   1.01827   20.918
 5668.00    1.07092   1.02188   21.221
 5669.00    1.07869   1.02554   20.991
 5670.00    1.08227   1.02984   20.410
 5671.00    1.08302   1.03437   20.353
 5672.00    1.08097   1.03788   20.915
 5673.00    1.07566   1.04065   21.469
 5674.00    1.06988   1.04344   21.461
 5675.00    1.06787   1.04476   20.823
 5676.00    1.07019   1.04342   20.077
 5677.00    1.07417   1.04134   19.742
 5678.00    1.07626   1.03917   19.757
 5679.00    1.07434   1.03515   19.828
 5680.00    1.07019   1.02971   19.915
 5681.00    1.06753   1.02526   20.119
 5682.00    1.06891   1.02168   20.460
 5683.00    1.07483   1.01773   20.819
 5684.00    1.08318   1.01479   20.930
 5685.00    1.08984   1.01384   20.744
 5686.00    1.08978   1.01429   20.693
 5687.00    1.08055   1.01582   21.035
 5688.00    1.06486   1.01838   21.425
 5689.00    1.04867   1.02184   21.502
 5690.00    1.03908   1.02623   21.363
 5691.00    1.04029   1.03041   21.265
 5692.00    1.05152   1.03302   21.370
 5693.00    1.06847   1.03482   21.544
 5694.00    1.08487   1.03573   21.403
 5695.00    1.09557   1.03420   21.022
 5696.00    1.09851   1.03082   -2.000
 5697.00    1.09665   1.02753   -2.000
 5698.00    1.09636   1.02350   -2.000
 5699.00    1.09983   1.01785   -2.000
 5700.00    1.10473   1.01301   -2.000
 5701.00    1.11038   1.00922   -2.000
 5702.00    1.11638   1.00472   -2.000
 5703.00    1.11500   0.99980   -2.000
 5704.00    1.09618   0.99568   -2.000
 5705.00    1.06200   0.99207   -2.000
 5706.00    1.02465   0.98768   -2.000
 5707.00    0.99692   0.98394   -2.000
 5708.00    0.98655   0.98305   -2.000
 5709.00    0.99033   0.98322   -2.000
 5710.00    0.99780   0.98482   -2.000
 5711.00    0.99815   0.99044   -2.000
 5712.00    0.98848   0.99719   -2.000
 5713.00    0.98116   1.00398   -2.000
 5714.00    0.98837   1.01287   -2.000
 5715.00    1.00662   1.02133   21.533
 5716.00    1.02787   1.02814   21.096
 5717.00    1.05009   1.03506   20.944
 5718.00    1.07246   1.04081   20.774
 5719.00    1.09143   1.04496   20.485
 5720.00    1.10400   1.04879   20.225
 5721.00    1.10993   1.05115   20.310
 5722.00    1.11035   1.05194   20.745
 5723.00    1.10679   1.05242   21.050
 5724.00    1.10094   1.05161   20.909
 5725.00    1.09420   1.04933   20.517
 5726.00    1.08654   1.04755   20.125
 5727.00    1.07674   1.04612   19.840
 5728.00    1.06552   1.04392   19.658
 5729.00    1.05608   1.04240   19.542
 5730.00    1.05254   1.04257   19.597
 5731.00    1.05755   1.04309   19.968
 5732.00    1.06755   1.04317   20.403
 5733.00    1.07471   1.04406   20.400
 5734.00    1.07431   1.04557   20.064
 5735.00    1.06640   1.04638   19.907
 5736.00    1.05523   1.04679   20.048
 5737.00    1.04829   1.04701   20.301
 5738.00    1.05436   1.04681   20.511
 5739.00    1.07662   1.04650   20.522
 5740.00    1.10337   1.04605    0.000
 5741.00    1.11787   1.04546    0.000
 5742.00    1.11306   1.04495    0.000
 5743.00    1.09353   1.04443    0.000
 5744.00    1.07441   1.04369    0.000
 5745.00    1.06660   1.04240    0.000
 5746.00    1.06395   1.04074    0.000
 5747.00    1.05733   1.03922    0.000
 5748.00    1.04695   1.03698    0.000
 5749.00    1.03719   1.03404    0.000
 5750.00    1.03170   1.03179    0.000
 5751.00    1.03045   1.02995    0.000
 5752.00    1.02950   1.02831    0.000
 5753.00    1.02870   1.02778    0.000
 5754.00    1.03361   1.02793    0.000
 5755.00    1.04408   1.02841    0.000
 5756.00    1.05168   1.02968    0.000
 5757.00    1.05213   1.03058    0.000
 5758.00    1.04919   1.03063    0.000
 5759.00    1.04982   1.03071    0.000
 5760.00    1.06027   1.03032    0.000
 5761.00    1.08007   1.03019    0.000
 5762.00    1.10213   1.03174    0.000
 5763.00    1.11821   1.03369    0.000
 5764.00    1.12161   1.03601    0.000
 5765.00    1.11005   1.03984    0.000
 5766.00    1.08756   1.04326    0.000
 5767.00    1.06656   1.04517    0.000
 5768.00    1.05955   1.04667    0.000
 5769.00    1.06515   1.04710    0.000
 5770.00    1.07377   1.04606    0.000
 5771.00    1.07913   1.04481    0.000
 5772.00    1.07960   1.04286    0.000
 5773.00    1.07738   1.04006    0.000
 5774.00    1.07331   1.03758    0.000
 5775.00    1.06217   1.03412    0.000
 5776.00    1.04052   1.02929    0.000
 5777.00    1.01390   1.02445    0.000
 5778.00    0.99126   1.01848    0.000
 5779.00    0.97935   1.01128    0.000
 5780.00    0.97946   1.00519    0.000
 5781.00    0.98624   1.00026    0.000
 5782.00    0.99268   0.99576    0.000
 5783.00    0.99414   0.99353    0.000
 5784.00    0.99280   0.99466    0.000
 5785.00    0.99707   0.99702    0.000
 5786.00    1.00898   0.99993    0.000
 5787.00    1.02118   1.00505    0.000
 5788.00    1.02790   1.01050    0.000
 5789.00    1.02906   1.01482    0.000
 5790.00    1.02902   1.01986    0.000
 5791.00    1.03331   1.02426    0.000
 5792.00    1.04072   1.02720    0.000
 5793.00    1.04518   1.03084    0.000
 5794.00    1.04594   1.03421    0.000
 5795.00    1.04625   1.03609    0.000
 5796.00    1.04520   1.03836    0.000
 5797.00    1.04001   1.04131    0.000
 5798.00    1.03348   1.04302    0.000
 5799.00    1.03199   1.04406    0.000
 5800.00    1.03988   1.04594    0.000
 5801.00    1.05516   1.04686    0.000
 5802.00    1.06580   1.04609    0.000
 5803.00    1.06248   1.04553    0.000
 5804.00    1.05330   1.04486    0.000
 5805.00    1.04976   1.04358    0.000
 5806.00    1.05129   1.04279    0.000
 5807.00    1.05256   1.04260    0.000
 5808.00    1.05140   1.04285    0.000
 5809.00    1.04829   1.04320    0.000
 5810.00    1.04532   1.04322    0.000
 5811.00    1.04467   1.04331    0.000
 5812.00    1.04758   1.04341    0.000
 5813.00    1.05371   1.04303    0.000
 5814.00    1.06132   1.04268    0.000
 5815.00    1.06954   1.04336    0.000
 5816.00    1.07869   1.04463    0.000
 5817.00    1.08658   1.04592    0.000
 5818.00    1.08887   1.04805    0.000
 5819.00    1.08648   1.05085    0.000
 5820.00    1.08477   1.05300    0.000
 5821.00    1.08244   1.05458    0.000
 5822.00    1.07290   1.05616    0.000
 5823.00    1.05808   1.05729    0.000
 5824.00    1.04734   1.05773    0.000
 5825.00    1.04577   1.05803    0.000
 5826.00    1.05203   1.05836    0.000
 5827.00    1.05985   1.05839    0.000
 5828.00    1.06264   1.05816    0.000
 5829.00    1.06072   1.05759    0.000
 5830.00    1.05921   1.05701    0.000
 5831.00    1.06267   1.05641    0.000
 5832.00    1.07139   1.05516    0.000
 5833.00    1.07830   1.05400    0.000
 5834.00    1.07723   1.05377    0.000
 5835.00    1.07221   1.05334    0.000
 5836.00    1.07020   1.05274    0.000
 5837.00    1.07290   1.05349    0.000
 5838.00    1.07792   1.05455    0.000
 5839.00    1.08089   1.05479    0.000
 5840.00    1.07976   1.05528    0.000
 5841.00    1.07741   1.05573    0.000
 5842.00    1.07813   1.05496    0.000
 5843.00    1.08442   1.05339    0.000
 5844.00    1.09232   1.05134    0.000
 5845.00    1.09187   1.04828    0.000
 5846.00    1.08086   1.04479    0.000
 5847.00    1.06815   1.04107    0.000
 5848.00    1.05948   1.03663    0.000
 5849.00    1.05307   1.03220    0.000
 5850.00    1.04530   1.02772    0.000
 5851.00    1.03400   1.02242    0.000
 5852.00    1.02154   1.01736    0.000
 5853.00    1.01320   1.01309    0.000
 5854.00    1.01067   1.00853    0.000
 5855.00    1.01188   1.00452    0.000
 5856.00    1.01473   1.00282    0.000
 5857.00    1.01741   1.00217    0.000
 5858.00    1.01752   1.00186    0.000
 5859.00    1.01359   1.00375    0.000
 5860.00    1.00798   1.00674    0.000
 5861.00    1.00551   1.00949    0.000
 5862.00    1.01067   1.01321    0.000
 5863.00    1.02441   1.01685    0.000
 5864.00    1.04106   1.01947    0.000
 5865.00    1.05325   1.02255    0.000
 5866.00    1.05772   1.02588    0.000
 5867.00    1.05516   1.02806    0.000
 5868.00    1.04929   1.03003    0.000
 5869.00    1.04501   1.03248    0.000
 5870.00    1.04654   1.03396    0.000
 5871.00    1.05534   1.03434    0.000
 5872.00    1.06886   1.03458    0.000
 5873.00    1.08203   1.03403    0.000
 5874.00    1.08917   1.03208    0.000
 5875.00    1.08853   1.02967    0.000
 5876.00    1.08369   1.02704    0.000
 5877.00    1.07910   1.02343    0.000
 5878.00    1.07741   1.01889    0.000
 5879.00    1.07735   1.01437    0.000
 5880.00    1.07453   1.00932    0.000
 5881.00    1.06649   1.00201    0.000
 5882.00    1.05360   0.99329    0.000
 5883.00    1.03638   0.98319    0.000
 5884.00    1.01428   0.96897    0.000
 5885.00    0.98445   0.95204    0.000
 5886.00    0.94445   0.93492    0.000
 5887.00    0.89842   0.91487    0.000
 5888.00    0.85571   0.89503    0.000
 5889.00    0.82577   0.88125    0.000
 5890.00    0.81368   0.86836    0.000
 5891.00    0.81499   0.85794    0.000
 5892.00    0.81937   0.85754    0.000
 5893.00    0.81728   0.85923    0.000
 5894.00    0.80714   0.86152    0.000
 5895.00    0.80178   0.87276    0.000
 5896.00    0.81580   0.88563    0.000
 5897.00    0.85167   0.89714    0.000
 5898.00    0.90187   0.91485    0.000
 5899.00    0.95279   0.93350    0.000
 5900.00    0.99219   0.94812    0.000
 5901.00    1.01493   0.96307   22.824
 5902.00    1.02399   0.97704   23.171
 5903.00    1.02906   0.98672   23.045
 5904.00    1.03612   0.99422   22.571
 5905.00    1.04271   1.00061   22.512
 5906.00    1.04547   1.00471   22.962
 5907.00    1.04385   1.00706   23.065
 5908.00    1.03870   1.00861   22.662
 5909.00    1.03123   1.00929   22.583
 5910.00    1.02185   1.00891   22.845
 5911.00    1.01039   1.00753   22.583
 5912.00    0.99824   1.00605   21.976
 5913.00    0.98832   1.00499   22.007
 5914.00    0.98298   1.00368   22.479
 5915.00    0.98350   1.00316   22.293
 5916.00    0.99017   1.00399   21.537
 5917.00    1.00218   1.00497   21.144
 5918.00    1.01732   1.00690   21.308
 5919.00    1.03256   1.00921   21.634
 5920.00    1.04537   1.01080   21.665
 5921.00    1.05424   1.01282   21.271
 5922.00    1.05923   1.01431   21.033
 5923.00    1.06118   1.01470   21.457
 5924.00    1.06062   1.01516   22.073
 5925.00    1.05794   1.01490   22.171
 5926.00    1.05386   1.01407   22.019
 5927.00    1.05018   1.01337   22.180
 5928.00    1.05012   1.01211   22.681
 5929.00    1.05447   1.01127   23.237
 5930.00    1.05888   1.01113   23.512
 5931.00    1.05954   1.01081   23.402
 5932.00    1.05715   1.01098   23.189
 5933.00    1.05399   1.01196   23.101
 5934.00    1.05135   1.01319   23.091
 5935.00    1.04650   1.01385   23.116
 5936.00    1.03338   1.01448   23.241
 5937.00    1.01341   1.01585   23.400
 5938.00    0.99795   1.01625   23.350
 5939.00    0.99638   1.01581   23.057
 5940.00    1.01004   1.01623   22.753
 5941.00    1.02937   1.01622   22.589
 5942.00    1.03852   1.01544   22.537
 5943.00    1.03194   1.01521   22.426
 5944.00    1.01628   1.01484   22.108
 5945.00    1.00112   1.01402   21.847
 5946.00    0.99427   1.01306   21.995
 5947.00    0.99702   1.01156   22.172
 5948.00    1.00531   1.01029   21.745
 5949.00    1.01415   1.00933   21.203
 5950.00    1.01858   1.00760   21.365
 5951.00    1.01379   1.00648   22.005
 5952.00    0.99922   1.00679   22.392
 5953.00    0.98393   1.00658   22.517
 5954.00    0.97853   1.00630   22.720
 5955.00    0.98422   1.00773   22.837
 5956.00    0.99590   1.00962   22.648
 5957.00    1.00725   1.01107   22.488
 5958.00    1.01346   1.01340   22.680
 5959.00    1.01311   1.01640   23.047
 5960.00    1.00705   1.01885   23.309
 5961.00    0.99728   1.02104   23.478
 5962.00    0.98680   1.02345   23.680
 5963.00    0.97924   1.02504   23.971
 5964.00    0.97732   1.02594   24.165
 5965.00    0.98171   1.02744   23.879
 5966.00    0.99036   1.02838   23.279
 5967.00    0.99911   1.02861   23.117
 5968.00    1.00595   1.02958   23.557
 5969.00    1.01218   1.02995   23.936
 5970.00    1.01916   1.02910   23.707
 5971.00    1.02682   1.02817   22.940
 5972.00    1.03351   1.02654   22.096
 5973.00    1.03702   1.02371   21.623
 5974.00    1.03759   1.02072   21.464
 5975.00    1.03734   1.01793   21.281
 5976.00    1.03647   1.01488   21.119
 5977.00    1.03377   1.01222   21.263
 5978.00    1.02978   1.01037   21.625
 5979.00    1.02692   1.00832   21.856
 5980.00    1.02811   1.00668   21.871
 5981.00    1.03313   1.00559   21.855
 5982.00    1.03364   1.00379   22.031
 5983.00    1.02267   1.00282   22.474
 5984.00    1.00822   1.00296   22.903
 5985.00    1.00219   1.00268   22.996
 5986.00    1.00498   1.00342   22.909
 5987.00    1.01012   1.00564   22.955
 5988.00    1.01161   1.00764   23.196
 5989.00    1.00897   1.00934   23.536
 5990.00    1.00965   1.01162   23.842
 5991.00    1.01592   1.01379   24.025
 5992.00    1.01655   1.01456   24.093
 5993.00    1.00324   1.01493   24.060
 5994.00    0.98114   1.01535   23.891
 5995.00    0.96065   1.01449   23.681
 5996.00    0.95131   1.01320   23.670
 5997.00    0.95798   1.01208   23.869
 5998.00    0.97882   1.01033   23.959
 5999.00    1.00494   1.00891   23.741
 6000.00    1.02298   1.00734   23.309
 6001.00    1.02520   1.00530   22.813
 6002.00    1.01238   1.00416   22.364
 6003.00    0.99080   1.00227   22.073
 6004.00    0.96916   1.00010   22.024
 6005.00    0.95335   0.99923   22.164
 6006.00    0.94521   0.99763   22.352
 6007.00    0.94349   0.99642   22.547
 6008.00    0.94592   0.99653   22.769
 6009.00    0.95292   0.99607   22.907
 6010.00    0.96542   0.99605   22.850
 6011.00    0.97966   0.99623   22.795
 6012.00    0.99019   0.99593   22.972
 6013.00    0.99575   0.99592   23.170
 6014.00    0.99733   0.99499   23.105
 6015.00    0.99457   0.99383   23.025
 6016.00    0.98913   0.99362   23.270
 6017.00    0.98862   0.99257   23.715
 6018.00    0.99870   0.99137   24.087
 6019.00    1.01543   0.99156   24.358
 6020.00    1.03178   0.99218   24.398
 6021.00    1.04395   0.99288   23.744
 6022.00    1.04969   0.99438   22.593
 6023.00    1.04694   0.99745   22.008
 6024.00    1.03583   1.00081   22.444
 6025.00    1.02006   1.00366   23.320
 6026.00    1.00771   1.00791   23.864
 6027.00    1.00903   1.01234   23.766
 6028.00    1.02442   1.01549   23.259
 6029.00    1.04219   1.01895   22.860
 6030.00    1.05411   1.02244   22.771
 6031.00    1.06057   1.02482   22.766
 6032.00    1.06471   1.02659   22.429
 6033.00    1.06949   1.02821   21.435
 6034.00    1.07557   1.02914   20.045
 6035.00    1.08120   1.02927   18.827
 6036.00    1.08350   1.02930   18.130
 6037.00    1.08027   1.02891   18.093
 6038.00    1.07319   1.02832   18.684
 6039.00    1.06634   1.02812   19.695
 6040.00    1.06197   1.02770   20.633
 6041.00    1.06049   1.02781   20.958
 6042.00    1.06203   1.02869   20.862
 6043.00    1.06618   1.02919   20.951
 6044.00    1.07118   1.03000   21.470
 6045.00    1.07495   1.03130   22.284
 6046.00    1.07642   1.03184   22.931
 6047.00    1.07497   1.03179   23.082
 6048.00    1.06961   1.03171   23.168
 6049.00    1.05981   1.03096   23.598
 6050.00    1.04634   1.02924   23.995
 6051.00    1.03140   1.02724   24.056
 6052.00    1.01825   1.02538   24.307
 6053.00    1.00847   1.02323   24.800
 6054.00    1.00054   1.02100   24.317
 6055.00    0.99313   1.01965   22.590
 6056.00    0.98688   1.01869   21.008
 6057.00    0.98239   1.01755   20.267
 6058.00    0.97945   1.01692   20.152
 6059.00    0.97909   1.01647   20.350
 6060.00    0.98384   1.01520   20.641
 6061.00    0.99456   1.01416   20.879
 6062.00    1.00871   1.01378   21.002
 6063.00    1.01910   1.01268   21.051
 6064.00    1.01796   1.01282   21.124
 6065.00    1.00990   1.01491   21.232
 6066.00    1.00831   1.01667   21.332
 6067.00    1.01648   1.01958   21.535
 6068.00    1.02797   1.02378   22.014
 6069.00    1.03850   1.02706   22.680
 6070.00    1.04763   1.02987   23.241
 6071.00    1.05652   1.03204   23.586
 6072.00    1.06548   1.03280   23.789
 6073.00    1.07073   1.03214   23.891
 6074.00    1.06754   1.03018   23.922
 6075.00    1.05530   1.02757   23.975
 6076.00    1.03811   1.02379   24.136
 6077.00    1.02399   1.01936   24.376
 6078.00    1.01764   1.01591   24.560
 6079.00    1.01369   1.01217   24.488
 6080.00    1.00579   1.00827   24.149
 6081.00    0.99537   1.00636   23.849
 6082.00    0.98846   1.00484   23.615
 6083.00    0.99116   1.00308   22.917
 6084.00    0.99997   1.00272   21.724
 6085.00    0.99879   1.00269   20.791
 6086.00    0.98053   1.00253   20.486
 6087.00    0.95704   1.00276   20.571
 6088.00    0.94108   1.00274   20.845
 6089.00    0.93747   1.00326   21.346
 6090.00    0.94725   1.00417   21.954
 6091.00    0.96932   1.00444   22.301
 6092.00    0.99913   1.00546   22.416
 6093.00    1.02930   1.00710   22.650
 6094.00    1.05357   1.00748   -2.000
 6095.00    1.06957   1.00752   -2.000
 6096.00    1.08265   1.00769   -2.000
 6097.00    1.10115   1.00585   -2.000
 6098.00    1.12245   1.00303   -2.000
 6099.00    1.13335   1.00093   -2.000
 6100.00    1.11867   0.99715   -2.000
 6101.00    1.07199   0.99360   -2.000
 6102.00    1.01083   0.99314   -2.000
 6103.00    0.96453   0.99221   -2.000
 6104.00    0.95045   0.99229   -2.000
 6105.00    0.96760   0.99561   -2.000
 6106.00    0.99446   0.99831   20.303
 6107.00    1.00877   1.00138   20.298
 6108.00    1.01011   1.00542   21.062
 6109.00    1.00717   1.00780   22.519
 6110.00    1.00268   1.01006   23.735
 6111.00    0.99762   1.01201   23.833
 6112.00    0.99567   1.01229   23.463
 6113.00    0.99757   1.01219   23.379
 6114.00    0.99781   1.01089   23.364
 6115.00    0.99318   1.00853   23.099
 6116.00    0.98798   1.00599   22.715
 6117.00    0.98945   1.00155   22.383
 6118.00    1.00345   0.99720   22.105
 6119.00    1.02697   0.99393   21.822
 6120.00    1.04775   0.98933   21.527
 6121.00    1.05751   0.98665   21.516
 6122.00    1.05650   0.98647   22.232
 6123.00    1.04840   0.98543   23.265
 6124.00    1.03686   0.98633   23.277
 6125.00    1.02075   0.98933   22.330
 6126.00    0.99690   0.99099   21.759
 6127.00    0.97108   0.99271   21.833
 6128.00    0.95510   0.99483   22.018
 6129.00    0.95306   0.99501   22.273
 6130.00    0.96159   0.99374   22.915
 6131.00    0.97718   0.99164   23.652
 6132.00    0.99532   0.98751   23.837
 6133.00    1.00677   0.98244   23.610
 6134.00    1.00321   0.97737   23.556
 6135.00    0.98658   0.97186   23.812
 6136.00    0.96626   0.96821   24.147
 6137.00    0.95307   0.96706   24.220
 6138.00    0.95281   0.96711   23.873
 6139.00    0.96044   0.96923   23.394
 6140.00    0.96897   0.97353   23.106
 6141.00    0.97815   0.97889   23.024
 6142.00    0.98953   0.98376   22.926
 6143.00    1.00170   0.98793   22.488
 6144.00    1.01167   0.99213   21.794
 6145.00    1.01653   0.99492   21.447
 6146.00    1.01572   0.99585   21.687
 6147.00    1.01173   0.99633   22.083
 6148.00    1.00628   0.99623   22.271
 6149.00    0.99907   0.99513   22.347
 6150.00    0.99200   0.99383   22.406
 6151.00    0.98967   0.99267   22.372
 6152.00    0.99317   0.99057   22.300
 6153.00    0.99890   0.98761   22.414
 6154.00    1.00340   0.98465   22.781
 6155.00    1.00511   0.97998   23.180
 6156.00    1.00410   0.97341   23.072
 6157.00    1.00078   0.96687   21.987
 6158.00    0.99290   0.95940   20.365
 6159.00    0.97649   0.95071   18.987
 6160.00    0.94964   0.94336   18.146
 6161.00    0.91457   0.93772   17.922
 6162.00    0.87985   0.93336   18.565
 6163.00    0.85724   0.93122   20.306
 6164.00    0.85568   0.93094   22.447
 6165.00    0.87594   0.93262   23.451
 6166.00    0.90513   0.93572   23.298
 6167.00    0.92673   0.93812   23.114
 6168.00    0.93403   0.94124   23.210
 6169.00    0.93058   0.94599   23.393
 6170.00    0.92781   0.94964   23.520
 6171.00    0.93431   0.95287   23.502
 6172.00    0.94701   0.95782   23.285
 6173.00    0.96019   0.96267   22.965
 6174.00    0.97293   0.96628   22.814
 6175.00    0.98539   0.97010   22.969
 6176.00    0.99604   0.97437   23.278
 6177.00    1.00324   0.97761   23.577
 6178.00    1.00632   0.97972   23.838
 6179.00    1.00575   0.98231   23.959
 6180.00    1.00261   0.98422   23.734
 6181.00    0.99622   0.98418   23.242
 6182.00    0.98436   0.98398   22.851
 6183.00    0.96826   0.98304   22.729
 6184.00    0.95362   0.98008   22.803
 6185.00    0.94728   0.97679   23.085
 6186.00    0.95310   0.97294   23.648
 6187.00    0.96399   0.96856   24.206
 6188.00    0.96652   0.96525   24.257
 6189.00    0.95790   0.96175   23.957
 6190.00    0.94554   0.95980   23.859
 6191.00    0.93677   0.96069   23.901
 6192.00    0.93533   0.96118   23.710
 6193.00    0.93930   0.96290   23.492
 6194.00    0.94494   0.96669   23.637
 6195.00    0.95324   0.96956   23.924
 6196.00    0.96562   0.97211   23.913
 6197.00    0.97705   0.97458   23.690
 6198.00    0.98176   0.97634   23.526
 6199.00    0.98076   0.97825   23.365
 6200.00    0.97808   0.97984   23.199
 6201.00    0.97589   0.98119   23.424
 6202.00    0.97377   0.98302   24.197
 6203.00    0.96883   0.98464   24.851
 6204.00    0.96010   0.98578   24.855
 6205.00    0.95132   0.98619   24.733
 6206.00    0.94789   0.98556   24.913
 6207.00    0.95395   0.98411   25.044
 6208.00    0.96808   0.98106   24.820
 6209.00    0.98235   0.97675   24.444
 6210.00    0.98915   0.97213   24.178
 6211.00    0.98522   0.96623   24.117
 6212.00    0.97292   0.96028   24.179
 6213.00    0.95933   0.95544   24.143
 6214.00    0.95071   0.95053   23.836
 6215.00    0.94908   0.94703   23.302
 6216.00    0.94834   0.94527   23.008
 6217.00    0.93879   0.94377   23.470
 6218.00    0.92288   0.94380   24.189
 6219.00    0.91308   0.94492   23.973
 6220.00    0.91656   0.94586   23.113
 6221.00    0.93218   0.94733   22.784
 6222.00    0.95223   0.94852   23.117
 6223.00    0.96647   0.94933   23.572
 6224.00    0.96871   0.94978   23.887
 6225.00    0.95978   0.94866   24.104
 6226.00    0.94973   0.94723   24.280
 6227.00    0.94929   0.94579   24.439
 6228.00    0.95860   0.94304   24.574
 6229.00    0.97190   0.94126   24.656
 6230.00    0.98464   0.94105   24.655
 6231.00    0.99283   0.94036   24.594
 6232.00    0.99208   0.94118   24.583
 6233.00    0.98127   0.94345   24.751
 6234.00    0.96533   0.94473   25.151
 6235.00    0.95109   0.94576   25.577
 6236.00    0.94368   0.94644   25.507
 6237.00    0.94382   0.94572   25.025
 6238.00    0.94715   0.94353   24.994
 6239.00    0.94919   0.94139   25.103
 6240.00    0.94815   0.93917   23.824
 6241.00    0.94497   0.93580   22.783
 6242.00    0.94255   0.93413   25.581
 6243.00    0.94304   0.93370   28.151
 6244.00    0.94652   0.93234   18.998
 6245.00    0.95067   0.93272   11.852
 6246.00    0.95192   0.93420    9.870
 6247.00    0.94932   0.93423   10.245
 6248.00    0.94441   0.93441   10.860
 6249.00    0.93785   0.93442   10.773
 6250.00    0.93012   0.93251   10.596
 6251.00    0.92517   0.93013   10.732
 6252.00    0.92776   0.92769   11.013
 6253.00    0.93663   0.92455   10.797
 6254.00    0.94564   0.92193   10.027
 6255.00    0.94803   0.92072   10.314
 6256.00    0.94127   0.92042   13.905
 6257.00    0.93249   0.92145   22.856
 6258.00    0.93004   0.92458   27.234
 6259.00    0.93242   0.92814   23.098
 6260.00    0.93307   0.93239   21.820
 6261.00    0.92758   0.93813   22.670
 6262.00    0.91790   0.94278   22.711
 6263.00    0.91427   0.94640   22.360
 6264.00    0.92357   0.95053   22.737
 6265.00    0.94052   0.95366   23.166
 6266.00    0.95531   0.95533   23.015
 6267.00    0.96029   0.95708   23.051
 6268.00    0.95449   0.95889   23.696
 6269.00    0.94510   0.96007   24.148
 6270.00    0.94148   0.96110   23.945
 6271.00    0.94988   0.96233   23.747
 6272.00    0.96462   0.96308   23.877
 6273.00    0.96935   0.96348   23.948
 6274.00    0.95703   0.96388   23.921
 6275.00    0.93533   0.96330   24.245
 6276.00    0.91737   0.96247   24.850
 6277.00    0.91429   0.96193   25.107
 6278.00    0.92385   0.96065   25.043
 6279.00    0.93313   0.96017   25.264
 6280.00    0.93345   0.96050    0.000
 6281.00    0.92390   0.96080    0.000
 6282.00    0.91018   0.96250    0.000
 6283.00    0.90032   0.96453    0.000
 6284.00    0.89738   0.96669    0.000
 6285.00    0.90078   0.96940    0.000
 6286.00    0.91056   0.97117    0.000
 6287.00    0.92757   0.97259    0.000
 6288.00    0.95242   0.97330    0.000
 6289.00    0.98229   0.97279    0.000
 6290.00    1.00775   0.97191    0.000
 6291.00    1.01928   0.96982    0.000
 6292.00    1.01445   0.96717    0.000
 6293.00    0.99740   0.96466    0.000
 6294.00    0.97715   0.96120    0.000
 6295.00    0.96277   0.95788    0.000
 6296.00    0.95964   0.95522    0.000
 6297.00    0.96861   0.95245    0.000
 6298.00    0.98585   0.95028    0.000
 6299.00    1.00420   0.94896    0.000
 6300.00    1.01526   0.94857    0.000
 6301.00    1.01555   0.94942    0.000
 6302.00    1.00811   0.95102    0.000
 6303.00    0.99568   0.95307    0.000
 6304.00    0.97931   0.95589    0.000
 6305.00    0.96505   0.95914    0.000
 6306.00    0.96252   0.96162    0.000
 6307.00    0.97248   0.96312    0.000
 6308.00    0.98574   0.96402    0.000
 6309.00    0.99190   0.96380    0.000
 6310.00    0.98480   0.96212    0.000
 6311.00    0.96906   0.95986    0.000
 6312.00    0.95545   0.95689    0.000
 6313.00    0.94798   0.95317    0.000
 6314.00    0.94402   0.95055    0.000
 6315.00    0.93930   0.94828    0.000
 6316.00    0.93133   0.94573    0.000
 6317.00    0.92296   0.94549    0.000
 6318.00    0.92013   0.94673    0.000
 6319.00    0.92792   0.94804    0.000
 6320.00    0.94711   0.95073    0.000
 6321.00    0.97118   0.95455   23.296
 6322.00    0.99149   0.95855   21.426
 6323.00    1.00290   0.96213   19.966
 6324.00    1.00544   0.96554   19.506
 6325.00    1.00424   0.96842   19.629
 6326.00    1.00193   0.97040   19.962
 6327.00    0.99424   0.97187   20.731
 6328.00    0.97955   0.97180   22.056
 6329.00    0.96420   0.97108   23.352
 6330.00    0.95558   0.97011   23.864
 6331.00    0.95715   0.96784   23.469
 6332.00    0.96437   0.96523   22.818
 6333.00    0.96567   0.96235   22.786
 6334.00    0.95448   0.95953   23.411
 6335.00    0.93377   0.95751   23.846
 6336.00    0.91404   0.95561   23.757
 6337.00    0.90748   0.95401   23.697
 6338.00    0.91332   0.95391   24.080
 6339.00    0.91955   0.95424   24.824
 6340.00    0.91971   0.95408   25.121
 6341.00    0.91552   0.95452   24.060
 6342.00    0.91210   0.95493   22.325
 6343.00    0.91502   0.95553   21.096
 6344.00    0.92652   0.95636   20.514
 6345.00    0.94392   0.95686   20.303
 6346.00    0.95837   0.95847   20.469
 6347.00    0.96221   0.96026   21.143
 6348.00    0.95935   0.96117   22.218
 6349.00    0.95801   0.96231   23.282
 6350.00    0.95956   0.96289   23.692
 6351.00    0.96155   0.96211   23.225
 6352.00    0.96258   0.96040   22.628
 6353.00    0.96274   0.95769   22.552
 6354.00    0.96328   0.95432   22.837
 6355.00    0.96365   0.95028   23.171
 6356.00    0.95991   0.94547   23.596
 6357.00    0.95071   0.94119   24.151
 6358.00    0.94067   0.93778   24.592
 6359.00    0.93406   0.93453   24.723
 6360.00    0.93161   0.93222   24.634
 6361.00    0.93522   0.93192   24.460
 6362.00    0.94841   0.93284   24.230
 6363.00    0.96634   0.93468   23.884
 6364.00    0.97522   0.93783   23.338
 6365.00    0.96881   0.94187   22.672
 6366.00    0.95238   0.94642   22.113
 6367.00    0.93295   0.95092   21.880
 6368.00    0.91642   0.95508   22.111
 6369.00    0.90970   0.95919   22.724
 6370.00    0.91832   0.96294   23.407
 6371.00    0.93915   0.96587   23.779
 6372.00    0.96198   0.96809   23.649
 6373.00    0.97717   0.96993   23.402
 6374.00    0.98015   0.97114   23.566
 6375.00    0.97595   0.97151   24.027
 6376.00    0.97328   0.97108   24.304
 6377.00    0.97348   0.97041   24.313
 6378.00    0.97298   0.96971   24.299
 6379.00    0.96928   0.96863   24.478
 6380.00    0.96279   0.96793   24.937
 6381.00    0.95754   0.96765   25.573
 6382.00    0.95653   0.96736   26.059
 6383.00    0.95713   0.96762   25.910
 6384.00    0.95546   0.96814   25.199
 6385.00    0.95088   0.96828   24.871
 6386.00    0.94582   0.96804   25.281
 6387.00    0.94470   0.96774   25.438
 6388.00    0.94903   0.96697   24.757
 6389.00    0.95516   0.96543   24.119
 6390.00    0.96095   0.96369   23.958
 6391.00    0.96826   0.96159   23.649
 6392.00    0.97471   0.95977   22.984
 6393.00    0.97237   0.95849   22.566
 6394.00    0.96118   0.95704   22.632
 6395.00    0.95129   0.95624   22.863
 6396.00    0.94900   0.95638   23.169
 6397.00    0.95268   0.95641   23.795
 6398.00    0.95752   0.95634   24.585
 6399.00    0.95854   0.95753   24.952
 6400.00    0.95419   0.95882   24.900
 6401.00    0.94651   0.95921   25.001
 6402.00    0.93920   0.96093   25.361
 6403.00    0.93563   0.96252   25.667
 6404.00    0.93583   0.96275   25.826
 6405.00    0.93811   0.96302   25.937
 6406.00    0.94294   0.96242   25.930
 6407.00    0.95100   0.96177   25.666
 6408.00    0.95912   0.96124   25.208
 6409.00    0.96265   0.95961   24.794
 6410.00    0.95948   0.95903   24.726
 6411.00    0.95156   0.95928   25.060
 6412.00    0.94544   0.95843   25.283
 6413.00    0.94617   0.95810   24.920
 6414.00    0.95156   0.95840   24.253
 6415.00    0.95582   0.95816   23.807
 6416.00    0.95390   0.95816   23.870
 6417.00    0.94540   0.95818   24.253
 6418.00    0.93632   0.95810   24.197
 6419.00    0.93213   0.95892   23.570
 6420.00    0.93342   0.96031   23.320
 6421.00    0.93759   0.96212   23.752
 6422.00    0.94033   0.96413   24.016
 6423.00    0.93718   0.96627   23.794
 6424.00    0.92588   0.96855   23.895
 6425.00    0.91243   0.96996   24.614
 6426.00    0.90979   0.97020   25.312
 6427.00    0.92385   0.96986   25.483
 6428.00    0.94967   0.96874   25.228
 6429.00    0.97610   0.96712   24.832
 6430.00    0.99098   0.96588   24.559
 6431.00    0.99048   0.96421   24.632
 6432.00    0.97882   0.96276   25.137
 6433.00    0.96177   0.96257   25.729
 6434.00    0.94503   0.96243   25.891
 6435.00    0.93414   0.96254   25.812
 6436.00    0.93243   0.96289   25.930
 6437.00    0.93761   0.96329   25.825
 6438.00    0.94528   0.96500   25.063
 6439.00    0.95472   0.96680   24.546
 6440.00    0.96629   0.96820   25.003
 6441.00    0.97726   0.97052   25.325
 6442.00    0.98457   0.97224   24.363
 6443.00    0.98832   0.97277   23.260
 6444.00    0.98917   0.97261   23.101
 6445.00    0.98557   0.97086   23.411
 6446.00    0.97560   0.96818   23.516
 6447.00    0.95906   0.96476   23.592
 6448.00    0.94013   0.96069   23.953
 6449.00    0.92743   0.95777   24.487
 6450.00    0.92354   0.95515   24.920
 6451.00    0.92044   0.95310   25.068
 6452.00    0.91168   0.95315   25.043
 6453.00    0.89888   0.95371   25.215
 6454.00    0.89039   0.95464   25.558
 6455.00    0.89647   0.95597   25.568
 6456.00    0.91408   0.95699   25.293
 6457.00    0.92736   0.95798   25.367
 6458.00    0.93078   0.95869   25.693
 6459.00    0.93206   0.95907   25.470
 6460.00    0.93620   0.95880   24.755
 6461.00    0.94107   0.95857   24.335
 6462.00    0.93918   0.95915   24.400
 6463.00    0.92453   0.95931   24.624
 6464.00    0.90604   0.95998   24.797
 6465.00    0.89965   0.96181   24.898
 6466.00    0.90793   0.96349   24.967
 6467.00    0.92303   0.96471   25.012
 6468.00    0.93816   0.96570   24.906
 6469.00    0.94907   0.96641   24.561
 6470.00    0.95345   0.96681   24.174
 6471.00    0.95156   0.96720   24.024
 6472.00    0.94696   0.96701   24.232
 6473.00    0.94463   0.96663   24.685
 6474.00    0.94861   0.96656   24.966
 6475.00    0.95856   0.96604   24.883
 6476.00    0.96775   0.96499   24.928
 6477.00    0.97097   0.96381   25.374
 6478.00    0.97030   0.96257   25.649
 6479.00    0.96931   0.96081   25.441
 6480.00    0.96894   0.95893   25.393
 6481.00    0.96957   0.95753   25.748
 6482.00    0.97204   0.95620   25.767
 6483.00    0.97583   0.95486   25.103
 6484.00    0.97798   0.95371   24.372
 6485.00    0.97273   0.95247   24.150
 6486.00    0.95473   0.95029   24.579
 6487.00    0.93096   0.94654   25.062
 6488.00    0.91767   0.94139   24.548
 6489.00    0.91516   0.93487   23.480
 6490.00    0.90793   0.92699   23.220
 6491.00    0.88928   0.91837   23.761
 6492.00    0.86547   0.90921   24.061
 6493.00    0.84802   0.90157   23.989
 6494.00    0.84759   0.89620   24.227
 6495.00    0.86555   0.89231   24.750
 6496.00    0.89502   0.89210   24.948
 6497.00    0.92627   0.89477   24.612
 6498.00    0.95028   0.89984   24.089
 6499.00    0.96257   0.90750   23.996
 6500.00    0.96245   0.91529   24.692
 6501.00    0.95121   0.92368   25.661
 6502.00    0.93336   0.93218   26.096
 6503.00    0.91793   0.93939   26.073
 6504.00    0.91293   0.94560   26.014
 6505.00    0.91975   0.95031   25.865
 6506.00    0.93544   0.95365   25.524
 6507.00    0.95501   0.95604   25.218
 6508.00    0.97005   0.95725   24.992
 6509.00    0.96928   0.95738   24.473
 6510.00    0.95055   0.95686   23.691
 6511.00    0.92661   0.95577   23.291
 6512.00    0.91176   0.95423   23.450
 6513.00    0.91303   0.95244   23.570
 6514.00    0.92647   0.95045   23.305
 6515.00    0.93899   0.94889   22.982
 6516.00    0.94268   0.94768   23.009
 6517.00    0.93944   0.94692   23.574
 6518.00    0.93458   0.94726   24.356
 6519.00    0.93268   0.94779   24.627
 6520.00    0.93236   0.94857   24.466
 6521.00    0.92844   0.94991   24.686
 6522.00    0.92216   0.95090   25.361
 6523.00    0.92043   0.95163   25.816
 6524.00    0.92754   0.95178   25.685
 6525.00    0.94210   0.95143   25.177
 6526.00    0.95522   0.95111   24.707
 6527.00    0.95678   0.95038   24.589
 6528.00    0.94665   0.94935    0.000
 6529.00    0.93099   0.94847    0.000
 6530.00    0.91379   0.94769    0.000
 6531.00    0.89816   0.94723    0.000
 6532.00    0.88930   0.94694    0.000
 6533.00    0.89071   0.94668    0.000
 6534.00    0.89992   0.94656    0.000
 6535.00    0.91234   0.94644    0.000
 6536.00    0.92527   0.94632    0.000
 6537.00    0.93645   0.94577    0.000
 6538.00    0.94270   0.94435    0.000
 6539.00    0.94181   0.94211    0.000
 6540.00    0.93450   0.93945    0.000
 6541.00    0.92744   0.93611    0.000
 6542.00    0.93282   0.93190    0.000
 6543.00    0.95634   0.92726    0.000
 6544.00    0.99220   0.92228    0.000
 6545.00    1.03166   0.91772    0.000
 6546.00    1.06745   0.91325    0.000
 6547.00    1.09434   0.90821    0.000
 6548.00    1.10891   0.90340    0.000
 6549.00    1.10814   0.89834    0.000
 6550.00    1.09014   0.89256    0.000
 6551.00    1.05798   0.88581    0.000
 6552.00    1.01885   0.87754    0.000
 6553.00    0.97887   0.86809    0.000
 6554.00    0.94318   0.85722    0.000
 6555.00    0.91945   0.84421    0.000
 6556.00    0.92142   0.82976    0.000
 6557.00    0.97390   0.81491    0.000
 6558.00    1.10645   0.79938    0.000
 6559.00    1.34029   0.78456    0.000
 6560.00    1.66721   0.77212    0.000
 6561.00    2.02433   0.76313    0.000
 6562.00    2.31830   0.75993    0.000
 6563.00    2.46247   0.76087    0.000
 6564.00    2.40783   0.76595    0.000
 6565.00    2.17048   0.77708    0.000
 6566.00    1.82050   0.79099    0.000
 6567.00    1.46253   0.80556    0.000
 6568.00    1.18323   0.81998    0.000
 6569.00    1.01130   0.83323    0.000
 6570.00    0.93206   0.84542    0.000
 6571.00    0.90486   0.85623    0.000
 6572.00    0.89400   0.86537    0.000
 6573.00    0.88573   0.87321    0.000
 6574.00    0.87939   0.88046    0.000
 6575.00    0.88069   0.88712    0.000
 6576.00    0.89511   0.89328    0.000
 6577.00    0.92668   0.89920    0.000
 6578.00    0.98480   0.90456    0.000
 6579.00    1.08391   0.90908    0.000
 6580.00    1.23301   0.91310    0.000
 6581.00    1.42486   0.91642    0.000
 6582.00    1.61634   0.91893    0.000
 6583.00    1.74249   0.92125    0.000
 6584.00    1.76480   0.92290    0.000
 6585.00    1.68152   0.92387    0.000
 6586.00    1.52246   0.92429    0.000
 6587.00    1.33572   0.92392    0.000
 6588.00    1.16531   0.92310    0.000
 6589.00    1.04045   0.92164    0.000
 6590.00    0.96590   0.91994    0.000
 6591.00    0.93010   0.91825    0.000
 6592.00    0.91870   0.91713    0.000
 6593.00    0.91904   0.91673    0.000
 6594.00    0.92303   0.91663    0.000
 6595.00    0.92566   0.91790    0.000
 6596.00    0.92317   0.92024    0.000
 6597.00    0.91462   0.92284    0.000
 6598.00    0.90325   0.92559    0.000
 6599.00    0.89466   0.92789    0.000
 6600.00    0.89441   0.92977    0.000
 6601.00    0.90175   0.93127    0.000
 6602.00    0.90729   0.93188    0.000
 6603.00    0.90324   0.93169    0.000
 6604.00    0.88934   0.93107    0.000
 6605.00    0.87173   0.93000    0.000
 6606.00    0.85952   0.92920    0.000
 6607.00    0.85361   0.92886    0.000
 6608.00    0.84567   0.92911    0.000
 6609.00    0.83246   0.92999   13.318
 6610.00    0.81953   0.93110   11.588
 6611.00    0.81535   0.93308   11.966
 6612.00    0.82525   0.93550   12.372
 6613.00    0.84074   0.93796   12.002
 6614.00    0.84633   0.94013   11.673
 6615.00    0.84220   0.94178   11.793
 6616.00    0.83994   0.94341   12.137
 6617.00    0.84283   0.94449   12.001
 6618.00    0.84853   0.94484   11.218
 6619.00    0.86060   0.94457   11.347
 6620.00    0.88243   0.94366   14.351
 6621.00    0.90546   0.94238   21.035
 6622.00    0.91742   0.94088   24.589
 6623.00    0.91547   0.93898   22.423
 6624.00    0.90447   0.93707   21.636
 6625.00    0.89248   0.93503   22.535
 6626.00    0.88559   0.93288   23.230
 6627.00    0.88359   0.93112   23.455
 6628.00    0.88427   0.92934   23.707
 6629.00    0.88719   0.92749   23.888
 6630.00    0.89147   0.92582   23.861
 6631.00    0.89472   0.92447   23.917
 6632.00    0.89799   0.92357   24.214
 6633.00    0.90694   0.92337   24.480
 6634.00    0.92009   0.92341   24.541
 6635.00    0.92559   0.92376   24.588
 6636.00    0.91749   0.92464   24.830
 6637.00    0.90158   0.92570   25.288
 6638.00    0.88575   0.92674   25.687
 6639.00    0.87512   0.92730   25.449
 6640.00    0.86960   0.92763   24.046
 6641.00    0.86609   0.92780   21.565
 6642.00    0.86757   0.92810   18.925
 6643.00    0.88032   0.92849   16.908
 6644.00    0.89940   0.92849   15.617
 6645.00    0.91195   0.92881   14.955
 6646.00    0.91304   0.92950   15.009
 6647.00    0.90719   0.93022   15.926
 6648.00    0.90370   0.93093   17.430
 6649.00    0.91194   0.93134   18.671
 6650.00    0.93503   0.93167   18.966
 6651.00    0.96827   0.93198   18.430
 6652.00    0.99929   0.93186   17.799
 6653.00    1.01648   0.93147   17.721
 6654.00    1.01936   0.93079   18.386
 6655.00    1.01264   0.92979   19.536
 6656.00    0.99857   0.92856   20.234
 6657.00    0.97963   0.92694   20.265
 6658.00    0.96110   0.92509   21.506
 6659.00    0.94505   0.92292   23.528
 6660.00    0.92646   0.92094   19.627
 6661.00    0.90214   0.91912   13.512
 6662.00    0.87672   0.91767   11.036
 6663.00    0.85818   0.91693   11.185
 6664.00    0.85362   0.91648   11.854
 6665.00    0.86274   0.91699   11.680
 6666.00    0.87709   0.91829   11.420
 6667.00    0.89209   0.91982   11.354
 6668.00    0.91019   0.92152   10.760
 6669.00    0.93112   0.92293   10.284
 6670.00    0.94866   0.92403   11.596
 6671.00    0.95310   0.92465   15.827
 6672.00    0.93827   0.92457   20.793
 6673.00    0.91840   0.92348   21.613
 6674.00    0.91798   0.92172   21.122
 6675.00    0.93469   0.92003   21.484
 6676.00    0.94654   0.91840   21.595
 6677.00    0.94721   0.91725   20.953
 6678.00    0.94404   0.91658   20.123
 6679.00    0.93979   0.91626   19.669
 6680.00    0.93702   0.91728   19.771
 6681.00    0.94951   0.91893   19.969
 6682.00    0.98274   0.92079   19.771
 6683.00    1.00665   0.92283   19.606
 6684.00    0.99293   0.92449   20.075
 6685.00    0.96134   0.92615   21.023
 6686.00    0.94229   0.92739   21.851
 6687.00    0.93417   0.92809   22.089
 6688.00    0.92442   0.92831   21.663
 6689.00    0.91204   0.92801   20.916
 6690.00    0.90333   0.92741   20.164
 6691.00    0.90558   0.92642   19.465
 6692.00    0.91781   0.92503   18.939
 6693.00    0.92706   0.92360   18.878
 6694.00    0.92292   0.92214   19.504
 6695.00    0.90611   0.92086   20.844
 6696.00    0.88711   0.91998    0.000
 6697.00    0.88111   0.91911    0.000
 6698.00    0.89014   0.91876    0.000
 6699.00    0.90189   0.91858    0.000
 6700.00    0.91414   0.91848    0.000
 6701.00    0.93624   0.91866    0.000
 6702.00    0.96328   0.91868    0.000
 6703.00    0.97667   0.91863    0.000
 6704.00    0.96927   0.91841    0.000
 6705.00    0.94870   0.91798    0.000
 6706.00    0.92764   0.91732    0.000
 6707.00    0.91786   0.91661    0.000
 6708.00    0.92299   0.91543    0.000
 6709.00    0.93883   0.91383    0.000
 6710.00    0.95692   0.91204    0.000
 6711.00    0.97429   0.90968    0.000
 6712.00    1.00616   0.90729    0.000
 6713.00    1.06873   0.90474    0.000
 6714.00    1.15444   0.90239    0.000
 6715.00    1.24124   0.90088    0.000
 6716.00    1.30747   0.89980    0.000
 6717.00    1.33472   0.89951    0.000
 6718.00    1.31018   0.89985    0.000
 6719.00    1.23618   0.90095    0.000
 6720.00    1.13647   0.90290    0.000
 6721.00    1.04208   0.90497    0.000
 6722.00    0.97845   0.90696    0.000
 6723.00    0.95403   0.90888    0.000
 6724.00    0.95748   0.91062    0.000
 6725.00    0.98120   0.91226    0.000
 6726.00    1.03037   0.91361    0.000
 6727.00    1.10153   0.91453    0.000
 6728.00    1.17514   0.91532    0.000
 6729.00    1.22987   0.91577    0.000
 6730.00    1.25108   0.91608    0.000
 6731.00    1.23827   0.91612    0.000
 6732.00    1.20319   0.91591    0.000
 6733.00    1.15627   0.91531    0.000
 6734.00    1.10227   0.91433    0.000
 6735.00    1.04051   0.91322    0.000
 6736.00    0.97092   0.91196    0.000
 6737.00    0.90691   0.91080    0.000
 6738.00    0.86663   0.90942    0.000
 6739.00    0.85027   0.90793    0.000
 6740.00    0.84672   0.90669    0.000
 6741.00    0.85227   0.90553    0.000
 6742.00    0.86618   0.90463    0.000
 6743.00    0.87975   0.90374    0.000
 6744.00    0.88395   0.90271    0.000
 6745.00    0.88054   0.90202    0.000
 6746.00    0.87655   0.90125    0.000
 6747.00    0.87650   0.90087    0.000
 6748.00    0.88086   0.90066    0.000
 6749.00    0.88586   0.90050    0.000
 6750.00    0.88738   0.90109    0.000
 6751.00    0.88402   0.90178    0.000
 6752.00    0.87485   0.90320    0.000
 6753.00    0.85907   0.90495   20.450
 6754.00    0.84524   0.90686   19.652
 6755.00    0.85159   0.90923   19.001
 6756.00    0.87735   0.91137   18.588
 6757.00    0.89585   0.91346   18.521
 6758.00    0.89498   0.91503   18.944
 6759.00    0.88889   0.91626   19.976
 6760.00    0.88787   0.91690   21.233
 6761.00    0.88944   0.91694   21.726
 6762.00    0.89080   0.91635   21.522
 6763.00    0.89271   0.91502   21.791
 6764.00    0.89736   0.91368   22.583
 6765.00    0.90572   0.91224   22.859
 6766.00    0.91277   0.91092   22.633
 6767.00    0.91150   0.90979   22.827
 6768.00    0.90405   0.90907   23.393
 6769.00    0.89838   0.90903   23.548
 6770.00    0.89741   0.90980   23.159
 6771.00    0.89833   0.91101   22.666
 6772.00    0.89538   0.91254   22.344
 6773.00    0.88683   0.91421   22.200
 6774.00    0.88332   0.91574   21.992
 6775.00    0.89476   0.91717   21.512
 6776.00    0.91404   0.91800   20.898
 6777.00    0.92945   0.91814   20.397
 6778.00    0.93909   0.91746   20.144
 6779.00    0.94310   0.91599   20.082
 6780.00    0.93580   0.91408   19.997
 6781.00    0.91230   0.91196   20.261
 6782.00    0.87477   0.90974   22.165
 6783.00    0.83619   0.90784   24.346
 6784.00    0.81866   0.90624   20.078
 6785.00    0.83034   0.90509   13.924
 6786.00    0.85609   0.90459   11.299
 6787.00    0.88091   0.90450   11.020
 6788.00    0.90049   0.90486   11.242
 6789.00    0.91219   0.90520   11.065
 6790.00    0.91230   0.90553   10.909
 6791.00    0.90164   0.90582   11.058
 6792.00    0.88654   0.90597   11.301
 6793.00    0.87441   0.90624   11.447
 6794.00    0.87101   0.90633   11.472
 6795.00    0.87697   0.90653   11.400
 6796.00    0.88748   0.90691   11.271
 6797.00    0.89420   0.90730   11.184
 6798.00    0.89015   0.90791   11.233
 6799.00    0.87868   0.90842   11.380
 6800.00    0.87006   0.90876   11.494
 6801.00    0.87186   0.90914   11.470
 6802.00    0.88447   0.90925   11.306
 6803.00    0.89759   0.90913   11.141
 6804.00    0.90150   0.90899   11.093
 6805.00    0.90208   0.90850   11.085
 6806.00    0.90887   0.90796   11.003
 6807.00    0.91956   0.90756   10.875
 6808.00    0.92877   0.90707   10.767
 6809.00    0.93802   0.90684   10.661
 6810.00    0.94876   0.90647   10.540
 6811.00    0.95596   0.90615   10.461
 6812.00    0.95331   0.90635   10.490
 6813.00    0.93802   0.90660   10.661
 6814.00    0.91376   0.90703   10.944
 6815.00    0.89108   0.90744   11.222
 6816.00    0.88001   0.90783   11.364
 6817.00    0.88500   0.90854   11.299
 6818.00    0.90159   0.90937   11.092
 6819.00    0.91726   0.91014   10.902
 6820.00    0.92156   0.91085   10.851
 6821.00    0.91183   0.91130   10.967
 6822.00    0.89784   0.91169   11.138
 6823.00    0.89617   0.91185   11.159
 6824.00    0.90817   0.91171   11.011
 6825.00    0.92016   0.91163   10.868
 6826.00    0.92310   0.91140   10.833
 6827.00    0.91751   0.91116   10.899
 6828.00    0.91182   0.91076   10.967
 6829.00    0.91490   0.91032   10.930
 6830.00    0.92259   0.91002   10.839
 6831.00    0.92374   0.90968   10.826
 6832.00    0.91525   0.90909   10.926
 6833.00    0.90137   0.90809   11.094
 6834.00    0.88841   0.90668   11.256
 6835.00    0.88006   0.90469   11.363
 6836.00    0.87294   0.90253   11.455
 6837.00    0.86308   0.89999   11.586
 6838.00    0.85322   0.89759   11.720
 6839.00    0.84723   0.89562   11.803
 6840.00    0.84450   0.89412   11.841
 6841.00    0.84593   0.89353   11.821
 6842.00    0.85793   0.89350   11.656
 6843.00    0.88153   0.89426   11.344
 6844.00    0.90604   0.89567   11.037
 6845.00    0.92071   0.89737   10.861
 6846.00    0.92247   0.89914   10.840
 6847.00    0.91563   0.90064   10.921
 6848.00    0.90896   0.90166   11.002
 6849.00    0.90461   0.90214   11.054
 6850.00    0.89598   0.90184   11.161
 6851.00    0.88045   0.90078   11.358
 6852.00    0.86346   0.89956   11.581
 6853.00    0.85423   0.89808   11.706
 6854.00    0.86042   0.89645   11.622
 6855.00    0.87733   0.89500   11.398
 6856.00    0.89053   0.89355   11.229
 6857.00    0.89083   0.89243   11.226
 6858.00    0.87822   0.89178   11.387
 6859.00    0.86141   0.89176   11.609
 6860.00    0.85297   0.89227   11.724
 6861.00    0.86027   0.89270   11.624
 6862.00    0.88239   0.89303   11.333
 6863.00    0.90830   0.89336   11.010
 6864.00    0.92500   0.89359   10.811
 6865.00    0.92908   0.89402   10.763
 6866.00    0.92371   0.89429   10.826
 6867.00    0.91296   0.89431   10.953
 6868.00    0.90309   0.89399   11.073
 6869.00    0.90354   0.89380   11.068
 6870.00    0.91582   0.89394   10.919
 6871.00    0.92551   0.89419   10.805
 6872.00    0.92275   0.89469   10.837
 6873.00    0.91692   0.89520   10.906
 6874.00    0.91870   0.89589   10.885
 6875.00    0.92716   0.89644   10.786
 6876.00    0.93311   0.89696   10.717
 6877.00    0.92425   0.89734   10.820
 6878.00    0.89857   0.89749   11.129
 6879.00    0.86856   0.89767   11.513
 6880.00    0.84887   0.89796   11.780
 6881.00    0.84820   0.89834   11.790
 6882.00    0.86108   0.89870   11.613
 6883.00    0.87138   0.89939   11.476
 6884.00    0.87410   0.90057   11.440
 6885.00    0.87715   0.90204   11.401
 6886.00    0.88554   0.90375   11.293
 6887.00    0.89711   0.90556   11.147
 6888.00    0.90386   0.90725   11.064
 6889.00    0.89794   0.90865   11.137
 6890.00    0.88315   0.90986   11.323
 6891.00    0.87077   0.91066   11.484
 6892.00    0.86755   0.91120   11.527
 6893.00    0.87431   0.91144   11.438
 6894.00    0.88756   0.91148   11.267
 6895.00    0.90312   0.91147   11.073
 6896.00    0.92038   0.91117   10.865
 6897.00    0.93753   0.91118   10.666
 6898.00    0.94602   0.91131   10.571
 6899.00    0.93829   0.91160   10.658
 6900.00    0.91621   0.91192   10.915
 6901.00    0.88990   0.91227   11.237
 6902.00    0.87423   0.91269   11.439
 6903.00    0.87546   0.91327   11.423
 6904.00    0.88384   0.91363   11.314
 6905.00    0.89266   0.91386   11.202
 6906.00    0.90757   0.91386   11.018
 6907.00    0.92426   0.91342   10.819
 6908.00    0.92196   0.91284   10.846
 6909.00    0.89704   0.91182   11.148
 6910.00    0.87156   0.91056   11.474
 6911.00    0.85730   0.90930   11.665
 6912.00    0.84661   0.90807   11.812
 6913.00    0.83778   0.90683   11.936
 6914.00    0.83967   0.90601   11.909
 6915.00    0.85594   0.90544   11.683
 6916.00    0.88011   0.90531   11.362
 6917.00    0.89661   0.90549   11.153
 6918.00    0.89058   0.90570   11.229
 6919.00    0.86922   0.90607   11.505
 6920.00    0.85375   0.90602   11.713
 6921.00    0.85288   0.90593   11.725
 6922.00    0.85968   0.90578   11.632
 6923.00    0.85671   0.90560   11.673
 6924.00    0.83609   0.90541   11.960
 6925.00    0.82549   0.90504   12.114
 6926.00    0.84758   0.90488   11.798
 6927.00    0.86676   0.90480   11.537
 6928.00    0.84719   0.90502   11.804
 6929.00    0.82068   0.90527   12.185
 6930.00    0.82576   0.90579   12.110
 6931.00    0.84544   0.90643   11.828
 6932.00    0.85149   0.90685   11.744
 6933.00    0.84475   0.90732   11.838
 6934.00    0.83659   0.90765   -2.000
 6935.00    0.83340   0.90816   -2.000
 6936.00    0.84009   0.90854   -2.000
 6937.00    0.86115   0.90879   -2.000
 6938.00    0.89031   0.90880   -2.000
 6939.00    0.90901   0.90837   -2.000
 6940.00    0.90585   0.90777   -2.000
 6941.00    0.88523   0.90680   -2.000
 6942.00    0.86316   0.90612   -2.000
 6943.00    0.85882   0.90542   -2.000
 6944.00    0.87196   0.90469   -2.000
 6945.00    0.88510   0.90411   -2.000
 6946.00    0.89358   0.90356   -2.000
 6947.00    0.90538   0.90327   -2.000
 6948.00    0.91685   0.90321   -2.000
 6949.00    0.91548   0.90340   -2.000
 6950.00    0.90050   0.90366   -2.000
 6951.00    0.88222   0.90394   -2.000
 6952.00    0.87140   0.90432   -2.000
 6953.00    0.87517   0.90490   -2.000
 6954.00    0.89393   0.90553   -2.000
 6955.00    0.92436   0.90644   -2.000
 6956.00    0.96404   0.90747   -2.000
 6957.00    1.00484   0.90867   -2.000
 6958.00    1.02549   0.90986   -2.000
 6959.00    1.01337   0.91098   -2.000
 6960.00    0.98686   0.91206   -2.000
 6961.00    0.97319   0.91290   -2.000
 6962.00    0.98421   0.91363   -2.000
 6963.00    1.00713   0.91432   -2.000
 6964.00    1.00514   0.91496   -2.000
 6965.00    0.96424   0.91530   -2.000
 6966.00    0.91793   0.91540   -2.000
 6967.00    0.89453   0.91502   -2.000
 6968.00    0.88907   0.91446   -2.000
 6969.00    0.89224   0.91357   -2.000
 6970.00    0.90313   0.91201   -2.000
 6971.00    0.91368   0.90993   -2.000
 6972.00    0.90774   0.90716   -2.000
 6973.00    0.88585   0.90418   -2.000
 6974.00    0.86655   0.90091   -2.000
 6975.00    0.85779   0.89799   -2.000
 6976.00    0.85335   0.89600   -2.000
 6977.00    0.85075   0.89467   -2.000
 6978.00    0.85371   0.89424   -2.000
 6979.00    0.86456   0.89478   -2.000
 6980.00    0.88025   0.89639   -2.000
 6981.00    0.88851   0.89874   -2.000
 6982.00    0.87815   0.90159   -2.000
 6983.00    0.85887   0.90469   -2.000
 6984.00    0.85139   0.90753   -2.000
 6985.00    0.86575   0.90973   -2.000
 6986.00    0.89434   0.91145   -2.000
 6987.00    0.90943   0.91278   -2.000
 6988.00    0.89157   0.91358   -2.000
 6989.00    0.86116   0.91408   -2.000
 6990.00    0.84552   0.91409   -2.000
 6991.00    0.84309   0.91401   -2.000
 6992.00    0.84399   0.91371   -2.000
 6993.00    0.84990   0.91317   -2.000
 6994.00    0.85911   0.91243   -2.000
 6995.00    0.85737   0.91124   -2.000
 6996.00    0.84419   0.90987   -2.000
 6997.00    0.84410   0.90843   -2.000
 6998.00    0.86554   0.90699   -2.000
 6999.00    0.88471   0.90558   -2.000
 7000.00    0.88811   0.90405   -2.000
 7001.00    0.88817   0.90277   -2.000
 7002.00    0.89461   0.90186   -2.000
 7003.00    0.90567   0.90128   -2.000
 7004.00    0.92339   0.90115   -2.000
 7005.00    0.95251   0.90114   -2.000
 7006.00    0.97858   0.90124   -2.000
 7007.00    0.97874   0.90121   -2.000
 7008.00    0.96962   0.90120   -2.000
 7009.00    0.99194   0.90121   -2.000
 7010.00    1.04326   0.90083   -2.000
 7011.00    1.08161   0.90020   -2.000
 7012.00    1.06743   0.89918   -2.000
 7013.00    0.98832   0.89828   -2.000
 7014.00    0.88489   0.89780   -2.000
 7015.00    0.81331   0.89738   -2.000
 7016.00    0.78288   0.89734   -2.000
 7017.00    0.77473   0.89736   -2.000
 7018.00    0.77896   0.89764   -2.000
 7019.00    0.79546   0.89809   -2.000
 7020.00    0.82785   0.89873   -2.000
 7021.00    0.86819   0.89976   -2.000
 7022.00    0.88665   0.90064   -2.000
 7023.00    0.87139   0.90138   -2.000
 7024.00    0.85649   0.90204   -2.000
 7025.00    0.86571   0.90285   -2.000
 7026.00    0.87610   0.90378   -2.000
 7027.00    0.86725   0.90490   -2.000
 7028.00    0.85024   0.90611   -2.000
 7029.00    0.84114   0.90733   -2.000
 7030.00    0.84519   0.90842   -2.000
 7031.00    0.85713   0.90925   -2.000
 7032.00    0.86413   0.90999   -2.000
 7033.00    0.85514   0.91066   -2.000
 7034.00    0.82712   0.91117   -2.000
 7035.00    0.79245   0.91204   -2.000
 7036.00    0.77479   0.91339   -2.000
 7037.00    0.78875   0.91511   -2.000
 7038.00    0.83529   0.91714   -2.000
 7039.00    0.90656   0.91930   -2.000
 7040.00    0.98321   0.92178   -2.000
 7041.00    1.02625   0.92403   -2.000
 7042.00    1.00370   0.92641   -2.000
 7043.00    0.94354   0.92869   -2.000
 7044.00    0.89928   0.93022   -2.000
 7045.00    0.87614   0.93094   -2.000
 7046.00    0.85820   0.93062   -2.000
 7047.00    0.86347   0.92952   -2.000
 7048.00    0.90451   0.92743   -2.000
 7049.00    0.93419   0.92462   -2.000
 7050.00    0.91366   0.92144   -2.000
 7051.00    0.88635   0.91762   -2.000
 7052.00    0.89697   0.91363   -2.000
 7053.00    0.91498   0.90944   -2.000
 7054.00    0.90470   0.90537   -2.000
 7055.00    0.88232   0.90167   -2.000
 7056.00    0.86866   0.89827   -2.000
 7057.00    0.85638   0.89572   -2.000
 7058.00    0.83674   0.89369   -2.000
 7059.00    0.81680   0.89205   -2.000
 7060.00    0.81540   0.89073   -2.000
 7061.00    0.85153   0.88957   -2.000
 7062.00    0.90502   0.88848   -2.000
 7063.00    0.91923   0.88762   -2.000
 7064.00    0.88186   0.88709   -2.000
 7065.00    0.83589   0.88699   -2.000
 7066.00    0.80664   0.88722   -2.000
 7067.00    0.78713   0.88769   -2.000
 7068.00    0.77028   0.88854   -2.000
 7069.00    0.75566   0.88955   -2.000
 7070.00    0.74153   0.89095   -2.000
 7071.00    0.72728   0.89259   -2.000
 7072.00    0.72255   0.89433   -2.000
 7073.00    0.73647   0.89603   -2.000
 7074.00    0.75495   0.89736   -2.000
 7075.00    0.76004   0.89806   -2.000
 7076.00    0.76654   0.89807   -2.000
 7077.00    0.79830   0.89739   -2.000
 7078.00    0.84765   0.89578   -2.000
 7079.00    0.88312   0.89335   -2.000
 7080.00    0.86900   0.89018   -2.000
 7081.00    0.80531   0.88644   -2.000
 7082.00    0.75861   0.88232   -2.000
 7083.00    0.77535   0.87785   -2.000
 7084.00    0.81033   0.87337   -2.000
 7085.00    0.81224   0.86897   -2.000
 7086.00    0.79066   0.86504   -2.000
 7087.00    0.77650   0.86156   -2.000
 7088.00    0.78685   0.85904   -2.000
 7089.00    0.79733   0.85714   -2.000
 7090.00    0.75706   0.85599   -2.000
 7091.00    0.73898   0.85533   -2.000
 7092.00    0.90063   0.85516   -2.000
 7093.00    0.98884   0.85590   -2.000
 7094.00    0.44857   0.85658   -2.000
 7095.00   -0.37169   0.85830   -2.000
 7096.00   -0.35983   0.85967   -2.000
 7097.00    0.44920   0.86143   -2.000
 7098.00    0.93477   0.86316   -2.000
 7099.00    0.80604   0.86466   -2.000
 7100.00    0.64268   0.86630   -2.000
 7101.00    0.67808   0.86729   -2.000
 7102.00    0.73663   0.86828   -2.000
 7103.00    0.72937   0.86859   -2.000
 7104.00    0.69472   0.86860   -2.000
 7105.00    0.68013   0.86826   -2.000
 7106.00    0.70301   0.86768   -2.000
 7107.00    0.72722   0.86701   -2.000
 7108.00    0.70981   0.86630   -2.000
 7109.00    0.66592   0.86560   -2.000
 7110.00    0.63971   0.86502   -2.000
 7111.00    0.65844   0.86465   -2.000
 7112.00    0.70427   0.86458   -2.000
 7113.00    0.70305   0.86464   -2.000
 7114.00    0.63652   0.86478   -2.000
 7115.00    0.61765   0.86505   -2.000
 7116.00    0.70461   0.86528   -2.000
 7117.00    0.78593   0.86543   -2.000
 7118.00    0.78492   0.86526   -2.000
 7119.00    0.76979   0.86488   -2.000
 7120.00    0.78544   0.86428   -2.000
 7121.00    0.77977   0.86328   -2.000
 7122.00    0.72884   0.86220   -2.000
 7123.00    0.67964   0.86082   -2.000
 7124.00    0.66346   0.85942   -2.000
 7125.00    0.66808   0.85784   -2.000
 7126.00    0.67392   0.85643   -2.000
 7127.00    0.67242   0.85530   -2.000
 7128.00    0.67880   0.85443   -2.000
 7129.00    0.71665   0.85400   -2.000
 7130.00    0.76842   0.85402   -2.000
 7131.00    0.79319   0.85483   -2.000
 7132.00    0.79665   0.85582   -2.000
 7133.00    0.80882   0.85729   -2.000
 7134.00    0.81002   0.85880   -2.000
 7135.00    0.76298   0.86075   -2.000
 7136.00    0.69110   0.86243   -2.000
 7137.00    0.64777   0.86382   -2.000
 7138.00    0.65157   0.86490   -2.000
 7139.00    0.68383   0.86527   -2.000
 7140.00    0.70130   0.86552   -2.000
 7141.00    0.67960   0.86510   -2.000
 7142.00    0.65389   0.86430   -2.000
 7143.00    0.65705   0.86336   -2.000
 7144.00    0.66269   0.86247   -2.000
 7145.00    0.64300   0.86169   -2.000
 7146.00    0.61624   0.86110   -2.000
 7147.00    0.60802   0.86101   -2.000
 7148.00    0.62202   0.86138   -2.000
 7149.00    0.64893   0.86222   -2.000
 7150.00    0.67525   0.86361   -2.000
 7151.00    0.69353   0.86524   -2.000
 7152.00    0.70461   0.86721   -2.000
 7153.00    0.70286   0.86939   -2.000
 7154.00    0.67735   0.87102   -2.000
 7155.00    0.64355   0.87223   -2.000
 7156.00    0.63718   0.87299   -2.000
 7157.00    0.65026   0.87294   -2.000
 7158.00    0.63846   0.87231   -2.000
 7159.00    0.60707   0.87110   -2.000
 7160.00    0.60665   0.86997   -2.000
 7161.00    0.65598   0.86864   -2.000
 7162.00    0.72826   0.86744   -2.000
 7163.00    0.76719   0.86666   -2.000
 7164.00    0.72990   0.86643   -2.000
 7165.00    0.65727   0.86687   -2.000
 7166.00    0.62092   0.86787   -2.000
 7167.00    0.61775   0.86917   -2.000
 7168.00    0.60914   0.87088   -2.000
 7169.00    0.59858   0.87288   -2.000
 7170.00    0.60641   0.87471   -2.000
 7171.00    0.62707   0.87613   -2.000
 7172.00    0.64487   0.87691   -2.000
 7173.00    0.65596   0.87712   -2.000
 7174.00    0.66687   0.87671   -2.000
 7175.00    0.68908   0.87587   -2.000
 7176.00    0.72238   0.87462   -2.000
 7177.00    0.74533   0.87319   -2.000
 7178.00    0.73955   0.87162   -2.000
 7179.00    0.70704   0.86996   -2.000
 7180.00    0.66919   0.86848   -2.000
 7181.00    0.65863   0.86698   -2.000
 7182.00    0.68439   0.86554   -2.000
 7183.00    0.72079   0.86393   -2.000
 7184.00    0.73808   0.86259   -2.000
 7185.00    0.72194   0.86161   -2.000
 7186.00    0.69246   0.86081   -2.000
 7187.00    0.68867   0.86025   -2.000
 7188.00    0.69687   0.85957   -2.000
 7189.00    0.66524   0.85956   -2.000
 7190.00    0.61012   0.85964   -2.000
 7191.00    0.59646   0.86011   -2.000
 7192.00    0.61804   0.86124   -2.000
 7193.00    0.61856   0.86232   -2.000
 7194.00    0.59657   0.86370   -2.000
 7195.00    0.59237   0.86468   -2.000
 7196.00    0.62380   0.86551   -2.000
 7197.00    0.68041   0.86627   -2.000
 7198.00    0.73400   0.86697   -2.000
 7199.00    0.75734   0.86732   -2.000
 7200.00    0.74665   0.86710   -2.000
 7201.00    0.71745   0.86656   -2.000
 7202.00    0.69420   0.86604   -2.000
 7203.00    0.68879   0.86524   -2.000
 7204.00    0.68339   0.86444   -2.000
 7205.00    0.66370   0.86379   -2.000
 7206.00    0.64619   0.86331   -2.000
 7207.00    0.64969   0.86336   -2.000
 7208.00    0.67284   0.86345   -2.000
 7209.00    0.69981   0.86396   -2.000
 7210.00    0.70961   0.86458   -2.000
 7211.00    0.70077   0.86584   -2.000
 7212.00    0.69715   0.86757   -2.000
 7213.00    0.70838   0.86907   -2.000
 7214.00    0.71769   0.87071   -2.000
 7215.00    0.71506   0.87191   -2.000
 7216.00    0.70630   0.87297   -2.000
 7217.00    0.69330   0.87391   -2.000
 7218.00    0.67178   0.87478   -2.000
