###################################################################
## OUTPUT of StarlightChains_v04.for    [Cid@UFSC - 01/Apr/2007] ##
###################################################################

## Some input info
2012gn.txt                               [arq_obs]
Base.CB07.vall.4m                        [arq_base]
Masks.EmLines.NEW.gm                     [arq_masks]
StCv04.C11.config                        [arq_config]
   66                                    [N_base]
    0                                    [N_YAV_components = # of components with extra extinction!]
    0                                    [i_FitPowerLaw (1/0 = Yes/No)]
-9.99                                    [alpha_PowerLaw]
CCM                                      [red_law_option]
 1.458241                                [q_norm = A(l_norm)/A(V)]

## (Re)Sampling Parameters
 3741.00                                 [l_ini (A)]
 7218.00                                 [l_fin (A)]
    1.00                                 [dl    (A)]     (OBS: dl_cushion =    50.00 A)

## Normalization info
 4020.00                                 [l_norm (A) - for base]
 4010.00                                 [llow_norm (A) - window for f_obs]
 4060.00                                 [lupp_norm (A) - window for f_obs]
7.066037E-16                             [fobs_norm (in input units)]

## S/N
 3691.00                                 [llow_SN (A) - window for S/N]
 7268.00                                 [lupp_SN (A) - window for S/N]
   6.664                                 [S/N in S/N window]
   8.505                                 [S/N in norm. window]
  15.133                                 [S/N_err in S/N window]
  19.313                                 [S/N_err in norm. window]
  1.0000                                 [fscale_chi2]

## etc...
    -2007398                             [idum_orig]
  2385                                   [NOl_eff]
  2374                                   [Nl_eff]
    11    NSIGMA                         [Ntot_cliped & clip_method]
  1643530                                [Nglobal_steps]
   7                                     [N_chains]
  22                                     [NEX0s_base = N_base in EX0s-fits]
 0   0   1        7   2.0   5.931E+01    [Clip-Bug, RC-Crash & Burn-In warning-flags, n_censored_weights, wei_nsig_threshold & wei_limit]
    16     15.400     14.890      0.510  [idt_all, wdt_TotTime, wdt_UsrTime & wdt_SysTime (sec)]

## Synthesis Results - Best model ##

 3.51852E-01                             [chi2/Nl_eff]
     2.62200                             [adev (%)]

   101.81155                             [sum-of-x (%)]
 1.22874E-15                             [Flux_tot (units of input spectrum!)]
 4.10130E-12                             [Mini_tot (???)]
 2.37163E-12                             [Mcor_tot (???)]

 -44.35                                  [v0_min  (km/s)]
 168.65                                  [vd_min  (km/s)]
 0.3986                                  [AV_min  (mag)]
 0.0000                                  [YAV_min (mag)]

# j     x_j(%)      Mini_j(%)     Mcor_j(%)     age_j(yr)     Z_j      (L/M)_j    YAV?  Mstars   component_j        a/Fe...       SSP_chi2r SSP_adev(%)   SSP_AV   SSP_x(%)
  1      0.0000     0.0000E+00    0.0000E+00    1.000000E+06  0.00400  1.094E-02    0   1.0000   age020_m42            0.0000     1.1877E+00     6.1722   2.6940    79.9246
  2      0.0000     0.0000E+00    0.0000E+00    3.160000E+06  0.00400  4.007E-02    0   0.9999   age045_m42            0.0000     7.8339E-01     4.6604   1.8988    88.5535
  3      0.0000     0.0000E+00    0.0000E+00    5.010000E+06  0.00400  2.539E-02    0   0.9488   age055_m42            0.0000     8.8940E-01     5.1698   2.2418    85.3286
  4      0.0000     0.0000E+00    0.0000E+00    6.610000E+06  0.00400  2.620E-02    0   0.9220   age061_m42            0.0000     7.0141E-01     4.3631   1.8070    89.5148
  5      0.0000     0.0000E+00    0.0000E+00    1.000000E+07  0.00400  1.322E-02    0   0.8862   age070_m42            0.0000     6.1963E-01     3.8906   1.4544    94.1107
  6      0.0000     0.0000E+00    0.0000E+00    1.445000E+07  0.00400  7.883E-03    0   0.8571   age078_m42            0.0000     7.3415E-01     4.3795   1.8070    90.6050
  7      4.4970     2.5201E-01    3.5623E-01    2.512000E+07  0.00400  5.251E-03    0   0.8174   age090_m42            0.0000     6.1342E-01     3.7768   1.3076    95.3314
  8     10.9935     8.8655E-01    1.2037E+00    4.000000E+07  0.00400  3.649E-03    0   0.7851   age104_m42            0.0000     5.3489E-01     3.4830   1.0766    96.3784
  9      3.6552     3.4719E-01    4.5805E-01    5.500000E+07  0.00400  3.098E-03    0   0.7629   age110_m42            0.0000     5.0186E-01     3.4111   1.2475    95.8609
 10      3.5890     4.7402E-01    5.9079E-01    1.015200E+08  0.00400  2.228E-03    0   0.7207   age116_m42            0.0000     5.2127E-01     3.4518   1.2766    95.8137
 11      0.0000     0.0000E+00    0.0000E+00    2.861200E+08  0.00400  1.093E-03    0   0.6648   age125_m42            0.0000     5.9390E-01     3.2865   0.6473   101.5657
 12      0.0000     0.0000E+00    0.0000E+00    5.088000E+08  0.00400  6.597E-04    0   0.6365   age130_m42            0.0000     5.8568E-01     3.3728   0.6631   101.4033
 13      4.9743     6.8657E+00    6.8840E+00    1.434000E+09  0.00400  2.132E-04    0   0.5798   age139_m42            0.0000     4.8331E-01     3.1043  -0.2862   102.3716
 14      2.0355     1.0161E+01    9.4479E+00    4.250000E+09  0.00400  5.895E-05    0   0.5377   age158_m42            0.0000     7.2288E-01     4.1178  -0.6381    94.5136
 15      3.4023     2.8524E+01    2.5709E+01    7.500000E+09  0.00400  3.510E-05    0   0.5212   age171_m42            0.0000     8.8241E-01     4.6630  -0.8027    92.9663
 16      0.6555     9.6199E+00    8.3745E+00    1.300000E+10  0.00400  2.005E-05    0   0.5034   age193_m42            0.0000     1.0561E+00     5.2170  -0.9477    91.6985
 17      0.0000     0.0000E+00    0.0000E+00    1.800000E+10  0.00400  1.525E-05    0   0.4967   age213_m42            0.0000     1.0467E+00     5.1592  -0.9725    91.3312
 18      0.0000     0.0000E+00    0.0000E+00    1.000000E+06  0.00800  1.238E-02    0   1.0000   age020_m52            0.0000     1.1833E+00     6.1637   2.6904    80.0831
 19      0.0000     0.0000E+00    0.0000E+00    3.160000E+06  0.00800  3.074E-02    0   0.9966   age045_m52            0.0000     1.1327E+00     6.0270   2.6113    80.9133
 20      0.0000     0.0000E+00    0.0000E+00    5.010000E+06  0.00800  2.668E-02    0   0.9443   age055_m52            0.0000     9.1554E-01     5.2921   2.3304    84.2575
 21      0.4039     5.5639E-03    8.8298E-03    6.610000E+06  0.00800  2.136E-02    0   0.9177   age061_m52            0.0000     5.9450E-01     3.8047   0.9824    93.8720
 22      0.0000     0.0000E+00    0.0000E+00    1.000000E+07  0.00800  1.215E-02    0   0.8827   age070_m52            0.0000     7.6038E-01     4.1745   1.6224    94.2373
 23      0.4447     1.5013E-02    2.2203E-02    1.445000E+07  0.00800  8.717E-03    0   0.8552   age078_m52            0.0000     6.7449E-01     4.1492   1.7635    92.2369
 24      1.5101     7.9468E-02    1.1217E-01    2.512000E+07  0.00800  5.592E-03    0   0.8162   age090_m52            0.0000     6.1653E-01     3.6577   1.3598    96.9769
 25      2.1096     1.5934E-01    2.1606E-01    4.000000E+07  0.00800  3.896E-03    0   0.7841   age104_m52            0.0000     5.4937E-01     3.3941   1.2689    98.0532
 26      4.0121     5.4964E-01    6.8683E-01    1.015200E+08  0.00800  2.148E-03    0   0.7226   age116_m52            0.0000     4.8181E-01     3.2254   1.2260    97.3015
 27      0.0000     0.0000E+00    0.0000E+00    2.861200E+08  0.00800  9.925E-04    0   0.6683   age125_m52            0.0000     5.7131E-01     3.2865   0.7230   102.5135
 28      0.0000     0.0000E+00    0.0000E+00    9.047900E+08  0.00800  3.141E-04    0   0.6138   age135_m52            0.0000     7.1002E-01     3.8247  -0.0474   105.6881
 29      0.0000     0.0000E+00    0.0000E+00    1.434000E+09  0.00800  1.719E-04    0   0.5853   age139_m52            0.0000     7.8240E-01     3.9795  -0.5999   102.1446
 30      0.0000     0.0000E+00    0.0000E+00    2.500000E+09  0.00800  7.872E-05    0   0.5600   age150_m52            0.0000     9.7852E-01     4.9127  -0.7900    95.9872
 31      0.0000     0.0000E+00    0.0000E+00    4.250000E+09  0.00800  4.336E-05    0   0.5426   age158_m52            0.0000     1.0028E+00     4.9818  -0.7960    94.6765
 32      0.0000     0.0000E+00    0.0000E+00    6.250000E+09  0.00800  3.159E-05    0   0.5319   age166_m52            0.0000     1.2897E+00     5.7414  -0.9694    93.5534
 33      0.0000     0.0000E+00    0.0000E+00    1.300000E+10  0.00800  1.361E-05    0   0.5073   age193_m52            0.0000     2.8578E+00     9.6569  -1.0000    74.5089
 34      0.0000     0.0000E+00    0.0000E+00    1.800000E+10  0.00800  9.886E-06    0   0.4990   age213_m52            0.0000     3.6200E+00    11.0090  -1.0000    70.3232
 35      0.0013     2.4469E-05    4.2315E-05    1.000000E+06  0.02000  1.544E-02    0   1.0000   age020_m62            0.0000     1.1891E+00     6.1933   2.6881    80.2005
 36      0.0000     0.0000E+00    0.0000E+00    3.160000E+06  0.02000  3.762E-02    0   0.9858   age045_m62            0.0000     1.1696E+00     6.1543   2.6269    80.9411
 37      0.0000     0.0000E+00    0.0000E+00    5.010000E+06  0.02000  3.296E-02    0   0.9342   age055_m62            0.0000     8.2360E-01     4.9218   2.1957    86.7247
 38     12.0275     3.0670E-01    4.6997E-01    8.710000E+06  0.02000  1.154E-02    0   0.8861   age067_m62            0.0000     2.2511E+00     6.7624   0.9829   100.0185
 39      0.0000     0.0000E+00    0.0000E+00    1.445000E+07  0.02000  7.663E-03    0   0.8472   age078_m62            0.0000     1.1141E+00     4.5882   1.2263    98.0860
 40      0.0000     0.0000E+00    0.0000E+00    2.512000E+07  0.02000  4.532E-03    0   0.8099   age090_m62            0.0000     1.2016E+00     4.6563   1.2009    98.6426
 41      0.0000     0.0000E+00    0.0000E+00    5.500000E+07  0.02000  2.733E-03    0   0.7595   age110_m62            0.0000     5.5340E-01     3.4401   1.2579    97.0353
 42      0.0298     6.4160E-03    7.7500E-03    1.609000E+08  0.02000  1.369E-03    0   0.6985   age120_m62            0.0000     5.0847E-01     3.2109   1.0948   100.2099
 43      6.8436     2.2344E+00    2.5943E+00    2.861200E+08  0.02000  9.013E-04    0   0.6714   age125_m62            0.0000     5.7843E-01     3.4143   0.8409   103.4354
 44      0.0000     0.0000E+00    0.0000E+00    5.088000E+08  0.02000  5.028E-04    0   0.6449   age130_m62            0.0000     7.6399E-01     4.0175   0.4988   104.7675
 45      0.0000     0.0000E+00    0.0000E+00    9.047900E+08  0.02000  2.428E-04    0   0.6179   age135_m62            0.0000     7.8677E-01     4.2161  -0.0478   102.3121
 46      0.0000     0.0000E+00    0.0000E+00    1.434000E+09  0.02000  1.263E-04    0   0.5908   age139_m62            0.0000     8.9558E-01     4.5715  -0.4575    99.1712
 47      0.0000     0.0000E+00    0.0000E+00    2.500000E+09  0.02000  5.985E-05    0   0.5673   age150_m62            0.0000     1.2641E+00     5.6593  -0.7656    95.3336
 48      0.0000     0.0000E+00    0.0000E+00    4.250000E+09  0.02000  3.271E-05    0   0.5468   age158_m62            0.0000     1.7893E+00     6.9985  -1.0000    91.5639
 49      0.0000     0.0000E+00    0.0000E+00    1.000000E+10  0.02000  1.360E-05    0   0.5167   age181_m62            0.0000     3.1597E+00     9.8949  -1.0000    76.6448
 50      0.0000     0.0000E+00    0.0000E+00    1.800000E+10  0.02000  7.124E-06    0   0.5013   age213_m62            0.0000     4.5280E+00    12.2258  -1.0000    68.4505
 51      0.0000     0.0000E+00    0.0000E+00    1.000000E+06  0.05000  2.592E-02    0   0.9998   age020_m72            0.0000     1.2246E+00     6.3040   2.6830    80.0499
 52      0.0000     0.0000E+00    0.0000E+00    3.160000E+06  0.05000  4.845E-02    0   0.9577   age045_m72            0.0000     1.0391E+00     5.7342   2.4953    82.7017
 53      0.0000     0.0000E+00    0.0000E+00    5.010000E+06  0.05000  3.072E-02    0   0.9147   age055_m72            0.0000     1.2577E+00     5.0723   1.8700    92.1551
 54      0.0000     0.0000E+00    0.0000E+00    6.610000E+06  0.05000  1.455E-02    0   0.8877   age061_m72            0.0000     6.0257E+00     9.2980   0.9587   104.2450
 55      0.0000     0.0000E+00    0.0000E+00    1.000000E+07  0.05000  9.074E-03    0   0.8524   age070_m72            0.0000     2.3309E+00     5.9072   2.0303    93.0979
 56      0.0000     0.0000E+00    0.0000E+00    2.512000E+07  0.05000  4.250E-03    0   0.7902   age090_m72            0.0000     1.4318E+00     4.7441   1.7042    95.9891
 57      0.0000     0.0000E+00    0.0000E+00    4.000000E+07  0.05000  3.087E-03    0   0.7618   age104_m72            0.0000     1.4584E+00     4.5963   1.4488    98.8493
 58      0.0000     0.0000E+00    0.0000E+00    1.015200E+08  0.05000  1.700E-03    0   0.7096   age116_m72            0.0000     6.0044E-01     3.3095   1.2145   100.7373
 59      1.6800     6.6951E-01    7.6796E-01    2.861200E+08  0.05000  7.384E-04    0   0.6633   age125_m72            0.0000     6.4969E-01     3.6621   0.7230   104.3289
 60     29.9796     2.3100E+01    2.5455E+01    5.088000E+08  0.05000  3.819E-04    0   0.6372   age130_m72            0.0000     7.7306E-01     4.1928   0.2868   103.4431
 61      8.9670     1.5744E+01    1.6635E+01    9.047900E+08  0.05000  1.676E-04    0   0.6110   age135_m72            0.0000     1.2348E+00     5.6272  -0.3147    97.4058
 62      0.0000     0.0000E+00    0.0000E+00    1.434000E+09  0.05000  8.837E-05    0   0.5874   age139_m72            0.0000     1.4156E+00     5.9678  -0.7647    96.6713
 63      0.0000     0.0000E+00    0.0000E+00    2.500000E+09  0.05000  4.233E-05    0   0.5598   age150_m72            0.0000     2.0200E+00     7.4147  -1.0000    92.4126
 64      0.0000     0.0000E+00    0.0000E+00    6.250000E+09  0.05000  1.435E-05    0   0.5249   age166_m72            0.0000     3.7563E+00    11.0499  -1.0000    72.6821
 65      0.0000     0.0000E+00    0.0000E+00    1.300000E+10  0.05000  6.513E-06    0   0.5036   age193_m72            0.0000     5.7949E+00    14.2758  -1.0000    63.6857
 66      0.0000     0.0000E+00    0.0000E+00    1.800000E+10  0.05000  4.527E-06    0   0.4945   age213_m72            0.0000     7.1593E+00    16.1777  -1.0000    58.5572


## Synthesis Results - Average & Chains ##

# j      x_j: min, <> & last-chain-values for 1 ...  7 chains
  1      0.0000      0.1004      0.0000      0.0000      0.0000      0.6445      0.1962      0.0000      0.0000
  2      0.0000      0.3918      0.0000      0.0000      0.4109      0.3798      0.0000      0.0149      0.0000
  3      0.0000      0.7146      0.5269      1.5283      1.5902      0.0000      0.2542      0.0000      0.0000
  4      0.0000      0.3112      0.6851      0.1235      1.8312      0.0000      0.0000      0.0000      0.7254
  5      0.0000      0.3243      0.0000      1.6201      0.6867      0.8987      0.2616      0.0000      0.1963
  6      0.0000      0.2446      0.7339      0.4008      0.0000      0.0000      1.4270      0.3386      0.3393
  7      4.4970      1.1142      0.0000      0.9103      0.0000      1.8251      0.8548      4.0089      2.1632
  8     10.9935      5.7330      6.3559      7.4408      7.1876      5.5736      5.7745      6.8111      7.0876
  9      3.6552      2.7082      3.0624      2.0422      3.3529      4.2959      4.8813      2.7248      2.5155
 10      3.5890      2.6936      3.1435      3.1044      1.6680      3.1037      3.2737      3.5959      3.1863
 11      0.0000      0.9754      0.0000      0.0000      0.4110      0.0000      1.0738      0.1705      0.0000
 12      0.0000      0.7599      0.0000      0.0000      0.0000      0.0000      0.0000      1.4979      0.0000
 13      4.9743      2.7221      4.1591      2.7193      2.8410      3.0167      3.0723      3.5650      2.6783
 14      2.0355      0.8638      1.0942      0.9745      0.3987      0.0000      1.1704      1.1217      0.7747
 15      3.4023      2.3957      2.5859      3.3503      3.0068      2.3826      2.1084      2.4749      2.7890
 16      0.6555      1.3823      1.3267      1.1063      1.7262      1.3552      1.2311      1.2273      1.7794
 17      0.0000      0.0873      0.0000      0.0000      0.0843      0.2890      0.0000      0.1100      0.0000
 18      0.0000      0.1202      0.0000      0.3177      0.0000      0.3792      0.2742      0.0000      0.0176
 19      0.0000      0.1958      0.0000      0.0516      0.0000      0.0000      0.0000      0.0000      0.0000
 20      0.0000      0.1188      0.0000      0.0000      0.0000      0.2485      0.0000      0.0407      0.3984
 21      0.4039      3.4623      3.7189      1.3143      2.8208      3.6066      3.7984      5.6251      1.3167
 22      0.0000      0.4752      1.4367      0.0000      1.2323      0.0000      0.7719      0.0000      0.0000
 23      0.4447      0.2402      0.4562      0.1702      0.0000      1.4164      0.0000      0.0000      0.6691
 24      1.5101      2.3711      2.5219      2.3080      1.9124      2.4722      1.9338      1.9679      2.0729
 25      2.1096      2.5225      2.8996      4.7734      2.6093      2.4589      3.2623      1.4791      2.1359
 26      4.0121      4.3881      5.1366      5.1348      1.2982      3.9425      4.1324      3.9381      4.0567
 27      0.0000      0.6217      0.2016      0.0000      0.1651      0.0000      0.0000      0.0000      0.0000
 28      0.0000      0.2693      0.1531      0.0229      0.0568      0.0000      0.0000      0.0000      0.0004
 29      0.0000      0.0640      0.0000      0.0000      0.0000      0.0000      0.0000      0.0000      0.0000
 30      0.0000      0.0658      0.0000      0.0000      0.0000      0.6767      0.0000      0.0000      0.0000
 31      0.0000      0.2380      0.3499      0.0000      0.1191      0.6403      0.2183      0.0000      0.0000
 32      0.0000      0.2362      0.0000      0.0000      0.1968      0.5816      0.0000      0.0169      0.0000
 33      0.0000      0.0625      0.0000      0.5033      0.0000      0.2868      0.2487      0.0279      0.0000
 34      0.0000      0.0468      0.0000      0.0000      0.0000      0.0000      0.3632      0.1654      0.0000
 35      0.0013      0.1504      0.0000      0.7803      0.0000      0.0000      0.1058      0.2609      0.6305
 36      0.0000      0.1439      0.0000      0.2144      0.0000      0.9187      0.4281      0.0000      0.0000
 37      0.0000      0.2220      0.2319      0.6044      0.0000      0.0000      0.1959      0.3633      0.0000
 38     12.0275      9.6154     11.2917      7.3828     11.1412      8.6574      9.6490      9.5977     13.5225
 39      0.0000      0.3601      0.0000      0.9071      1.1350      0.0000      0.0000      0.0000      0.0000
 40      0.0000      0.4475      0.3510      0.0000      0.0000      0.0000      0.2038      0.5408      0.0000
 41      0.0000      0.3631      0.1009      0.6008      1.2339      0.4106      0.1041      0.0000      0.0000
 42      0.0298      0.6419      0.0000      0.0000      0.0000      0.7709      0.3838      0.5652      1.5145
 43      6.8436      5.3899      5.4121      6.5226      6.2779      6.3950      6.5409      6.0501      5.6350
 44      0.0000      0.9837      0.0000      0.0000      0.6763      0.0783      0.0000      0.0000      0.0335
 45      0.0000      0.4550      0.0000      0.0000      0.0000      0.0000      0.0000      0.0000      0.0000
 46      0.0000      0.8271      0.3703      0.0000      0.5745      0.0000      0.4762      0.8912      1.6826
 47      0.0000      0.0716      0.0000      0.0000      0.0000      0.0000      0.0000      0.0000      0.0000
 48      0.0000      0.0483      0.0000      0.0000      0.0149      0.1638      0.0000      0.0000      0.0000
 49      0.0000      0.6517      0.9440      0.7106      0.7486      0.7707      0.5556      0.7472      0.4620
 50      0.0000      0.0088      0.0000      0.0000      0.0000      0.0000      0.0000      0.0000      0.0000
 51      0.0000      0.1656      0.4181      0.0000      0.0000      0.0000      0.0000      0.1629      0.0159
 52      0.0000      0.2638      0.3609      0.0000      0.1177      0.5402      0.0000      0.2187      0.0000
 53      0.0000      0.1594      0.0000      0.0000      0.0000      0.0000      0.0000      0.0000      0.0000
 54      0.0000      0.0828      0.0160      0.0000      0.0000      0.0000      0.0000      0.0000      0.0000
 55      0.0000      0.0573      0.0000      0.0000      0.0000      0.0000      0.0000      0.0000      0.0000
 56      0.0000      0.1376      0.0000      0.7456      0.0000      0.0000      0.0000      0.0000      0.0000
 57      0.0000      0.2902      0.0000      0.0000      0.0247      0.0302      0.0787      0.5251      0.0000
 58      0.0000      0.3408      0.0000      0.9737      0.0000      1.2729      0.0000      0.0622      0.3005
 59      1.6800      2.3041      2.3817      0.2638      3.7586      2.1800      2.6978      2.1329      2.3138
 60     29.9796     33.2831     34.0327     36.0890     35.0250     34.4072     34.2754     33.6172     33.7671
 61      8.9670      5.3130      5.5020      5.9266      5.6236      4.9328      5.6019      4.7693      7.0304
 62      0.0000      0.0573      0.0000      0.0000      0.0000      0.0000      0.0000      0.0000      0.0884
 63      0.0000      0.0914      0.0000      0.0000      0.0815      0.0000      0.0000      0.2061      0.0000
 64      0.0000      0.0282      0.0000      0.1689      0.0000      0.0371      0.1581      0.1378      0.0000
 65      0.0000      0.0080      0.0000      0.0000      0.0000      0.0000      0.0000      0.0000      0.0000
 66      0.0000      0.0406      0.0000      0.0235      0.1245      0.0356      0.0000      0.0000      0.0000

# j      m_j: min, <> & last-chain-values for 1 ...  7 chains
  1  0.0000E+00  3.9549E-03  0.0000E+00  0.0000E+00  0.0000E+00  2.3780E-02  7.6744E-03  0.0000E+00  0.0000E+00
  2  0.0000E+00  4.2139E-03  0.0000E+00  0.0000E+00  4.1486E-03  3.8254E-03  0.0000E+00  1.6171E-04  0.0000E+00
  3  0.0000E+00  1.1510E-02  8.7260E-03  2.3473E-02  2.4041E-02  0.0000E+00  4.0650E-03  0.0000E+00  0.0000E+00
  4  0.0000E+00  4.7198E-03  1.0684E-02  1.7855E-03  2.6072E-02  0.0000E+00  0.0000E+00  0.0000E+00  1.1471E-02
  5  0.0000E+00  9.3716E-03  0.0000E+00  4.4635E-02  1.8623E-02  2.4315E-02  7.5033E-03  0.0000E+00  5.9136E-03
  6  0.0000E+00  1.1464E-02  3.5359E-02  1.7911E-02  0.0000E+00  0.0000E+00  6.6387E-02  1.6009E-02  1.6579E-02
  7  3.5623E-01  7.4757E-02  0.0000E+00  5.8240E-02  0.0000E+00  1.1467E-01  5.6933E-02  2.7138E-01  1.5132E-01
  8  1.2037E+00  5.3166E-01  6.0601E-01  6.5796E-01  6.2566E-01  4.8403E-01  5.3159E-01  6.3728E-01  6.8524E-01
  9  4.5805E-01  2.8745E-01  3.3419E-01  2.0669E-01  3.3405E-01  4.2700E-01  5.1432E-01  2.9180E-01  2.7836E-01
 10  5.9079E-01  3.7555E-01  4.5061E-01  4.1271E-01  2.1830E-01  4.0523E-01  4.5310E-01  5.0584E-01  4.6314E-01
 11  0.0000E+00  2.5571E-01  0.0000E+00  0.0000E+00  1.0114E-01  0.0000E+00  2.7945E-01  4.5089E-02  0.0000E+00
 12  0.0000E+00  3.1602E-01  0.0000E+00  0.0000E+00  0.0000E+00  0.0000E+00  0.0000E+00  6.2851E-01  0.0000E+00
 13  6.8840E+00  3.1907E+00  5.0123E+00  3.0393E+00  3.1258E+00  3.3113E+00  3.5749E+00  4.2161E+00  3.2730E+00
 14  9.4479E+00  3.3959E+00  4.4227E+00  3.6530E+00  1.4715E+00  0.0000E+00  4.5676E+00  4.4494E+00  3.1752E+00
 15  2.5709E+01  1.5333E+01  1.7016E+01  2.0446E+01  1.8064E+01  1.4280E+01  1.3396E+01  1.5982E+01  1.8610E+01
 16  8.3745E+00  1.4959E+01  1.4761E+01  1.1416E+01  1.7534E+01  1.3734E+01  1.3226E+01  1.3400E+01  2.0075E+01
 17  0.0000E+00  1.2258E+00  0.0000E+00  0.0000E+00  1.1111E+00  3.7995E+00  0.0000E+00  1.5585E+00  0.0000E+00
 18  0.0000E+00  4.1863E-03  0.0000E+00  1.0547E-02  0.0000E+00  1.2362E-02  9.4753E-03  0.0000E+00  6.3946E-04
 19  0.0000E+00  2.7364E-03  0.0000E+00  6.8694E-04  0.0000E+00  0.0000E+00  0.0000E+00  0.0000E+00  0.0000E+00
 20  0.0000E+00  1.8130E-03  0.0000E+00  0.0000E+00  0.0000E+00  3.5506E-03  0.0000E+00  6.2684E-04  6.3370E-03
 21  8.8298E-03  6.4116E-02  7.0804E-02  2.3208E-02  4.9031E-02  6.2544E-02  6.9824E-02  1.0510E-01  2.5420E-02
 22  0.0000E+00  1.4881E-02  4.6255E-02  0.0000E+00  3.6219E-02  0.0000E+00  2.3994E-02  0.0000E+00  0.0000E+00
 23  2.2203E-02  1.0158E-02  1.9835E-02  6.8612E-03  0.0000E+00  5.6087E-02  0.0000E+00  0.0000E+00  2.9496E-02
 24  1.1217E-01  1.4917E-01  1.6312E-01  1.3845E-01  1.1293E-01  1.4565E-01  1.2077E-01  1.2491E-01  1.3596E-01
 25  2.1606E-01  2.1882E-01  2.5860E-01  3.9483E-01  2.1246E-01  1.9975E-01  2.8092E-01  1.2945E-01  1.9316E-01
 26  6.8683E-01  6.3627E-01  7.6575E-01  7.0993E-01  1.7669E-01  5.3533E-01  5.9481E-01  5.7612E-01  6.1324E-01
 27  0.0000E+00  1.8043E-01  6.0146E-02  0.0000E+00  4.4976E-02  0.0000E+00  0.0000E+00  0.0000E+00  0.0000E+00
 28  0.0000E+00  2.2687E-01  1.3258E-01  1.8402E-02  4.4892E-02  0.0000E+00  0.0000E+00  0.0000E+00  3.9038E-04
 29  0.0000E+00  9.3930E-02  0.0000E+00  0.0000E+00  0.0000E+00  0.0000E+00  0.0000E+00  0.0000E+00  0.0000E+00
 30  0.0000E+00  2.0173E-01  0.0000E+00  0.0000E+00  0.0000E+00  1.9431E+00  0.0000E+00  0.0000E+00  0.0000E+00
 31  0.0000E+00  1.2836E+00  1.9406E+00  0.0000E+00  6.0317E-01  3.2341E+00  1.1689E+00  0.0000E+00  0.0000E+00
 32  0.0000E+00  1.7139E+00  0.0000E+00  0.0000E+00  1.3407E+00  3.9524E+00  0.0000E+00  1.2377E-01  0.0000E+00
 33  0.0000E+00  1.0048E+00  0.0000E+00  7.7101E+00  0.0000E+00  4.3149E+00  3.9671E+00  4.5144E-01  0.0000E+00
 34  0.0000E+00  1.0176E+00  0.0000E+00  0.0000E+00  0.0000E+00  0.0000E+00  7.8447E+00  3.6316E+00  0.0000E+00
 35  4.2315E-05  4.1990E-03  0.0000E+00  2.0770E-02  0.0000E+00  0.0000E+00  2.9307E-03  7.3472E-03  1.8350E-02
 36  0.0000E+00  1.6252E-03  0.0000E+00  2.3094E-03  0.0000E+00  9.7170E-03  4.7998E-03  0.0000E+00  0.0000E+00
 37  0.0000E+00  2.7118E-03  2.9132E-03  7.0404E-03  0.0000E+00  0.0000E+00  2.3753E-03  4.4778E-03  0.0000E+00
 38  4.6997E-01  3.1823E-01  3.8422E-01  2.3298E-01  3.4611E-01  2.6832E-01  3.1701E-01  3.2048E-01  4.6658E-01
 39  0.0000E+00  1.7161E-02  0.0000E+00  4.1216E-02  5.0769E-02  0.0000E+00  0.0000E+00  0.0000E+00  0.0000E+00
 40  0.0000E+00  3.4467E-02  2.7797E-02  0.0000E+00  0.0000E+00  0.0000E+00  1.5583E-02  4.2026E-02  0.0000E+00
 41  0.0000E+00  4.3497E-02  1.2427E-02  6.8617E-02  1.3873E-01  4.6055E-02  1.2383E-02  0.0000E+00  0.0000E+00
 42  7.7500E-03  1.4116E-01  0.0000E+00  0.0000E+00  0.0000E+00  1.5877E-01  8.3789E-02  1.2541E-01  3.4724E-01
 43  2.5943E+00  1.7306E+00  1.7866E+00  1.9969E+00  1.8920E+00  1.9228E+00  2.0848E+00  1.9599E+00  1.8862E+00
 44  0.0000E+00  5.4381E-01  0.0000E+00  0.0000E+00  3.5093E-01  4.0519E-02  0.0000E+00  0.0000E+00  1.9294E-02
 45  0.0000E+00  4.9912E-01  0.0000E+00  0.0000E+00  0.0000E+00  0.0000E+00  0.0000E+00  0.0000E+00  0.0000E+00
 46  0.0000E+00  1.6675E+00  7.6765E-01  0.0000E+00  1.0873E+00  0.0000E+00  9.5310E-01  1.8129E+00  3.5369E+00
 47  0.0000E+00  2.9233E-01  0.0000E+00  0.0000E+00  0.0000E+00  0.0000E+00  0.0000E+00  0.0000E+00  0.0000E+00
 48  0.0000E+00  3.4783E-01  0.0000E+00  0.0000E+00  1.0061E-01  1.1055E+00  0.0000E+00  0.0000E+00  0.0000E+00
 49  0.0000E+00  1.0672E+01  1.5893E+01  1.1095E+01  1.1507E+01  1.1819E+01  9.0318E+00  1.2346E+01  7.8876E+00
 50  0.0000E+00  2.6786E-01  0.0000E+00  0.0000E+00  0.0000E+00  0.0000E+00  0.0000E+00  0.0000E+00  0.0000E+00
 51  0.0000E+00  2.7538E-03  7.1469E-03  0.0000E+00  0.0000E+00  0.0000E+00  0.0000E+00  2.7322E-03  2.7499E-04
 52  0.0000E+00  2.2473E-03  3.1612E-03  0.0000E+00  9.4166E-04  4.3099E-03  0.0000E+00  1.8797E-03  0.0000E+00
 53  0.0000E+00  2.0463E-03  0.0000E+00  0.0000E+00  0.0000E+00  0.0000E+00  0.0000E+00  0.0000E+00  0.0000E+00
 54  0.0000E+00  2.1777E-03  4.3369E-04  0.0000E+00  0.0000E+00  0.0000E+00  0.0000E+00  0.0000E+00  0.0000E+00
 55  0.0000E+00  2.3189E-03  0.0000E+00  0.0000E+00  0.0000E+00  0.0000E+00  0.0000E+00  0.0000E+00  0.0000E+00
 56  0.0000E+00  1.1025E-02  0.0000E+00  5.6974E-02  0.0000E+00  0.0000E+00  0.0000E+00  0.0000E+00  0.0000E+00
 57  0.0000E+00  3.0863E-02  0.0000E+00  0.0000E+00  2.4708E-03  3.0127E-03  8.3108E-03  5.6357E-02  0.0000E+00
 58  0.0000E+00  6.1311E-02  0.0000E+00  1.6705E-01  0.0000E+00  2.1447E-01  0.0000E+00  1.1297E-02  5.6359E-02
 59  7.6796E-01  8.9213E-01  9.4811E-01  9.7390E-02  1.3660E+00  7.9042E-01  1.0369E+00  8.3322E-01  9.3396E-01
 60  2.5455E+01  2.3936E+01  2.5163E+01  2.4747E+01  2.3643E+01  2.3172E+01  2.4469E+01  2.4392E+01  2.5317E+01
 61  1.6635E+01  8.3485E+00  8.8886E+00  8.8797E+00  8.2945E+00  7.2585E+00  8.7380E+00  7.5612E+00  1.1517E+01
 62  0.0000E+00  1.6423E-01  0.0000E+00  0.0000E+00  0.0000E+00  0.0000E+00  0.0000E+00  0.0000E+00  2.6389E-01
 63  0.0000E+00  5.2074E-01  0.0000E+00  0.0000E+00  4.3621E-01  0.0000E+00  0.0000E+00  1.1855E+00  0.0000E+00
 64  0.0000E+00  4.4505E-01  0.0000E+00  2.5392E+00  0.0000E+00  5.4766E-01  2.4738E+00  2.1918E+00  0.0000E+00
 65  0.0000E+00  2.6797E-01  0.0000E+00  0.0000E+00  0.0000E+00  0.0000E+00  0.0000E+00  0.0000E+00  0.0000E+00
 66  0.0000E+00  1.9108E+00  0.0000E+00  1.0568E+00  5.5039E+00  1.5708E+00  0.0000E+00  0.0000E+00  0.0000E+00

# AV, chi2 & Mass for <> & i_chain = 1 ...  7 solutions
AV       0.3986      0.4155      0.4153      0.4238      0.4002      0.4180      0.4193      0.4136      0.4035
chi2 3.5185E-01  3.5842E-01  3.5538E-01  3.5599E-01  3.5645E-01  3.5658E-01  3.5548E-01  3.5560E-01  3.5495E-01
Mass 2.3716E-12  2.8644E-12  2.7852E-12  3.0377E-12  2.9896E-12  3.0690E-12  2.9003E-12  2.8318E-12  2.7037E-12
 -44.35                                  [v0_min (km/s) before EX0s...]
 168.65                                  [vd_min (km/s) before EX0s...]


## Synthetic spectrum (Best Model) ##l_obs f_obs f_syn wei
 3478    [Nl_obs]
 3741.00    0.50600   0.67133    0.000
 3742.00    0.50158   0.66720    0.000
 3743.00    0.49018   0.65137    0.000
 3744.00    0.49353   0.62616    0.000
 3745.00    0.50569   0.59389   19.775
 3746.00    0.50286   0.55795   19.886
 3747.00    0.49968   0.52375   20.013
 3748.00    0.53194   0.49852   18.799
 3749.00    0.57457   0.48893   17.404
 3750.00    0.56782   0.49854   17.611
 3751.00    0.52892   0.52640   18.906
 3752.00    0.52742   0.56655   18.960
 3753.00    0.56916   0.60961   17.570
 3754.00    0.60504   0.64677   16.528
 3755.00    0.60696   0.67315   16.475
 3756.00    0.58183   0.68856   17.187
 3757.00    0.56503   0.69590   17.698
 3758.00    0.58978   0.69922   16.955
 3759.00    0.63423   0.70182   15.767
 3760.00    0.65359   0.70468   15.300
 3761.00    0.65299   0.70624   15.314
 3762.00    0.65983   0.70347   15.155
 3763.00    0.65774   0.69366   15.204
 3764.00    0.61941   0.67565   16.144
 3765.00    0.57307   0.64959   17.450
 3766.00    0.56207   0.61721   17.791
 3767.00    0.57192   0.58247   17.485
 3768.00    0.56790   0.55141   17.609
 3769.00    0.56064   0.53082   17.837
 3770.00    0.57701   0.52577   17.331
 3771.00    0.61111   0.53765   16.364
 3772.00    0.64075   0.56418   15.607
 3773.00    0.65593   0.60052   15.246
 3774.00    0.66059   0.64064   15.138
 3775.00    0.66981   0.67988   14.930
 3776.00    0.69843   0.71625   14.318
 3777.00    0.74852   0.74917   13.360
 3778.00    0.80492   0.77796   12.424
 3779.00    0.83528   0.80173   11.972
 3780.00    0.82489   0.81971   12.123
 3781.00    0.80622   0.83132   12.404
 3782.00    0.80978   0.83599   12.349
 3783.00    0.82052   0.83354   12.187
 3784.00    0.82088   0.82462   12.182
 3785.00    0.82729   0.81071   12.088
 3786.00    0.84981   0.79379   11.767
 3787.00    0.86190   0.77586   11.602
 3788.00    0.84576   0.75815   11.824
 3789.00    0.82258   0.74024   12.157
 3790.00    0.79917   0.71975   12.513
 3791.00    0.73737   0.69400   13.562
 3792.00    0.62815   0.66145   15.920
 3793.00    0.53135   0.62237   18.820
 3794.00    0.48772   0.57966   20.504
 3795.00    0.46997   0.53919   21.278
 3796.00    0.44909   0.50854   22.267
 3797.00    0.43234   0.49460   23.130
 3798.00    0.43480   0.50127   22.999
 3799.00    0.46178   0.52793   21.655
 3800.00    0.51051   0.56951   19.588
 3801.00    0.57221   0.61779   17.476
 3802.00    0.63591   0.66430   15.726
 3803.00    0.69117   0.70359   14.468
 3804.00    0.73151   0.73464   13.670
 3805.00    0.75551   0.75947   13.236
 3806.00    0.76427   0.78108   13.084
 3807.00    0.76064   0.80169   13.147
 3808.00    0.75059   0.82118   13.323
 3809.00    0.74194   0.83715   13.478
 3810.00    0.73678   0.84658   13.573
 3811.00    0.73300   0.84793   13.643
 3812.00    0.74098   0.84263   13.496
 3813.00    0.77922   0.83432   12.833
 3814.00    0.83704   0.82629   11.947
 3815.00    0.87565   0.81975   11.420
 3816.00    0.87554   0.81405   11.422
 3817.00    0.84774   0.80789   11.796
 3818.00    0.81764   0.80101   12.230
 3819.00    0.80974   0.79451   12.350
 3820.00    0.81975   0.78937   12.199
 3821.00    0.81983   0.78539   12.198
 3822.00    0.79536   0.78078   12.573
 3823.00    0.75386   0.77283   13.265
 3824.00    0.71978   0.75977   13.893
 3825.00    0.71599   0.74204   13.967
 3826.00    0.72382   0.72137   13.816
 3827.00    0.70533   0.69865   14.178
 3828.00    0.67535   0.67276   14.807
 3829.00    0.67621   0.64185   14.788
 3830.00    0.68849   0.60517   14.524
 3831.00    0.65675   0.56426   15.226
 3832.00    0.58047   0.52342   17.227
 3833.00    0.50187   0.48879   19.925
 3834.00    0.44664   0.46664   22.389
 3835.00    0.42231   0.46137   23.679
 3836.00    0.43593   0.47372   22.939
 3837.00    0.48722   0.50105   20.525
 3838.00    0.55246   0.53899   18.101
 3839.00    0.60423   0.58251   16.550
 3840.00    0.64597   0.62737   15.480
 3841.00    0.69246   0.67062   14.441
 3842.00    0.73339   0.71000   13.635
 3843.00    0.75628   0.74414   13.223
 3844.00    0.78471   0.77242   12.744
 3845.00    0.84794   0.79489   11.793
 3846.00    0.93410   0.81246   10.705
 3847.00    1.00418   0.82642    0.000
 3848.00    1.01954   0.83803    0.000
 3849.00    0.97282   0.84841    0.000
 3850.00    0.91608   0.85805    0.000
 3851.00    0.90286   0.86655    0.000
 3852.00    0.92275   0.87305    0.000
 3853.00    0.94245   0.87678    0.000
 3854.00    0.95507   0.87737    0.000
 3855.00    0.96252   0.87569    0.000
 3856.00    0.95473   0.87364    0.000
 3857.00    0.92744   0.87283    0.000
 3858.00    0.89872   0.87424    0.000
 3859.00    0.88796   0.87832    0.000
 3860.00    0.89650   0.88446    0.000
 3861.00    0.91298   0.89134    0.000
 3862.00    0.92186   0.89749    0.000
 3863.00    0.92528   0.90152    0.000
 3864.00    0.95199   0.90289    0.000
 3865.00    0.99610   0.90227    0.000
 3866.00    0.98634   0.90042    0.000
 3867.00    0.90021   0.89710    0.000
 3868.00    0.82635   0.89131    0.000
 3869.00    0.83006   0.88245    0.000
 3870.00    0.87400   0.87124    0.000
 3871.00    0.90297   0.85972    0.000
 3872.00    0.89910   0.85013    0.000
 3873.00    0.87424   0.84317    0.000
 3874.00    0.85675   0.83731    0.000
 3875.00    0.85323   0.83000    0.000
 3876.00    0.83782   0.81925    0.000
 3877.00    0.80654   0.80489    0.000
 3878.00    0.79226   0.78832    0.000
 3879.00    0.79658   0.77065    0.000
 3880.00    0.77467   0.75129    0.000
 3881.00    0.72220   0.72836   13.847
 3882.00    0.69452   0.69970   14.399
 3883.00    0.71242   0.66414   14.037
 3884.00    0.73591   0.62270   13.589
 3885.00    0.72847   0.57882   13.727
 3886.00    0.68384   0.53807   14.623
 3887.00    0.62297   0.50724   16.052
 3888.00    0.58254   0.49274   17.166
 3889.00    0.58016   0.49788   17.237
 3890.00    0.60725   0.52108   16.468
 3891.00    0.64839   0.55684   15.423
 3892.00    0.69010   0.59814   14.491
 3893.00    0.72615   0.63872   13.771
 3894.00    0.75546   0.67491   13.237
 3895.00    0.77118   0.70580   12.967
 3896.00    0.76793   0.73208   13.022
 3897.00    0.77067   0.75481   12.976
 3898.00    0.81563   0.77498   12.261
 3899.00    0.88007   0.79326   11.363
 3900.00    0.90094   0.80963   11.100
 3901.00    0.86665   0.82353   11.539
 3902.00    0.81805   0.83455   12.224
 3903.00    0.79535   0.84307   12.573
 3904.00    0.81578   0.85058   12.258
 3905.00    0.85445   0.85935   11.703
 3906.00    0.86773   0.87120   11.524
 3907.00    0.84933   0.88591   11.774
 3908.00    0.82345   0.90137   12.144
 3909.00    0.80836   0.91479   12.371
 3910.00    0.81159   0.92382   12.321
 3911.00    0.83443   0.92752   11.984
 3912.00    0.87061   0.92669   11.486
 3913.00    0.90318   0.92302   11.072
 3914.00    0.91399   0.91794   10.941
 3915.00    0.90014   0.91224   11.109
 3916.00    0.87501   0.90631   11.428
 3917.00    0.86466   0.90053   11.565
 3918.00    0.88447   0.89553   11.306
 3919.00    0.90854   0.89232   11.007
 3920.00    0.90432   0.89144   11.058
 3921.00    0.88362   0.89217   11.317
 3922.00    0.87523   0.89259   11.426
 3923.00    0.88138   0.89020   11.346
 3924.00    0.88392   0.88283   11.313
 3925.00    0.86022   0.86948   11.625
 3926.00    0.80834   0.85030   12.371
 3927.00    0.76880   0.82579   13.007
 3928.00    0.76649   0.79641   13.047
 3929.00    0.75290   0.76301   13.282
 3930.00    0.69075   0.72779   14.477
 3931.00    0.63679   0.69502   15.704
 3932.00    0.64391   0.67093   15.530
 3933.00    0.66929   0.66162   14.941
 3934.00    0.66941   0.67026   14.939
 3935.00    0.68373   0.69525   14.626
 3936.00    0.74560   0.73088   13.412
 3937.00    0.80960   0.76953   12.352
 3938.00    0.83341   0.80436   11.999
 3939.00    0.83992   0.83123   11.906
 3940.00    0.85019   0.84926   11.762
 3941.00    0.83774   0.86000   11.937
 3942.00    0.79310   0.86617   12.609
 3943.00    0.76289   0.87054   13.108
 3944.00    0.78393   0.87491   12.756
 3945.00    0.84097   0.87946   11.891
 3946.00    0.89420   0.88320   11.183
 3947.00    0.90534   0.88519   11.046
 3948.00    0.87753   0.88532   11.396
 3949.00    0.86485   0.88408   11.563
 3950.00    0.89426   0.88205   11.182
 3951.00    0.93125   0.87946   10.738
 3952.00    0.93570   0.87589   10.687
 3953.00    0.89483   0.87050   11.175
 3954.00    0.83184   0.86274   12.022
 3955.00    0.79800   0.85264   12.531
 3956.00    0.81954   0.84048   12.202
 3957.00    0.87502   0.82601   11.428
 3958.00    0.90859   0.80818   11.006
 3959.00    0.85811   0.78560   11.654
 3960.00    0.74211   0.75731    0.000
 3961.00    0.65842   0.72312    0.000
 3962.00    0.63968   0.68350    0.000
 3963.00    0.62684   0.63906    0.000
 3964.00    0.58298   0.59054    0.000
 3965.00    0.52498   0.53955    0.000
 3966.00    0.48312   0.48961    0.000
 3967.00    0.47936   0.44658    0.000
 3968.00    0.50586   0.41748    0.000
 3969.00    0.53283   0.40795    0.000
 3970.00    0.55241   0.42003    0.000
 3971.00    0.58148   0.45137    0.000
 3972.00    0.63062   0.49630    0.000
 3973.00    0.69472   0.54802    0.000
 3974.00    0.75344   0.60066    0.000
 3975.00    0.78572   0.65029    0.000
 3976.00    0.80468   0.69498    0.000
 3977.00    0.84036   0.73389    0.000
 3978.00    0.87882   0.76657    0.000
 3979.00    0.88381   0.79286    0.000
 3980.00    0.87590   0.81327    0.000
 3981.00    0.90298   0.82923   11.075
 3982.00    0.94248   0.84276   10.611
 3983.00    0.93830   0.85564   10.655
 3984.00    0.91248   0.86871   10.957
 3985.00    0.92569   0.88187   10.810
 3986.00    0.96405   0.89443   10.377
 3987.00    0.97335   0.90570   10.255
 3988.00    0.95519   0.91545   10.458
 3989.00    0.94561   0.92391   10.632
 3990.00    0.95260   0.93125   10.526
 3991.00    0.96708   0.93715   10.189
 3992.00    0.99537   0.94072    9.983
 3993.00    1.04128   0.94144   10.004
 3994.00    1.07433   0.93969    9.453
 3995.00    1.05876   0.93704    8.086
 3996.00    0.99927   0.93577    7.083
 3997.00    0.93148   0.93773    6.973
 3998.00    0.89909   0.94317    7.359
 3999.00    0.92104   0.95034    7.610
 4000.00    0.95886   0.95641    7.649
 4001.00    0.97205   0.95892    7.726
 4002.00    0.98203   0.95689    7.819
 4003.00    1.01403   0.95130    7.815
 4004.00    1.03133   0.94487    7.816
 4005.00    1.00288   0.94074    7.907
 4006.00    0.97324   0.94077    7.924
 4007.00    0.98879   0.94486    7.743
 4008.00    1.02416   0.95159    7.575
 4009.00    1.03205   0.95919    7.614
 4010.00    0.99645   0.96623    7.801
 4011.00    0.94306   0.97203    7.962
 4012.00    0.93455   0.97673    7.955
 4013.00    0.98523   0.98073    7.802
 4014.00    1.00887   0.98428    7.713
 4015.00    0.96164   0.98757    7.785
 4016.00    0.93402   0.99079    7.849
 4017.00    0.98697   0.99376    7.767
 4018.00    1.04744   0.99565    7.659
 4019.00    1.04889   0.99514    7.657
 4020.00    1.02144   0.99100    7.762
 4021.00    1.01597   0.98302    7.867
 4022.00    1.04973   0.97245    7.797
 4023.00    1.09876   0.96176    7.557
 4024.00    1.10732   0.95374    7.381
 4025.00    1.05847   0.94995    7.384
 4026.00    1.00000   0.94967    7.469
 4027.00    0.96511   0.95031    7.545
 4028.00    0.93903   0.94926    7.632
 4029.00    0.91356   0.94563    7.739
 4030.00    0.90777   0.94089    7.813
 4031.00    0.92902   0.93800    7.790
 4032.00    0.96016   0.93976    7.646
 4033.00    0.98841   0.94732    7.434
 4034.00    1.01582   0.95979    7.256
 4035.00    1.04617   0.97460    7.168
 4036.00    1.07803   0.98847    7.168
 4037.00    1.10035   0.99861    7.244
 4038.00    1.09729   1.00344    7.386
 4039.00    1.07206   1.00273    7.573
 4040.00    1.04805   0.99722    7.762
 4041.00    1.04189   0.98791    7.884
 4042.00    1.05133   0.97609    7.887
 4043.00    1.04879   0.96385    7.887
 4044.00    1.00057   0.95422    8.093
 4045.00    0.93035   0.95020    8.446
 4046.00    0.90603   0.95295    8.606
 4047.00    0.94464   0.96092    8.497
 4048.00    1.00367   0.97056    8.369
 4049.00    1.03538   0.97815    8.291
 4050.00    1.01466   0.98129    8.153
 4051.00    0.96895   0.97957    7.964
 4052.00    0.95243   0.97439    7.825
 4053.00    0.96693   0.96799    7.748
 4054.00    0.97387   0.96234    7.676
 4055.00    0.96508   0.95866    7.578
 4056.00    0.96078   0.95732    7.476
 4057.00    0.97008   0.95778    7.417
 4058.00    0.98742   0.95864    7.436
 4059.00    1.00332   0.95807    7.476
 4060.00    1.01010   0.95467    7.468
 4061.00    1.00804   0.94857    7.496
 4062.00    0.99978   0.94167    7.665
 4063.00    0.97868   0.93653    7.791
 4064.00    0.94123   0.93486    7.618
 4065.00    0.91004   0.93659    7.359
 4066.00    0.91384   0.94013    7.350
 4067.00    0.95044   0.94333    7.571
 4068.00    0.99488   0.94445    7.796
 4069.00    1.02103   0.94277    7.880
 4070.00    1.01374   0.93878    7.827
 4071.00    0.98081   0.93352    7.759
 4072.00    0.94420   0.92745    7.776
 4073.00    0.92499   0.92010    7.814
 4074.00    0.92563   0.91114    7.790
 4075.00    0.91360   0.90162    7.791
 4076.00    0.86873   0.89424    7.929
 4077.00    0.83616   0.89186    8.144
 4078.00    0.86178   0.89555    8.282
 4079.00    0.91783   0.90346    8.232
 4080.00    0.95139   0.91171    7.998
 4081.00    0.94419   0.91660    7.706
 4082.00    0.91991   0.91660    7.480
 4083.00    0.93770   0.91279    7.366
 4084.00    1.01295   0.90764    7.385
 4085.00    1.05700   0.90335    7.565
 4086.00    1.00501   0.90043    7.872
 4087.00    0.92144   0.89771    8.114
 4088.00    0.89306   0.89321    8.139
 4089.00    0.93386   0.88521    8.052
 4090.00    0.99665   0.87287    7.984
 4091.00    0.99985   0.85603    7.915
 4092.00    0.92150   0.83475    0.000
 4093.00    0.84865   0.80894    0.000
 4094.00    0.84037   0.77846    0.000
 4095.00    0.84677   0.74339    0.000
 4096.00    0.82639   0.70426    0.000
 4097.00    0.81236   0.66237    0.000
 4098.00    0.81988   0.62030    0.000
 4099.00    0.80139   0.58247    0.000
 4100.00    0.73523   0.55485    0.000
 4101.00    0.66830   0.54309    0.000
 4102.00    0.65545   0.55008    0.000
 4103.00    0.71841   0.57427    0.000
 4104.00    0.81571   0.61014    0.000
 4105.00    0.85489   0.65053    0.000
 4106.00    0.82148   0.68933    0.000
 4107.00    0.80661   0.72311    0.000
 4108.00    0.84538   0.75124    0.000
 4109.00    0.87323   0.77509    0.000
 4110.00    0.86261   0.79660    0.000
 4111.00    0.85955   0.81713    0.000
 4112.00    0.88731   0.83691    0.000
 4113.00    0.91822   0.85503    8.059
 4114.00    0.92056   0.87001    8.117
 4115.00    0.88469   0.88055    8.226
 4116.00    0.84792   0.88624    8.309
 4117.00    0.87294   0.88800    8.220
 4118.00    0.94940   0.88785    8.048
 4119.00    1.00057   0.88811    8.047
 4120.00    1.00818   0.89048    8.232
 4121.00    1.01758   0.89542    8.374
 4122.00    1.03462   0.90209    8.369
 4123.00    1.02249   0.90877    8.310
 4124.00    0.97938   0.91351    8.259
 4125.00    0.94238   0.91487    8.203
 4126.00    0.93901   0.91263    8.138
 4127.00    0.96993   0.90776    8.069
 4128.00    0.99997   0.90196    7.993
 4129.00    0.98685   0.89694    7.954
 4130.00    0.95008   0.89420    8.173
 4131.00    0.94643   0.89496    8.912
 4132.00    0.98242   0.89998    9.868
 4133.00    1.02132   0.90920   10.097
 4134.00    1.03746   0.92141    9.718
 4135.00    1.02530   0.93456    9.651
 4136.00    0.99449   0.94626   10.028
 4137.00    0.96251   0.95430   10.431
 4138.00    0.94316   0.95687   10.612
 4139.00    0.94264   0.95290   10.595
 4140.00    0.95660   0.94281   10.452
 4141.00    0.96965   0.92919   10.311
 4142.00    0.95647   0.91648   10.452
 4143.00    0.90620   0.90914   11.058
 4144.00    0.85652   0.90930   11.686
 4145.00    0.85452   0.91572   11.624
 4146.00    0.89521   0.92475   11.147
 4147.00    0.94513   0.93261   10.772
 4148.00    0.98566   0.93719   10.195
 4149.00    1.01059   0.93835    9.195
 4150.00    1.01590   0.93706    8.316
 4151.00    1.00470   0.93443    7.931
 4152.00    0.99309   0.93136    7.925
 4153.00    0.99339   0.92870    8.036
 4154.00    0.99605   0.92741    8.012
 4155.00    0.99180   0.92831    7.806
 4156.00    0.99501   0.93168    7.713
 4157.00    1.01695   0.93699    7.918
 4158.00    1.03911   0.94318    8.155
 4159.00    1.03944   0.94912    8.119
 4160.00    1.01876   0.95413    8.009
 4161.00    0.99171   0.95794    8.068
 4162.00    0.97539   0.96047    8.184
 4163.00    0.97925   0.96158    8.194
 4164.00    0.99782   0.96113    8.161
 4165.00    1.01538   0.95910    8.193
 4166.00    1.01300   0.95559    8.289
 4167.00    0.99112   0.95055    8.402
 4168.00    0.97945   0.94359    8.508
 4169.00    0.98806   0.93441    8.614
 4170.00    0.98186   0.92350    8.747
 4171.00    0.94708   0.91257    8.842
 4172.00    0.92631   0.90395    8.710
 4173.00    0.94965   0.89928    8.359
 4174.00    0.99647   0.89863    8.073
 4175.00    1.03587   0.90076    8.007
 4176.00    1.05136   0.90422    8.087
 4177.00    1.03619   0.90830    8.219
 4178.00    0.99373   0.91290    8.372
 4179.00    0.95613   0.91792    8.506
 4180.00    0.97562   0.92287    8.549
 4181.00    1.03488   0.92712    8.492
 4182.00    1.03636   0.93021    8.427
 4183.00    0.95808   0.93197    8.421
 4184.00    0.89234   0.93249    8.468
 4185.00    0.89319   0.93215    8.496
 4186.00    0.92833   0.93179    8.405
 4187.00    0.96400   0.93255    8.224
 4188.00    0.99502   0.93525    8.107
 4189.00    1.01996   0.93991    8.136
 4190.00    1.03190   0.94560    8.285
 4191.00    1.02188   0.95066    8.499
 4192.00    0.98595   0.95326    8.708
 4193.00    0.94318   0.95192    8.843
 4194.00    0.92710   0.94616    8.867
 4195.00    0.93925   0.93693    8.844
 4196.00    0.95123   0.92634    8.888
 4197.00    0.95566   0.91685    8.978
 4198.00    0.96608   0.91024    8.972
 4199.00    0.97254   0.90712    8.827
 4200.00    0.95158   0.90712    8.657
 4201.00    0.92517   0.90952    8.687
 4202.00    0.94126   0.91375    9.123
 4203.00    0.98701   0.91948    9.809
 4204.00    1.00759   0.92637   10.188
 4205.00    1.00113   0.93379   10.079
 4206.00    1.00346   0.94086    9.873
 4207.00    1.00538   0.94679    9.915
 4208.00    0.97478   0.95117   10.302
 4209.00    0.93959   0.95392   10.661
 4210.00    0.95318   0.95500   10.454
 4211.00    0.99464   0.95415   10.034
 4212.00    1.00532   0.95123   10.015
 4213.00    0.99072   0.94690   10.141
 4214.00    0.99119   0.94286    9.829
 4215.00    0.99967   0.94124    9.377
 4216.00    0.98505   0.94321    9.318
 4217.00    0.95345   0.94808    9.460
 4218.00    0.94266   0.95338    9.300
 4219.00    0.99454   0.95599    8.850
 4220.00    1.08961   0.95338    8.477
 4221.00    1.07203   0.94434    8.477
 4222.00    0.86997   0.92948    8.855
 4223.00    0.78543   0.91129    8.910
 4224.00    1.09415   0.89399    8.107
 4225.00    1.50912   0.88238   -1.000
 4226.00    1.59646   0.88009   -1.000
 4227.00    1.35076   0.88756   -1.000
 4228.00    1.02299   0.90151    8.477
 4229.00    0.83559   0.91642    9.198
 4230.00    0.86122   0.92715    9.225
 4231.00    0.94492   0.93130    9.024
 4232.00    0.93146   0.92976    9.176
 4233.00    0.88874   0.92542    9.508
 4234.00    0.92068   0.92127    9.585
 4235.00    0.97848   0.91916    9.358
 4236.00    0.98517   0.91967    9.091
 4237.00    0.95728   0.92256    9.092
 4238.00    0.93767   0.92739    9.441
 4239.00    0.93150   0.93359    9.782
 4240.00    0.92700   0.94039    9.800
 4241.00    0.91759   0.94673    9.749
 4242.00    0.91114   0.95130    9.880
 4243.00    0.93082   0.95289   10.023
 4244.00    0.97703   0.95082   10.018
 4245.00    1.00802   0.94538   10.031
 4246.00    0.99736   0.93778   10.155
 4247.00    0.96774   0.92979   10.180
 4248.00    0.94950   0.92304   10.021
 4249.00    0.95306   0.91858    9.932
 4250.00    0.97122   0.91669   10.059
 4251.00    0.98474   0.91708   10.241
 4252.00    0.98037   0.91914   10.314
 4253.00    0.95993   0.92219   10.285
 4254.00    0.93381   0.92543   10.181
 4255.00    0.91726   0.92785    9.965
 4256.00    0.93035   0.92845    9.593
 4257.00    0.98892   0.92688    9.067
 4258.00    1.06301   0.92416    8.515
 4259.00    1.08012   0.92254    8.124
 4260.00    1.02565   0.92436    8.003
 4261.00    0.96463   0.93050    8.184
 4262.00    0.94387   0.93962    8.562
 4263.00    0.95757   0.94872    8.868
 4264.00    0.97892   0.95454    9.019
 4265.00    0.97901   0.95485    9.243
 4266.00    0.94665   0.94913    9.625
 4267.00    0.89340   0.93827    9.955
 4268.00    0.84496   0.92412   10.014
 4269.00    0.82876   0.90908    9.772
 4270.00    0.84503   0.89578    9.389
 4271.00    0.86969   0.88670    9.088
 4272.00    0.89218   0.88349    9.010
 4273.00    0.91813   0.88654    9.177
 4274.00    0.94315   0.89479    9.337
 4275.00    0.95728   0.90606    9.102
 4276.00    0.97677   0.91759    8.612
 4277.00    1.02478   0.92678    8.341
 4278.00    1.06185   0.93202    8.523
 4279.00    1.01979   0.93305    9.179
 4280.00    0.92278   0.93087    9.998
 4281.00    0.86083   0.92695   10.308
 4282.00    0.86483   0.92248   10.082
 4283.00    0.90254   0.91776    9.893
 4284.00    0.93200   0.91235    9.845
 4285.00    0.92756   0.90555    9.714
 4286.00    0.90679   0.89714    9.519
 4287.00    0.90569   0.88802    9.401
 4288.00    0.92333   0.88017    9.253
 4289.00    0.93356   0.87580    8.946
 4290.00    0.92416   0.87599    8.737
 4291.00    0.89986   0.87977    8.924
 4292.00    0.87511   0.88455    9.354
 4293.00    0.86308   0.88732    9.600
 4294.00    0.86096   0.88599   -2.000
 4295.00    0.85849   0.87985   -2.000
 4296.00    0.85349   0.86943   -2.000
 4297.00    0.84690   0.85620   -2.000
 4298.00    0.83340   0.84233   -2.000
 4299.00    0.81361   0.83027   -2.000
 4300.00    0.80985   0.82201   -2.000
 4301.00    0.83852   0.81828   -2.000
 4302.00    0.87556   0.81828   -2.000
 4303.00    0.88427   0.82015   -2.000
 4304.00    0.85299   0.82189   -2.000
 4305.00    0.80083   0.82242   -2.000
 4306.00    0.77537   0.82211   -2.000
 4307.00    0.80707   0.82251   -2.000
 4308.00    0.86562   0.82523   -2.000
 4309.00    0.89851   0.83094    9.266
 4310.00    0.87538   0.83897    9.368
 4311.00    0.81044   0.84814    9.696
 4312.00    0.77135   0.85776    9.970
 4313.00    0.80167   0.86801    9.947
 4314.00    0.86091   0.87922    9.789
 4315.00    0.90060   0.89088    9.734
 4316.00    0.92517   0.90119    9.819
 4317.00    0.94567   0.90787    9.921
 4318.00    0.94612   0.90916    9.827
 4319.00    0.92881   0.90450    9.536
 4320.00    0.93766   0.89437    9.375
 4321.00    0.97690   0.87988    9.529
 4322.00    0.97228   0.86270    9.847
 4323.00    0.89483   0.84531   10.139
 4324.00    0.82288   0.83075   10.384
 4325.00    0.81402   0.82159   10.601
 4326.00    0.83774   0.81852   10.749
 4327.00    0.85660   0.81968   10.751
 4328.00    0.86962   0.82157   10.562
 4329.00    0.87917   0.82079   10.288
 4330.00    0.87565   0.81531    0.000
 4331.00    0.85782   0.80442    0.000
 4332.00    0.83938   0.78780    0.000
 4333.00    0.82850   0.76481    0.000
 4334.00    0.82122   0.73458    0.000
 4335.00    0.81735   0.69722    0.000
 4336.00    0.82626   0.65492    0.000
 4337.00    0.85934   0.61252    0.000
 4338.00    0.91987   0.57670    0.000
 4339.00    0.97679   0.55406    0.000
 4340.00    0.97584   0.54885    0.000
 4341.00    0.91831   0.56144    0.000
 4342.00    0.86268   0.58845    0.000
 4343.00    0.82562   0.62423    0.000
 4344.00    0.77512   0.66289    0.000
 4345.00    0.72488   0.69972    0.000
 4346.00    0.73036   0.73150    0.000
 4347.00    0.77835   0.75642    0.000
 4348.00    0.79586   0.77401    0.000
 4349.00    0.77716   0.78534    0.000
 4350.00    0.78140   0.79312    0.000
 4351.00    0.82195   0.80084   10.261
 4352.00    0.86160   0.81132    9.895
 4353.00    0.88103   0.82534    9.496
 4354.00    0.88990   0.84153    9.457
 4355.00    0.90856   0.85742    9.719
 4356.00    0.94617   0.87102    9.903
 4357.00    0.96376   0.88181    9.892
 4358.00    0.91796   0.89071    9.851
 4359.00    0.86938   0.89917    9.793
 4360.00    0.91525   0.90812    9.646
 4361.00    1.00984   0.91735    9.559
 4362.00    1.03214   0.92568    9.725
 4363.00    0.98183   0.93155    9.965
 4364.00    0.94163   0.93381    9.935
 4365.00    0.94214   0.93232    9.779
 4366.00    0.96105   0.92813    9.880
 4367.00    0.96493   0.92298   10.296
 4368.00    0.93654   0.91846   10.808
 4369.00    0.90457   0.91516   11.082
 4370.00    0.90535   0.91256   10.961
 4371.00    0.92090   0.90978   10.837
 4372.00    0.91701   0.90662   11.039
 4373.00    0.90776   0.90415   11.060
 4374.00    0.91832   0.90408   10.403
 4375.00    0.92642   0.90743    9.772
 4376.00    0.90526   0.91332    9.780
 4377.00    0.88354   0.91896   10.074
 4378.00    0.89610   0.92077   10.056
 4379.00    0.92017   0.91601    9.870
 4380.00    0.91948   0.90412    9.891
 4381.00    0.89912   0.88716   10.053
 4382.00    0.87460   0.86924   10.149
 4383.00    0.83648   0.85507   10.190
 4384.00    0.78946   0.84797   10.269
 4385.00    0.78677   0.84871   10.353
 4386.00    0.84931   0.85560   10.348
 4387.00    0.89951   0.86573   10.194
 4388.00    0.88589   0.87652    9.954
 4389.00    0.88221   0.88634    9.826
 4390.00    0.93846   0.89447    9.932
 4391.00    0.96913   0.90075   10.186
 4392.00    0.91789   0.90541   10.414
 4393.00    0.87308   0.90908   10.477
 4394.00    0.90076   0.91248   10.412
 4395.00    0.93368   0.91590   10.463
 4396.00    0.91411   0.91880   10.706
 4397.00    0.88555   0.92020   10.846
 4398.00    0.89603   0.91949   10.698
 4399.00    0.93554   0.91687   10.511
 4400.00    0.97100   0.91313   10.487
 4401.00    0.97430   0.90902   10.557
 4402.00    0.94358   0.90501   10.630
 4403.00    0.90833   0.90156   10.709
 4404.00    0.89231   0.89941   10.758
 4405.00    0.89526   0.89944   10.667
 4406.00    0.90766   0.90223   10.482
 4407.00    0.92043   0.90771   10.432
 4408.00    0.93210   0.91500   10.564
 4409.00    0.94772   0.92250   10.655
 4410.00    0.95934   0.92809   10.592
 4411.00    0.94602   0.92983   10.506
 4412.00    0.91263   0.92688   10.483
 4413.00    0.89377   0.92029   10.476
 4414.00    0.90097   0.91281   10.426
 4415.00    0.91247   0.90779   10.322
 4416.00    0.91737   0.90747   10.238
 4417.00    0.92514   0.91192   10.283
 4418.00    0.93729   0.91914   10.438
 4419.00    0.94297   0.92629   10.554
 4420.00    0.93911   0.93123   10.592
 4421.00    0.93329   0.93339   10.648
 4422.00    0.93029   0.93356   10.720
 4423.00    0.92871   0.93292   10.704
 4424.00    0.92443   0.93229   10.634
 4425.00    0.91538   0.93180   10.645
 4426.00    0.91121   0.93116   10.673
 4427.00    0.92502   0.93008   10.536
 4428.00    0.94521   0.92836   10.383
 4429.00    0.94477   0.92591   10.532
 4430.00    0.92222   0.92269   10.914
 4431.00    0.89711   0.91887   11.137
 4432.00    0.87589   0.91506   11.134
 4433.00    0.85585   0.91250   11.155
 4434.00    0.85110   0.91264   11.200
 4435.00    0.87959   0.91631   11.091
 4436.00    0.92545   0.92272   10.886
 4437.00    0.95295   0.92950   10.773
 4438.00    0.94842   0.93362   10.759
 4439.00    0.92500   0.93313   10.742
 4440.00    0.91468   0.92830   10.716
 4441.00    0.94052   0.92172   10.723
 4442.00    0.97366   0.91683   10.702
 4443.00    0.96894   0.91613   10.596
 4444.00    0.93303   0.91995   10.529
 4445.00    0.90190   0.92652   10.627
 4446.00    0.89010   0.93318   10.717
 4447.00    0.89665   0.93774   10.573
 4448.00    0.92397   0.93917   10.340
 4449.00    0.96858   0.93749   10.265
 4450.00    1.00604   0.93314   10.337
 4451.00    1.00922   0.92661   10.458
 4452.00    0.97385   0.91851   10.680
 4453.00    0.91524   0.90979   11.050
 4454.00    0.85938   0.90167   11.353
 4455.00    0.82834   0.89526   11.339
 4456.00    0.82554   0.89103   11.131
 4457.00    0.84417   0.88878   10.967
 4458.00    0.87742   0.88798   10.895
 4459.00    0.91218   0.88839   10.875
 4460.00    0.92441   0.89009   10.894
 4461.00    0.90857   0.89317    0.000
 4462.00    0.90079   0.89716    0.000
 4463.00    0.92602   0.90094    0.000
 4464.00    0.95478   0.90309    0.000
 4465.00    0.95969   0.90265    0.000
 4466.00    0.96080   0.89966    0.000
 4467.00    0.97487   0.89537    0.000
 4468.00    0.97805   0.89183    0.000
 4469.00    0.95494   0.89121    0.000
 4470.00    0.93146   0.89501    0.000
 4471.00    0.92783   0.90335    0.000
 4472.00    0.92898   0.91490    0.000
 4473.00    0.92418   0.92729    0.000
 4474.00    0.92909   0.93780    0.000
 4475.00    0.94807   0.94409    0.000
 4476.00    0.95684   0.94460    0.000
 4477.00    0.94750   0.93910    0.000
 4478.00    0.94635   0.92907    0.000
 4479.00    0.95831   0.91778    0.000
 4480.00    0.94745   0.90932    0.000
 4481.00    0.90284   0.90696    0.000
 4482.00    0.86397   0.91146   11.738
 4483.00    0.86889   0.92068   11.627
 4484.00    0.92484   0.93064   11.453
 4485.00    0.99726   0.93754   11.439
 4486.00    1.02380   0.93951   11.537
 4487.00    0.99394   0.93714   11.630
 4488.00    0.96176   0.93268   11.637
 4489.00    0.95323   0.92861   11.610
 4490.00    0.94331   0.92635   11.702
 4491.00    0.91939   0.92591   11.890
 4492.00    0.89806   0.92653   11.961
 4493.00    0.89264   0.92766   11.887
 4494.00    0.90203   0.92937   11.866
 4495.00    0.91539   0.93207   11.940
 4496.00    0.91951   0.93593   11.946
 4497.00    0.91623   0.94054   11.803
 4498.00    0.92099   0.94536   11.583
 4499.00    0.94126   0.95021   11.438
 4500.00    0.97123   0.95544   11.496
 4501.00    0.99597   0.96141   11.679
 4502.00    1.00015   0.96785   11.765
 4503.00    0.98704   0.97363   11.736
 4504.00    0.97567   0.97745   11.761
 4505.00    0.98060   0.97864   11.855
 4506.00    1.00298   0.97757   11.898
 4507.00    1.02261   0.97534   11.874
 4508.00    1.01398   0.97289   11.869
 4509.00    0.98473   0.97045   11.907
 4510.00    0.96259   0.96757   11.970
 4511.00    0.95055   0.96369   12.093
 4512.00    0.93613   0.95879   12.282
 4513.00    0.92760   0.95352   12.296
 4514.00    0.93934   0.94884   11.936
 4515.00    0.95238   0.94549   11.608
 4516.00    0.93688   0.94363   11.790
 4517.00    0.90315   0.94281   12.268
 4518.00    0.88383   0.94217   12.461
 4519.00    0.89002   0.94081   12.408
 4520.00    0.91127   0.93805   12.499
 4521.00    0.92744   0.93363   12.651
 4522.00    0.92390   0.92765   12.560
 4523.00    0.90994   0.92046   12.303
 4524.00    0.90396   0.91256   12.132
 4525.00    0.90949   0.90454   12.098
 4526.00    0.91620   0.89721   12.152
 4527.00    0.90660   0.89142   12.285
 4528.00    0.87475   0.88781   12.483
 4529.00    0.84582   0.88641   12.647
 4530.00    0.84539   0.88669   12.690
 4531.00    0.86335   0.88809   12.677
 4532.00    0.87989   0.89057   12.681
 4533.00    0.89651   0.89476   12.636
 4534.00    0.91627   0.90140   12.506
 4535.00    0.92283   0.91033   12.451
 4536.00    0.90853   0.92020   12.553
 4537.00    0.89969   0.92894   12.581
 4538.00    0.91755   0.93492   12.394
 4539.00    0.94379   0.93771   12.269
 4540.00    0.95343   0.93801   12.393
 4541.00    0.94534   0.93690   12.500
 4542.00    0.93841   0.93506   12.369
 4543.00    0.96099   0.93251   12.232
 4544.00    1.00776   0.92892   12.303
 4545.00    1.01893   0.92402   12.467
 4546.00    0.96970   0.91800   12.561
 4547.00    0.92134   0.91161   12.589
 4548.00    0.91565   0.90588   12.609
 4549.00    0.91442   0.90163   12.631
 4550.00    0.89316   0.89907    0.000
 4551.00    0.89063   0.89792    0.000
 4552.00    0.92540   0.89789    0.000
 4553.00    0.95589   0.89918    0.000
 4554.00    0.95273   0.90242    0.000
 4555.00    0.93417   0.90811    0.000
 4556.00    0.92508   0.91592    0.000
 4557.00    0.93384   0.92463    0.000
 4558.00    0.95421   0.93247    0.000
 4559.00    0.97035   0.93783    0.000
 4560.00    0.97380   0.93984    0.000
 4561.00    0.96833   0.93874    0.000
 4562.00    0.95559   0.93588    0.000
 4563.00    0.93391   0.93318    0.000
 4564.00    0.92063   0.93234    0.000
 4565.00    0.94597   0.93393    0.000
 4566.00    0.99283   0.93718    0.000
 4567.00    0.99971   0.94041    0.000
 4568.00    0.95907   0.94213    0.000
 4569.00    0.92806   0.94190    0.000
 4570.00    0.93641   0.94047    0.000
 4571.00    0.96455   0.93915    0.000
 4572.00    0.98156   0.93882    0.000
 4573.00    0.96739   0.93943    0.000
 4574.00    0.93945   0.94004    0.000
 4575.00    0.93913   0.93944    0.000
 4576.00    0.97010   0.93677    0.000
 4577.00    0.99753   0.93188    0.000
 4578.00    0.99586   0.92532    0.000
 4579.00    0.96317   0.91819    0.000
 4580.00    0.92278   0.91173    0.000
 4581.00    0.90664   0.90704    0.000
 4582.00    0.91607   0.90485    0.000
 4583.00    0.92759   0.90535    0.000
 4584.00    0.92799   0.90821    0.000
 4585.00    0.92095   0.91261    0.000
 4586.00    0.92310   0.91739    0.000
 4587.00    0.94607   0.92138    0.000
 4588.00    0.96413   0.92369    0.000
 4589.00    0.94308   0.92408    0.000
 4590.00    0.90525   0.92293    0.000
 4591.00    0.89996   0.92110    0.000
 4592.00    0.93016   0.91950    0.000
 4593.00    0.96324   0.91877    0.000
 4594.00    0.97186   0.91903    0.000
 4595.00    0.94812   0.92006    0.000
 4596.00    0.91373   0.92136    0.000
 4597.00    0.89931   0.92248    0.000
 4598.00    0.91185   0.92315    0.000
 4599.00    0.93815   0.92342    0.000
 4600.00    0.95746   0.92360    0.000
 4601.00    0.95787   0.92411    0.000
 4602.00    0.95402   0.92537    0.000
 4603.00    0.96147   0.92772    0.000
 4604.00    0.96450   0.93132    0.000
 4605.00    0.94854   0.93610    0.000
 4606.00    0.93931   0.94156    0.000
 4607.00    0.95873   0.94678    0.000
 4608.00    0.97571   0.95075    0.000
 4609.00    0.95930   0.95275    0.000
 4610.00    0.93521   0.95270    0.000
 4611.00    0.93640   0.95113    0.000
 4612.00    0.95185   0.94880    0.000
 4613.00    0.95750   0.94630    0.000
 4614.00    0.94904   0.94390    0.000
 4615.00    0.93938   0.94160    0.000
 4616.00    0.95019   0.93954    0.000
 4617.00    0.97919   0.93808    0.000
 4618.00    0.98206   0.93771    0.000
 4619.00    0.94162   0.93872    0.000
 4620.00    0.91191   0.94092    0.000
 4621.00    0.93144   0.94358    0.000
 4622.00    0.96636   0.94577    0.000
 4623.00    0.97975   0.94674    0.000
 4624.00    0.97670   0.94623    0.000
 4625.00    0.96556   0.94451    0.000
 4626.00    0.93665   0.94217    0.000
 4627.00    0.89998   0.93988    0.000
 4628.00    0.89739   0.93809    0.000
 4629.00    0.93359   0.93685    0.000
 4630.00    0.95324   0.93580    0.000
 4631.00    0.93874   0.93441    0.000
 4632.00    0.94270   0.93234    0.000
 4633.00    0.97438   0.92963    0.000
 4634.00    0.96671   0.92665    0.000
 4635.00    0.90596   0.92391    0.000
 4636.00    0.86717   0.92185    0.000
 4637.00    0.88377   0.92077    0.000
 4638.00    0.90996   0.92074    0.000
 4639.00    0.92040   0.92147    0.000
 4640.00    0.93807   0.92227    0.000
 4641.00    0.96936   0.92215    0.000
 4642.00    0.98812   0.92024    0.000
 4643.00    0.97770   0.91622    0.000
 4644.00    0.94459   0.91071    0.000
 4645.00    0.90800   0.90510    0.000
 4646.00    0.88990   0.90111    0.000
 4647.00    0.89585   0.89998    0.000
 4648.00    0.91263   0.90194    0.000
 4649.00    0.92109   0.90609    0.000
 4650.00    0.90784   0.91083    0.000
 4651.00    0.88607   0.91466    0.000
 4652.00    0.88585   0.91684    0.000
 4653.00    0.91108   0.91776    0.000
 4654.00    0.93963   0.91863    0.000
 4655.00    0.95564   0.92078    0.000
 4656.00    0.95545   0.92476    0.000
 4657.00    0.94075   0.92995    0.000
 4658.00    0.92071   0.93473    0.000
 4659.00    0.91988   0.93722    0.000
 4660.00    0.95610   0.93607    0.000
 4661.00    0.99085   0.93092    0.000
 4662.00    0.96627   0.92235    0.000
 4663.00    0.90050   0.91153    0.000
 4664.00    0.85757   0.90003    0.000
 4665.00    0.85283   0.88970    0.000
 4666.00    0.86169   0.88239    0.000
 4667.00    0.86867   0.87949    0.000
 4668.00    0.87409   0.88135    0.000
 4669.00    0.88919   0.88712    0.000
 4670.00    0.92115   0.89513    0.000
 4671.00    0.95191   0.90354    0.000
 4672.00    0.95883   0.91095    0.000
 4673.00    0.94995   0.91660    0.000
 4674.00    0.94605   0.92019    0.000
 4675.00    0.94818   0.92161    0.000
 4676.00    0.94672   0.92097    0.000
 4677.00    0.93949   0.91876    0.000
 4678.00    0.93046   0.91584    0.000
 4679.00    0.92496   0.91328    0.000
 4680.00    0.92660   0.91198    0.000
 4681.00    0.93450   0.91230    0.000
 4682.00    0.94434   0.91393    0.000
 4683.00    0.95022   0.91615    0.000
 4684.00    0.94939   0.91815    0.000
 4685.00    0.94610   0.91938    0.000
 4686.00    0.94339   0.91967    0.000
 4687.00    0.93562   0.91923    0.000
 4688.00    0.92217   0.91847    0.000
 4689.00    0.91838   0.91789    0.000
 4690.00    0.93124   0.91793    0.000
 4691.00    0.94042   0.91876    0.000
 4692.00    0.93235   0.92014    0.000
 4693.00    0.92583   0.92141    0.000
 4694.00    0.93631   0.92167    0.000
 4695.00    0.94955   0.92014    0.000
 4696.00    0.95114   0.91655    0.000
 4697.00    0.94700   0.91129    0.000
 4698.00    0.94068   0.90523    0.000
 4699.00    0.92094   0.89941    0.000
 4700.00    0.89231   0.89465    0.000
 4701.00    0.88743   0.89142    0.000
 4702.00    0.91184   0.88978    0.000
 4703.00    0.92142   0.88938    0.000
 4704.00    0.89738   0.88969    0.000
 4705.00    0.87812   0.89028    0.000
 4706.00    0.88338   0.89096    0.000
 4707.00    0.88314   0.89187    0.000
 4708.00    0.86300   0.89318    0.000
 4709.00    0.84950   0.89486    0.000
 4710.00    0.86083   0.89669    0.000
 4711.00    0.88604   0.89846    0.000
 4712.00    0.90611   0.90034    0.000
 4713.00    0.90739   0.90289    0.000
 4714.00    0.89498   0.90672    0.000
 4715.00    0.88996   0.91197    0.000
 4716.00    0.89610   0.91820    0.000
 4717.00    0.89707   0.92452    0.000
 4718.00    0.89832   0.92998    0.000
 4719.00    0.92653   0.93399    0.000
 4720.00    0.96944   0.93634    0.000
 4721.00    0.97850   0.93706    0.000
 4722.00    0.95148   0.93613    0.000
 4723.00    0.93351   0.93341    0.000
 4724.00    0.92990   0.92867    0.000
 4725.00    0.90598   0.92204    0.000
 4726.00    0.87077   0.91421    0.000
 4727.00    0.87271   0.90645    0.000
 4728.00    0.91630   0.90018    0.000
 4729.00    0.95954   0.89646    0.000
 4730.00    0.97101   0.89558    0.000
 4731.00    0.94433   0.89706    0.000
 4732.00    0.89439   0.89995    0.000
 4733.00    0.85114   0.90325    0.000
 4734.00    0.84731   0.90626    0.000
 4735.00    0.89576   0.90873    0.000
 4736.00    0.94875   0.91077    0.000
 4737.00    0.93985   0.91261    0.000
 4738.00    0.88672   0.91439    0.000
 4739.00    0.86077   0.91608    0.000
 4740.00    0.88632   0.91768    0.000
 4741.00    0.93828   0.91922    0.000
 4742.00    0.97592   0.92073    0.000
 4743.00    0.96931   0.92220    0.000
 4744.00    0.93263   0.92360    0.000
 4745.00    0.90305   0.92484    0.000
 4746.00    0.89729   0.92571    0.000
 4747.00    0.91102   0.92597    0.000
 4748.00    0.92951   0.92538    0.000
 4749.00    0.93948   0.92374    0.000
 4750.00    0.94287   0.92104    0.000
 4751.00    0.94377   0.91752    0.000
 4752.00    0.92950   0.91369    0.000
 4753.00    0.89495   0.91023    0.000
 4754.00    0.87392   0.90773    0.000
 4755.00    0.89425   0.90644    0.000
 4756.00    0.92275   0.90608    0.000
 4757.00    0.91935   0.90588    0.000
 4758.00    0.90257   0.90488    0.000
 4759.00    0.90500   0.90235    0.000
 4760.00    0.91951   0.89804    0.000
 4761.00    0.92299   0.89251   14.504
 4762.00    0.90655   0.88693   14.578
 4763.00    0.87951   0.88263   14.881
 4764.00    0.86746   0.88067   15.145
 4765.00    0.88185   0.88144   15.153
 4766.00    0.89683   0.88451   15.029
 4767.00    0.88834   0.88895   14.992
 4768.00    0.86706   0.89377   15.108
 4769.00    0.85907   0.89825   15.264
 4770.00    0.88512   0.90209   15.186
 4771.00    0.93616   0.90546   14.835
 4772.00    0.96434   0.90867   14.604
 4773.00    0.94536   0.91177   14.720
 4774.00    0.91521   0.91447   14.969
 4775.00    0.90893   0.91634   15.103
 4776.00    0.92110   0.91703   15.135
 4777.00    0.93005   0.91637   15.169
 4778.00    0.91805   0.91442   15.257
 4779.00    0.88959   0.91153   15.371
 4780.00    0.87419   0.90814   15.412
 4781.00    0.88324   0.90455   15.310
 4782.00    0.89298   0.90104   15.098
 4783.00    0.88541   0.89791   14.932
 4784.00    0.86818   0.89531   15.018
 4785.00    0.86096   0.89343   15.295
 4786.00    0.88189   0.89254   15.369
 4787.00    0.91960   0.89288   15.136
 4788.00    0.93381   0.89466   14.974
 4789.00    0.91463   0.89802   15.096
 4790.00    0.89483   0.90277   15.387
 4791.00    0.89005   0.90832   15.710
 4792.00    0.88521   0.91373   16.015
 4793.00    0.88096   0.91791   16.289
 4794.00    0.89856   0.91996   16.520
 4795.00    0.92991   0.91955   16.677
 4796.00    0.93752   0.91717   16.724
 4797.00    0.91825   0.91388   16.713
 4798.00    0.90740   0.91080   16.752
 4799.00    0.91942   0.90863   16.806
 4800.00    0.93772   0.90740   16.717
 4801.00    0.94404   0.90663   16.465
 4802.00    0.93099   0.90569   16.195
 4803.00    0.90998   0.90415   16.066
 4804.00    0.90127   0.90210   16.152
 4805.00    0.90208   0.90000   16.289
 4806.00    0.89359   0.89838   16.202
 4807.00    0.88023   0.89757   16.011
 4808.00    0.88312   0.89765   16.060
 4809.00    0.90076   0.89847   16.287
 4810.00    0.91298   0.89985   16.337
 4811.00    0.91103   0.90165   16.184
 4812.00    0.90017   0.90382   16.063
 4813.00    0.89008   0.90632   16.007
 4814.00    0.88958   0.90899   15.903
 4815.00    0.90033   0.91152   15.772
 4816.00    0.91575   0.91341   15.739
 4817.00    0.92171   0.91401   15.883
 4818.00    0.90825   0.91265   16.187
 4819.00    0.88881   0.90894   16.494
 4820.00    0.88382   0.90330   16.602
 4821.00    0.88894   0.89684   16.506
 4822.00    0.88842   0.89080   16.359
 4823.00    0.88358   0.88617   16.299
 4824.00    0.88442   0.88340   16.361
 4825.00    0.89089   0.88232   16.381
 4826.00    0.89591   0.88217   16.207
 4827.00    0.89361   0.88206   16.000
 4828.00    0.88396   0.88141   15.979
 4829.00    0.87650   0.88029   16.089
 4830.00    0.87793   0.87900   16.149
 4831.00    0.87775   0.87782   16.069
 4832.00    0.86814   0.87686   15.883
 4833.00    0.86662   0.87602   15.739
 4834.00    0.88403   0.87483   15.764
 4835.00    0.89095   0.87280   15.963
 4836.00    0.86700   0.86978   16.209
 4837.00    0.84966   0.86598   16.265
 4838.00    0.87128   0.86173   16.029
 4839.00    0.89874   0.85745   15.744
 4840.00    0.89261   0.85362   15.688
 4841.00    0.86316   0.85047   15.933
 4842.00    0.83639   0.84767   16.354
 4843.00    0.82114   0.84456   16.616
 4844.00    0.81654   0.84045   16.540
 4845.00    0.82016   0.83509   16.411
 4846.00    0.82816   0.82857   16.453
 4847.00    0.83524   0.82098   16.484
 4848.00    0.83725   0.81245    0.000
 4849.00    0.83224   0.80285    0.000
 4850.00    0.81564   0.79151    0.000
 4851.00    0.78028   0.77769    0.000
 4852.00    0.73846   0.76116    0.000
 4853.00    0.72875   0.74199    0.000
 4854.00    0.76885   0.72014    0.000
 4855.00    0.83505   0.69552    0.000
 4856.00    0.91287   0.66829    0.000
 4857.00    1.01826   0.63964    0.000
 4858.00    1.15029   0.61259    0.000
 4859.00    1.27155   0.59100    0.000
 4860.00    1.34358   0.57825    0.000
 4861.00    1.34594   0.57673    0.000
 4862.00    1.27719   0.58680    0.000
 4863.00    1.15481   0.60637    0.000
 4864.00    1.01413   0.63174    0.000
 4865.00    0.89913   0.65876    0.000
 4866.00    0.82739   0.68371    0.000
 4867.00    0.78351   0.70417    0.000
 4868.00    0.75278   0.71986    0.000
 4869.00    0.73347   0.73197    0.000
 4870.00    0.73062   0.74207    0.000
 4871.00    0.74889   0.75165    0.000
 4872.00    0.77687   0.76179    0.000
 4873.00    0.79263   0.77291    0.000
 4874.00    0.79917   0.78478    0.000
 4875.00    0.81984   0.79693   13.073
 4876.00    0.84832   0.80857   15.222
 4877.00    0.85234   0.81870   16.636
 4878.00    0.82994   0.82669   16.315
 4879.00    0.80986   0.83228   16.015
 4880.00    0.80685   0.83533   16.297
 4881.00    0.81512   0.83603   16.360
 4882.00    0.82461   0.83503   16.044
 4883.00    0.82833   0.83322   15.903
 4884.00    0.82927   0.83133   16.017
 4885.00    0.83464   0.82974   16.070
 4886.00    0.83963   0.82843   16.053
 4887.00    0.83410   0.82751   16.193
 4888.00    0.82465   0.82785   16.412
 4889.00    0.82697   0.83058   16.438
 4890.00    0.84132   0.83641   16.299
 4891.00    0.85707   0.84540   16.231
 4892.00    0.87060   0.85675   16.294
 4893.00    0.88263   0.86889   16.371
 4894.00    0.88741   0.87986   16.293
 4895.00    0.88019   0.88785   15.994
 4896.00    0.87206   0.89194   15.703
 4897.00    0.87577   0.89250   15.685
 4898.00    0.88042   0.89062   15.906
 4899.00    0.87263   0.88748   16.114
 4900.00    0.87193   0.88441   16.044
 4901.00    0.89626   0.88258   15.701
 4902.00    0.90966   0.88242   15.601
 4903.00    0.87930   0.88344   16.089
 4904.00    0.85508   0.88457   16.513
 4905.00    0.88685   0.88471   16.119
 4906.00    0.91544   0.88313   15.617
 4907.00    0.87672   0.87998   15.801
 4908.00    0.83121   0.87630   16.198
 4909.00    0.85125   0.87334   16.076
 4910.00    0.88776   0.87199   15.822
 4911.00    0.87543   0.87252   15.987
 4912.00    0.85027   0.87422   16.256
 4913.00    0.86160   0.87530   16.206
 4914.00    0.88002   0.87365   16.159
 4915.00    0.86790   0.86781   16.439
 4916.00    0.84767   0.85776   16.666
 4917.00    0.84695   0.84505   16.497
 4918.00    0.84940   0.83233   16.339
 4919.00    0.83556   0.82221   16.500
 4920.00    0.81721   0.81642   16.592
 4921.00    0.81297   0.81594   16.323
 4922.00    0.82677   0.82103   16.102
 4923.00    0.84609   0.83075   16.224
 4924.00    0.84678   0.84334   16.403
 4925.00    0.82869   0.85697   16.386
 4926.00    0.83113   0.86989   16.359
 4927.00    0.86939   0.88044   16.456
 4928.00    0.90297   0.88737   16.479
 4929.00    0.90374   0.88992   16.351
 4930.00    0.89176   0.88817   16.328
 4931.00    0.88705   0.88347   16.505
 4932.00    0.88387   0.87749   16.626
 4933.00    0.87148   0.87113   16.609
 4934.00    0.84738   0.86495   16.751
 4935.00    0.82163   0.85972   17.118
 4936.00    0.81376   0.85646   17.317
 4937.00    0.82890   0.85606   17.219
 4938.00    0.85036   0.85864   17.211
 4939.00    0.85989   0.86371   17.427
 4940.00    0.84967   0.87053    0.000
 4941.00    0.83184   0.87790    0.000
 4942.00    0.83345   0.88452    0.000
 4943.00    0.86102   0.88975    0.000
 4944.00    0.89253   0.89363    0.000
 4945.00    0.90264   0.89637    0.000
 4946.00    0.87899   0.89827    0.000
 4947.00    0.84289   0.89963    0.000
 4948.00    0.83742   0.90040    0.000
 4949.00    0.86403   0.90016    0.000
 4950.00    0.88311   0.89850    0.000
 4951.00    0.88323   0.89515    0.000
 4952.00    0.88684   0.88977    0.000
 4953.00    0.90094   0.88210    0.000
 4954.00    0.91254   0.87296    0.000
 4955.00    0.91819   0.86488    0.000
 4956.00    0.92691   0.86017    0.000
 4957.00    0.94564   0.85945    0.000
 4958.00    0.97203   0.86219    0.000
 4959.00    0.98720   0.86736    0.000
 4960.00    0.96995   0.87329    0.000
 4961.00    0.93254   0.87799    0.000
 4962.00    0.90730   0.88010    0.000
 4963.00    0.89970   0.87956    0.000
 4964.00    0.89218   0.87720    0.000
 4965.00    0.87355   0.87412    0.000
 4966.00    0.84644   0.87148    0.000
 4967.00    0.82877   0.87019    0.000
 4968.00    0.83600   0.87076    0.000
 4969.00    0.84974   0.87312    0.000
 4970.00    0.84342   0.87664    0.000
 4971.00    0.83401   0.88055    0.000
 4972.00    0.85101   0.88388    0.000
 4973.00    0.87421   0.88569    0.000
 4974.00    0.86784   0.88530    0.000
 4975.00    0.84571   0.88231    0.000
 4976.00    0.84062   0.87678    0.000
 4977.00    0.84775   0.86902    0.000
 4978.00    0.84346   0.85923    0.000
 4979.00    0.82128   0.84814    0.000
 4980.00    0.79261   0.83746    0.000
 4981.00    0.77985   0.82913    0.000
 4982.00    0.79469   0.82450    0.000
 4983.00    0.81556   0.82425    0.000
 4984.00    0.81940   0.82808    0.000
 4985.00    0.81828   0.83455    0.000
 4986.00    0.82976   0.84176    0.000
 4987.00    0.84332   0.84816    0.000
 4988.00    0.84445   0.85292    0.000
 4989.00    0.84063   0.85607    0.000
 4990.00    0.84220   0.85777    0.000
 4991.00    0.84336   0.85861    0.000
 4992.00    0.83744   0.85942    0.000
 4993.00    0.83095   0.86022    0.000
 4994.00    0.83206   0.86051    0.000
 4995.00    0.84032   0.85965    0.000
 4996.00    0.84963   0.85694    0.000
 4997.00    0.85236   0.85233    0.000
 4998.00    0.84716   0.84641    0.000
 4999.00    0.84371   0.84009    0.000
 5000.00    0.85428   0.83423    0.000
 5001.00    0.88705   0.82907    0.000
 5002.00    0.94233   0.82452    0.000
 5003.00    1.01129   0.82102    0.000
 5004.00    1.08159   0.81953    0.000
 5005.00    1.14071   0.82030    0.000
 5006.00    1.17393   0.82242    0.000
 5007.00    1.16485   0.82466    0.000
 5008.00    1.10591   0.82583    0.000
 5009.00    1.00555   0.82491    0.000
 5010.00    0.89415   0.82165    0.000
 5011.00    0.81745   0.81662    0.000
 5012.00    0.79053   0.81102    0.000
 5013.00    0.78498   0.80608    0.000
 5014.00    0.77664   0.80214    0.000
 5015.00    0.76535   0.79962    0.000
 5016.00    0.76102   0.79935    0.000
 5017.00    0.77339   0.80148    0.000
 5018.00    0.79781   0.80515    0.000
 5019.00    0.81543   0.80967    0.000
 5020.00    0.81613   0.81500    0.000
 5021.00    0.80495   0.82089    0.000
 5022.00    0.79243   0.82655    0.000
 5023.00    0.78897   0.83129    0.000
 5024.00    0.79859   0.83474    0.000
 5025.00    0.81599   0.83742    0.000
 5026.00    0.82438   0.84013    0.000
 5027.00    0.80693   0.84300    0.000
 5028.00    0.78213   0.84611    0.000
 5029.00    0.78927   0.84950   18.325
 5030.00    0.81871   0.85264   18.156
 5031.00    0.82438   0.85430   18.369
 5032.00    0.80933   0.85327   18.778
 5033.00    0.81464   0.84955   18.653
 5034.00    0.83433   0.84401   18.211
 5035.00    0.82803   0.83690   18.278
 5036.00    0.80087   0.82839   18.786
 5037.00    0.79092   0.81927   18.995
 5038.00    0.79975   0.81121   18.816
 5039.00    0.80131   0.80668   18.746
 5040.00    0.79283   0.80704   18.877
 5041.00    0.78999   0.81178   18.966
 5042.00    0.79638   0.81967   18.916
 5043.00    0.80373   0.82879   18.795
 5044.00    0.80412   0.83662   18.667
 5045.00    0.79626   0.84129   18.566
 5046.00    0.79180   0.84245   18.524
 5047.00    0.80205   0.84097   18.542
 5048.00    0.81544   0.83811   18.542
 5049.00    0.81664   0.83542   18.456
 5050.00    0.82001   0.83446   18.385
 5051.00    0.84466   0.83580   18.453
 5052.00    0.87231   0.83894   18.599
 5053.00    0.87611   0.84321   18.712
 5054.00    0.86659   0.84817   18.852
 5055.00    0.86370   0.85339   19.086
 5056.00    0.85495   0.85813   19.225
 5057.00    0.82525   0.86202   19.090
 5058.00    0.79725   0.86479   18.886
 5059.00    0.79849   0.86596   18.858
 5060.00    0.82000   0.86486   18.904
 5061.00    0.83894   0.86111   18.861
 5062.00    0.84761   0.85538   18.841
 5063.00    0.84644   0.84918   18.934
 5064.00    0.83434   0.84341   18.924
 5065.00    0.81288   0.83850   18.699
 5066.00    0.79107   0.83505   18.616
 5067.00    0.78308   0.83334   18.899
 5068.00    0.80343   0.83267   19.171
 5069.00    0.84540   0.83218   19.066
 5070.00    0.86878   0.83188   18.845
 5071.00    0.85086   0.83170   18.813
 5072.00    0.82221   0.83106   18.893
 5073.00    0.81404   0.82978   18.960
 5074.00    0.81934   0.82794   19.093
 5075.00    0.82060   0.82498   19.311
 5076.00    0.81148   0.82024   19.416
 5077.00    0.79389   0.81453   19.314
 5078.00    0.77492   0.80957   19.202
 5079.00    0.76462   0.80637   19.191
 5080.00    0.77242   0.80517   19.123
 5081.00    0.79356   0.80632   18.948
 5082.00    0.80592   0.80988   18.866
 5083.00    0.79809   0.81504   18.923
 5084.00    0.78245   0.82073   18.873
 5085.00    0.77742   0.82635   18.673
 5086.00    0.79420   0.83163   18.633
 5087.00    0.82038   0.83622   18.865
 5088.00    0.82359   0.84001   19.086
 5089.00    0.80536   0.84323   19.002
 5090.00    0.80933   0.84580   18.573
 5091.00    0.84333   0.84713   18.133
 5092.00    0.86290   0.84656   18.175
 5093.00    0.84949   0.84372   18.706
 5094.00    0.83019   0.83871   19.156
 5095.00    0.82291   0.83206   19.285
 5096.00    0.82014   0.82499   19.486
 5097.00    0.81186   0.81921   20.007
 5098.00    0.79632   0.81602   20.682
 5099.00    0.78568   0.81548   21.093
 5100.00    0.79725   0.81682   20.868
 5101.00    0.81977   0.81901   20.387
 5102.00    0.82062   0.82109   20.428
 5103.00    0.80098   0.82222   20.878
 5104.00    0.79300   0.82189   20.864
 5105.00    0.80241   0.82042   20.358
 5106.00    0.80764   0.81862   20.112
 5107.00    0.80340   0.81717   20.165
 5108.00    0.80255   0.81695   19.983
 5109.00    0.80985   0.81852   19.557
 5110.00    0.81886   0.82165   19.353
 5111.00    0.82116   0.82579   19.603
 5112.00    0.81327   0.83043   20.222
 5113.00    0.80672   0.83507   20.800
 5114.00    0.81762   0.83923   20.843
 5115.00    0.84064   0.84229   20.552
 5116.00    0.85561   0.84355   20.497
 5117.00    0.85200   0.84252   20.707
 5118.00    0.83386   0.83914   20.803
 5119.00    0.81896   0.83368   20.571
 5120.00    0.82399   0.82655   20.098
 5121.00    0.83970   0.81858   19.722
 5122.00    0.84312   0.81108   19.736
 5123.00    0.82516   0.80494   20.056
 5124.00    0.79289   0.80046   20.370
 5125.00    0.76504   0.79768   20.476
 5126.00    0.75872   0.79655   20.343
 5127.00    0.77138   0.79704   20.091
 5128.00    0.78691   0.79903   19.889
 5129.00    0.78867   0.80208   19.847
 5130.00    0.77300   0.80546   19.987
 5131.00    0.76265   0.80875   20.210
 5132.00    0.77964   0.81181   20.364
 5133.00    0.81094   0.81393   20.341
 5134.00    0.82951   0.81424   20.186
 5135.00    0.82392   0.81271   20.149
 5136.00    0.80183   0.80989   20.382
 5137.00    0.78770   0.80670   20.635
 5138.00    0.79476   0.80400   20.637
 5139.00    0.80012   0.80156   20.559
 5140.00    0.78814   0.79934   20.571
 5141.00    0.78927   0.79809   20.423
 5142.00    0.81652   0.79780   20.028
 5143.00    0.81291   0.79757   19.903
 5144.00    0.74228   0.79716   20.374
 5145.00    0.66328   0.79684   20.988
 5146.00    0.64571   0.79674   -1.000
 5147.00    0.69784   0.79668   20.710
 5148.00    0.77845   0.79636   20.131
 5149.00    0.81946   0.79579   19.831
 5150.00    0.79504   0.79527   19.961
 5151.00    0.75908   0.79529   20.226
 5152.00    0.75792   0.79654   20.315
 5153.00    0.77545   0.79951   20.216
 5154.00    0.78443   0.80407   20.105
 5155.00    0.78088   0.80947   20.196
 5156.00    0.77500   0.81475   20.510
 5157.00    0.78129   0.81890   20.776
 5158.00    0.80113   0.82104   20.747
 5159.00    0.81731   0.82020   20.437
 5160.00    0.81852   0.81597   20.108
 5161.00    0.81027   0.80840   20.105
 5162.00    0.80140   0.79726   20.359
 5163.00    0.79616   0.78248   20.318
 5164.00    0.79203   0.76514   19.958
 5165.00    0.78106   0.74759   19.977
 5166.00    0.76031   0.73279   20.552
 5167.00    0.73507   0.72260   21.026
 5168.00    0.71218   0.71667   20.990
 5169.00    0.69735   0.71367   20.763
 5170.00    0.69609   0.71414   20.605
 5171.00    0.71153   0.71999   20.477
 5172.00    0.73489   0.73112   20.383
 5173.00    0.74889   0.74489   20.411
 5174.00    0.75201   0.75869   20.483
 5175.00    0.75871   0.77093   20.401
 5176.00    0.77118   0.78018   20.324
 5177.00    0.77746   0.78508   20.639
 5178.00    0.77518   0.78483   21.112
 5179.00    0.77260   0.77924   21.000
 5180.00    0.76949   0.76930   20.533
 5181.00    0.75751   0.75826   20.646
 5182.00    0.73705   0.75077   21.291
 5183.00    0.71902   0.74917   21.540
 5184.00    0.71691   0.75252   21.211
 5185.00    0.73860   0.75889   20.934
 5186.00    0.77252   0.76664   20.867
 5187.00    0.79576   0.77450   20.762
 5188.00    0.80020   0.78058   20.663
 5189.00    0.79361   0.78320   20.810
 5190.00    0.78835   0.78311    0.000
 5191.00    0.79243   0.78242    0.000
 5192.00    0.79710   0.78204    0.000
 5193.00    0.78998   0.78238    0.000
 5194.00    0.78383   0.78419    0.000
 5195.00    0.79970   0.78752    0.000
 5196.00    0.82766   0.79186    0.000
 5197.00    0.84082   0.79646    0.000
 5198.00    0.83092   0.79993    0.000
 5199.00    0.80922   0.80109    0.000
 5200.00    0.79688   0.79960    0.000
 5201.00    0.80459   0.79533    0.000
 5202.00    0.80649   0.78832    0.000
 5203.00    0.77755   0.77988    0.000
 5204.00    0.74879   0.77218    0.000
 5205.00    0.75811   0.76640    0.000
 5206.00    0.77786   0.76316    0.000
 5207.00    0.76732   0.76354    0.000
 5208.00    0.74731   0.76781    0.000
 5209.00    0.75665   0.77500    0.000
 5210.00    0.79102   0.78380    0.000
 5211.00    0.82320   0.79237   21.508
 5212.00    0.83408   0.79906   21.425
 5213.00    0.81989   0.80352   21.507
 5214.00    0.79492   0.80672   21.607
 5215.00    0.77672   0.80980   21.597
 5216.00    0.77151   0.81321   21.509
 5217.00    0.77945   0.81663   21.431
 5218.00    0.80011   0.81938   21.385
 5219.00    0.82623   0.82073   21.319
 5220.00    0.83980   0.81973   21.128
 5221.00    0.83086   0.81554   20.838
 5222.00    0.81122   0.80810   20.697
 5223.00    0.79403   0.79825   20.858
 5224.00    0.77885   0.78793   21.188
 5225.00    0.76621   0.78028   21.466
 5226.00    0.76647   0.77755   21.573
 5227.00    0.77882   0.77899   21.535
 5228.00    0.78153   0.78278   21.510
 5229.00    0.76911   0.78751   21.591
 5230.00    0.76963   0.79162   21.702
 5231.00    0.79545   0.79479   21.687
 5232.00    0.81949   0.79787   21.419
 5233.00    0.82239   0.80133   21.044
 5234.00    0.81622   0.80545   20.952
 5235.00    0.81633   0.81028   21.150
 5236.00    0.82548   0.81552   21.116
 5237.00    0.83685   0.82083   20.832
 5238.00    0.83908   0.82582   21.031
 5239.00    0.83115   0.82981   21.795
 5240.00    0.82556   0.83219   22.110
 5241.00    0.82994   0.83304   21.576
 5242.00    0.83978   0.83274   21.079
 5243.00    0.84534   0.83088   21.161
 5244.00    0.83777   0.82694   21.654
 5245.00    0.82065   0.82184   22.204
 5246.00    0.80928   0.81697   22.474
 5247.00    0.81005   0.81250   22.318
 5248.00    0.81577   0.80848   21.881
 5249.00    0.81781   0.80594   21.542
 5250.00    0.81224   0.80532   21.693
 5251.00    0.80451   0.80612   22.221
 5252.00    0.80498   0.80778   22.547
 5253.00    0.81030   0.81029   22.526
 5254.00    0.80651   0.81396   22.567
 5255.00    0.79569   0.81805   22.812
 5256.00    0.79377   0.82082   23.045
 5257.00    0.80188   0.82075   23.136
 5258.00    0.80644   0.81701   23.124
 5259.00    0.80102   0.80946   23.041
 5260.00    0.78846   0.79861   22.912
 5261.00    0.77126   0.78547   22.869
 5262.00    0.75090   0.77155   23.041
 5263.00    0.73189   0.75863   23.254
 5264.00    0.72075   0.74852   23.192
 5265.00    0.72168   0.74208   22.945
 5266.00    0.73271   0.73793   22.865
 5267.00    0.74041   0.73496   23.034
 5268.00    0.73243   0.73508   23.304
 5269.00    0.72286   0.73975   23.531
 5270.00    0.73479   0.74710   23.604
 5271.00    0.76030   0.75504   23.440
 5272.00    0.77519   0.76299   23.059
 5273.00    0.77644   0.77094   22.681
 5274.00    0.77637   0.77981   22.508
 5275.00    0.78249   0.78949   22.424
 5276.00    0.79471   0.79764   22.238
 5277.00    0.80653   0.80289   22.081
 5278.00    0.80968   0.80566   22.158
 5279.00    0.80080   0.80673   22.353
 5280.00    0.78462   0.80686   22.415
 5281.00    0.77610   0.80681   22.304
 5282.00    0.78581   0.80792   22.103
 5283.00    0.80211   0.81174   21.841
 5284.00    0.80887   0.81786   21.579
 5285.00    0.80852   0.82467   21.511
 5286.00    0.81018   0.83118   21.751
 5287.00    0.81378   0.83701   22.095
 5288.00    0.81797   0.84164   22.278
 5289.00    0.82923   0.84411   22.324
 5290.00    0.84748   0.84372   22.380
 5291.00    0.85311   0.84077   22.486
 5292.00    0.83344   0.83612   22.601
 5293.00    0.80639   0.83001   22.656
 5294.00    0.79168   0.82236   22.630
 5295.00    0.78516   0.81404   22.614
 5296.00    0.77981   0.80728   22.717
 5297.00    0.78307   0.80377   22.993
 5298.00    0.79728   0.80306   23.386
 5299.00    0.80640   0.80410   23.708
 5300.00    0.80352   0.80705   23.824
 5301.00    0.80770   0.81220   23.804
 5302.00    0.82829   0.81875   23.702
 5303.00    0.84392   0.82502   23.437
 5304.00    0.83988   0.82980   23.048
 5305.00    0.83002   0.83322   22.796
 5306.00    0.82920   0.83614   22.824
 5307.00    0.83638   0.83869   23.005
 5308.00    0.84390   0.84017   23.121
 5309.00    0.84477   0.84021   23.018
 5310.00    0.83902   0.83899   22.786
 5311.00    0.83454   0.83677   22.750
 5312.00    0.83376   0.83391   23.029
 5313.00    0.82966   0.83032   23.379
 5314.00    0.82134   0.82610   23.541
 5315.00    0.81825   0.82257   23.454
 5316.00    0.82301   0.82060   23.282
 5317.00    0.82613   0.81942   23.317
 5318.00    0.81943   0.81823   23.639
 5319.00    0.80303   0.81650   24.036
 5320.00    0.78854   0.81347   24.255
 5321.00    0.79277   0.80849   24.176
 5322.00    0.80932   0.80166   23.994
 5323.00    0.80994   0.79414   24.095
 5324.00    0.78929   0.78630   24.465
 5325.00    0.77036   0.77760   24.672
 5326.00    0.76538   0.76971   24.605
 5327.00    0.76780   0.76654   24.570
 5328.00    0.77129   0.76913   24.624
 5329.00    0.77581   0.77518   24.535
 5330.00    0.78646   0.78239   24.338
 5331.00    0.80717   0.78999   24.344
 5332.00    0.82491   0.79779   24.696
 5333.00    0.81876   0.80459   25.262
 5334.00    0.79579   0.80858   25.614
 5335.00    0.78436   0.80947   25.317
 5336.00    0.79317   0.80836   24.729
 5337.00    0.80863   0.80583   24.586
 5338.00    0.81415   0.80261   24.867
 5339.00    0.80102   0.80063   25.017
 5340.00    0.78139   0.80084   24.891
 5341.00    0.77570   0.80228   24.744
 5342.00    0.78111   0.80392   24.678
 5343.00    0.78039   0.80515   24.632
 5344.00    0.77227   0.80629   24.593
 5345.00    0.76814   0.80786   24.555
 5346.00    0.77460   0.80911   24.392
 5347.00    0.79060   0.81009   24.029
 5348.00    0.80852   0.81227   23.734
 5349.00    0.81828   0.81620   23.862
 5350.00    0.81388   0.82110   24.452
 5351.00    0.79935   0.82635   25.215
 5352.00    0.79498   0.83202   25.587
 5353.00    0.81670   0.83779   25.230
 5354.00    0.84627   0.84271   24.759
 5355.00    0.85701   0.84606   24.851
 5356.00    0.85404   0.84758   25.184
 5357.00    0.85436   0.84725   25.166
 5358.00    0.85478   0.84501   25.056
 5359.00    0.84566   0.84067   25.294
 5360.00    0.83196   0.83471   25.533
 5361.00    0.82295   0.82829   25.286
 5362.00    0.81785   0.82182   24.839
 5363.00    0.81262   0.81531   24.675
 5364.00    0.80843   0.80923   24.820
 5365.00    0.80437   0.80369   25.111
 5366.00    0.79071   0.79867   25.467
 5367.00    0.76595   0.79396   25.768
 5368.00    0.75099   0.78958   25.748
 5369.00    0.75983   0.78709   25.408
 5370.00    0.77476   0.78835   25.298
 5371.00    0.77863   0.79323   25.700
 5372.00    0.78133   0.79991   26.065
 5373.00    0.79195   0.80700   25.953
 5374.00    0.79772   0.81363   25.835
 5375.00    0.79171   0.81921   26.048
 5376.00    0.79103   0.82334   26.085
 5377.00    0.80442   0.82528   25.682
 5378.00    0.81231   0.82485   25.470
 5379.00    0.80037   0.82317   25.823
 5380.00    0.78018   0.82123   26.262
 5381.00    0.76820   0.81950   26.339
 5382.00    0.77123   0.81865   -2.000
 5383.00    0.78576   0.81865   -2.000
 5384.00    0.80047   0.81860   -2.000
 5385.00    0.80941   0.81808   -2.000
 5386.00    0.81697   0.81679   -2.000
 5387.00    0.82408   0.81445   -2.000
 5388.00    0.82317   0.81118   -2.000
 5389.00    0.81209   0.80725   -2.000
 5390.00    0.79847   0.80281   -2.000
 5391.00    0.78651   0.79826   -2.000
 5392.00    0.77291   0.79410   -2.000
 5393.00    0.75762   0.79037   -2.000
 5394.00    0.74696   0.78657   -2.000
 5395.00    0.74621   0.78334   -2.000
 5396.00    0.75604   0.78231   -2.000
 5397.00    0.77159   0.78288   25.647
 5398.00    0.78418   0.78320   25.725
 5399.00    0.78859   0.78285   26.008
 5400.00    0.78487   0.78199   25.964
 5401.00    0.77505   0.77982   25.686
 5402.00    0.76203   0.77581   25.864
 5403.00    0.75001   0.77091   26.478
 5404.00    0.74345   0.76719   26.749
 5405.00    0.74348   0.76596   26.546
 5406.00    0.74725   0.76643   26.495
 5407.00    0.74950   0.76753   26.718
 5408.00    0.74700   0.76997   26.796
 5409.00    0.74914   0.77502   26.645
 5410.00    0.76991   0.78190   26.522
 5411.00    0.80076   0.78855   26.366
 5412.00    0.81752   0.79392   25.940
 5413.00    0.81386   0.79868   25.500
 5414.00    0.80275   0.80370   25.526
 5415.00    0.80072   0.80821   25.942
 5416.00    0.81664   0.81084   26.281
 5417.00    0.83658   0.81147   26.428
 5418.00    0.83764   0.81094   26.576
 5419.00    0.82147   0.81014   26.697
 5420.00    0.80695   0.80921   26.639
 5421.00    0.80337   0.80718   26.498
 5422.00    0.80763   0.80417   26.518
 5423.00    0.80874   0.80202   26.780
 5424.00    0.79694   0.80127   27.205
 5425.00    0.77687   0.80050   27.627
 5426.00    0.76175   0.79789   27.854
 5427.00    0.76038   0.79330   27.783
 5428.00    0.77232   0.78928   27.523
 5429.00    0.78449   0.78713   27.471
 5430.00    0.78280   0.78512   27.881
 5431.00    0.76871   0.78271   28.279
 5432.00    0.75422   0.78132   28.062
 5433.00    0.75153   0.78247   27.521
 5434.00    0.76371   0.78649   27.260
 5435.00    0.77613   0.79236   27.395
 5436.00    0.77640   0.79917   27.714
 5437.00    0.77712   0.80611   27.901
 5438.00    0.79228   0.81219   27.777
 5439.00    0.81004   0.81640   27.543
 5440.00    0.81432   0.81813   27.460
 5441.00    0.80917   0.81721   27.525
 5442.00    0.80518   0.81356   27.576
 5443.00    0.80396   0.80764   27.440
 5444.00    0.80076   0.80085   27.161
 5445.00    0.78940   0.79561   27.117
 5446.00    0.77264   0.79366   27.435
 5447.00    0.76799   0.79406   27.582
 5448.00    0.78201   0.79508   27.252
 5449.00    0.79269   0.79606   27.057
 5450.00    0.78473   0.79688   27.384
 5451.00    0.77409   0.79700   27.675
 5452.00    0.77616   0.79549   27.494
 5453.00    0.78386   0.79254   27.307
 5454.00    0.78837   0.79049   27.480
 5455.00    0.79277   0.79086   27.684
 5456.00    0.79945   0.79260   27.634
 5457.00    0.80276   0.79432   27.528
 5458.00    0.79863   0.79553   27.507
 5459.00    0.79003   0.79632   27.391
 5460.00    0.78221   0.79639   27.215
 5461.00    0.77959   0.79566   27.396
 5462.00    0.78465   0.79522   27.953
 5463.00    0.79699   0.79547   28.228
 5464.00    0.81083   0.79588   27.960
 5465.00    0.81592   0.79660   27.731
 5466.00    0.80795   0.79775   27.861
 5467.00    0.79270   0.79861   28.072
 5468.00    0.78176   0.79830   28.149
 5469.00    0.78663   0.79655   28.188
 5470.00    0.80300   0.79352   28.266
 5471.00    0.81109   0.78935   28.323
 5472.00    0.80356   0.78474   28.349
 5473.00    0.79157   0.77996   28.413
 5474.00    0.78418   0.77478   28.484
 5475.00    0.78226   0.77070   28.414
 5476.00    0.78579   0.76964   28.157
 5477.00    0.79484   0.77109   27.832
 5478.00    0.80359   0.77309   27.665
 5479.00    0.80267   0.77504   27.874
 5480.00    0.79259   0.77805   28.379
 5481.00    0.78315   0.78246   28.823
 5482.00    0.77923   0.78702   29.011
 5483.00    0.77870   0.79051   28.994
 5484.00    0.77876   0.79252   28.819
 5485.00    0.77898   0.79339   28.517
 5486.00    0.78416   0.79402   28.308
 5487.00    0.79926   0.79481   28.423
 5488.00    0.81564   0.79535   28.627
 5489.00    0.81750   0.79555   28.475
 5490.00    0.80410   0.79558   28.219
 5491.00    0.78779   0.79550   28.444
 5492.00    0.77826   0.79565   28.914
 5493.00    0.77894   0.79593   -2.000
 5494.00    0.78689   0.79556   -2.000
 5495.00    0.79515   0.79431   -2.000
 5496.00    0.79735   0.79326   -2.000
 5497.00    0.79310   0.79303   -2.000
 5498.00    0.79546   0.79232   -2.000
 5499.00    0.81885   0.79013   -2.000
 5500.00    0.85665   0.78750   -2.000
 5501.00    0.88889   0.78576   -2.000
 5502.00    0.90069   0.78467   -2.000
 5503.00    0.88422   0.78305   -2.000
 5504.00    0.83754   0.78080   -2.000
 5505.00    0.77229   0.77933   -2.000
 5506.00    0.72313   0.77924   -2.000
 5507.00    0.72074   0.77930   -2.000
 5508.00    0.75486   0.77875   -2.000
 5509.00    0.79204   0.77786   -2.000
 5510.00    0.80521   0.77720   -2.000
 5511.00    0.78952   0.77738   -2.000
 5512.00    0.77405   0.77853   -2.000
 5513.00    0.78506   0.78066   -2.000
 5514.00    0.80586   0.78369   -2.000
 5515.00    0.81065   0.78750   -2.000
 5516.00    0.80361   0.79195   12.413
 5517.00    0.80073   0.79623   11.466
 5518.00    0.80762   0.79938   12.420
 5519.00    0.81873   0.80109   12.632
 5520.00    0.82034   0.80143   12.163
 5521.00    0.80809   0.80035   12.141
 5522.00    0.79928   0.79783   12.548
 5523.00    0.80441   0.79414   12.783
 5524.00    0.80619   0.78988   12.311
 5525.00    0.79226   0.78550   11.795
 5526.00    0.77862   0.78166   13.238
 5527.00    0.77836   0.77961   19.613
 5528.00    0.78029   0.77963   32.321
 5529.00    0.77412   0.78070   34.698
 5530.00    0.76685   0.78194   29.366
 5531.00    0.76591   0.78329   28.575
 5532.00    0.76864   0.78475   29.993
 5533.00    0.77135   0.78618   30.150
 5534.00    0.77499   0.78783   29.363
 5535.00    0.78195   0.78969   28.931
 5536.00    0.79330   0.79144   29.063
 5537.00    0.80473   0.79323   29.497
 5538.00    0.80708   0.79520   29.839
 5539.00    0.80036   0.79691   29.908
 5540.00    0.79732   0.79760   29.875
 5541.00    0.80494   0.79728   29.859
 5542.00    0.81729   0.79692   29.777
 5543.00    0.82581   0.79698   29.678
 5544.00    0.82514   0.79729   29.780
 5545.00    0.81595   0.79808   29.964
 5546.00    0.80430   0.79962   29.781
 5547.00    0.79434   0.80145   29.461
 5548.00    0.78668   0.80293   29.762
 5549.00    0.78414   0.80378   30.064
 5550.00    0.79140   0.80389   28.884
 5551.00    0.80594   0.80309   28.424
 5552.00    0.81810   0.80152   32.685
 5553.00    0.82227   0.79988   34.997
 5554.00    0.81923   0.79856   22.556
 5555.00    0.81061   0.79725   14.004
 5556.00    0.79817   0.79582   11.743
 5557.00    0.78713   0.79457   12.303
 5558.00    0.78396   0.79345   13.060
 5559.00    0.78767   0.79197   12.826
 5560.00    0.79140   0.78984   12.551
 5561.00    0.79289   0.78740   12.596
 5562.00    0.79398   0.78516   12.564
 5563.00    0.79231   0.78299   12.557
 5564.00    0.78375   0.78085   12.959
 5565.00    0.77286   0.77915   13.159
 5566.00    0.76906   0.77792   12.397
 5567.00    0.77301   0.77699   12.343
 5568.00    0.77792   0.77662   15.888
 5569.00    0.77874   0.77700   26.968
 5570.00    0.77540   0.77739   37.896
 5571.00    0.77503   0.77774   32.686
 5572.00    0.78408   0.77904   29.400
 5573.00    0.79388   0.78110   30.651
 5574.00    0.79145   0.78297   31.675
 5575.00    0.78233   0.78451   31.142
 5576.00    0.78094   0.78607   30.942
 5577.00    0.78866   0.78756   31.348
 5578.00    0.79736   0.78833   31.537
 5579.00    0.80054   0.78778   31.471
 5580.00    0.79618   0.78589   31.567
 5581.00    0.78821   0.78292   31.753
 5582.00    0.78204   0.77891   31.743
 5583.00    0.77823   0.77371   31.606
 5584.00    0.77392   0.76739   31.546
 5585.00    0.76587   0.76092   31.545
 5586.00    0.75421   0.75567   31.492
 5587.00    0.74582   0.75225   31.401
 5588.00    0.74620   0.75086   31.278
 5589.00    0.75047   0.75152   30.986
 5590.00    0.75280   0.75371   30.500
 5591.00    0.75696   0.75659   30.130
 5592.00    0.76724   0.75952   30.042
 5593.00    0.77887   0.76269   29.882
 5594.00    0.78628   0.76587   29.501
 5595.00    0.79128   0.76748   29.529
 5596.00    0.79548   0.76695   30.312
 5597.00    0.79379   0.76579   31.011
 5598.00    0.78315   0.76531   30.882
 5599.00    0.76954   0.76513   30.631
 5600.00    0.75995   0.76502   30.961
 5601.00    0.75590   0.76625   31.495
 5602.00    0.75704   0.77010   31.682
 5603.00    0.76405   0.77573   31.579
 5604.00    0.77674   0.78161   31.391
 5605.00    0.79258   0.78712   31.107
 5606.00    0.80663   0.79202   30.736
 5607.00    0.81267   0.79573   30.445
 5608.00    0.80976   0.79733   30.430
 5609.00    0.80460   0.79666   30.807
 5610.00    0.80047   0.79437   31.398
 5611.00    0.79265   0.79080   31.656
 5612.00    0.78077   0.78559   31.311
 5613.00    0.77345   0.77918   30.718
 5614.00    0.77423   0.77387   30.318
 5615.00    0.77634   0.77132   30.343
 5616.00    0.77493   0.77042   30.722
 5617.00    0.77216   0.76968   31.091
 5618.00    0.77185   0.76936   31.194
 5619.00    0.77590   0.77043   31.081
 5620.00    0.78108   0.77208   30.952
 5621.00    0.77993   0.77245   31.018
 5622.00    0.77011   0.77134   31.306
 5623.00    0.75657   0.77050   31.624
 5624.00    0.74448   0.77133   31.747
 5625.00    0.73752   0.77330   31.570
 5626.00    0.74210   0.77549   31.346
 5627.00    0.76369   0.77813   31.527
 5628.00    0.78954   0.78142   32.032
 5629.00    0.79460   0.78448   32.293
 5630.00    0.77989   0.78621   32.328
 5631.00    0.77075   0.78641   32.729
 5632.00    0.77327   0.78554   33.313
 5633.00    0.77244   0.78382   33.194
 5634.00    0.76565   0.78131   32.493
 5635.00    0.76383   0.77831   32.171
 5636.00    0.76779   0.77562   32.377
 5637.00    0.76850   0.77382   32.548
 5638.00    0.76403   0.77258   32.522
 5639.00    0.76007   0.77155   32.571
 5640.00    0.76034   0.77124   32.741
 5641.00    0.76465   0.77204   32.835
 5642.00    0.77004   0.77335   32.732
 5643.00    0.77272   0.77460   32.478
 5644.00    0.77170   0.77592   32.277
 5645.00    0.76889   0.77756   32.340
 5646.00    0.76771   0.77913   32.630
 5647.00    0.77072   0.78005   32.966
 5648.00    0.77579   0.78033   33.318
 5649.00    0.77879   0.78040   33.707
 5650.00    0.77928   0.78027   33.915
 5651.00    0.77894   0.77906   33.708
 5652.00    0.77732   0.77609   33.321
 5653.00    0.77331   0.77232   33.144
 5654.00    0.76866   0.76896   33.212
 5655.00    0.76574   0.76522   33.317
 5656.00    0.76374   0.76024   33.283
 5657.00    0.75965   0.75596   33.094
 5658.00    0.75060   0.75465   33.003
 5659.00    0.73738   0.75518   33.216
 5660.00    0.72804   0.75541   33.508
 5661.00    0.73014   0.75600   33.513
 5662.00    0.74103   0.75872   33.186
 5663.00    0.75308   0.76260   32.730
 5664.00    0.76130   0.76540   32.397
 5665.00    0.76494   0.76703   32.316
 5666.00    0.76787   0.76889   32.363
 5667.00    0.77292   0.77142   32.416
 5668.00    0.77669   0.77387   32.610
 5669.00    0.77627   0.77593   33.022
 5670.00    0.77568   0.77822   33.371
 5671.00    0.77887   0.78103   33.424
 5672.00    0.78326   0.78350   33.403
 5673.00    0.78490   0.78491   33.578
 5674.00    0.78331   0.78570   33.895
 5675.00    0.77985   0.78615   34.159
 5676.00    0.77604   0.78546   34.228
 5677.00    0.77399   0.78338   34.098
 5678.00    0.77616   0.78087   33.931
 5679.00    0.78098   0.77837   33.835
 5680.00    0.78100   0.77523   33.730
 5681.00    0.77300   0.77162   33.539
 5682.00    0.76364   0.76882   33.329
 5683.00    0.75997   0.76722   33.345
 5684.00    0.76310   0.76603   33.944
 5685.00    0.76864   0.76501   34.962
 5686.00    0.76901   0.76507   35.394
 5687.00    0.76364   0.76667   34.869
 5688.00    0.76215   0.76913   34.352
 5689.00    0.76946   0.77173   34.340
 5690.00    0.77950   0.77439   34.273
 5691.00    0.78493   0.77696   33.829
 5692.00    0.78255   0.77873   33.405
 5693.00    0.77385   0.77945   33.273
 5694.00    0.76461   0.77920   33.309
 5695.00    0.76178   0.77791   33.420
 5696.00    0.76977   0.77543   33.670
 5697.00    0.78126   0.77244   34.032
 5698.00    0.77965   0.76959   34.312
 5699.00    0.76410   0.76658   34.347
 5700.00    0.75183   0.76341   34.138
 5701.00    0.74873   0.76073   33.960
 5702.00    0.74468   0.75864   34.200
 5703.00    0.73628   0.75616   34.721
 5704.00    0.73062   0.75305   34.895
 5705.00    0.73044   0.74997   34.614
 5706.00    0.73135   0.74729   34.389
 5707.00    0.72889   0.74514   34.477
 5708.00    0.72190   0.74404   34.718
 5709.00    0.71560   0.74441   34.807
 5710.00    0.71833   0.74635   34.513
 5711.00    0.73051   0.74992   34.044
 5712.00    0.74541   0.75477   33.800
 5713.00    0.75891   0.76009   33.632
 5714.00    0.77026   0.76518   33.116
 5715.00    0.77755   0.76998   32.554
 5716.00    0.77895   0.77444   32.590
 5717.00    0.77802   0.77817   33.044
 5718.00    0.78106   0.78118   33.232
 5719.00    0.78902   0.78363   33.247
 5720.00    0.79746   0.78541   33.683
 5721.00    0.80040   0.78641   34.435
 5722.00    0.79468   0.78676   34.895
 5723.00    0.78658   0.78653   34.967
 5724.00    0.78483   0.78552   34.973
 5725.00    0.78649   0.78370   34.981
 5726.00    0.78322   0.78187   34.901
 5727.00    0.77589   0.78087   34.856
 5728.00    0.77114   0.78022   35.007
 5729.00    0.77179   0.77926   35.184
 5730.00    0.77670   0.77862   35.147
 5731.00    0.78279   0.77921   35.065
 5732.00    0.78746   0.78041   35.226
 5733.00    0.79121   0.78120   35.557
 5734.00    0.79523   0.78157   35.778
 5735.00    0.79781   0.78193   35.726
 5736.00    0.79641   0.78223   35.420
 5737.00    0.79085   0.78212   35.049
 5738.00    0.78267   0.78175   34.829
 5739.00    0.77397   0.78139   34.857
 5740.00    0.76802   0.78106    0.000
 5741.00    0.76954   0.78057    0.000
 5742.00    0.77905   0.78009    0.000
 5743.00    0.78779   0.77995    0.000
 5744.00    0.78780   0.77986    0.000
 5745.00    0.78185   0.77907    0.000
 5746.00    0.77718   0.77746    0.000
 5747.00    0.77839   0.77587    0.000
 5748.00    0.78453   0.77468    0.000
 5749.00    0.78804   0.77333    0.000
 5750.00    0.78436   0.77145    0.000
 5751.00    0.77884   0.76957    0.000
 5752.00    0.77833   0.76860    0.000
 5753.00    0.78420   0.76879    0.000
 5754.00    0.79415   0.76970    0.000
 5755.00    0.80404   0.77062    0.000
 5756.00    0.80942   0.77121    0.000
 5757.00    0.80682   0.77158    0.000
 5758.00    0.79630   0.77173    0.000
 5759.00    0.78239   0.77137    0.000
 5760.00    0.76984   0.77055    0.000
 5761.00    0.76109   0.77007    0.000
 5762.00    0.75767   0.77084    0.000
 5763.00    0.76074   0.77274    0.000
 5764.00    0.76945   0.77484    0.000
 5765.00    0.78042   0.77681    0.000
 5766.00    0.78966   0.77872    0.000
 5767.00    0.79411   0.78023    0.000
 5768.00    0.79417   0.78072    0.000
 5769.00    0.79355   0.78022    0.000
 5770.00    0.79328   0.77918    0.000
 5771.00    0.79060   0.77793    0.000
 5772.00    0.78618   0.77655    0.000
 5773.00    0.78508   0.77493    0.000
 5774.00    0.78766   0.77305    0.000
 5775.00    0.78851   0.77080    0.000
 5776.00    0.78619   0.76802    0.000
 5777.00    0.78456   0.76460    0.000
 5778.00    0.78403   0.76043    0.000
 5779.00    0.78048   0.75566    0.000
 5780.00    0.77240   0.75133    0.000
 5781.00    0.76242   0.74844    0.000
 5782.00    0.75416   0.74671    0.000
 5783.00    0.75029   0.74573    0.000
 5784.00    0.75033   0.74616    0.000
 5785.00    0.75155   0.74847    0.000
 5786.00    0.75356   0.75165    0.000
 5787.00    0.75833   0.75469    0.000
 5788.00    0.76686   0.75750    0.000
 5789.00    0.77781   0.76017    0.000
 5790.00    0.78670   0.76272    0.000
 5791.00    0.78853   0.76495    0.000
 5792.00    0.78453   0.76669    0.000
 5793.00    0.78016   0.76821    0.000
 5794.00    0.77751   0.76973    0.000
 5795.00    0.77608   0.77091    0.000
 5796.00    0.77794   0.77177    0.000
 5797.00    0.78532   0.77302    0.000
 5798.00    0.79418   0.77461    0.000
 5799.00    0.79822   0.77568    0.000
 5800.00    0.79829   0.77615    0.000
 5801.00    0.79864   0.77643    0.000
 5802.00    0.79780   0.77623    0.000
 5803.00    0.79221   0.77533    0.000
 5804.00    0.78448   0.77438    0.000
 5805.00    0.77984   0.77387    0.000
 5806.00    0.77886   0.77360    0.000
 5807.00    0.77847   0.77349   -2.000
 5808.00    0.77508   0.77378   -2.000
 5809.00    0.76691   0.77432   -2.000
 5810.00    0.75625   0.77456   -2.000
 5811.00    0.74669   0.77438   -2.000
 5812.00    0.73945   0.77412   -2.000
 5813.00    0.73541   0.77384   -2.000
 5814.00    0.73783   0.77347   -2.000
 5815.00    0.74770   0.77352   -2.000
 5816.00    0.75875   0.77449   -2.000
 5817.00    0.76509   0.77589   -2.000
 5818.00    0.76936   0.77719   -2.000
 5819.00    0.77549   0.77852   -2.000
 5820.00    0.78108   0.77986   -2.000
 5821.00    0.78310   0.78078   -2.000
 5822.00    0.78356   0.78119   -2.000
 5823.00    0.78554   0.78149   -2.000
 5824.00    0.78926   0.78173   -2.000
 5825.00    0.79237   0.78169   -2.000
 5826.00    0.79103   0.78158    0.000
 5827.00    0.78386   0.78157    0.000
 5828.00    0.77464   0.78144    0.000
 5829.00    0.76858   0.78092    0.000
 5830.00    0.76914   0.78027    0.000
 5831.00    0.77602   0.77969    0.000
 5832.00    0.78454   0.77890    0.000
 5833.00    0.79006   0.77793    0.000
 5834.00    0.79089   0.77740    0.000
 5835.00    0.78782   0.77745    0.000
 5836.00    0.78331   0.77748    0.000
 5837.00    0.77863   0.77754    0.000
 5838.00    0.77295   0.77812    0.000
 5839.00    0.76712   0.77894    0.000
 5840.00    0.76458   0.77929    0.000
 5841.00    0.76511   0.77906    0.000
 5842.00    0.76335   0.77846    0.000
 5843.00    0.75808   0.77743    0.000
 5844.00    0.75487   0.77586    0.000
 5845.00    0.75628   0.77384    0.000
 5846.00    0.75878   0.77155    0.000
 5847.00    0.75967   0.76910    0.000
 5848.00    0.75951   0.76651    0.000
 5849.00    0.75903   0.76384    0.000
 5850.00    0.75822   0.76088    0.000
 5851.00    0.75794   0.75735    0.000
 5852.00    0.75954   0.75375    0.000
 5853.00    0.76103   0.75099    0.000
 5854.00    0.75809   0.74881    0.000
 5855.00    0.75179   0.74652    0.000
 5856.00    0.74833   0.74480    0.000
 5857.00    0.74935   0.74479    0.000
 5858.00    0.75119   0.74615    0.000
 5859.00    0.75209   0.74786    0.000
 5860.00    0.75336   0.74959    0.000
 5861.00    0.75611   0.75152    0.000
 5862.00    0.76041   0.75390    0.000
 5863.00    0.76568   0.75631    0.000
 5864.00    0.77082   0.75802    0.000
 5865.00    0.77437   0.75910    0.000
 5866.00    0.77516   0.76044    0.000
 5867.00    0.77388   0.76202    0.000
 5868.00    0.77321   0.76304    0.000
 5869.00    0.77708   0.76335    0.000
 5870.00    0.78831   0.76322    0.000
 5871.00    0.80404   0.76265    0.000
 5872.00    0.81833   0.76156    0.000
 5873.00    0.82884   0.75998    0.000
 5874.00    0.83612   0.75795    0.000
 5875.00    0.83985   0.75590    0.000
 5876.00    0.83913   0.75427    0.000
 5877.00    0.83414   0.75272    0.000
 5878.00    0.82579   0.75071    0.000
 5879.00    0.81447   0.74857    0.000
 5880.00    0.79991   0.74648    0.000
 5881.00    0.78134   0.74354    0.000
 5882.00    0.76001   0.73875    0.000
 5883.00    0.74247   0.73183    0.000
 5884.00    0.73384   0.72270    0.000
 5885.00    0.72863   0.71187    0.000
 5886.00    0.71880   0.70003    0.000
 5887.00    0.70557   0.68694    0.000
 5888.00    0.69415   0.67376    0.000
 5889.00    0.68579   0.66385    0.000
 5890.00    0.67981   0.65812    0.000
 5891.00    0.67708   0.65481    0.000
 5892.00    0.67789   0.65401    0.000
 5893.00    0.67965   0.65593    0.000
 5894.00    0.68020   0.65940    0.000
 5895.00    0.68136   0.66541    0.000
 5896.00    0.68691   0.67479    0.000
 5897.00    0.69989   0.68494    0.000
 5898.00    0.71895   0.69463    0.000
 5899.00    0.73607   0.70540    0.000
 5900.00    0.74517   0.71644    0.000
 5901.00    0.74889   0.72544   37.615
 5902.00    0.75194   0.73234   38.370
 5903.00    0.75555   0.73788   38.984
 5904.00    0.75996   0.74187   39.043
 5905.00    0.76625   0.74464   38.774
 5906.00    0.77264   0.74681   38.581
 5907.00    0.77296   0.74814   38.654
 5908.00    0.76461   0.74837   38.942
 5909.00    0.75283   0.74812   39.172
 5910.00    0.74271   0.74771   39.168
 5911.00    0.73456   0.74664   39.037
 5912.00    0.72886   0.74493   38.941
 5913.00    0.72844   0.74353   38.940
 5914.00    0.73324   0.74298   38.976
 5915.00    0.73859   0.74301   38.899
 5916.00    0.74268   0.74345   38.689
 5917.00    0.74890   0.74436   38.521
 5918.00    0.75706   0.74579   38.523
 5919.00    0.76087   0.74736   38.663
 5920.00    0.75751   0.74856   38.786
 5921.00    0.75098   0.74940   38.695
 5922.00    0.74589   0.75012   38.467
 5923.00    0.74472   0.75052   38.454
 5924.00    0.74843   0.75031   38.745
 5925.00    0.75623   0.74976   39.045
 5926.00    0.76375   0.74919   39.079
 5927.00    0.76464   0.74847   38.803
 5928.00    0.75901   0.74741   38.495
 5929.00    0.75394   0.74652   38.556
 5930.00    0.75446   0.74650   38.883
 5931.00    0.76036   0.74686   38.927
 5932.00    0.76654   0.74685   38.669
 5933.00    0.76632   0.74696   38.652
 5934.00    0.76062   0.74783   39.072
 5935.00    0.75696   0.74873   39.634
 5936.00    0.75799   0.74890   39.915
 5937.00    0.76031   0.74897   39.675
 5938.00    0.76037   0.74922   39.358
 5939.00    0.75659   0.74902   39.684
 5940.00    0.75044   0.74853   40.458
 5941.00    0.74563   0.74843   40.836
 5942.00    0.74537   0.74840   40.879
 5943.00    0.75110   0.74798   41.306
 5944.00    0.76098   0.74760   41.835
 5945.00    0.77058   0.74747   41.535
 5946.00    0.77509   0.74685   40.599
 5947.00    0.77161   0.74546   39.933
 5948.00    0.76262   0.74432   39.747
 5949.00    0.75365   0.74397   39.723
 5950.00    0.74772   0.74337   39.619
 5951.00    0.74509   0.74213   39.403
 5952.00    0.74477   0.74160   39.281
 5953.00    0.74562   0.74217   39.459
 5954.00    0.74761   0.74259   39.775
 5955.00    0.75107   0.74266   39.889
 5956.00    0.75517   0.74347   39.714
 5957.00    0.75826   0.74510   39.385
 5958.00    0.75875   0.74683   39.072
 5959.00    0.75629   0.74844   38.956
 5960.00    0.75305   0.74998   39.224
 5961.00    0.75114   0.75139   39.858
 5962.00    0.74911   0.75264   40.326
 5963.00    0.74552   0.75346   40.192
 5964.00    0.74351   0.75382   39.976
 5965.00    0.74648   0.75425   40.301
 5966.00    0.75254   0.75497   40.873
 5967.00    0.75805   0.75548   41.099
 5968.00    0.76200   0.75579   40.950
 5969.00    0.76551   0.75603   40.706
 5970.00    0.77052   0.75579   40.536
 5971.00    0.77681   0.75480   40.524
 5972.00    0.77984   0.75331   40.711
 5973.00    0.77625   0.75135   40.997
 5974.00    0.76882   0.74898   41.071
 5975.00    0.76174   0.74670   40.906
 5976.00    0.75647   0.74481   41.083
 5977.00    0.75343   0.74323   41.816
 5978.00    0.75353   0.74190   42.232
 5979.00    0.75630   0.74082   41.642
 5980.00    0.75878   0.73995   40.635
 5981.00    0.75897   0.73909   39.977
 5982.00    0.75804   0.73792   39.884
 5983.00    0.75779   0.73694   40.132
 5984.00    0.75872   0.73695   40.177
 5985.00    0.75994   0.73742   39.787
 5986.00    0.75949   0.73773   39.374
 5987.00    0.75629   0.73866   39.313
 5988.00    0.75127   0.74044   39.600
 5989.00    0.74675   0.74189   40.000
 5990.00    0.74540   0.74267   40.198
 5991.00    0.74674   0.74358   40.197
 5992.00    0.74658   0.74448   40.405
 5993.00    0.74351   0.74458   40.867
 5994.00    0.74110   0.74409   41.039
 5995.00    0.74182   0.74351   40.804
 5996.00    0.74455   0.74269   40.763
 5997.00    0.74694   0.74149   41.118
 5998.00    0.74694   0.74032   41.400
 5999.00    0.74440   0.73949   41.426
 6000.00    0.74107   0.73859   41.558
 6001.00    0.73788   0.73731   41.910
 6002.00    0.73445   0.73609   42.168
 6003.00    0.73112   0.73514   42.225
 6004.00    0.72932   0.73417   42.305
 6005.00    0.73003   0.73321   42.436
 6006.00    0.73307   0.73237   42.389
 6007.00    0.73696   0.73172   42.106
 6008.00    0.73966   0.73174   41.780
 6009.00    0.74092   0.73227   41.614
 6010.00    0.74220   0.73238   41.715
 6011.00    0.74409   0.73193   41.958
 6012.00    0.74587   0.73172   42.073
 6013.00    0.74625   0.73184   41.977
 6014.00    0.74442   0.73127   41.786
 6015.00    0.74201   0.72992   41.547
 6016.00    0.74160   0.72913   41.261
 6017.00    0.74213   0.72894   41.082
 6018.00    0.73994   0.72823   41.203
 6019.00    0.73394   0.72745   41.510
 6020.00    0.72626   0.72789   41.677
 6021.00    0.72094   0.72892   41.591
 6022.00    0.72142   0.72974   41.351
 6023.00    0.72645   0.73123   41.058
 6024.00    0.73197   0.73374   40.817
 6025.00    0.73646   0.73610   40.826
 6026.00    0.74107   0.73808   41.153
 6027.00    0.74796   0.74058   41.291
 6028.00    0.75773   0.74313   40.756
 6029.00    0.76591   0.74490   40.210
 6030.00    0.76686   0.74636   40.508
 6031.00    0.76093   0.74791   41.175
 6032.00    0.75288   0.74906   41.269
 6033.00    0.74774   0.74957   41.154
 6034.00    0.74813   0.74978   41.634
 6035.00    0.75146   0.74982   42.341
 6036.00    0.75315   0.74956   42.461
 6037.00    0.75129   0.74899   42.177
 6038.00    0.74695   0.74844   42.085
 6039.00    0.74355   0.74806   42.203
 6040.00    0.74420   0.74781   42.283
 6041.00    0.74871   0.74777   42.287
 6042.00    0.75503   0.74826   42.246
 6043.00    0.76133   0.74889   42.050
 6044.00    0.76549   0.74931   41.679
 6045.00    0.76474   0.74988   41.419
 6046.00    0.75835   0.75045   41.480
 6047.00    0.75011   0.75036   41.671
 6048.00    0.74450   0.74974   41.747
 6049.00    0.74282   0.74910   41.758
 6050.00    0.74363   0.74806   41.782
 6051.00    0.74363   0.74636   41.687
 6052.00    0.74059   0.74472   41.473
 6053.00    0.73562   0.74346   41.500
 6054.00    0.73228   0.74230   41.936
 6055.00    0.73498   0.74128   42.384
 6056.00    0.74301   0.74080   42.463
 6057.00    0.74772   0.74063   42.291
 6058.00    0.74375   0.74041   42.197
 6059.00    0.73578   0.73994   42.443
 6060.00    0.72951   0.73902   42.948
 6061.00    0.72577   0.73810   43.205
 6062.00    0.72363   0.73754   43.131
 6063.00    0.72259   0.73695   43.400
 6064.00    0.72271   0.73658   43.999
 6065.00    0.72438   0.73760   43.714
 6066.00    0.72690   0.73976   42.470
 6067.00    0.72834   0.74189   41.949
 6068.00    0.72908   0.74412   42.689
 6069.00    0.73243   0.74657   43.352
 6070.00    0.73853   0.74850   43.141
 6071.00    0.74281   0.74947   42.857
 6072.00    0.74222   0.74954   42.906
 6073.00    0.73776   0.74867   42.718
 6074.00    0.73220   0.74709   42.192
 6075.00    0.72853   0.74510   41.996
 6076.00    0.72815   0.74247   42.292
 6077.00    0.73016   0.73935   42.525
 6078.00    0.73151   0.73678   42.454
 6079.00    0.72871   0.73489   42.390
 6080.00    0.72323   0.73277   42.483
 6081.00    0.72098   0.73099   42.581
 6082.00    0.72367   0.73038   42.662
 6083.00    0.72798   0.73021   42.853
 6084.00    0.73188   0.72969   43.031
 6085.00    0.73562   0.72941   42.888
 6086.00    0.73799   0.72974   42.566
 6087.00    0.73670   0.73001   42.530
 6088.00    0.73222   0.72974   42.746
 6089.00    0.72788   0.72966   42.799
 6090.00    0.72698   0.73032   42.786
 6091.00    0.73102   0.73092   43.152
 6092.00    0.73757   0.73120   43.686
 6093.00    0.74186   0.73196   43.743
 6094.00    0.74178   0.73285   43.522
 6095.00    0.73793   0.73293   43.729
 6096.00    0.73111   0.73225   44.204
 6097.00    0.72214   0.73071   44.277
 6098.00    0.71268   0.72846   44.198
 6099.00    0.70518   0.72640   44.647
 6100.00    0.70237   0.72414   45.166
 6101.00    0.70592   0.72142   44.791
 6102.00    0.71421   0.72006   43.935
 6103.00    0.72339   0.72080   43.603
 6104.00    0.72986   0.72207   43.685
 6105.00    0.73222   0.72356   43.527
 6106.00    0.73339   0.72575   43.163
 6107.00    0.73706   0.72819   42.982
 6108.00    0.74196   0.73046   42.960
 6109.00    0.74424   0.73209   42.902
 6110.00    0.74213   0.73289   42.924
 6111.00    0.73666   0.73340   43.134
 6112.00    0.73131   0.73384   43.133
 6113.00    0.72893   0.73363   42.593
 6114.00    0.72798   0.73238   42.012
 6115.00    0.72584   0.73059   42.046
 6116.00    0.72330   0.72855   42.745
 6117.00    0.72258   0.72571   43.630
 6118.00    0.72448   0.72247   43.834
 6119.00    0.72793   0.71982   43.040
 6120.00    0.73017   0.71737   42.309
 6121.00    0.72903   0.71521   42.546
 6122.00    0.72524   0.71485   43.285
 6123.00    0.72091   0.71569   43.724
 6124.00    0.71783   0.71641   43.841
 6125.00    0.71714   0.71786   43.971
 6126.00    0.71917   0.72002   44.244
 6127.00    0.72343   0.72149   44.504
 6128.00    0.72868   0.72229   44.360
 6129.00    0.73344   0.72274   43.825
 6130.00    0.73644   0.72213   43.648
 6131.00    0.73655   0.71992   44.126
 6132.00    0.73286   0.71655   44.432
 6133.00    0.72547   0.71281   44.066
 6134.00    0.71595   0.70910   43.807
 6135.00    0.70639   0.70523   44.206
 6136.00    0.69869   0.70198   44.750
 6137.00    0.69454   0.70128   44.851
 6138.00    0.69517   0.70293   44.514
 6139.00    0.69973   0.70493   43.913
 6140.00    0.70489   0.70725   43.143
 6141.00    0.70823   0.71093   42.593
 6142.00    0.70981   0.71499   42.910
 6143.00    0.71038   0.71758   43.924
 6144.00    0.71061   0.71919   44.331
 6145.00    0.71244   0.72067   43.803
 6146.00    0.71871   0.72140   43.673
 6147.00    0.72802   0.72114   44.382
 6148.00    0.73412   0.72074   44.781
 6149.00    0.73403   0.72027   44.212
 6150.00    0.73041   0.71967   43.308
 6151.00    0.72605   0.71926   42.682
 6152.00    0.72173   0.71856   42.478
 6153.00    0.71689   0.71691   42.654
 6154.00    0.71047   0.71486   43.076
 6155.00    0.70266   0.71241   43.489
 6156.00    0.69501   0.70828   43.619
 6157.00    0.68842   0.70308   43.607
 6158.00    0.68281   0.69824   43.911
 6159.00    0.67840   0.69337   44.496
 6160.00    0.67578   0.68808   44.837
 6161.00    0.67477   0.68407   44.866
 6162.00    0.67457   0.68253   44.978
 6163.00    0.67528   0.68240   45.092
 6164.00    0.67751   0.68255   44.774
 6165.00    0.68024   0.68363   44.303
 6166.00    0.68174   0.68626   44.413
 6167.00    0.68324   0.68862   45.086
 6168.00    0.68760   0.68958   45.614
 6169.00    0.69384   0.69139   45.515
 6170.00    0.69833   0.69466   44.842
 6171.00    0.70035   0.69713   44.101
 6172.00    0.70160   0.69895   43.792
 6173.00    0.70259   0.70198   43.711
 6174.00    0.70242   0.70517   43.374
 6175.00    0.70015   0.70705   43.040
 6176.00    0.69639   0.70890   43.312
 6177.00    0.69572   0.71133   44.140
 6178.00    0.70231   0.71293   44.945
 6179.00    0.71194   0.71373   45.225
 6180.00    0.71722   0.71482   44.892
 6181.00    0.71830   0.71534   44.516
 6182.00    0.71917   0.71459   44.701
 6183.00    0.71949   0.71332   45.223
 6184.00    0.71642   0.71173   45.531
 6185.00    0.70927   0.70918   45.702
 6186.00    0.69994   0.70583   45.957
 6187.00    0.69248   0.70277   45.796
 6188.00    0.68988   0.70068   44.866
 6189.00    0.69024   0.69890   44.094
 6190.00    0.68983   0.69732   44.417
 6191.00    0.68732   0.69766   45.465
 6192.00    0.68305   0.69974   46.283
 6193.00    0.67752   0.70147   46.433
 6194.00    0.67116   0.70305   46.117
 6195.00    0.66432   0.70525   45.955
 6196.00    0.65793   0.70722   46.339
 6197.00    0.65394   0.70823   46.899
 6198.00    0.65354   0.70868   47.055
 6199.00    0.65548   0.70943   46.669
 6200.00    0.65849   0.71062   45.933
 6201.00    0.66346   0.71174   45.134
 6202.00    0.67143   0.71275   44.462
 6203.00    0.68167   0.71388   43.934
 6204.00    0.69213   0.71489   43.599
 6205.00    0.70007   0.71518   43.657
 6206.00    0.70353   0.71457   44.157
 6207.00    0.70246   0.71330   44.800
 6208.00    0.69813   0.71114   45.350
 6209.00    0.69247   0.70796   45.936
 6210.00    0.68679   0.70436   46.615
 6211.00    0.68112   0.70058   47.042
 6212.00    0.67556   0.69658   -2.000
 6213.00    0.67118   0.69317   -2.000
 6214.00    0.66941   0.69058   -2.000
 6215.00    0.67142   0.68857   -2.000
 6216.00    0.67633   0.68769   -2.000
 6217.00    0.68080   0.68767   -2.000
 6218.00    0.68269   0.68777   -2.000
 6219.00    0.68258   0.68837   -2.000
 6220.00    0.68190   0.68958   -2.000
 6221.00    0.68174   0.69074   -2.000
 6222.00    0.68252   0.69142   -2.000
 6223.00    0.68384   0.69179   -2.000
 6224.00    0.68479   0.69196   43.371
 6225.00    0.68441   0.69114   43.225
 6226.00    0.68313   0.68944   43.579
 6227.00    0.68265   0.68794   44.122
 6228.00    0.68317   0.68625   44.691
 6229.00    0.68320   0.68433   45.483
 6230.00    0.68274   0.68375   46.411
 6231.00    0.68367   0.68435   46.988
 6232.00    0.68673   0.68492   47.057
 6233.00    0.69066   0.68619   46.951
 6234.00    0.69278   0.68779   46.921
 6235.00    0.69045   0.68819   46.986
 6236.00    0.68487   0.68787   47.067
 6237.00    0.68030   0.68719   47.078
 6238.00    0.67881   0.68532   47.053
 6239.00    0.67946   0.68297   47.110
 6240.00    0.68053   0.68151   47.255
 6241.00    0.68082   0.67991   47.344
 6242.00    0.68120   0.67807   47.126
 6243.00    0.68377   0.67789   46.429
 6244.00    0.68890   0.67840   45.521
 6245.00    0.69495   0.67835   44.838
 6246.00    0.69933   0.67908   44.354
 6247.00    0.69965   0.68013   43.891
 6248.00    0.69566   0.68006   43.891
 6249.00    0.68905   0.67946   44.899
 6250.00    0.68223   0.67842   46.197
 6251.00    0.67743   0.67629   46.395
 6252.00    0.67541   0.67402   45.775
 6253.00    0.67537   0.67202   45.629
 6254.00    0.67523   0.67020   46.180
 6255.00    0.67324   0.66929   46.845
 6256.00    0.67064   0.66934   47.146
 6257.00    0.66990   0.67012   46.964
 6258.00    0.67146   0.67230   46.638
 6259.00    0.67431   0.67550   46.633
 6260.00    0.67758   0.67823   47.084
 6261.00    0.68018   0.68128   47.798
 6262.00    0.68014   0.68494   48.291
 6263.00    0.67664   0.68730   48.199
 6264.00    0.67257   0.68858   47.819
 6265.00    0.67139   0.69028   47.608
 6266.00    0.67285   0.69171   47.522
 6267.00    0.67544   0.69219   47.364
 6268.00    0.67980   0.69278   47.248
 6269.00    0.68683   0.69377   47.254
 6270.00    0.69540   0.69455   47.041
 6271.00    0.70301   0.69517   46.337
 6272.00    0.70706   0.69574   45.445
 6273.00    0.70663   0.69599   44.848
 6274.00    0.70392   0.69598   44.815
 6275.00    0.70175   0.69562   45.135
 6276.00    0.70101   0.69481   44.933
 6277.00    0.70064   0.69403   43.842
 6278.00    0.69808   0.69335   42.816
 6279.00    0.69228   0.69271   42.632
 6280.00    0.68582   0.69272    0.000
 6281.00    0.68158   0.69337    0.000
 6282.00    0.68020   0.69437    0.000
 6283.00    0.68137   0.69587    0.000
 6284.00    0.68480   0.69743    0.000
 6285.00    0.68954   0.69891    0.000
 6286.00    0.69375   0.70020    0.000
 6287.00    0.69617   0.70090    0.000
 6288.00    0.69693   0.70098    0.000
 6289.00    0.69659   0.70039    0.000
 6290.00    0.69558   0.69936    0.000
 6291.00    0.69409   0.69797    0.000
 6292.00    0.69243   0.69597    0.000
 6293.00    0.69266   0.69398    0.000
 6294.00    0.69883   0.69213    0.000
 6295.00    0.71309   0.68993    0.000
 6296.00    0.73389   0.68785    0.000
 6297.00    0.75662   0.68632    0.000
 6298.00    0.77472   0.68523    0.000
 6299.00    0.78268   0.68457    0.000
 6300.00    0.77790   0.68436    0.000
 6301.00    0.76238   0.68490    0.000
 6302.00    0.74232   0.68642    0.000
 6303.00    0.72342   0.68832    0.000
 6304.00    0.70919   0.69001    0.000
 6305.00    0.70133   0.69194    0.000
 6306.00    0.70004   0.69386    0.000
 6307.00    0.70388   0.69473    0.000
 6308.00    0.70991   0.69481    0.000
 6309.00    0.71405   0.69437    0.000
 6310.00    0.71269   0.69282    0.000
 6311.00    0.70703   0.69077    0.000
 6312.00    0.70196   0.68895    0.000
 6313.00    0.69863   0.68638    0.000
 6314.00    0.69447   0.68372    0.000
 6315.00    0.68960   0.68266    0.000
 6316.00    0.68681   0.68199    0.000
 6317.00    0.68683   0.68111    0.000
 6318.00    0.68785   0.68201    0.000
 6319.00    0.68773   0.68417    0.000
 6320.00    0.68500   0.68604    0.000
 6321.00    0.67989   0.68824   49.322
 6322.00    0.67429   0.69103   50.158
 6323.00    0.67117   0.69347   50.335
 6324.00    0.67282   0.69530   49.731
 6325.00    0.67776   0.69678   48.766
 6326.00    0.68243   0.69758   48.068
 6327.00    0.68572   0.69794   47.954
 6328.00    0.68890   0.69793   48.355
 6329.00    0.69397   0.69703   48.724
 6330.00    0.70151   0.69568   48.440
 6331.00    0.70782   0.69406   47.631
 6332.00    0.70813   0.69219   46.883
 6333.00    0.70248   0.69022   46.571
 6334.00    0.69465   0.68802   46.730
 6335.00    0.68905   0.68635   46.979
 6336.00    0.68826   0.68580   46.951
 6337.00    0.69024   0.68542   46.943
 6338.00    0.69117   0.68496   47.385
 6339.00    0.68967   0.68520   48.038
 6340.00    0.68691   0.68563   48.409
 6341.00    0.68570   0.68548   48.497
 6342.00    0.68757   0.68499   48.546
 6343.00    0.68949   0.68478   48.610
 6344.00    0.68803   0.68520   48.707
 6345.00    0.68416   0.68551   49.029
 6346.00    0.68139   0.68594   49.622
 6347.00    0.68306   0.68734   50.042
 6348.00    0.68952   0.68883   49.828
 6349.00    0.69621   0.68952   49.089
 6350.00    0.69888   0.68983   48.375
 6351.00    0.69843   0.68983   48.379
 6352.00    0.69748   0.68892   49.145
 6353.00    0.69697   0.68691   49.493
 6354.00    0.69603   0.68435   48.735
 6355.00    0.69248   0.68195   48.075
 6356.00    0.68640   0.67926   48.450
 6357.00    0.68218   0.67605   49.168
 6358.00    0.68358   0.67360   49.335
 6359.00    0.68998   0.67224   49.025
 6360.00    0.69769   0.67111   48.691
 6361.00    0.70187   0.67063   48.614
 6362.00    0.70138   0.67155   48.849
 6363.00    0.70080   0.67330   49.215
 6364.00    0.70306   0.67533   49.402
 6365.00    0.70554   0.67771   49.130
 6366.00    0.70559   0.68031   48.632
 6367.00    0.70351   0.68288   48.663
 6368.00    0.70046   0.68520   49.281
 6369.00    0.69716   0.68710   49.478
 6370.00    0.69459   0.68885   48.919
 6371.00    0.69393   0.69063   48.578
 6372.00    0.69488   0.69207   48.915
 6373.00    0.69539   0.69286   49.319
 6374.00    0.69429   0.69332   49.354
 6375.00    0.69223   0.69366   49.219
 6376.00    0.69031   0.69334   48.896
 6377.00    0.68947   0.69247   48.033
 6378.00    0.69041   0.69185   46.923
 6379.00    0.69311   0.69129   46.421
 6380.00    0.69539   0.69057   46.678
 6381.00    0.69385   0.69042   47.034
 6382.00    0.68952   0.69066   47.046
 6383.00    0.68766   0.69071   46.807
 6384.00    0.69018   0.69098   46.554
 6385.00    0.69422   0.69138   46.496
 6386.00    0.69628   0.69129   46.775
 6387.00    0.69427   0.69080   47.429
 6388.00    0.68927   0.68996   48.270
 6389.00    0.68469   0.68860   48.968
 6390.00    0.68200   0.68732   49.470
 6391.00    0.68076   0.68596   49.957
 6392.00    0.68142   0.68419   50.313
 6393.00    0.68484   0.68335   50.218
 6394.00    0.68905   0.68328   49.813
 6395.00    0.69035   0.68248   49.567
 6396.00    0.68795   0.68208   49.621
 6397.00    0.68383   0.68286   49.797
 6398.00    0.67999   0.68295   49.944
 6399.00    0.67777   0.68271   49.980
 6400.00    0.67781   0.68402   49.850
 6401.00    0.68007   0.68535   49.538
 6402.00    0.68409   0.68572   49.114
 6403.00    0.68883   0.68643   48.713
 6404.00    0.69262   0.68705   48.479
 6405.00    0.69379   0.68698   48.559
 6406.00    0.69189   0.68621   49.086
 6407.00    0.68746   0.68505   49.966
 6408.00    0.68116   0.68466   50.499
 6409.00    0.67428   0.68418   49.982
 6410.00    0.66953   0.68294   48.839
 6411.00    0.66950   0.68282   47.913
 6412.00    0.67434   0.68325   47.377
 6413.00    0.68219   0.68274   47.062
 6414.00    0.69028   0.68252   46.961
 6415.00    0.69561   0.68274   47.174
 6416.00    0.69567   0.68232   47.760
 6417.00    0.69016   0.68205   48.582
 6418.00    0.68267   0.68242   49.131
 6419.00    0.67739   0.68283   49.033
 6420.00    0.67511   0.68357   48.677
 6421.00    0.67465   0.68531   48.623
 6422.00    0.67495   0.68730   48.927
 6423.00    0.67569   0.68867   49.328
 6424.00    0.67760   0.68993   49.492
 6425.00    0.68102   0.69089   49.306
 6426.00    0.68453   0.69056   49.096
 6427.00    0.68607   0.68956   49.148
 6428.00    0.68408   0.68848   49.329
 6429.00    0.67847   0.68687   49.448
 6430.00    0.67117   0.68532   49.571
 6431.00    0.66458   0.68458   49.777
 6432.00    0.66030   0.68408   49.949
 6433.00    0.65904   0.68374   49.922
 6434.00    0.66079   0.68359   49.616
 6435.00    0.66521   0.68365   49.114
 6436.00    0.67191   0.68412   48.659
 6437.00    0.67981   0.68429   48.533
 6438.00    0.68682   0.68461   48.921
 6439.00    0.69123   0.68623   49.474
 6440.00    0.69264   0.68788   49.283
 6441.00    0.69262   0.68889   48.815
 6442.00    0.69431   0.69012   50.155
 6443.00    0.69816   0.69090   52.029
 6444.00    0.70050   0.69029   48.741
 6445.00    0.69889   0.68847   44.908
 6446.00    0.69431   0.68628   52.432
 6447.00    0.68750   0.68387   59.313
 6448.00    0.67790   0.68065   36.779
 6449.00    0.66784   0.67806   18.813
 6450.00    0.66301   0.67716   14.168
 6451.00    0.66544   0.67620   14.255
 6452.00    0.67173   0.67570   15.251
 6453.00    0.67841   0.67680   15.061
 6454.00    0.68406   0.67756   14.434
 6455.00    0.68801   0.67789   14.310
 6456.00    0.68974   0.67907   14.741
 6457.00    0.68880   0.67974   14.940
 6458.00    0.68509   0.67923   14.019
 6459.00    0.68004   0.67927   13.663
 6460.00    0.67639   0.67949   17.439
 6461.00    0.67589   0.67859   33.525
 6462.00    0.67851   0.67850   59.313
 6463.00    0.68224   0.67976   56.661
 6464.00    0.68409   0.68037   44.791
 6465.00    0.68315   0.68113   46.176
 6466.00    0.68068   0.68284   49.371
 6467.00    0.67829   0.68375   48.642
 6468.00    0.67714   0.68402   47.954
 6469.00    0.67752   0.68466   49.135
 6470.00    0.67863   0.68465   50.587
 6471.00    0.67834   0.68423   51.354
 6472.00    0.67471   0.68460   51.775
 6473.00    0.66946   0.68463   52.023
 6474.00    0.66657   0.68402   51.949
 6475.00    0.66776   0.68398   51.654
 6476.00    0.67187   0.68384   51.425
 6477.00    0.67565   0.68263   51.356
 6478.00    0.67584   0.68136   51.326
 6479.00    0.67242   0.68053   51.086
 6480.00    0.66787   0.67921   50.518
 6481.00    0.66458   0.67784   50.006
 6482.00    0.66408   0.67734   49.973
 6483.00    0.66655   0.67707   50.114
 6484.00    0.67075   0.67650   49.945
 6485.00    0.67413   0.67583   49.823
 6486.00    0.67489   0.67455   50.265
 6487.00    0.67465   0.67213   50.783
 6488.00    0.67538   0.66855   50.552
 6489.00    0.67480   0.66354   49.691
 6490.00    0.66948   0.65742   48.918
 6491.00    0.65975   0.65131   48.811
 6492.00    0.64865   0.64517   49.519
 6493.00    0.63977   0.63954   50.454
 6494.00    0.63559   0.63627   50.865
 6495.00    0.63590   0.63496   50.721
 6496.00    0.63922   0.63552   50.415
 6497.00    0.64445   0.63866   50.219
 6498.00    0.65057   0.64307   50.153
 6499.00    0.65622   0.64848   49.944
 6500.00    0.66051   0.65461   49.421
 6501.00    0.66370   0.66008   48.865
 6502.00    0.66631   0.66506   48.748
 6503.00    0.66817   0.66941   49.468
 6504.00    0.66886   0.67249   50.785
 6505.00    0.66818   0.67477   51.322
 6506.00    0.66713   0.67641   50.462
 6507.00    0.66821   0.67709   49.786
 6508.00    0.67228   0.67722   50.299
 6509.00    0.67653   0.67716   50.843
 6510.00    0.67800   0.67651   50.494
 6511.00    0.67619   0.67524   50.274
 6512.00    0.67254   0.67400   50.968
 6513.00    0.66961   0.67278   51.829
 6514.00    0.66870   0.67113   51.996
 6515.00    0.66860   0.66983   51.547
 6516.00    0.66815   0.66944   50.892
 6517.00    0.66760   0.66913   50.292
 6518.00    0.66773   0.66918   49.898
 6519.00    0.66917   0.67008   49.781
 6520.00    0.67192   0.67096   49.900
 6521.00    0.67501   0.67159   50.100
 6522.00    0.67661   0.67208   50.271
 6523.00    0.67474   0.67228   50.404
 6524.00    0.67056   0.67214   50.468
 6525.00    0.66858   0.67148   50.369
 6526.00    0.67063   0.67064   50.057
 6527.00    0.67406   0.66992   49.612
 6528.00    0.67587   0.66904    0.000
 6529.00    0.67477   0.66812    0.000
 6530.00    0.67188   0.66744    0.000
 6531.00    0.67001   0.66692    0.000
 6532.00    0.66999   0.66647    0.000
 6533.00    0.67032   0.66612    0.000
 6534.00    0.67083   0.66598    0.000
 6535.00    0.67315   0.66578    0.000
 6536.00    0.67781   0.66527    0.000
 6537.00    0.68340   0.66456    0.000
 6538.00    0.68690   0.66344    0.000
 6539.00    0.68551   0.66161    0.000
 6540.00    0.68146   0.65929    0.000
 6541.00    0.68204   0.65639    0.000
 6542.00    0.69572   0.65298    0.000
 6543.00    0.72897   0.64964    0.000
 6544.00    0.78108   0.64611    0.000
 6545.00    0.84313   0.64240    0.000
 6546.00    0.89908   0.63921    0.000
 6547.00    0.93051   0.63602    0.000
 6548.00    0.92670   0.63235    0.000
 6549.00    0.88810   0.62849    0.000
 6550.00    0.82816   0.62400    0.000
 6551.00    0.76675   0.61849    0.000
 6552.00    0.71599   0.61201    0.000
 6553.00    0.68133   0.60438    0.000
 6554.00    0.66942   0.59533    0.000
 6555.00    0.69839   0.58469    0.000
 6556.00    0.81246   0.57320    0.000
 6557.00    1.06474   0.56092    0.000
 6558.00    1.48268   0.54740    0.000
 6559.00    2.03947   0.53542    0.000
 6560.00    2.62055   0.52701    0.000
 6561.00    3.06565   0.52021    0.000
 6562.00    3.24181   0.51771    0.000
 6563.00    3.08790   0.52256    0.000
 6564.00    2.65939   0.53014    0.000
 6565.00    2.09085   0.53938    0.000
 6566.00    1.53433   0.55260    0.000
 6567.00    1.10761   0.56579    0.000
 6568.00    0.84129   0.57652    0.000
 6569.00    0.70569   0.58687    0.000
 6570.00    0.65207   0.59593    0.000
 6571.00    0.63524   0.60270    0.000
 6572.00    0.63282   0.60885    0.000
 6573.00    0.63728   0.61457    0.000
 6574.00    0.64527   0.61953    0.000
 6575.00    0.65853   0.62443    0.000
 6576.00    0.68559   0.62905    0.000
 6577.00    0.74101   0.63306    0.000
 6578.00    0.84279   0.63683    0.000
 6579.00    0.99635   0.64002    0.000
 6580.00    1.18121   0.64247    0.000
 6581.00    1.35715   0.64477    0.000
 6582.00    1.47332   0.64656    0.000
 6583.00    1.49297   0.64793    0.000
 6584.00    1.41220   0.64929    0.000
 6585.00    1.25666   0.64996    0.000
 6586.00    1.07451   0.65026    0.000
 6587.00    0.91121   0.65047    0.000
 6588.00    0.79188   0.64965    0.000
 6589.00    0.72110   0.64842    0.000
 6590.00    0.68582   0.64766    0.000
 6591.00    0.66959   0.64656    0.000
 6592.00    0.66156   0.64543    0.000
 6593.00    0.65651   0.64569    0.000
 6594.00    0.65409   0.64658    0.000
 6595.00    0.65549   0.64748    0.000
 6596.00    0.66123   0.64946    0.000
 6597.00    0.66904   0.65175    0.000
 6598.00    0.67384   0.65355    0.000
 6599.00    0.67283   0.65536    0.000
 6600.00    0.66755   0.65670    0.000
 6601.00    0.66156   0.65720    0.000
 6602.00    0.65848   0.65729    0.000
 6603.00    0.65879   0.65696    0.000
 6604.00    0.65961   0.65614    0.000
 6605.00    0.65951   0.65524    0.000
 6606.00    0.65965   0.65470    0.000
 6607.00    0.66078   0.65451    0.000
 6608.00    0.66259   0.65455    0.000
 6609.00    0.66544   0.65528   52.148
 6610.00    0.67025   0.65658   51.921
 6611.00    0.67543   0.65796   51.982
 6612.00    0.67747   0.65941   51.732
 6613.00    0.67569   0.66099   51.225
 6614.00    0.67269   0.66249   51.081
 6615.00    0.67095   0.66357   51.023
 6616.00    0.67135   0.66426   50.201
 6617.00    0.67178   0.66476   49.177
 6618.00    0.66918   0.66483   49.280
 6619.00    0.66566   0.66445   50.164
 6620.00    0.66641   0.66362   50.270
 6621.00    0.67081   0.66260   49.754
 6622.00    0.67353   0.66160   50.053
 6623.00    0.67218   0.66023   51.105
 6624.00    0.66813   0.65888   51.694
 6625.00    0.66388   0.65802   51.829
 6626.00    0.66180   0.65683   52.370
 6627.00    0.66250   0.65556   52.835
 6628.00    0.66509   0.65477   52.336
 6629.00    0.66837   0.65363   52.314
 6630.00    0.67109   0.65245   54.061
 6631.00    0.67206   0.65197   53.325
 6632.00    0.67064   0.65145   48.132
 6633.00    0.66747   0.65118   49.342
 6634.00    0.66356   0.65183   59.313
 6635.00    0.65891   0.65246   58.672
 6636.00    0.65370   0.65290   26.563
 6637.00    0.65051   0.65387   15.995
 6638.00    0.65188   0.65449   14.140
 6639.00    0.65660   0.65433   15.085
 6640.00    0.66182   0.65447   15.547
 6641.00    0.66675   0.65465   15.034
 6642.00    0.67129   0.65413   14.795
 6643.00    0.67374   0.65404   14.842
 6644.00    0.67225   0.65456   14.785
 6645.00    0.66676   0.65479   14.982
 6646.00    0.65888   0.65511   15.595
 6647.00    0.65142   0.65585   15.374
 6648.00    0.64738   0.65649   14.277
 6649.00    0.64888   0.65680   15.435
 6650.00    0.65588   0.65704   24.152
 6651.00    0.66531   0.65728   54.108
 6652.00    0.67338   0.65716   59.313
 6653.00    0.67789   0.65674   51.395
 6654.00    0.67869   0.65643   47.299
 6655.00    0.67760   0.65574   51.704
 6656.00    0.67610   0.65459   53.149
 6657.00    0.67354   0.65360   51.392
 6658.00    0.66936   0.65231   50.854
 6659.00    0.66474   0.65046   51.401
 6660.00    0.66059   0.64912   51.667
 6661.00    0.65631   0.64802   51.521
 6662.00    0.65147   0.64665   51.277
 6663.00    0.64697   0.64619   51.010
 6664.00    0.64431   0.64648   50.759
 6665.00    0.64470   0.64674   50.675
 6666.00    0.64784   0.64765   50.892
 6667.00    0.65155   0.64896   51.433
 6668.00    0.65475   0.64998   52.118
 6669.00    0.65861   0.65091   52.567
 6670.00    0.66333   0.65133   52.705
 6671.00    0.66687   0.65101   52.917
 6672.00    0.66806   0.65038   53.162
 6673.00    0.66794   0.64885   52.835
 6674.00    0.66796   0.64677   52.521
 6675.00    0.66895   0.64529   53.829
 6676.00    0.67091   0.64376   54.688
 6677.00    0.67301   0.64237   50.325
 6678.00    0.67420   0.64252   47.485
 6679.00    0.67359   0.64340   59.167
 6680.00    0.67132   0.64434   59.313
 6681.00    0.66871   0.64615   35.901
 6682.00    0.66757   0.64830   18.096
 6683.00    0.66930   0.64994   13.952
 6684.00    0.67261   0.65136   14.267
 6685.00    0.67401   0.65266   15.141
 6686.00    0.67215   0.65343   14.969
 6687.00    0.66845   0.65374   15.051
 6688.00    0.66423   0.65388   15.363
 6689.00    0.66009   0.65366   14.526
 6690.00    0.65711   0.65315   14.208
 6691.00    0.65677   0.65242   18.474
 6692.00    0.65989   0.65142   36.892
 6693.00    0.66590   0.65051   59.313
 6694.00    0.67197   0.64958   59.313
 6695.00    0.67428   0.64862   47.775
 6696.00    0.67177   0.64816    0.000
 6697.00    0.66614   0.64785    0.000
 6698.00    0.65934   0.64760    0.000
 6699.00    0.65308   0.64772    0.000
 6700.00    0.64875   0.64773    0.000
 6701.00    0.64696   0.64773    0.000
 6702.00    0.64656   0.64780    0.000
 6703.00    0.64561   0.64754    0.000
 6704.00    0.64385   0.64736    0.000
 6705.00    0.64245   0.64726    0.000
 6706.00    0.64266   0.64669    0.000
 6707.00    0.64609   0.64616    0.000
 6708.00    0.65558   0.64564    0.000
 6709.00    0.67626   0.64444    0.000
 6710.00    0.71664   0.64310    0.000
 6711.00    0.78523   0.64176    0.000
 6712.00    0.88460   0.63999    0.000
 6713.00    1.00587   0.63817    0.000
 6714.00    1.12247   0.63676    0.000
 6715.00    1.20013   0.63580    0.000
 6716.00    1.21236   0.63509    0.000
 6717.00    1.15120   0.63500    0.000
 6718.00    1.03740   0.63583    0.000
 6719.00    0.90674   0.63683    0.000
 6720.00    0.79117   0.63795    0.000
 6721.00    0.71054   0.63939    0.000
 6722.00    0.66643   0.64068    0.000
 6723.00    0.65223   0.64178    0.000
 6724.00    0.66482   0.64270    0.000
 6725.00    0.70423   0.64334    0.000
 6726.00    0.77126   0.64401    0.000
 6727.00    0.86034   0.64451    0.000
 6728.00    0.95335   0.64474    0.000
 6729.00    1.02558   0.64500    0.000
 6730.00    1.05325   0.64512    0.000
 6731.00    1.02649   0.64496    0.000
 6732.00    0.95863   0.64466    0.000
 6733.00    0.87342   0.64422    0.000
 6734.00    0.79317   0.64356    0.000
 6735.00    0.73193   0.64275    0.000
 6736.00    0.69176   0.64187    0.000
 6737.00    0.66839   0.64097    0.000
 6738.00    0.65590   0.63998    0.000
 6739.00    0.64875   0.63900    0.000
 6740.00    0.64325   0.63833    0.000
 6741.00    0.63884   0.63756    0.000
 6742.00    0.63808   0.63667    0.000
 6743.00    0.64156   0.63619    0.000
 6744.00    0.64551   0.63574    0.000
 6745.00    0.64590   0.63501    0.000
 6746.00    0.64118   0.63449    0.000
 6747.00    0.63358   0.63431    0.000
 6748.00    0.62861   0.63403    0.000
 6749.00    0.62925   0.63378    0.000
 6750.00    0.63358   0.63436    0.000
 6751.00    0.63787   0.63503    0.000
 6752.00    0.63872   0.63560    0.000
 6753.00    0.63568   0.63705   50.765
 6754.00    0.63157   0.63853   51.485
 6755.00    0.62938   0.63973   52.394
 6756.00    0.63053   0.64126   53.021
 6757.00    0.63424   0.64256   53.153
 6758.00    0.63788   0.64333   53.014
 6759.00    0.63996   0.64391   52.913
 6760.00    0.64067   0.64404   53.039
 6761.00    0.64046   0.64356   53.266
 6762.00    0.63960   0.64288   53.276
 6763.00    0.63878   0.64179   53.167
 6764.00    0.63870   0.64049   53.359
 6765.00    0.63832   0.63942   53.686
 6766.00    0.63542   0.63825   53.505
 6767.00    0.62966   0.63739   52.909
 6768.00    0.62333   0.63733   52.447
 6769.00    0.62064   0.63749   51.553
 6770.00    0.62522   0.63794   49.185
 6771.00    0.63422   0.63908   46.040
 6772.00    0.64059   0.64045   43.598
 6773.00    0.64202   0.64165   42.273
 6774.00    0.64056   0.64285   41.782
 6775.00    0.63699   0.64388   41.745
 6776.00    0.63242   0.64423   41.837
 6777.00    0.63412   0.64407   41.966
 6778.00    0.65006   0.64359   42.036
 6779.00    0.67572   0.64239   41.409
 6780.00    0.69855   0.64083   39.756
 6781.00    0.71144   0.63936   38.409
 6782.00    0.71428   0.63773   38.720
 6783.00    0.71187   0.63631   -1.000
 6784.00    0.71034   0.63556   -1.000
 6785.00    0.71172   0.63502   -1.000
 6786.00    0.71441   0.63479   -1.000
 6787.00    0.71528   0.63508   -1.000
 6788.00    0.71169   0.63535   -1.000
 6789.00    0.70388   0.63545   -1.000
 6790.00    0.69375   0.63572   44.080
 6791.00    0.68257   0.63588   44.761
 6792.00    0.66991   0.63570   45.361
 6793.00    0.65313   0.63571   46.162
 6794.00    0.63439   0.63585   47.376
 6795.00    0.62809   0.63586   48.056
 6796.00    0.64406   0.63613   47.216
 6797.00    0.66823   0.63647   45.536
 6798.00    0.68143   0.63676   44.260
 6799.00    0.68207   0.63709   43.997
 6800.00    0.67810   0.63723   44.656
 6801.00    0.67587   0.63737   45.322
 6802.00    0.67710   0.63729   45.323
 6803.00    0.67747   0.63686   45.391
 6804.00    0.67253   0.63674   46.286
 6805.00    0.66316   0.63636   47.481
 6806.00    0.65453   0.63564   47.945
 6807.00    0.65365   0.63547   47.222
 6808.00    0.66031   0.63511   45.828
 6809.00    0.66202   0.63455   44.981
 6810.00    0.65385   0.63447   45.152
 6811.00    0.65078   0.63430   45.450
 6812.00    0.66089   0.63417   45.363
 6813.00    0.66898   0.63427   45.862
 6814.00    0.66516   0.63431   47.365
 6815.00    0.66171   0.63459   48.402
 6816.00    0.66726   0.63499   47.891
 6817.00    0.67246   0.63531   46.885
 6818.00    0.67052   0.63576   46.353
 6819.00    0.66790   0.63618   46.092
 6820.00    0.66925   0.63658   45.838
 6821.00    0.67007   0.63693   45.775
 6822.00    0.66638   0.63709   46.107
 6823.00    0.65952   0.63709   46.851
 6824.00    0.65174   0.63688   47.995
 6825.00    0.64430   0.63662   49.514
 6826.00    0.63952   0.63627   50.973
 6827.00    0.64051   0.63578   51.445
 6828.00    0.64493   0.63550   50.569
 6829.00    0.64567   0.63534   48.940
 6830.00    0.64525   0.63511   47.128
 6831.00    0.65586   0.63485   45.376
 6832.00    0.67496   0.63439   43.996
 6833.00    0.68338   0.63372   43.410
 6834.00    0.67591   0.63275   43.914
 6835.00    0.66618   0.63130   45.558
 6836.00    0.66218   0.62967   47.563
 6837.00    0.66038   0.62798   48.390
 6838.00    0.65642   0.62625   48.148
 6839.00    0.64906   0.62495   48.612
 6840.00    0.64094   0.62410   49.986
 6841.00    0.63648   0.62381   50.728
 6842.00    0.63542   0.62421   50.550
 6843.00    0.63364   0.62511   50.634
 6844.00    0.63072   0.62635   50.904
 6845.00    0.62968   0.62764   50.224
 6846.00    0.63102   0.62884   48.934
 6847.00    0.63248   0.62982   48.347
 6848.00    0.63243   0.63031   48.455
 6849.00    0.63069   0.63042   48.360
 6850.00    0.62815   0.63005   48.120
 6851.00    0.62634   0.62918   48.450
 6852.00    0.62661   0.62833   49.194
 6853.00    0.62949   0.62719   49.455
 6854.00    0.63371   0.62574   48.696
 6855.00    0.63704   0.62494   47.061
 6856.00    0.63802   0.62430   45.187
 6857.00    0.63646   0.62350   43.791
 6858.00    0.63354   0.62346   43.344
 6859.00    0.63036   0.62371   44.017
 6860.00    0.62553   0.62373   45.468
 6861.00    0.61835   0.62410   47.167
 6862.00    0.61415   0.62468   49.200
 6863.00    0.62002   0.62498   51.633
 6864.00    0.63689   0.62508   52.863
 6865.00    0.65821   0.62513   51.457
 6866.00    0.67056   0.62505   49.559
 6867.00    0.66537   0.62476   49.482
 6868.00    0.65351   0.62450   50.334
 6869.00    0.64930   0.62449   50.277
 6870.00    0.64889   0.62447   49.753
 6871.00    0.64320   0.62443   49.931
 6872.00    0.63588   0.62482   50.436
 6873.00    0.63401   0.62533   50.360
 6874.00    0.63582   0.62564   49.716
 6875.00    0.63639   0.62602   49.036
 6876.00    0.63495   0.62644   48.714
 6877.00    0.63337   0.62656   48.769
 6878.00    0.63372   0.62641   48.735
 6879.00    0.63600   0.62631   48.419
 6880.00    0.63672   0.62616   48.500
 6881.00    0.63351   0.62598   49.400
 6882.00    0.62893   0.62605   50.331
 6883.00    0.62640   0.62657   50.299
 6884.00    0.62657   0.62733   49.277
 6885.00    0.62833   0.62811   47.954
 6886.00    0.62998   0.62921   47.201
 6887.00    0.62996   0.63049   47.428
 6888.00    0.62741   0.63138   48.347
 6889.00    0.62261   0.63210   49.468
 6890.00    0.61708   0.63279   50.433
 6891.00    0.61286   0.63298   51.000
 6892.00    0.61193   0.63289   51.053
 6893.00    0.61531   0.63283   50.705
 6894.00    0.62253   0.63252   50.282
 6895.00    0.63118   0.63216   50.008
 6896.00    0.63727   0.63198   49.868
 6897.00    0.63852   0.63186   49.755
 6898.00    0.63588   0.63183   49.591
 6899.00    0.63180   0.63183   49.514
 6900.00    0.62903   0.63203   49.857
 6901.00    0.62919   0.63234   50.533
 6902.00    0.63205   0.63253   50.902
 6903.00    0.63526   0.63282   50.822
 6904.00    0.63516   0.63301   50.900
 6905.00    0.63086   0.63299   51.233
 6906.00    0.62507   0.63302   51.178
 6907.00    0.62031   0.63260   50.737
 6908.00    0.61732   0.63198   50.714
 6909.00    0.61486   0.63133   51.180
 6910.00    0.61084   0.63020   51.292
 6911.00    0.60629   0.62929   50.791
 6912.00    0.60494   0.62852   50.264
 6913.00    0.60720   0.62749   50.007
 6914.00    0.60970   0.62723   49.825
 6915.00    0.61064   0.62729   49.537
 6916.00    0.61068   0.62718   49.130
 6917.00    0.61029   0.62765   48.753
 6918.00    0.60923   0.62813   48.596
 6919.00    0.60732   0.62832   48.603
 6920.00    0.60459   0.62850   48.605
 6921.00    0.60097   0.62845   48.866
 6922.00    0.59690   0.62822   49.863
 6923.00    0.59497   0.62788   51.354
 6924.00    0.59805   0.62755   52.436
 6925.00    0.60400   0.62739   52.631
 6926.00    0.60772   0.62741   52.151
 6927.00    0.60817   0.62752   51.443
 6928.00    0.60775   0.62771   50.918
 6929.00    0.60777   0.62793   50.751
 6930.00    0.60825   0.62821   50.837
 6931.00    0.60941   0.62850   50.748
 6932.00    0.61165   0.62857   50.173
 6933.00    0.61473   0.62885   49.681
 6934.00    0.61780   0.62924   49.958
 6935.00    0.61971   0.62937   50.459
 6936.00    0.61958   0.62952   50.217
 6937.00    0.61768   0.62963   49.648
 6938.00    0.61496   0.62948   49.696
 6939.00    0.61218   0.62911   50.239
 6940.00    0.60984   0.62862   50.641
 6941.00    0.60839   0.62787   50.876
 6942.00    0.60790   0.62712   51.219
 6943.00    0.60783   0.62648   51.562
 6944.00    0.60768   0.62571   51.601
 6945.00    0.60786   0.62539   51.260
 6946.00    0.60883   0.62533   50.696
 6947.00    0.61001   0.62504   50.209
 6948.00    0.61041   0.62506   49.963
 6949.00    0.60961   0.62520   49.746
 6950.00    0.60776   0.62503   49.321
 6951.00    0.60549   0.62513   48.801
 6952.00    0.60417   0.62545   48.380
 6953.00    0.60591   0.62561   48.063
 6954.00    0.61149   0.62601   47.687
 6955.00    0.61859   0.62672   47.020
 6956.00    0.62380   0.62730   46.281
 6957.00    0.62472   0.62789   46.378
 6958.00    0.62174   0.62860   47.631
 6959.00    0.61877   0.62906   48.774
 6960.00    0.61827   0.62952   48.689
 6961.00    0.61784   0.62993   48.167
 6962.00    0.61496   0.63005   48.225
 6963.00    0.61045   0.63029   48.854
 6964.00    0.60624   0.63044   49.723
 6965.00    0.60359   0.63025   50.660
 6966.00    0.60328   0.63019   51.386
 6967.00    0.60572   0.62999   51.400
 6968.00    0.61038   0.62935   50.672
 6969.00    0.61553   0.62853   49.884
 6970.00    0.61892   0.62722   49.387
 6971.00    0.61862   0.62556   48.851
 6972.00    0.61572   0.62372   48.175
 6973.00    0.61465   0.62146   47.795
 6974.00    0.61685   0.61907   47.824
 6975.00    0.61859   0.61708   47.803
 6976.00    0.61662   0.61568   47.534
 6977.00    0.61088   0.61463   47.377
 6978.00    0.60367   0.61444   47.668
 6979.00    0.59852   0.61556   48.415
 6980.00    0.59778   0.61705   49.127
 6981.00    0.60139   0.61876   48.978
 6982.00    0.60684   0.62096   48.142
 6983.00    0.61005   0.62291   47.802
 6984.00    0.60895   0.62443   48.393
 6985.00    0.60445   0.62567   49.293
 6986.00    0.59891   0.62651   49.767
 6987.00    0.59495   0.62704   49.506
 6988.00    0.59376   0.62723   49.020
 6989.00    0.59483   0.62732   49.216
 6990.00    0.59732   0.62736   49.962
 6991.00    0.60051   0.62723   50.162
 6992.00    0.60382   0.62700   49.615
 6993.00    0.60640   0.62654   49.086
 6994.00    0.60615   0.62595   48.656
 6995.00    0.60099   0.62526   47.847
 6996.00    0.59291   0.62435   46.979
 6997.00    0.58711   0.62340   46.847
 6998.00    0.58691   0.62240   47.360
 6999.00    0.59209   0.62139   47.740
 7000.00    0.59815   0.62066   47.758
 7001.00    0.59965   0.62018   -2.000
 7002.00    0.59775   0.61973   -2.000
 7003.00    0.59782   0.61942   -2.000
 7004.00    0.60103   0.61947   -2.000
 7005.00    0.60475   0.61963   -2.000
 7006.00    0.60714   0.61979   -2.000
 7007.00    0.60775   0.61992   -2.000
 7008.00    0.60718   0.61998   -2.000
 7009.00    0.60633   0.61987   -2.000
 7010.00    0.60555   0.61934   -2.000
 7011.00    0.60469   0.61865   -2.000
 7012.00    0.60346   0.61795   -2.000
 7013.00    0.60162   0.61716   -2.000
 7014.00    0.59907   0.61651   -2.000
 7015.00    0.59637   0.61588   -2.000
 7016.00    0.59538   0.61573   -2.000
 7017.00    0.59765   0.61622   -2.000
 7018.00    0.60214   0.61649   -2.000
 7019.00    0.60620   0.61681   -2.000
 7020.00    0.60743   0.61739   -2.000
 7021.00    0.60512   0.61775   -2.000
 7022.00    0.60164   0.61798   -2.000
 7023.00    0.59947   0.61826   -2.000
 7024.00    0.59774   0.61871   -2.000
 7025.00    0.59509   0.61938   -2.000
 7026.00    0.59303   0.62003   -2.000
 7027.00    0.59342   0.62078   -2.000
 7028.00    0.59571   0.62159   -2.000
 7029.00    0.59875   0.62223   -2.000
 7030.00    0.60250   0.62281   -2.000
 7031.00    0.60639   0.62313   -2.000
 7032.00    0.60789   0.62337   -2.000
 7033.00    0.60561   0.62361   -2.000
 7034.00    0.60175   0.62376   -2.000
 7035.00    0.59875   0.62430   -2.000
 7036.00    0.59657   0.62509   -2.000
 7037.00    0.59415   0.62577   -2.000
 7038.00    0.59100   0.62704   -2.000
 7039.00    0.58997   0.62881   -2.000
 7040.00    0.59737   0.63032   -2.000
 7041.00    0.61134   0.63174   -2.000
 7042.00    0.61689   0.63319   -2.000
 7043.00    0.60732   0.63415   -2.000
 7044.00    0.59498   0.63459   -2.000
 7045.00    0.59031   0.63481   -2.000
 7046.00    0.59073   0.63452   -2.000
 7047.00    0.59269   0.63368   -2.000
 7048.00    0.59780   0.63245   -2.000
 7049.00    0.60571   0.63074   -2.000
 7050.00    0.61128   0.62889   -2.000
 7051.00    0.61046   0.62674   -2.000
 7052.00    0.60315   0.62455   -2.000
 7053.00    0.59200   0.62276   -2.000
 7054.00    0.58136   0.62107   -2.000
 7055.00    0.57549   0.61972   -2.000
 7056.00    0.57649   0.61869   -2.000
 7057.00    0.57934   0.61780   -2.000
 7058.00    0.57467   0.61714   -2.000
 7059.00    0.56774   0.61641   -2.000
 7060.00    0.57651   0.61595   -2.000
 7061.00    0.59695   0.61564   -2.000
 7062.00    0.60271   0.61502   -2.000
 7063.00    0.58991   0.61468   -2.000
 7064.00    0.58085   0.61445   -2.000
 7065.00    0.58353   0.61402   -2.000
 7066.00    0.58623   0.61400   -2.000
 7067.00    0.58361   0.61412   -2.000
 7068.00    0.58102   0.61450   -2.000
 7069.00    0.58283   0.61546   -2.000
 7070.00    0.58903   0.61640   -2.000
 7071.00    0.59591   0.61736   -2.000
 7072.00    0.59873   0.61846   -2.000
 7073.00    0.59791   0.61933   -2.000
 7074.00    0.59734   0.61985   -2.000
 7075.00    0.59675   0.62000   -2.000
 7076.00    0.59328   0.61974   -2.000
 7077.00    0.58948   0.61910   -2.000
 7078.00    0.59123   0.61778   -2.000
 7079.00    0.59948   0.61599   -2.000
 7080.00    0.61108   0.61390   -2.000
 7081.00    0.62387   0.61126   -2.000
 7082.00    0.63532   0.60851   -2.000
 7083.00    0.63792   0.60561   -2.000
 7084.00    0.62509   0.60279   -2.000
 7085.00    0.60282   0.60066   -2.000
 7086.00    0.58339   0.59864   -2.000
 7087.00    0.57170   0.59691   -2.000
 7088.00    0.56731   0.59597   -2.000
 7089.00    0.57125   0.59516   -2.000
 7090.00    0.58335   0.59481   -2.000
 7091.00    0.59682   0.59499   -2.000
 7092.00    0.60374   0.59510   -2.000
 7093.00    0.60365   0.59579   -2.000
 7094.00    0.60148   0.59663   -2.000
 7095.00    0.60272   0.59752   -2.000
 7096.00    0.60849   0.59869   -2.000
 7097.00    0.61076   0.59964   -2.000
 7098.00    0.60380   0.60084   -2.000
 7099.00    0.59727   0.60180   -2.000
 7100.00    0.60148   0.60247   -2.000
 7101.00    0.61042   0.60300   -2.000
 7102.00    0.61320   0.60320   -2.000
 7103.00    0.60791   0.60330   -2.000
 7104.00    0.59943   0.60314   -2.000
 7105.00    0.59534   0.60266   -2.000
 7106.00    0.59917   0.60199   -2.000
 7107.00    0.60528   0.60138   -2.000
 7108.00    0.60730   0.60082   -2.000
 7109.00    0.60545   0.60017   -2.000
 7110.00    0.60271   0.59968   -2.000
 7111.00    0.60107   0.59946   -2.000
 7112.00    0.60121   0.59954   -2.000
 7113.00    0.60247   0.59966   -2.000
 7114.00    0.60273   0.59978   -2.000
 7115.00    0.59892   0.60007   -2.000
 7116.00    0.59080   0.60013   -2.000
 7117.00    0.58272   0.60013   -2.000
 7118.00    0.57703   0.59999   -2.000
 7119.00    0.57100   0.59961   -2.000
 7120.00    0.56446   0.59926   -2.000
 7121.00    0.56295   0.59851   -2.000
 7122.00    0.56742   0.59786   -2.000
 7123.00    0.57047   0.59732   -2.000
 7124.00    0.56916   0.59627   -2.000
 7125.00    0.56886   0.59534   -2.000
 7126.00    0.56572   0.59456   -2.000
 7127.00    0.54486   0.59388   -2.000
 7128.00    0.51541   0.59354   -2.000
 7129.00    0.51450   0.59321   -2.000
 7130.00    0.54651   0.59332   -2.000
 7131.00    0.57112   0.59417   -2.000
 7132.00    0.57258   0.59503   -2.000
 7133.00    0.57628   0.59608   -2.000
 7134.00    0.59241   0.59727   -2.000
 7135.00    0.60261   0.59828   -2.000
 7136.00    0.59847   0.59928   -2.000
 7137.00    0.59050   0.59997   -2.000
 7138.00    0.58598   0.60015   -2.000
 7139.00    0.58356   0.60020   -2.000
 7140.00    0.58234   0.60023   -2.000
 7141.00    0.58373   0.59973   -2.000
 7142.00    0.58709   0.59890   -2.000
 7143.00    0.58922   0.59825   -2.000
 7144.00    0.58727   0.59740   -2.000
 7145.00    0.58078   0.59673   -2.000
 7146.00    0.57462   0.59635   -2.000
 7147.00    0.57582   0.59594   -2.000
 7148.00    0.58319   0.59644   -2.000
 7149.00    0.58937   0.59740   -2.000
 7150.00    0.59274   0.59833   -2.000
 7151.00    0.59643   0.59983   -2.000
 7152.00    0.59921   0.60134   -2.000
 7153.00    0.59675   0.60264   -2.000
 7154.00    0.58892   0.60359   -2.000
 7155.00    0.57986   0.60415   -2.000
 7156.00    0.57481   0.60464   -2.000
 7157.00    0.57710   0.60439   -2.000
 7158.00    0.58393   0.60360   -2.000
 7159.00    0.58893   0.60265   -2.000
 7160.00    0.58818   0.60154   -2.000
 7161.00    0.58163   0.60063   -2.000
 7162.00    0.57338   0.59972   -2.000
 7163.00    0.56896   0.59897   -2.000
 7164.00    0.57090   0.59888   -2.000
 7165.00    0.57744   0.59946   -2.000
 7166.00    0.58201   0.60053   -2.000
 7167.00    0.57895   0.60178   -2.000
 7168.00    0.57134   0.60315   -2.000
 7169.00    0.56626   0.60452   -2.000
 7170.00    0.56691   0.60564   -2.000
 7171.00    0.57305   0.60647   -2.000
 7172.00    0.58292   0.60683   -2.000
 7173.00    0.59295   0.60669   -2.000
 7174.00    0.59751   0.60617   -2.000
 7175.00    0.59329   0.60517   -2.000
 7176.00    0.58403   0.60412   -2.000
 7177.00    0.57645   0.60317   -2.000
 7178.00    0.57524   0.60191   -2.000
 7179.00    0.58247   0.60063   -2.000
 7180.00    0.59733   0.59955   -2.000
 7181.00    0.61535   0.59850   -2.000
 7182.00    0.62807   0.59776   -2.000
 7183.00    0.62803   0.59685   -2.000
 7184.00    0.61374   0.59583   -2.000
 7185.00    0.59451   0.59522   -2.000
 7186.00    0.59127   0.59435   -2.000
 7187.00    0.61185   0.59376   -2.000
 7188.00    0.63482   0.59366   -2.000
 7189.00    0.63803   0.59370   -2.000
 7190.00    0.61991   0.59428   -2.000
 7191.00    0.59062   0.59482   -2.000
 7192.00    0.56379   0.59549   -2.000
 7193.00    0.55011   0.59640   -2.000
 7194.00    0.55283   0.59730   -2.000
 7195.00    0.56499   0.59798   -2.000
 7196.00    0.57139   0.59823   -2.000
 7197.00    0.56989   0.59871   -2.000
 7198.00    0.57766   0.59897   -2.000
 7199.00    0.59558   0.59886   -2.000
 7200.00    0.59677   0.59857   -2.000
 7201.00    0.57275   0.59776   -2.000
 7202.00    0.54943   0.59724   -2.000
 7203.00    0.54302   0.59670   -2.000
 7204.00    0.54365   0.59584   -2.000
 7205.00    0.54413   0.59529   -2.000
 7206.00    0.54971   0.59457   -2.000
 7207.00    0.56015   0.59447   -2.000
 7208.00    0.56575   0.59485   -2.000
 7209.00    0.56394   0.59520   -2.000
 7210.00    0.56241   0.59607   -2.000
 7211.00    0.56389   0.59693   -2.000
 7212.00    0.56321   0.59776   -2.000
 7213.00    0.55851   0.59867   -2.000
 7214.00    0.55320   0.59939   -2.000
 7215.00    0.54874   0.60003   -2.000
 7216.00    0.54451   0.60064   -2.000
 7217.00    0.54555   0.60113   -2.000
 7218.00    0.55985   0.60146   -2.000
