###################################################################
## OUTPUT of StarlightChains_v04.for    [Cid@UFSC - 01/Apr/2007] ##
###################################################################

## Some input info
2012T.txt                                [arq_obs]
Base.CB07.vall.4m                        [arq_base]
Masks.EmLines.NEW.gm                     [arq_masks]
StCv04.C11.config                        [arq_config]
   66                                    [N_base]
    0                                    [N_YAV_components = # of components with extra extinction!]
    0                                    [i_FitPowerLaw (1/0 = Yes/No)]
-9.99                                    [alpha_PowerLaw]
CCM                                      [red_law_option]
 1.458241                                [q_norm = A(l_norm)/A(V)]

## (Re)Sampling Parameters
 3741.00                                 [l_ini (A)]
 7218.00                                 [l_fin (A)]
    1.00                                 [dl    (A)]     (OBS: dl_cushion =    50.00 A)

## Normalization info
 4020.00                                 [l_norm (A) - for base]
 4010.00                                 [llow_norm (A) - window for f_obs]
 4060.00                                 [lupp_norm (A) - window for f_obs]
1.652432E-16                             [fobs_norm (in input units)]

## S/N
 3691.00                                 [llow_SN (A) - window for S/N]
 7268.00                                 [lupp_SN (A) - window for S/N]
   5.978                                 [S/N in S/N window]
   4.882                                 [S/N in norm. window]
  46.728                                 [S/N_err in S/N window]
  38.160                                 [S/N_err in norm. window]
  1.0000                                 [fscale_chi2]

## etc...
    -2007400                             [idum_orig]
  2355                                   [NOl_eff]
  2204                                   [Nl_eff]
   151    NSIGMA                         [Ntot_cliped & clip_method]
 24240720                                [Nglobal_steps]
   7                                     [N_chains]
  39                                     [NEX0s_base = N_base in EX0s-fits]
 0   1   0        1   2.0   8.419E+04    [Clip-Bug, RC-Crash & Burn-In warning-flags, n_censored_weights, wei_nsig_threshold & wei_limit]
   334    333.276    332.622      0.654  [idt_all, wdt_TotTime, wdt_UsrTime & wdt_SysTime (sec)]

## Synthesis Results - Best model ##

 1.54546E+00                             [chi2/Nl_eff]
     2.11164                             [adev (%)]

   104.52097                             [sum-of-x (%)]
 2.47360E-16                             [Flux_tot (units of input spectrum!)]
 9.46832E-12                             [Mini_tot (???)]
 4.86907E-12                             [Mcor_tot (???)]

   0.05                                  [v0_min  (km/s)]
 159.64                                  [vd_min  (km/s)]
 0.2675                                  [AV_min  (mag)]
 0.0000                                  [YAV_min (mag)]

# j     x_j(%)      Mini_j(%)     Mcor_j(%)     age_j(yr)     Z_j      (L/M)_j    YAV?  Mstars   component_j        a/Fe...       SSP_chi2r SSP_adev(%)   SSP_AV   SSP_x(%)
  1      0.4445     1.0155E-03    1.9747E-03    1.000000E+06  0.00400  1.094E-02    0   1.0000   age020_m42            0.0000     1.2797E+01     5.3103   3.6393    91.7396
  2      0.0000     0.0000E+00    0.0000E+00    3.160000E+06  0.00400  4.007E-02    0   0.9999   age045_m42            0.0000     1.1688E+01     4.6782   2.8854   100.3548
  3      0.3842     3.7822E-04    6.9783E-04    5.010000E+06  0.00400  2.539E-02    0   0.9488   age055_m42            0.0000     1.1368E+01     4.7598   3.2136    96.9504
  4      0.0000     0.0000E+00    0.0000E+00    6.610000E+06  0.00400  2.620E-02    0   0.9220   age061_m42            0.0000     1.1143E+01     4.7894   2.7937   101.5816
  5      0.0000     0.0000E+00    0.0000E+00    1.000000E+07  0.00400  1.322E-02    0   0.8862   age070_m42            0.0000     1.2930E+01     6.8883   2.3807   111.7757
  6      2.0046     6.3561E-03    1.0594E-02    1.445000E+07  0.00400  7.883E-03    0   0.8571   age078_m42            0.0000     1.2653E+01     6.5484   2.7302   107.3864
  7      0.0000     0.0000E+00    0.0000E+00    2.512000E+07  0.00400  5.251E-03    0   0.8174   age090_m42            0.0000     1.4105E+01     7.4507   2.2263   114.0556
  8      0.0000     0.0000E+00    0.0000E+00    4.000000E+07  0.00400  3.649E-03    0   0.7851   age104_m42            0.0000     1.3840E+01     7.2586   2.0052   114.7939
  9      0.0000     0.0000E+00    0.0000E+00    5.500000E+07  0.00400  3.098E-03    0   0.7629   age110_m42            0.0000     1.2358E+01     6.1652   2.2144   111.3069
 10      0.5224     5.8610E-03    8.2140E-03    1.015200E+08  0.00400  2.228E-03    0   0.7207   age116_m42            0.0000     1.1210E+01     5.5772   2.2706   109.2514
 11      0.5287     1.2090E-02    1.5629E-02    2.861200E+08  0.00400  1.093E-03    0   0.6648   age125_m42            0.0000     1.2365E+01     6.3137   1.6658   114.8384
 12      0.4346     1.6468E-02    2.0383E-02    5.088000E+08  0.00400  6.597E-04    0   0.6365   age130_m42            0.0000     9.8998E+00     5.5291   1.7096   112.5206
 13      0.3046     3.5715E-02    4.0267E-02    1.434000E+09  0.00400  2.132E-04    0   0.5798   age139_m42            0.0000     4.7598E+00     4.0953   0.7655   113.1152
 14      6.7800     2.8747E+00    3.0058E+00    4.250000E+09  0.00400  5.895E-05    0   0.5377   age158_m42            0.0000     2.0618E+00     2.1217   0.4147   103.4085
 15      8.2836     5.8988E+00    5.9786E+00    7.500000E+09  0.00400  3.510E-05    0   0.5212   age171_m42            0.0000     1.7752E+00     2.2495   0.2621   100.8220
 16      9.7889     1.2203E+01    1.1946E+01    1.300000E+10  0.00400  2.005E-05    0   0.5034   age193_m42            0.0000     2.0017E+00     2.7121   0.1296    98.5297
 17      2.2231     3.6438E+00    3.5194E+00    1.800000E+10  0.00400  1.525E-05    0   0.4967   age213_m42            0.0000     1.8937E+00     2.6168   0.1047    98.0984
 18      0.0000     0.0000E+00    0.0000E+00    1.000000E+06  0.00800  1.238E-02    0   1.0000   age020_m52            0.0000     1.2691E+01     5.3101   3.6364    91.8665
 19      0.0000     0.0000E+00    0.0000E+00    3.160000E+06  0.00800  3.074E-02    0   0.9966   age045_m52            0.0000     1.2363E+01     5.1949   3.5587    92.8196
 20      0.0000     0.0000E+00    0.0000E+00    5.010000E+06  0.00800  2.668E-02    0   0.9443   age055_m52            0.0000     1.1047E+01     4.8426   3.2897    96.4419
 21      0.0000     0.0000E+00    0.0000E+00    6.610000E+06  0.00800  2.136E-02    0   0.9177   age061_m52            0.0000     9.2736E+00     6.0909   1.8965   111.8864
 22      2.4438     5.0274E-03    8.6294E-03    1.000000E+07  0.00800  1.215E-02    0   0.8827   age070_m52            0.0000     1.4317E+01     7.6601   2.5306   113.4861
 23      0.0000     0.0000E+00    0.0000E+00    1.445000E+07  0.00800  8.717E-03    0   0.8552   age078_m52            0.0000     1.2267E+01     6.6172   2.6872   109.4990
 24      0.0000     0.0000E+00    0.0000E+00    2.512000E+07  0.00800  5.592E-03    0   0.8162   age090_m52            0.0000     1.4191E+01     7.6154   2.2824   116.1071
 25      0.0000     0.0000E+00    0.0000E+00    4.000000E+07  0.00800  3.896E-03    0   0.7841   age104_m52            0.0000     1.3865E+01     7.1554   2.2172   115.7251
 26      0.5829     6.7827E-03    9.5307E-03    1.015200E+08  0.00800  2.148E-03    0   0.7226   age116_m52            0.0000     1.1888E+01     6.0674   2.2071   112.2754
 27      1.2561     3.1633E-02    4.1109E-02    2.861200E+08  0.00800  9.925E-04    0   0.6683   age125_m52            0.0000     1.0234E+01     5.7417   1.7576   115.0638
 28      1.5953     1.2695E-01    1.5152E-01    9.047900E+08  0.00800  3.141E-04    0   0.6138   age135_m52            0.0000     6.6399E+00     4.4085   1.0346   115.4918
 29      1.1343     1.6493E-01    1.8772E-01    1.434000E+09  0.00800  1.719E-04    0   0.5853   age139_m52            0.0000     3.6347E+00     3.0804   0.4818   110.9566
 30      2.5982     8.2497E-01    8.9837E-01    2.500000E+09  0.00800  7.872E-05    0   0.5600   age150_m52            0.0000     1.9399E+00     2.4820   0.2894   103.6705
 31      1.3170     7.5922E-01    8.0107E-01    4.250000E+09  0.00800  4.336E-05    0   0.5426   age158_m52            0.0000     1.9908E+00     2.5558   0.2793   102.4000
 32      5.5028     4.3540E+00    4.5035E+00    6.250000E+09  0.00800  3.159E-05    0   0.5319   age166_m52            0.0000     2.1204E+00     3.2602   0.1230   100.0109
 33      3.5695     6.5555E+00    6.4670E+00    1.300000E+10  0.00800  1.361E-05    0   0.5073   age193_m52            0.0000     2.9461E+00     4.3662  -0.2899    96.5385
 34      5.0751     1.2831E+01    1.2451E+01    1.800000E+10  0.00800  9.886E-06    0   0.4990   age213_m52            0.0000     4.1375E+00     5.3473  -0.3480    93.6722
 35      0.2605     4.2171E-04    8.2006E-04    1.000000E+06  0.02000  1.544E-02    0   1.0000   age020_m62            0.0000     1.2723E+01     5.3466   3.6319    92.0928
 36      0.0000     0.0000E+00    0.0000E+00    3.160000E+06  0.02000  3.762E-02    0   0.9858   age045_m62            0.0000     1.2654E+01     5.3326   3.5743    92.7614
 37      0.0000     0.0000E+00    0.0000E+00    5.010000E+06  0.02000  3.296E-02    0   0.9342   age055_m62            0.0000     1.0820E+01     4.5674   3.1800    98.0108
 38      0.0000     0.0000E+00    0.0000E+00    8.710000E+06  0.02000  1.154E-02    0   0.8861   age067_m62            0.0000     3.1838E+01    13.7708   1.7627   132.3994
 39      0.0000     0.0000E+00    0.0000E+00    1.445000E+07  0.02000  7.663E-03    0   0.8472   age078_m62            0.0000     1.8346E+01     9.4655   2.1102   120.8446
 40      3.5968     1.9837E-02    3.1242E-02    2.512000E+07  0.02000  4.532E-03    0   0.8099   age090_m62            0.0000     2.0601E+01     9.9886   2.0865   121.7981
 41      0.4455     4.0746E-03    6.0179E-03    5.500000E+07  0.02000  2.733E-03    0   0.7595   age110_m62            0.0000     1.2064E+01     6.8679   2.2039   114.3831
 42      2.4066     4.3939E-02    5.9682E-02    1.609000E+08  0.02000  1.369E-03    0   0.6985   age120_m62            0.0000     1.0782E+01     5.9793   2.0975   114.2482
 43      0.0000     0.0000E+00    0.0000E+00    2.861200E+08  0.02000  9.013E-04    0   0.6714   age125_m62            0.0000     9.7208E+00     5.8590   1.8714   116.1295
 44      0.0000     0.0000E+00    0.0000E+00    5.088000E+08  0.02000  5.028E-04    0   0.6449   age130_m62            0.0000     7.2468E+00     4.9535   1.5744   114.2975
 45      0.2606     2.6830E-02    3.2238E-02    9.047900E+08  0.02000  2.428E-04    0   0.6179   age135_m62            0.0000     3.2719E+00     3.1619   1.0423   110.2181
 46      3.6139     7.1520E-01    8.2167E-01    1.434000E+09  0.02000  1.263E-04    0   0.5908   age139_m62            0.0000     1.7855E+00     2.4958   0.6263   106.7870
 47      2.7963     1.1678E+00    1.2883E+00    2.500000E+09  0.02000  5.985E-05    0   0.5673   age150_m62            0.0000     1.9408E+00     3.1613   0.3222   102.0879
 48      8.7879     6.7152E+00    7.1403E+00    4.250000E+09  0.02000  3.271E-05    0   0.5468   age158_m62            0.0000     3.0156E+00     4.5777   0.0948    97.0185
 49      0.3611     6.6360E-01    6.6676E-01    1.000000E+10  0.02000  1.360E-05    0   0.5167   age181_m62            0.0000     5.5141E+00     6.2006  -0.1834    93.3776
 50      2.1805     7.6503E+00    7.4577E+00    1.800000E+10  0.02000  7.124E-06    0   0.5013   age213_m62            0.0000     8.0679E+00     7.4646  -0.3324    89.9291
 51      0.0000     0.0000E+00    0.0000E+00    1.000000E+06  0.05000  2.592E-02    0   0.9998   age020_m72            0.0000     1.2803E+01     5.4616   3.6186    92.3366
 52      0.4253     2.1943E-04    4.0865E-04    3.160000E+06  0.05000  4.845E-02    0   0.9577   age045_m72            0.0000     1.2117E+01     4.9785   3.4619    93.9204
 53      1.2196     9.9234E-04    1.7651E-03    5.010000E+06  0.05000  3.072E-02    0   0.9147   age055_m72            0.0000     1.5291E+01     7.3295   2.8019   109.5445
 54      0.0000     0.0000E+00    0.0000E+00    6.610000E+06  0.05000  1.455E-02    0   0.8877   age061_m72            0.0000     7.1598E+01    18.9180   1.7444   141.9703
 55      0.0000     0.0000E+00    0.0000E+00    1.000000E+07  0.05000  9.074E-03    0   0.8524   age070_m72            0.0000     2.1828E+01     7.8254   3.0097   108.7380
 56      0.0000     0.0000E+00    0.0000E+00    2.512000E+07  0.05000  4.250E-03    0   0.7902   age090_m72            0.0000     1.9420E+01     7.9770   2.6712   112.7673
 57      0.0000     0.0000E+00    0.0000E+00    4.000000E+07  0.05000  3.087E-03    0   0.7618   age104_m72            0.0000     2.1150E+01     8.6082   2.4177   116.4431
 58      0.0000     0.0000E+00    0.0000E+00    1.015200E+08  0.05000  1.700E-03    0   0.7096   age116_m72            0.0000     1.3922E+01     6.9337   2.2025   116.5126
 59      0.0000     0.0000E+00    0.0000E+00    2.861200E+08  0.05000  7.384E-04    0   0.6633   age125_m72            0.0000     8.2049E+00     5.4016   1.7768   115.5022
 60      0.4900     3.2070E-02    3.9738E-02    5.088000E+08  0.05000  3.819E-04    0   0.6372   age130_m72            0.0000     3.9300E+00     3.6889   1.3652   112.1272
 61      4.6661     6.9587E-01    8.2679E-01    9.047900E+08  0.05000  1.676E-04    0   0.6110   age135_m72            0.0000     2.3125E+00     3.1794   0.7664   104.6923
 62      4.6557     1.3168E+00    1.5042E+00    1.434000E+09  0.05000  8.837E-05    0   0.5874   age139_m72            0.0000     1.9984E+00     3.4179   0.3327   102.9689
 63      5.6710     3.3486E+00    3.6452E+00    2.500000E+09  0.05000  4.233E-05    0   0.5598   age150_m72            0.0000     3.6808E+00     4.9743   0.1076    97.4680
 64      0.0000     0.0000E+00    0.0000E+00    6.250000E+09  0.05000  1.435E-05    0   0.5249   age166_m72            0.0000     6.8689E+00     6.7523  -0.2545    91.7910
 65      3.1998     1.2280E+01    1.2026E+01    1.300000E+10  0.05000  6.513E-06    0   0.5036   age193_m72            0.0000     1.0889E+01     8.3605  -0.4585    89.2991
 66      2.7094     1.4959E+01    1.4385E+01    1.800000E+10  0.05000  4.527E-06    0   0.4945   age213_m72            0.0000     1.3966E+01     9.3365  -0.5721    87.1178


## Synthesis Results - Average & Chains ##

# j      x_j: min, <> & last-chain-values for 1 ...  7 chains
  1      0.4445      0.4369      0.5129      0.4396      0.4372      0.6758      0.1223      0.4387      0.4275
  2      0.0000      0.0462      0.0464      0.0507      0.0431      0.0491      0.0033      0.0816      0.0454
  3      0.3842      0.3769      0.4218      0.3803      0.4020      0.4431      0.1846      0.4006      0.4078
  4      0.0000      0.0786      0.1301      0.0762      0.0788      0.0786      0.0363      0.0852      0.0606
  5      0.0000      0.0099      0.0118      0.0098      0.0041      0.0206      0.0139      0.0026      0.0010
  6      2.0046      1.9566      2.7341      1.8676      1.8258      2.4303      1.1518      1.8152      1.8502
  7      0.0000      0.1214      0.1750      0.1136      0.0898      0.1214      0.1198      0.1209      0.1031
  8      0.0000      0.1044      0.1087      0.1114      0.1158      0.1501      0.0239      0.1062      0.1159
  9      0.0000      0.0561      0.0561      0.1063      0.0788      0.0478      0.0003      0.0714      0.0368
 10      0.5224      0.5168      0.6050      0.5440      0.5209      0.6264      0.2852      0.5158      0.5178
 11      0.5287      0.5187      0.5187      0.5193      0.5378      0.5186      0.5038      0.5132      0.5215
 12      0.4346      0.4272      0.4486      0.4367      0.4356      0.4272      0.3421      0.4560      0.4485
 13      0.3046      0.2982      0.4227      0.2984      0.3692      0.2681      0.1494      0.3433      0.2403
 14      6.7800      6.6632      6.7451      6.6894      6.7251      6.6190      6.6204      6.6057      6.6425
 15      8.2836      8.1355      8.2101      8.1304      8.1814      8.0106      8.0874      8.0931      8.2427
 16      9.7889      9.6431      9.4081      9.8379      9.6417      9.5509      9.7974      9.6502      9.6238
 17      2.2231      2.1816      2.1817      2.1642      2.1836      2.1816      2.1785      2.2254      2.1558
 18      0.0000      0.0159      0.0284      0.0221      0.0160      0.0159      0.0009      0.0009      0.0251
 19      0.0000      0.1291      0.1319      0.1282      0.1307      0.1488      0.0946      0.1477      0.1196
 20      0.0000      0.0975      0.0975      0.1224      0.0789      0.0975      0.0755      0.1275      0.0804
 21      0.0000      0.0363      0.0561      0.0368      0.0474      0.0363      0.0012      0.0490      0.0270
 22      2.4438      2.4244      2.7266      2.6181      2.6040      2.8496      0.9752      2.5824      2.6243
 23      0.0000      0.0191      0.0679      0.0046      0.0128      0.0191      0.0061      0.0039      0.0125
 24      0.0000      0.1592      0.2029      0.1364      0.1670      0.1482      0.1254      0.1369      0.2018
 25      0.0000      0.0247      0.0625      0.0262      0.0020      0.0537      0.0004      0.0169      0.0015
 26      0.5829      0.5730      0.5748      0.5691      0.5618      0.6258      0.5450      0.5630      0.5623
 27      1.2561      1.2252      1.2175      1.1641      1.1396      1.7274      0.9973      1.1225      1.2029
 28      1.5953      1.5585      1.7287      1.4915      1.5302      1.6444      1.5249      1.5315      1.4495
 29      1.1343      1.1145      1.1418      1.1164      1.1200      1.1466      1.0429      1.1065      1.1265
 30      2.5982      2.5286      2.6133      2.3725      2.5330      2.5232      2.4469      2.6096      2.6097
 31      1.3170      1.3101      1.3101      1.4303      1.3063      1.2237      1.3172      1.3569      1.2316
 32      5.5028      5.3934      5.4053      5.3175      5.4064      5.3595      5.4297      5.4641      5.3813
 33      3.5695      3.5034      3.5132      3.4754      3.3904      3.6260      3.5877      3.4719      3.4568
 34      5.0751      5.0262      4.3465      5.3488      5.2639      2.8159      6.9345      5.2749      5.2526
 35      0.2605      0.2523      0.3132      0.2244      0.2499      0.2523      0.2400      0.2379      0.2419
 36      0.0000      0.1004      0.1349      0.1177      0.0883      0.1010      0.0493      0.1183      0.0876
 37      0.0000      0.0158      0.0159      0.0036      0.0227      0.0159      0.0173      0.0126      0.0264
 38      0.0000      0.0205      0.0206      0.0275      0.0023      0.0367      0.0002      0.0426      0.0087
 39      0.0000      0.0081      0.0115      0.0032      0.0122      0.0080      0.0084      0.0082      0.0042
 40      3.5968      3.4946      3.3213      3.2269      3.3643      3.4578      4.3216      3.3579      3.4185
 41      0.4455      0.4384      0.4674      0.4381      0.4351      0.4557      0.4248      0.4258      0.4136
 42      2.4066      2.3378      2.1609      2.1470      2.1308      3.5284      2.0478      2.1636      2.1749
 43      0.0000      0.0661      0.1318      0.0580      0.0851      0.0564      0.0100      0.0534      0.0718
 44      0.0000      0.1721      0.1869      0.1395      0.1862      0.1722      0.1404      0.1809      0.2023
 45      0.2606      0.2569      0.3011      0.2665      0.2320      0.2435      0.2380      0.2484      0.2689
 46      3.6139      3.5400      3.6211      3.4683      3.5714      3.7240      3.4866      3.4771      3.4295
 47      2.7963      2.7450      2.6236      2.7445      2.7999      2.6785      2.7240      2.8129      2.8440
 48      8.7879      8.6526      8.4972      8.7992      8.5924      8.5768      8.8066      8.6463      8.6596
 49      0.3611      0.3537      0.3538      0.3541      0.3660      0.3308      0.3886      0.3765      0.3154
 50      2.1805      2.2011      1.8202      2.6264      2.2804      1.8398      2.2982      2.2900      2.2687
 51      0.0000      0.0934      0.0972      0.0866      0.0831      0.1130      0.0724      0.1043      0.0932
 52      0.4253      0.4181      0.4182      0.4182      0.4001      0.4374      0.4000      0.4162      0.4320
 53      1.2196      1.1896      1.7605      1.1275      1.1014      1.2523      0.8351      1.1185      1.1207
 54      0.0000      0.0737      0.1165      0.0730      0.0658      0.0737      0.0512      0.0710      0.0611
 55      0.0000      0.0958      0.1802      0.0710      0.0936      0.0957      0.0644      0.0804      0.0792
 56      0.0000      0.0573      0.0573      0.0406      0.0533      0.0632      0.0639      0.0708      0.0498
 57      0.0000      0.1369      0.2010      0.1088      0.1339      0.1171      0.1270      0.1320      0.1360
 58      0.0000      0.0185      0.0185      0.0216      0.0191      0.0185      0.0001      0.0014      0.0502
 59      0.0000      0.0871      0.1042      0.0796      0.0769      0.1062      0.0713      0.0675      0.0979
 60      0.4900      0.4800      0.4799      0.4736      0.4804      0.4800      0.4453      0.4686      0.5327
 61      4.6661      4.5721      4.5636      4.4896      4.4385      5.1130      4.4277      4.4434      4.5251
 62      4.6557      4.5718      4.5295      4.5685      4.6227      4.5718      4.5910      4.6065      4.5207
 63      5.6710      5.5705      5.4330      5.5748      5.5288      5.5191      5.8871      5.4700      5.5903
 64      0.0000      0.0175      0.0174      0.0691      0.0047      0.0175      0.0005      0.0092      0.0014
 65      3.1998      3.1448      2.4274      3.1355      3.0396      4.2082      3.1210      2.9998      3.0705
 66      2.7094      2.5596      3.7950      1.8283      2.4227      2.5596      2.4721      2.3930      2.4273

# j      m_j: min, <> & last-chain-values for 1 ...  7 chains
  1  1.9747E-03  1.9790E-03  2.3106E-03  2.0197E-03  1.9898E-03  3.1483E-03  5.2727E-04  1.9970E-03  1.9447E-03
  2  0.0000E+00  5.7126E-05  5.7013E-05  6.3542E-05  5.3594E-05  6.2461E-05  3.8434E-06  1.0135E-04  5.6376E-05
  3  6.9783E-04  6.9801E-04  7.7679E-04  7.1427E-04  7.4800E-04  8.4384E-04  3.2534E-04  7.4547E-04  7.5826E-04
  4  0.0000E+00  1.3699E-04  2.2563E-04  1.3485E-04  1.3807E-04  1.4098E-04  6.0255E-05  1.4940E-04  1.0606E-04
  5  0.0000E+00  3.2946E-05  3.8980E-05  3.2987E-05  1.3787E-05  7.0314E-05  4.3998E-05  8.8079E-06  3.4400E-06
  6  1.0594E-02  1.0543E-02  1.4652E-02  1.0207E-02  9.8837E-03  1.3467E-02  5.9053E-03  9.8291E-03  1.0011E-02
  7  0.0000E+00  9.3625E-04  1.3424E-03  8.8861E-04  6.9601E-04  9.6313E-04  8.7962E-04  9.3727E-04  7.9852E-04
  8  0.0000E+00  1.1132E-03  1.1531E-03  1.2047E-03  1.2406E-03  1.6460E-03  2.4227E-04  1.1378E-03  1.2409E-03
  9  0.0000E+00  6.8427E-04  6.8121E-04  1.3157E-03  9.6633E-04  6.0015E-04  3.7100E-06  8.7599E-04  4.5121E-04
 10  8.2140E-03  8.2843E-03  9.6450E-03  8.8451E-03  8.3890E-03  1.0328E-02  4.3501E-03  8.3096E-03  8.3354E-03
 11  1.5629E-02  1.5634E-02  1.5550E-02  1.5876E-02  1.6285E-02  1.6077E-02  1.4450E-02  1.5545E-02  1.5785E-02
 12  2.0383E-02  2.0425E-02  2.1331E-02  2.1176E-02  2.0926E-02  2.1006E-02  1.5566E-02  2.1913E-02  2.1535E-02
 13  4.0267E-02  4.0193E-02  5.6652E-02  4.0794E-02  4.9987E-02  3.7158E-02  1.9165E-02  4.6500E-02  3.2526E-02
 14  3.0058E+00  3.0119E+00  3.0323E+00  3.0669E+00  3.0541E+00  3.0770E+00  2.8476E+00  3.0007E+00  3.0150E+00
 15  5.9786E+00  5.9867E+00  6.0086E+00  6.0684E+00  6.0485E+00  6.0624E+00  5.6629E+00  5.9849E+00  6.0906E+00
 16  1.1946E+01  1.1998E+01  1.1642E+01  1.2416E+01  1.2053E+01  1.2221E+01  1.1600E+01  1.2066E+01  1.2024E+01
 17  3.5194E+00  3.5213E+00  3.5022E+00  3.5431E+00  3.5409E+00  3.6214E+00  3.3460E+00  3.6098E+00  3.4940E+00
 18  0.0000E+00  6.3491E-05  1.1301E-04  8.9632E-05  6.4236E-05  6.5500E-05  3.5586E-06  3.6581E-06  1.0109E-04
 19  0.0000E+00  2.0746E-04  2.1081E-04  2.0898E-04  2.1103E-04  2.4578E-04  1.4459E-04  2.3840E-04  1.9292E-04
 20  0.0000E+00  1.7103E-04  1.7012E-04  2.1780E-04  1.3895E-04  1.7585E-04  1.2600E-04  2.2478E-04  1.4164E-04
 21  0.0000E+00  7.7270E-05  1.1871E-04  7.9382E-05  1.0135E-04  7.9449E-05  2.4604E-06  1.0486E-04  5.7782E-05
 22  8.6294E-03  8.7287E-03  9.7631E-03  9.5607E-03  9.4190E-03  1.0551E-02  3.3410E-03  9.3433E-03  9.4872E-03
 23  0.0000E+00  9.2832E-05  3.2838E-04  2.2804E-05  6.2626E-05  9.5465E-05  2.8036E-05  1.9138E-05  6.1104E-05
 24  0.0000E+00  1.1519E-03  1.4598E-03  1.0007E-03  1.2135E-03  1.1022E-03  8.6340E-04  9.9507E-04  1.4656E-03
 25  0.0000E+00  2.4660E-04  6.2032E-04  2.6476E-04  2.0053E-05  5.5100E-04  4.0580E-06  1.6892E-04  1.4760E-05
 26  9.5307E-03  9.5532E-03  9.5297E-03  9.6237E-03  9.4098E-03  1.0729E-02  8.6462E-03  9.4316E-03  9.4133E-03
 27  4.1109E-02  4.0885E-02  4.0404E-02  3.9400E-02  3.8204E-02  5.9279E-02  3.1667E-02  3.7641E-02  4.0306E-02
 28  1.5152E-01  1.5093E-01  1.6649E-01  1.4650E-01  1.4888E-01  1.6377E-01  1.4052E-01  1.4905E-01  1.4095E-01
 29  1.8772E-01  1.8806E-01  1.9161E-01  1.9108E-01  1.8987E-01  1.9898E-01  1.6744E-01  1.8763E-01  1.9087E-01
 30  8.9837E-01  8.9143E-01  9.1625E-01  8.4836E-01  8.9713E-01  9.1482E-01  8.2082E-01  9.2453E-01  9.2384E-01
 31  8.0107E-01  8.1246E-01  8.0804E-01  8.9966E-01  8.1388E-01  7.8047E-01  7.7730E-01  8.4562E-01  7.6694E-01
 32  4.5035E+00  4.5004E+00  4.4857E+00  4.5004E+00  4.5322E+00  4.5992E+00  4.3112E+00  4.5819E+00  4.5088E+00
 33  6.4670E+00  6.4715E+00  6.4541E+00  6.5114E+00  6.2919E+00  6.8883E+00  6.3060E+00  6.4449E+00  6.4117E+00
 34  1.2451E+01  1.2573E+01  1.0813E+01  1.3571E+01  1.3228E+01  7.2440E+00  1.6506E+01  1.3260E+01  1.3193E+01
 35  8.2006E-04  8.0978E-04  9.9983E-04  7.3041E-04  8.0570E-04  8.3281E-04  7.3299E-04  7.6721E-04  7.7960E-04
 36  0.0000E+00  1.3043E-04  1.7427E-04  1.5496E-04  1.1514E-04  1.3495E-04  6.0924E-05  1.5436E-04  1.1429E-04
 37  0.0000E+00  2.2169E-05  2.2171E-05  5.1432E-06  3.1967E-05  2.2898E-05  2.3057E-05  1.7842E-05  3.7192E-05
 38  0.0000E+00  7.8079E-05  7.8143E-05  1.0602E-04  8.9082E-06  1.4373E-04  8.2280E-07  1.6278E-04  3.3211E-05
 39  0.0000E+00  4.4178E-05  6.2701E-05  1.8014E-05  6.7213E-05  4.5288E-05  4.3723E-05  4.5049E-05  2.3238E-05
 40  3.1242E-02  3.0949E-02  2.9253E-02  2.8986E-02  2.9933E-02  3.1493E-02  3.6419E-02  2.9885E-02  3.0399E-02
 41  6.0179E-03  6.0376E-03  6.4017E-03  6.1196E-03  6.0201E-03  6.4544E-03  5.5670E-03  5.8926E-03  5.7189E-03
 42  5.9682E-02  5.9111E-02  5.4342E-02  5.5062E-02  5.4130E-02  9.1752E-02  4.9270E-02  5.4977E-02  5.5220E-02
 43  0.0000E+00  2.4419E-03  4.8384E-03  2.1727E-03  3.1565E-03  2.1410E-03  3.5117E-04  1.9821E-03  2.6605E-03
 44  0.0000E+00  1.0942E-02  1.1816E-02  8.9933E-03  1.1892E-02  1.1258E-02  8.4889E-03  1.1553E-02  1.2914E-02
 45  3.2238E-02  3.2405E-02  3.7764E-02  3.4095E-02  2.9392E-02  3.1587E-02  2.8557E-02  3.1487E-02  3.4054E-02
 46  8.2167E-01  8.2062E-01  8.3483E-01  8.1548E-01  8.3176E-01  8.8783E-01  7.6909E-01  8.1002E-01  7.9829E-01
 47  1.2883E+00  1.2894E+00  1.2257E+00  1.3076E+00  1.3213E+00  1.2940E+00  1.2176E+00  1.3279E+00  1.3414E+00
 48  7.1403E+00  7.1680E+00  7.0008E+00  7.3935E+00  7.1513E+00  7.3072E+00  6.9422E+00  7.1982E+00  7.2035E+00
 49  6.6676E-01  6.6600E-01  6.6256E-01  6.7625E-01  6.9230E-01  6.4062E-01  6.9622E-01  7.1233E-01  5.9623E-01
 50  7.4577E+00  7.6756E+00  6.3127E+00  9.2896E+00  7.9891E+00  6.5982E+00  7.6260E+00  8.0252E+00  7.9440E+00
 51  0.0000E+00  1.7859E-04  1.8475E-04  1.6794E-04  1.5966E-04  2.2211E-04  1.3166E-04  2.0045E-04  1.7887E-04
 52  4.0865E-04  4.0959E-04  4.0739E-04  4.1552E-04  3.9372E-04  4.4067E-04  3.7288E-04  4.0974E-04  4.2490E-04
 53  1.7651E-03  1.7554E-03  2.5836E-03  1.6875E-03  1.6328E-03  1.9005E-03  1.1725E-03  1.6586E-03  1.6605E-03
 54  0.0000E+00  2.2274E-04  3.5026E-04  2.2385E-04  1.9998E-04  2.2903E-04  1.4719E-04  2.1574E-04  1.8553E-04
 55  0.0000E+00  4.4593E-04  8.3451E-04  3.3527E-04  4.3757E-04  4.5816E-04  2.8524E-04  3.7629E-04  3.7037E-04
 56  0.0000E+00  5.2760E-04  5.2544E-04  3.7980E-04  4.9358E-04  5.9856E-04  5.6041E-04  6.5566E-04  4.6078E-04
 57  0.0000E+00  1.6748E-03  2.4452E-03  1.3491E-03  1.6457E-03  1.4729E-03  1.4774E-03  1.6225E-03  1.6697E-03
 58  0.0000E+00  3.8201E-04  3.8159E-04  4.5319E-04  3.9591E-04  3.9336E-04  2.4674E-06  2.8291E-05  1.0430E-03
 59  0.0000E+00  3.8759E-03  4.6118E-03  3.5922E-03  3.4412E-03  4.8609E-03  3.0190E-03  3.0186E-03  4.3772E-03
 60  3.9738E-02  3.9687E-02  3.9467E-02  3.9721E-02  3.9908E-02  4.0816E-02  3.5033E-02  3.8940E-02  4.4232E-02
 61  8.2679E-01  8.2602E-01  8.1997E-01  8.2270E-01  8.0562E-01  9.5000E-01  7.6117E-01  8.0672E-01  8.2090E-01
 62  1.5042E+00  1.5060E+00  1.4839E+00  1.5264E+00  1.5298E+00  1.5488E+00  1.4390E+00  1.5249E+00  1.4953E+00
 63  3.6452E+00  3.6508E+00  3.5412E+00  3.7057E+00  3.6403E+00  3.7199E+00  3.6713E+00  3.6026E+00  3.6789E+00
 64  0.0000E+00  3.1701E-02  3.1408E-02  1.2712E-01  8.5966E-03  3.2615E-02  7.9618E-04  1.6788E-02  2.5204E-03
 65  1.2026E+01  1.2050E+01  9.2507E+00  1.2186E+01  1.1701E+01  1.6584E+01  1.1380E+01  1.1552E+01  1.1814E+01
 66  1.4385E+01  1.3856E+01  2.0431E+01  1.0039E+01  1.3176E+01  1.4250E+01  1.2734E+01  1.3018E+01  1.3194E+01

# AV, chi2 & Mass for <> & i_chain = 1 ...  7 solutions
AV       0.2675      0.2943      0.2945      0.2998      0.2998      0.3083      0.2563      0.2997      0.2999
chi2 1.5455E+00  1.6412E+00  1.5917E+00  1.6890E+00  1.7025E+00  1.5949E+00  1.7243E+00  1.6991E+00  1.6939E+00
Mass 4.8691E-12  4.9512E-12  4.9793E-12  4.9176E-12  4.9645E-12  4.9054E-12  4.9443E-12  4.9624E-12  4.9675E-12
   0.05                                  [v0_min (km/s) before EX0s...]
 159.64                                  [vd_min (km/s) before EX0s...]


## Synthetic spectrum (Best Model) ##l_obs f_obs f_syn wei
 3478    [Nl_obs]
 3741.00    0.62542   0.61456    0.000
 3742.00    0.63584   0.60857    0.000
 3743.00    0.64078   0.58741    0.000
 3744.00    0.63673   0.55807    0.000
 3745.00    0.61716   0.52517   16.203
 3746.00    0.58291   0.49265   17.155
 3747.00    0.54448   0.46487   18.366
 3748.00    0.51894   0.44519   19.270
 3749.00    0.52012   0.44099   19.226
 3750.00    0.53812   0.45988   18.583
 3751.00    0.55064   0.50023   18.161
 3752.00    0.55750   0.55102   17.937
 3753.00    0.57323   0.60001   17.445
 3754.00    0.59939   0.63769   16.684
 3755.00    0.62872   0.65621   15.905
 3756.00    0.66079   0.65269   15.133
 3757.00    0.69379   0.63320   14.414
 3758.00    0.70969   0.61177   14.091
 3759.00    0.69645   0.60084   14.359
 3760.00    0.67815   0.60210   14.746
 3761.00    0.68015   0.60990   14.703
 3762.00    0.68591   0.61788   14.579
 3763.00    0.67129   0.62134   14.897
 3764.00    0.64452   0.61955   15.515
 3765.00    0.62621   0.61296   15.969
 3766.00    0.62645   0.60073   15.963
 3767.00    0.64202   0.58674   15.576
 3768.00    0.65790   0.57737   15.200
 3769.00    0.66354   0.57415   15.071
 3770.00    0.66319   0.57771   15.079
 3771.00    0.66270   0.59153   15.090
 3772.00    0.66157   0.61470   15.115
 3773.00    0.66144   0.64013   15.118
 3774.00    0.66937   0.66267   14.939
 3775.00    0.68683   0.68226   14.560
 3776.00    0.70707   0.70099   14.143
 3777.00    0.73080   0.71977   13.684
 3778.00    0.76784   0.73870   13.024
 3779.00    0.81326   0.75800   12.296
 3780.00    0.84566   0.77561   11.825
 3781.00    0.85786   0.78756   11.657
 3782.00    0.86160   0.79189   11.606
 3783.00    0.86501   0.78824   11.561
 3784.00    0.86645   0.77508   11.541
 3785.00    0.85923   0.75085   11.638
 3786.00    0.83634   0.71964   11.957
 3787.00    0.79860   0.69049   12.522
 3788.00    0.75477   0.66840   13.249
 3789.00    0.71668   0.65364   13.953
 3790.00    0.69313   0.64473   14.427
 3791.00    0.68032   0.63753   14.699
 3792.00    0.66886   0.62523   14.951
 3793.00    0.65937   0.60418   15.166
 3794.00    0.65753   0.57659   15.208
 3795.00    0.66196   0.54747   15.107
 3796.00    0.66731   0.52186   14.986
 3797.00    0.67137   0.50481   14.895
 3798.00    0.67442   0.50356   14.828
 3799.00    0.67728   0.52337   14.765
 3800.00    0.68377   0.56125   14.625
 3801.00    0.70258   0.60728   14.233
 3802.00    0.73517   0.65170   13.602
 3803.00    0.76571   0.68768   13.060
 3804.00    0.78426   0.71067   12.751
 3805.00    0.80479   0.72116   12.426
 3806.00    0.83508   0.72477   11.975
 3807.00    0.85598   0.72904   11.682
 3808.00    0.85475   0.73837   11.699
 3809.00    0.84565   0.74958   11.825
 3810.00    0.84249   0.75516   11.870
 3811.00    0.84298   0.74942   11.863
 3812.00    0.84358   0.73130   11.854
 3813.00    0.84638   0.70548   11.815
 3814.00    0.84854   0.68035   11.785
 3815.00    0.84105   0.66173   11.890
 3816.00    0.82698   0.65123   12.092
 3817.00    0.82209   0.64623   12.164
 3818.00    0.82553   0.64004   12.113
 3819.00    0.81690   0.62909   12.241
 3820.00    0.78690   0.61757   12.708
 3821.00    0.74410   0.61118   13.439
 3822.00    0.70193   0.60805   14.246
 3823.00    0.67228   0.60073   14.875
 3824.00    0.65986   0.58617   15.155
 3825.00    0.66113   0.56887   15.126
 3826.00    0.66588   0.55400   15.018
 3827.00    0.66205   0.54298   15.105
 3828.00    0.64520   0.53413   15.499
 3829.00    0.61880   0.52448   16.160
 3830.00    0.59080   0.51054   16.926
 3831.00    0.56862   0.48967   17.586
 3832.00    0.55230   0.46404   18.106
 3833.00    0.53778   0.44067   18.595
 3834.00    0.52364   0.42537   19.097
 3835.00    0.51152   0.42058   19.550
 3836.00    0.50529   0.42573   19.791
 3837.00    0.51131   0.43765   19.558
 3838.00    0.53780   0.45492   18.594
 3839.00    0.58166   0.47912   17.192
 3840.00    0.61778   0.51094   16.187
 3841.00    0.63178   0.54932   15.828
 3842.00    0.64766   0.59068   15.440
 3843.00    0.68680   0.62848   14.560
 3844.00    0.73473   0.65825   13.610
 3845.00    0.77057   0.67901   12.977
 3846.00    0.79032   0.69208   12.653
 3847.00    0.80167   0.69974    0.000
 3848.00    0.81735   0.70258    0.000
 3849.00    0.84269   0.70189    0.000
 3850.00    0.86967   0.70187    0.000
 3851.00    0.88364   0.70524    0.000
 3852.00    0.87106   0.70879    0.000
 3853.00    0.83721   0.70782    0.000
 3854.00    0.80768   0.70120    0.000
 3855.00    0.80055   0.68972    0.000
 3856.00    0.81438   0.67563    0.000
 3857.00    0.82883   0.66225    0.000
 3858.00    0.81852   0.65147    0.000
 3859.00    0.79520   0.64673    0.000
 3860.00    0.79759   0.65328    0.000
 3861.00    0.82331   0.67133    0.000
 3862.00    0.83714   0.69417    0.000
 3863.00    0.84251   0.71339    0.000
 3864.00    0.87046   0.72447    0.000
 3865.00    0.91274   0.72758    0.000
 3866.00    0.93526   0.72532    0.000
 3867.00    0.93559   0.71947    0.000
 3868.00    0.93203   0.71012    0.000
 3869.00    0.92376   0.69712    0.000
 3870.00    0.90011   0.68167    0.000
 3871.00    0.86644   0.66796    0.000
 3872.00    0.83679   0.66124    0.000
 3873.00    0.81790   0.66452    0.000
 3874.00    0.81106   0.67442    0.000
 3875.00    0.81661   0.68237    0.000
 3876.00    0.82727   0.68163    0.000
 3877.00    0.82200   0.67194    0.000
 3878.00    0.79066   0.65897    0.000
 3879.00    0.75546   0.64961    0.000
 3880.00    0.73348   0.64405    0.000
 3881.00    0.70576   0.63758   14.169
 3882.00    0.65609   0.62863   15.242
 3883.00    0.60110   0.61722   16.636
 3884.00    0.56821   0.60037   17.599
 3885.00    0.57512   0.57534   17.388
 3886.00    0.60979   0.54733   16.399
 3887.00    0.62894   0.52624   15.900
 3888.00    0.61653   0.51865   16.220
 3889.00    0.60485   0.52790   16.533
 3890.00    0.61344   0.55403   16.301
 3891.00    0.62710   0.59011   15.946
 3892.00    0.63781   0.62613   15.679
 3893.00    0.65687   0.65505   15.224
 3894.00    0.68689   0.67538   14.558
 3895.00    0.71498   0.68959   13.986
 3896.00    0.72883   0.70154   13.721
 3897.00    0.72490   0.71224   13.795
 3898.00    0.71522   0.72029   13.982
 3899.00    0.71844   0.72675   13.919
 3900.00    0.73092   0.73338   13.681
 3901.00    0.73391   0.73923   13.626
 3902.00    0.72951   0.74077   13.708
 3903.00    0.73577   0.73802   13.591
 3904.00    0.75724   0.73488   13.206
 3905.00    0.78789   0.73445   12.692
 3906.00    0.82814   0.74139   12.075
 3907.00    0.87366   0.75861   11.446
 3908.00    0.89286   0.78206   11.200
 3909.00    0.86226   0.80508   11.597
 3910.00    0.82163   0.82311   12.171
 3911.00    0.82045   0.83461   12.188
 3912.00    0.83901   0.83899   11.919
 3913.00    0.83667   0.83617   11.952
 3914.00    0.81910   0.82836   12.209
 3915.00    0.80779   0.81754   12.380
 3916.00    0.80082   0.80364   12.487
 3917.00    0.78854   0.78738   12.682
 3918.00    0.77177   0.76941   12.957
 3919.00    0.75876   0.75075   13.179
 3920.00    0.75976   0.73413   13.162
 3921.00    0.77458   0.72247   12.910
 3922.00    0.78575   0.71592   12.727
 3923.00    0.77392   0.71054   12.921
 3924.00    0.73069   0.70077   13.686
 3925.00    0.67053   0.68140   14.914
 3926.00    0.62863   0.65065   15.908
 3927.00    0.61368   0.61010   16.295
 3928.00    0.59420   0.56259   16.829
 3929.00    0.55233   0.51218   18.105
 3930.00    0.50254   0.46274   19.899
 3931.00    0.46025   0.41822   21.727
 3932.00    0.43057   0.38351   23.225
 3933.00    0.41691   0.36398   23.986
 3934.00    0.42273   0.36418   23.656
 3935.00    0.44612   0.38518   22.416
 3936.00    0.48125   0.42340   20.779
 3937.00    0.52769   0.47206   18.950
 3938.00    0.58777   0.52347   17.014
 3939.00    0.65316   0.57081   15.310
 3940.00    0.70693   0.60903   14.146
 3941.00    0.73618   0.63650   13.584
 3942.00    0.73852   0.65598   13.541
 3943.00    0.72844   0.67195   13.728
 3944.00    0.72681   0.68924   13.759
 3945.00    0.73997   0.71096   13.514
 3946.00    0.76141   0.73432   13.134
 3947.00    0.78097   0.75397   12.805
 3948.00    0.79373   0.76915   12.599
 3949.00    0.80939   0.78234   12.355
 3950.00    0.83491   0.79393   11.977
 3951.00    0.85325   0.80195   11.720
 3952.00    0.84938   0.80559   11.773
 3953.00    0.83974   0.80717   11.908
 3954.00    0.84165   0.80736   11.881
 3955.00    0.84201   0.80285   11.876
 3956.00    0.82380   0.79282   12.139
 3957.00    0.79129   0.77992   12.638
 3958.00    0.75908   0.76383   13.174
 3959.00    0.73984   0.74026   13.516
 3960.00    0.72960   0.70539    0.000
 3961.00    0.70335   0.66041    0.000
 3962.00    0.64994   0.61116    0.000
 3963.00    0.58867   0.56129    0.000
 3964.00    0.53661   0.50992    0.000
 3965.00    0.49262   0.45630    0.000
 3966.00    0.45337   0.40303    0.000
 3967.00    0.42143   0.35667    0.000
 3968.00    0.40318   0.32579    0.000
 3969.00    0.40591   0.31746    0.000
 3970.00    0.43087   0.33412    0.000
 3971.00    0.47197   0.37260    0.000
 3972.00    0.52057   0.42587    0.000
 3973.00    0.56813   0.48635    0.000
 3974.00    0.60862   0.54855    0.000
 3975.00    0.64093   0.60881    0.000
 3976.00    0.67296   0.66431    0.000
 3977.00    0.71595   0.71408    0.000
 3978.00    0.76844   0.75752    0.000
 3979.00    0.81733   0.79276    0.000
 3980.00    0.84862   0.81798    0.000
 3981.00    0.85591   0.83316   11.684
 3982.00    0.85119   0.84190   11.748
 3983.00    0.85449   0.84965   11.703
 3984.00    0.87302   0.85955   11.454
 3985.00    0.90218   0.87181   11.084
 3986.00    0.93249   0.88483   10.724
 3987.00    0.95224   0.89759   10.502
 3988.00    0.95051   0.90943   10.521
 3989.00    0.92935   0.91852   10.760
 3990.00    0.91539   0.92565   10.924
 3991.00    0.93006   0.93261   10.752
 3992.00    0.95927   0.93787   10.425
 3993.00    0.98122   0.93869   10.191
 3994.00    0.99409   0.93384   10.059
 3995.00    1.00099   0.92558    9.990
 3996.00    0.99719   0.91825   10.028
 3997.00    0.98536   0.91639   10.149
 3998.00    0.98386   0.92349   10.164
 3999.00    0.99899   0.93879   10.010
 4000.00    1.01159   0.95558    9.885
 4001.00    1.01120   0.96654    9.889
 4002.00    1.01080   0.96835    9.893
 4003.00    1.01310   0.96012    9.871
 4004.00    0.99995   0.94365   10.001
 4005.00    0.96911   0.92674   10.319
 4006.00    0.94462   0.92001   10.586
 4007.00    0.94566   0.92690   10.575
 4008.00    0.97256   0.94213   10.282
 4009.00    1.00545   0.95899    9.946
 4010.00    1.01646   0.97374    9.838
 4011.00    1.00917   0.98504    9.909
 4012.00    1.01396   0.99294    9.862
 4013.00    1.03773   0.99880    9.636
 4014.00    1.06068   1.00347    9.428
 4015.00    1.06696   1.00742    9.372
 4016.00    1.05415   1.01023    9.486
 4017.00    1.03577   1.01180    9.655
 4018.00    1.03099   1.01412    9.699
 4019.00    1.04351   1.01706    9.583
 4020.00    1.06431   1.01715    9.396
 4021.00    1.08449   1.01307    9.221
 4022.00    1.09521   1.00662    9.131
 4023.00    1.08479   1.00016    9.218
 4024.00    1.05250   0.99603    9.501
 4025.00    1.02666   0.99694    9.740
 4026.00    1.03290   1.00201    9.682
 4027.00    1.05313   1.00506    9.496
 4028.00    1.05504   0.99920    9.478
 4029.00    1.03051   0.98096    9.704
 4030.00    0.99142   0.95323   10.087
 4031.00    0.95963   0.92616   10.421
 4032.00    0.95051   0.90976   10.521
 4033.00    0.96018   0.90870   10.415
 4034.00    0.97685   0.92396   10.237
 4035.00    0.99106   0.95216   10.090
 4036.00    0.99790   0.98613   10.021
 4037.00    0.99836   1.01689   10.016
 4038.00    1.00010   1.03671    9.999
 4039.00    1.01387   1.04250    9.863
 4040.00    1.03153   1.03556    9.694
 4041.00    1.02357   1.01927    9.770
 4042.00    0.98804   0.99582   10.121
 4043.00    0.96199   0.96551   10.395
 4044.00    0.96222   0.93269   10.393
 4045.00    0.96931   0.90860   10.317
 4046.00    0.96983   0.90519   10.311
 4047.00    0.96901   0.92461   10.320
 4048.00    0.97447   0.95594   10.262
 4049.00    0.98826   0.98628   10.119
 4050.00    1.00145   1.00784    9.985
 4051.00    1.00000   1.01658   10.000
 4052.00    0.98470   1.01275   10.155
 4053.00    0.96872   1.00078   10.323
 4054.00    0.95844   0.98572   10.434
 4055.00    0.95312   0.97196   10.492
 4056.00    0.95419   0.96244   10.480
 4057.00    0.96117   0.95737   10.404
 4058.00    0.96083   0.95682   10.408
 4059.00    0.94373   0.95938   10.596
 4060.00    0.93357   0.95952   10.712
 4061.00    0.95368   0.95151   10.486
 4062.00    0.97252   0.93520   10.283
 4063.00    0.95313   0.91811   10.492
 4064.00    0.92596   0.91102   10.800
 4065.00    0.93367   0.91773   10.710
 4066.00    0.95789   0.93246   10.440
 4067.00    0.96567   0.94916   10.356
 4068.00    0.96459   0.96418   10.367
 4069.00    0.96981   0.97289   10.311
 4070.00    0.97066   0.97185   10.302
 4071.00    0.95948   0.96387   10.422
 4072.00    0.95415   0.95649   10.481
 4073.00    0.96319   0.95226   10.382
 4074.00    0.96402   0.94569   10.373
 4075.00    0.94400   0.93297   10.593
 4076.00    0.92337   0.91776   10.830
 4077.00    0.92088   0.90891   10.859
 4078.00    0.93426   0.91457   10.704
 4079.00    0.95120   0.93490   10.513
 4080.00    0.95910   0.96197   10.426
 4081.00    0.95979   0.98552   10.419
 4082.00    0.96890   0.99852   10.321
 4083.00    0.98540   1.00174   10.148
 4084.00    0.98916   1.00208   10.109
 4085.00    0.97928   1.00642   10.211
 4086.00    0.97691   1.01764   10.237
 4087.00    0.98797   1.03353   10.122
 4088.00    0.99951   1.04794   10.004
 4089.00    1.00555   1.05487    9.944
 4090.00    1.00957   1.05233    9.907
 4091.00    1.01124   1.04183    9.891
 4092.00    1.00514   1.02557    0.000
 4093.00    0.98612   1.00541    0.000
 4094.00    0.95249   0.98080    0.000
 4095.00    0.90976   0.95021    0.000
 4096.00    0.86770   0.91552    0.000
 4097.00    0.83365   0.87921    0.000
 4098.00    0.81144   0.84161    0.000
 4099.00    0.80156   0.80350    0.000
 4100.00    0.79924   0.76882    0.000
 4101.00    0.79279   0.74580    0.000
 4102.00    0.77816   0.74397    0.000
 4103.00    0.77538   0.76548    0.000
 4104.00    0.79990   0.80288    0.000
 4105.00    0.83107   0.84579    0.000
 4106.00    0.84719   0.88475    0.000
 4107.00    0.86080   0.91344    0.000
 4108.00    0.88725   0.93107    0.000
 4109.00    0.91603   0.94095    0.000
 4110.00    0.93229   0.94822    0.000
 4111.00    0.93519   0.95756    0.000
 4112.00    0.93260   0.97088    0.000
 4113.00    0.93493   0.98696   30.858
 4114.00    0.94574   1.00205   30.829
 4115.00    0.95799   1.01213   31.092
 4116.00    0.96518   1.01508   31.330
 4117.00    0.96733   1.01054   31.317
 4118.00    0.96843   1.00089   31.234
 4119.00    0.97318   0.99182   31.567
 4120.00    0.97952   0.98785   32.109
 4121.00    0.97967   0.98880   31.908
 4122.00    0.97668   0.99307   31.172
 4123.00    0.98323   0.99945   31.206
 4124.00    0.99466   1.00585   32.014
 4125.00    0.99177   1.00886   32.238
 4126.00    0.97747   1.00571   31.624
 4127.00    0.97302   0.99677   31.214
 4128.00    0.97686   0.98434   31.365
 4129.00    0.96913   0.97075   31.705
 4130.00    0.94966   0.95721   32.051
 4131.00    0.93575   0.94523   32.380
 4132.00    0.93732   0.93825   32.280
 4133.00    0.95328   0.94096   31.426
 4134.00    0.97534   0.95465   30.573
 4135.00    0.99414   0.97679   30.570
 4136.00    1.00781   1.00154   30.966
 4137.00    1.01866   1.02189   30.888
 4138.00    1.02599   1.03392   30.683
 4139.00    1.02671   1.03456   30.992
 4140.00    1.01786   1.02197   31.273
 4141.00    1.00087   0.99813   30.827
 4142.00    0.98524   0.96933   30.273
 4143.00    0.97865   0.94609   30.342
 4144.00    0.97687   0.93844   30.710
 4145.00    0.97380   0.94727   30.879
 4146.00    0.97114   0.96407   31.064
 4147.00    0.97093   0.97956   31.467
 4148.00    0.96966   0.98852   31.650
 4149.00    0.96776   0.98998   31.380
 4150.00    0.97456   0.98663   31.203
 4151.00    0.99060   0.98160   31.418
 4152.00    0.99940   0.97591   31.569
 4153.00    0.99088   0.97036   31.458
 4154.00    0.97363   0.96652   31.583
 4155.00    0.96356   0.96678   32.035
 4156.00    0.97402   0.97240   32.127
 4157.00    1.00074   0.98340   31.657
 4158.00    1.02133   0.99862   31.296
 4159.00    1.02196   1.01494   31.495
 4160.00    1.00756   1.02923   32.149
 4161.00    0.99664   1.04007   32.749
 4162.00    1.00906   1.04719   32.631
 4163.00    1.03444   1.04932   31.912
 4164.00    1.04069   1.04552   31.349
 4165.00    1.02748   1.03760   31.256
 4166.00    1.02117   1.02767   31.498
 4167.00    1.02181   1.01726   32.004
 4168.00    1.00875   1.00761   32.750
 4169.00    0.98436   0.99722   33.430
 4170.00    0.96769   0.98250   33.611
 4171.00    0.96161   0.96281   33.383
 4172.00    0.95651   0.94249   33.189
 4173.00    0.94909   0.92857   33.274
 4174.00    0.94245   0.92484   33.629
 4175.00    0.94053   0.92937   34.060
 4176.00    0.94644   0.93794   34.328
 4177.00    0.96093   0.94730   34.387
 4178.00    0.97880   0.95670   34.337
 4179.00    0.98583   0.96632   34.285
 4180.00    0.97604   0.97480   34.298
 4181.00    0.96898   0.98074   34.366
 4182.00    0.98150   0.98506   34.419
 4183.00    1.00001   0.98934   34.354
 4184.00    1.00492   0.99289   34.179
 4185.00    0.99443   0.99402   34.096
 4186.00    0.97955   0.99158   34.211
 4187.00    0.97650   0.98788   34.345
 4188.00    0.99087   0.98841   34.365
 4189.00    1.00967   0.99504   34.402
 4190.00    1.02028   1.00489   34.598
 4191.00    1.02154   1.01484   34.943
 4192.00    1.01576   1.02284   35.312
 4193.00    1.00424   1.02531   35.550
 4194.00    0.98914   1.01784   35.821
 4195.00    0.97414   1.00051   36.513
 4196.00    0.96238   0.97853   36.901
 4197.00    0.95493   0.95764   35.346
 4198.00    0.94863   0.94162   32.728
 4199.00    0.93808   0.93323   31.421
 4200.00    0.92526   0.93246   31.686
 4201.00    0.91900   0.93673   32.162
 4202.00    0.92326   0.94547   31.971
 4203.00    0.93538   0.95938   31.396
 4204.00    0.95177   0.97684   31.485
 4205.00    0.97055   0.99572   33.192
 4206.00    0.99361   1.01436   35.442
 4207.00    1.02247   1.03030   35.558
 4208.00    1.04860   1.04154   34.390
 4209.00    1.06044   1.04734   34.705
 4210.00    1.06019   1.04860   36.159
 4211.00    1.05673   1.04668   36.530
 4212.00    1.04882   1.04108   35.718
 4213.00    1.03371   1.03118   35.151
 4214.00    1.02336   1.01944   35.281
 4215.00    1.03061   1.01141   35.779
 4216.00    1.04852   1.01360   36.047
 4217.00    1.06293   1.02752   35.731
 4218.00    1.07039   1.04660   35.275
 4219.00    1.07181   1.06196   35.268
 4220.00    1.06423   1.06656   35.793
 4221.00    1.04624   1.05526   36.516
 4222.00    1.02306   1.02585   36.824
 4223.00    0.99828   0.98165   36.562
 4224.00    0.96822   0.93112   36.541
 4225.00    0.93565   0.88589   37.260
 4226.00    0.91758   0.85886   38.100
 4227.00    0.92464   0.86019   38.276
 4228.00    0.94865   0.88976   37.703
 4229.00    0.97391   0.93398   36.848
 4230.00    0.98656   0.97600   36.341
 4231.00    0.98544   1.00472   36.358
 4232.00    0.98369   1.01592   36.520
 4233.00    0.99043   1.01316   36.527
 4234.00    1.00388   1.00452   36.393
 4235.00    1.01940   0.99550   36.123
 4236.00    1.03296   0.98964   35.668
 4237.00    1.04066   0.99036   35.301
 4238.00    1.04029   0.99775   35.456
 4239.00    1.03730   1.01016   -2.000
 4240.00    1.04190   1.02657   -2.000
 4241.00    1.05538   1.04497   -2.000
 4242.00    1.06990   1.06164   -2.000
 4243.00    1.07828   1.07382   -2.000
 4244.00    1.07698   1.07951   -2.000
 4245.00    1.06674   1.07537   -2.000
 4246.00    1.05169   1.06056   -2.000
 4247.00    1.03714   1.03913   -2.000
 4248.00    1.02787   1.01734   -2.000
 4249.00    1.02585   1.00001   -2.000
 4250.00    1.02952   0.98952   -2.000
 4251.00    1.03355   0.98711   -2.000
 4252.00    1.03391   0.99063   -2.000
 4253.00    1.03454   0.99542   -2.000
 4254.00    1.03914   0.99992   -2.000
 4255.00    1.04067   1.00551   35.224
 4256.00    1.03362   1.01135   36.127
 4257.00    1.02781   1.01309   36.982
 4258.00    1.03211   1.00786   36.164
 4259.00    1.03838   0.99952   35.175
 4260.00    1.03956   0.99629   35.411
 4261.00    1.04502   1.00526   35.872
 4262.00    1.06205   1.02739   35.551
 4263.00    1.08215   1.05555   35.302
 4264.00    1.09647   1.07980   35.725
 4265.00    1.10574   1.09285   35.947
 4266.00    1.10837   1.09075   35.623
 4267.00    1.09529   1.07267   35.914
 4268.00    1.06579   1.04205   37.062
 4269.00    1.03261   1.00435   37.428
 4270.00    1.00153   0.96528   36.642
 4271.00    0.96621   0.93205   36.619
 4272.00    0.93159   0.91295   38.003
 4273.00    0.91749   0.91187   39.319
 4274.00    0.93151   0.92637   39.495
 4275.00    0.96239   0.95263   39.061
 4276.00    0.99509   0.98525   38.670
 4277.00    1.01842   1.01548   38.502
 4278.00    1.03115   1.03578   38.415
 4279.00    1.03946   1.04334   38.208
 4280.00    1.04505   1.04093   38.175
 4281.00    1.04535   1.03471   38.729
 4282.00    1.04206   1.02832   39.176
 4283.00    1.03874   1.02197   38.419
 4284.00    1.03168   1.01395   37.329
 4285.00    1.01525   1.00188   37.442
 4286.00    0.99554   0.98581   38.394
 4287.00    0.98378   0.96729   38.776
 4288.00    0.98124   0.94830   38.455
 4289.00    0.98277   0.93293   38.160
 4290.00    0.98606   0.92716   37.995
 4291.00    0.98968   0.93365   37.868
 4292.00    0.98914   0.94792   38.249
 4293.00    0.98253   0.96120   39.312
 4294.00    0.97699   0.96580   39.784
 4295.00    0.97730   0.95892   38.829
 4296.00    0.97407   0.94027   38.162
 4297.00    0.95546   0.91136   39.052
 4298.00    0.91977   0.87698   40.129
 4299.00    0.87740   0.84382   40.218
 4300.00    0.84880   0.81918   40.949
 4301.00    0.84185   0.80667   42.323
 4302.00    0.83941   0.80363   40.186
 4303.00    0.82995   0.80544   37.498
 4304.00    0.82427   0.80747   45.154
 4305.00    0.82762   0.80548   60.742
 4306.00    0.82715   0.79899   32.997
 4307.00    0.81771   0.79153   15.704
 4308.00    0.81168   0.78907   11.555
 4309.00    0.81864   0.79769   11.583
 4310.00    0.83743   0.81941   12.230
 4311.00    0.86443   0.85231   11.765
 4312.00    0.89756   0.89349   11.050
 4313.00    0.93719   0.94090   10.622
 4314.00    0.98373   0.99278   10.188
 4315.00    1.02923   1.04681    9.719
 4316.00    1.06085   1.09748    9.438
 4317.00    1.07863   1.13595    9.293
 4318.00    1.09292   1.15598    9.093
 4319.00    1.10464   1.15641    8.991
 4320.00    1.10513   1.13879    9.229
 4321.00    1.08775   1.10642    9.354
 4322.00    1.05279   1.06433    8.943
 4323.00    1.01152   1.01881    9.436
 4324.00    0.98062   0.97982   14.162
 4325.00    0.97086   0.95882   35.455
 4326.00    0.98269   0.96302   69.116
 4327.00    1.00328   0.99052   43.434
 4328.00    1.01794   1.02949   36.365
 4329.00    1.02634   1.06619   40.719
 4330.00    1.03468   1.09261    0.000
 4331.00    1.04308   1.10799    0.000
 4332.00    1.04814   1.11391    0.000
 4333.00    1.04758   1.10996    0.000
 4334.00    1.04029   1.09389    0.000
 4335.00    1.02617   1.06279    0.000
 4336.00    1.00752   1.01522    0.000
 4337.00    0.99002   0.95579    0.000
 4338.00    0.97877   0.89668    0.000
 4339.00    0.97509   0.85144    0.000
 4340.00    0.97649   0.82997    0.000
 4341.00    0.97769   0.83715    0.000
 4342.00    0.97689   0.86908    0.000
 4343.00    0.97813   0.91437    0.000
 4344.00    0.98293   0.96265    0.000
 4345.00    0.98729   1.00760    0.000
 4346.00    0.99135   1.04424    0.000
 4347.00    1.00144   1.06950    0.000
 4348.00    1.01775   1.08225    0.000
 4349.00    1.03162   1.08165    0.000
 4350.00    1.03686   1.06880    0.000
 4351.00    1.03375   1.05062   45.442
 4352.00    1.02679   1.03857   44.806
 4353.00    1.02282   1.04051   44.042
 4354.00    1.02787   1.05501   43.601
 4355.00    1.04481   1.07568   43.123
 4356.00    1.06977   1.09637   42.544
 4357.00    1.09387   1.11256   42.202
 4358.00    1.10971   1.12312   42.457
 4359.00    1.11600   1.13155   43.340
 4360.00    1.12343   1.14269   43.885
 4361.00    1.14469   1.15753   42.996
 4362.00    1.17368   1.17303   41.628
 4363.00    1.19414   1.18541   41.313
 4364.00    1.20047   1.19194   41.865
 4365.00    1.19541   1.19035   42.258
 4366.00    1.18114   1.18000   42.241
 4367.00    1.16018   1.16418   42.163
 4368.00    1.13831   1.14834   42.290
 4369.00    1.12108   1.13573   42.733
 4370.00    1.10945   1.12546   43.457
 4371.00    1.10067   1.11516   44.257
 4372.00    1.09037   1.10304   44.743
 4373.00    1.07812   1.08954   44.658
 4374.00    1.07142   1.07889   44.202
 4375.00    1.07623   1.07691   43.814
 4376.00    1.08898   1.08578   43.897
 4377.00    1.10104   1.10049   44.349
 4378.00    1.10315   1.11113   44.374
 4379.00    1.09016   1.10837   43.826
 4380.00    1.06379   1.08785   43.805
 4381.00    1.03087   1.05148   44.709
 4382.00    1.00093   1.00691   45.433
 4383.00    0.97972   0.96694   45.274
 4384.00    0.96702   0.94550   44.948
 4385.00    0.96264   0.94876   45.252
 4386.00    0.96809   0.97096   46.360
 4387.00    0.98142   1.00016   47.418
 4388.00    0.99693   1.02690   46.886
 4389.00    1.01223   1.04743   45.237
 4390.00    1.02856   1.06218   44.507
 4391.00    1.04299   1.07372   44.828
 4392.00    1.05074   1.08413   44.677
 4393.00    1.05883   1.09383   43.753
 4394.00    1.07989   1.10336   43.056
 4395.00    1.10673   1.11414   42.929
 4396.00    1.11887   1.12609   42.996
 4397.00    1.11229   1.13539   42.856
 4398.00    1.09850   1.13740   42.310
 4399.00    1.08858   1.13104   41.481
 4400.00    1.08677   1.11861   40.769
 4401.00    1.08572   1.10365   40.724
 4402.00    1.07686   1.08771   41.646
 4403.00    1.06752   1.07006   42.915
 4404.00    1.06824   1.05281   43.597
 4405.00    1.07175   1.04249   43.860
 4406.00    1.06737   1.04400   44.275
 4407.00    1.06182   1.05678   44.503
 4408.00    1.06723   1.07849   44.080
 4409.00    1.08486   1.10638   43.476
 4410.00    1.10715   1.13477   43.275
 4411.00    1.12263   1.15583   43.387
 4412.00    1.12674   1.16399   43.478
 4413.00    1.12899   1.15831   43.386
 4414.00    1.13534   1.14324   43.174
 4415.00    1.13646   1.12861   43.091
 4416.00    1.12829   1.12415   43.246
 4417.00    1.12388   1.13235   43.436
 4418.00    1.13000   1.14877   43.457
 4419.00    1.13584   1.16589   43.314
 4420.00    1.13576   1.17646   43.241
 4421.00    1.13861   1.17768   43.564
 4422.00    1.14806   1.17241   44.116
 4423.00    1.15584   1.16599   44.179
 4424.00    1.15746   1.16200   43.817
 4425.00    1.15700   1.16062   43.983
 4426.00    1.15784   1.16082   44.623
 4427.00    1.15931   1.16149   44.563
 4428.00    1.15865   1.16158   43.933
 4429.00    1.15231   1.15978   44.132
 4430.00    1.13797   1.15531   45.262
 4431.00    1.11646   1.14891   46.062
 4432.00    1.09521   1.14082   46.055
 4433.00    1.08506   1.13156   45.822
 4434.00    1.09036   1.12484   45.614
 4435.00    1.10851   1.12617   45.283
 4436.00    1.13411   1.13857   44.910
 4437.00    1.16015   1.15888   44.719
 4438.00    1.17855   1.17860   44.716
 4439.00    1.18366   1.18933   44.780
 4440.00    1.17766   1.18737   44.919
 4441.00    1.16689   1.17611   45.199
 4442.00    1.15525   1.16409   45.572
 4443.00    1.14649   1.15984   45.926
 4444.00    1.14814   1.16712   46.196
 4445.00    1.16438   1.18315   46.368
 4446.00    1.18762   1.20089   46.453
 4447.00    1.20639   1.21414   46.334
 4448.00    1.21479   1.22061   45.709
 4449.00    1.21198   1.21977   44.798
 4450.00    1.20048   1.21189   44.736
 4451.00    1.18291   1.19826   46.019
 4452.00    1.16005   1.17951   47.400
 4453.00    1.13552   1.15637   47.701
 4454.00    1.11778   1.13177   47.579
 4455.00    1.10829   1.11034   47.868
 4456.00    1.09648   1.09579   48.418
 4457.00    1.07847   1.08803   48.871
 4458.00    1.06525   1.08475   49.137
 4459.00    1.06545   1.08452   49.090
 4460.00    1.07714   1.08760   48.521
 4461.00    1.09377   1.09491    0.000
 4462.00    1.10824   1.10741    0.000
 4463.00    1.11652   1.12420    0.000
 4464.00    1.11912   1.14090    0.000
 4465.00    1.12039   1.15320    0.000
 4466.00    1.12569   1.15967    0.000
 4467.00    1.13312   1.16141    0.000
 4468.00    1.13636   1.16150    0.000
 4469.00    1.14028   1.16412    0.000
 4470.00    1.15675   1.17306    0.000
 4471.00    1.18254   1.18934    0.000
 4472.00    1.20376   1.21091    0.000
 4473.00    1.21877   1.23408    0.000
 4474.00    1.23389   1.25460    0.000
 4475.00    1.24438   1.26911    0.000
 4476.00    1.24007   1.27569    0.000
 4477.00    1.22211   1.27289    0.000
 4478.00    1.20025   1.25986    0.000
 4479.00    1.18349   1.23895    0.000
 4480.00    1.17584   1.21686    0.000
 4481.00    1.17313   1.20228    0.000
 4482.00    1.17036   1.20129   47.970
 4483.00    1.17110   1.21386   47.499
 4484.00    1.18026   1.23344   47.368
 4485.00    1.19485   1.25080   -1.000
 4486.00    1.20817   1.25885   46.660
 4487.00    1.21508   1.25538   46.244
 4488.00    1.21383   1.24360   46.280
 4489.00    1.20695   1.23000   46.034
 4490.00    1.19844   1.22021   45.397
 4491.00    1.19145   1.21573   45.830
 4492.00    1.18734   1.21399   47.943
 4493.00    1.18565   1.21187   49.881
 4494.00    1.18653   1.20916   49.937
 4495.00    1.19174   1.20908   49.059
 4496.00    1.20199   1.21475   48.635
 4497.00    1.21553   1.22653   49.034
 4498.00    1.22940   1.24201   49.508
 4499.00    1.24088   1.25794   48.617
 4500.00    1.25066   1.27281   46.828
 4501.00    1.26293   1.28751   46.255
 4502.00    1.28022   1.30383   47.074
 4503.00    1.30068   1.32110   47.397
 4504.00    1.31642   1.33561   46.655
 4505.00    1.31794   1.34412   46.095
 4506.00    1.30910   1.34606   46.039
 4507.00    1.30382   1.34333   45.845
 4508.00    1.30462   1.33868   45.712
 4509.00    1.30356   1.33361   46.394
 4510.00    1.29880   1.32761   47.388
 4511.00    1.29368   1.31920   47.433
 4512.00    1.28618   1.30793   46.960
 4513.00    1.27201   1.29537   47.278
 4514.00    1.25457   1.28396   48.034
 4515.00    1.24140   1.27579   48.054
 4516.00    1.23511   1.27177   47.714
 4517.00    1.23401   1.27138   48.031
 4518.00    1.23560   1.27364   48.732
 4519.00    1.23877   1.27707   48.891
 4520.00    1.24556   1.27880   48.280
 4521.00    1.25462   1.27567   47.443
 4522.00    1.25429   1.26557   47.318
 4523.00    1.23692   1.24875   48.273
 4524.00    1.21325   1.22700   49.258
 4525.00    1.19554   1.20221   49.331
 4526.00    1.18137   1.17717   49.370
 4527.00    1.16527   1.15552   50.191
 4528.00    1.14903   1.14053   50.969
 4529.00    1.13632   1.13386   50.889
 4530.00    1.12830   1.13454   50.545
 4531.00    1.12599   1.13946   50.703
 4532.00    1.13141   1.14571   51.417
 4533.00    1.14407   1.15237   51.947
 4534.00    1.15980   1.16166   51.075
 4535.00    1.17591   1.17695   49.241
 4536.00    1.19317   1.19898   48.476
 4537.00    1.21195   1.22387   49.062
 4538.00    1.23064   1.24501   49.150
 4539.00    1.24664   1.25802   48.168
 4540.00    1.25703   1.26283   47.549
 4541.00    1.25924   1.26228   47.736
 4542.00    1.25212   1.25940   47.875
 4543.00    1.23863   1.25533   47.784
 4544.00    1.22539   1.24984   48.094
 4545.00    1.21880   1.24301   48.683
 4546.00    1.22086   1.23542   48.803
 4547.00    1.22216   1.22751   48.696
 4548.00    1.20990   1.21991   49.225
 4549.00    1.18975   1.21378   50.035
 4550.00    1.17919   1.21024    0.000
 4551.00    1.18394   1.20898    0.000
 4552.00    1.19854   1.20878    0.000
 4553.00    1.21616   1.21005    0.000
 4554.00    1.23144   1.21492    0.000
 4555.00    1.24197   1.22575    0.000
 4556.00    1.24844   1.24312    0.000
 4557.00    1.25422   1.26447    0.000
 4558.00    1.26218   1.28498    0.000
 4559.00    1.27105   1.30007    0.000
 4560.00    1.27731   1.30695    0.000
 4561.00    1.27833   1.30523    0.000
 4562.00    1.27478   1.29679    0.000
 4563.00    1.27225   1.28554    0.000
 4564.00    1.27450   1.27673    0.000
 4565.00    1.27815   1.27462    0.000
 4566.00    1.27931   1.27992    0.000
 4567.00    1.27878   1.28932    0.000
 4568.00    1.27900   1.29749    0.000
 4569.00    1.28137   1.30084    0.000
 4570.00    1.28545   1.29949    0.000
 4571.00    1.28914   1.29659    0.000
 4572.00    1.29260   1.29618    0.000
 4573.00    1.29889   1.29969    0.000
 4574.00    1.30640   1.30452    0.000
 4575.00    1.30742   1.30686    0.000
 4576.00    1.29884   1.30391    0.000
 4577.00    1.28489   1.29456    0.000
 4578.00    1.26868   1.27984    0.000
 4579.00    1.25038   1.26281    0.000
 4580.00    1.23241   1.24737    0.000
 4581.00    1.21988   1.23673    0.000
 4582.00    1.21621   1.23205    0.000
 4583.00    1.22108   1.23267    0.000
 4584.00    1.22929   1.23755    0.000
 4585.00    1.23445   1.24604    0.000
 4586.00    1.23858   1.25732    0.000
 4587.00    1.24855   1.26978    0.000
 4588.00    1.26347   1.28049    0.000
 4589.00    1.27640   1.28624    0.000
 4590.00    1.28263   1.28539    0.000
 4591.00    1.28094   1.27887    0.000
 4592.00    1.27295   1.26967    0.000
 4593.00    1.26201   1.26119    0.000
 4594.00    1.25158   1.25555    0.000
 4595.00    1.24406   1.25332    0.000
 4596.00    1.23953   1.25392    0.000
 4597.00    1.23628   1.25603    0.000
 4598.00    1.23192   1.25826    0.000
 4599.00    1.22588   1.25982    0.000
 4600.00    1.22174   1.26066    0.000
 4601.00    1.22352   1.26169    0.000
 4602.00    1.23199   1.26406    0.000
 4603.00    1.24441   1.26848    0.000
 4604.00    1.25534   1.27570    0.000
 4605.00    1.26264   1.28637    0.000
 4606.00    1.27097   1.30059    0.000
 4607.00    1.28493   1.31695    0.000
 4608.00    1.30423   1.33241    0.000
 4609.00    1.32382   1.34346    0.000
 4610.00    1.33567   1.34804    0.000
 4611.00    1.33682   1.34682    0.000
 4612.00    1.33209   1.34261    0.000
 4613.00    1.32635   1.33848    0.000
 4614.00    1.32127   1.33631    0.000
 4615.00    1.31730   1.33608    0.000
 4616.00    1.31469   1.33666    0.000
 4617.00    1.31371   1.33732    0.000
 4618.00    1.31444   1.33798    0.000
 4619.00    1.31613   1.33921    0.000
 4620.00    1.31742   1.34165    0.000
 4621.00    1.31780   1.34492    0.000
 4622.00    1.31747   1.34768    0.000
 4623.00    1.31609   1.34876    0.000
 4624.00    1.31335   1.34773    0.000
 4625.00    1.31106   1.34491    0.000
 4626.00    1.31095   1.34129    0.000
 4627.00    1.30948   1.33795    0.000
 4628.00    1.30236   1.33544    0.000
 4629.00    1.29422   1.33378    0.000
 4630.00    1.29271   1.33246    0.000
 4631.00    1.29655   1.33032    0.000
 4632.00    1.29910   1.32596    0.000
 4633.00    1.29600   1.31898    0.000
 4634.00    1.28675   1.31009    0.000
 4635.00    1.27499   1.30041    0.000
 4636.00    1.26550   1.29105    0.000
 4637.00    1.26071   1.28318    0.000
 4638.00    1.25974   1.27812    0.000
 4639.00    1.25824   1.27672    0.000
 4640.00    1.25362   1.27849    0.000
 4641.00    1.24883   1.28126    0.000
 4642.00    1.24507   1.28158    0.000
 4643.00    1.23708   1.27652    0.000
 4644.00    1.22330   1.26560    0.000
 4645.00    1.21157   1.25131    0.000
 4646.00    1.20695   1.23829    0.000
 4647.00    1.20545   1.23144    0.000
 4648.00    1.20414   1.23340    0.000
 4649.00    1.20593   1.24328    0.000
 4650.00    1.21337   1.25721    0.000
 4651.00    1.22593   1.27029    0.000
 4652.00    1.24174   1.27889    0.000
 4653.00    1.25831   1.28227    0.000
 4654.00    1.27189   1.28280    0.000
 4655.00    1.27901   1.28490    0.000
 4656.00    1.28245   1.29239    0.000
 4657.00    1.28948   1.30609    0.000
 4658.00    1.30011   1.32295    0.000
 4659.00    1.30688   1.33730    0.000
 4660.00    1.30440   1.34364    0.000
 4661.00    1.29188   1.33909    0.000
 4662.00    1.27248   1.32407    0.000
 4663.00    1.25102   1.30116    0.000
 4664.00    1.22936   1.27379    0.000
 4665.00    1.20747   1.24568    0.000
 4666.00    1.18725   1.22120    0.000
 4667.00    1.17249   1.20523    0.000
 4668.00    1.16743   1.20150    0.000
 4669.00    1.17447   1.21041    0.000
 4670.00    1.19120   1.22843    0.000
 4671.00    1.21201   1.24988    0.000
 4672.00    1.23096   1.26970    0.000
 4673.00    1.24390   1.28529    0.000
 4674.00    1.25045   1.29616    0.000
 4675.00    1.25251   1.30253    0.000
 4676.00    1.25236   1.30420    0.000
 4677.00    1.25164   1.30085    0.000
 4678.00    1.25061   1.29323    0.000
 4679.00    1.24867   1.28375    0.000
 4680.00    1.24516   1.27587    0.000
 4681.00    1.24187   1.27247    0.000
 4682.00    1.24405   1.27448    0.000
 4683.00    1.25471   1.28055    0.000
 4684.00    1.27099   1.28794    0.000
 4685.00    1.28634   1.29392    0.000
 4686.00    1.29317   1.29706    0.000
 4687.00    1.28927   1.29738    0.000
 4688.00    1.27983   1.29598    0.000
 4689.00    1.27085   1.29439    0.000
 4690.00    1.26549   1.29408    0.000
 4691.00    1.26276   1.29612    0.000
 4692.00    1.25878   1.30085    0.000
 4693.00    1.25339   1.30732    0.000
 4694.00    1.25074   1.31329    0.000
 4695.00    1.25323   1.31586    0.000
 4696.00    1.25941   1.31275    0.000
 4697.00    1.26390   1.30356    0.000
 4698.00    1.26072   1.29007    0.000
 4699.00    1.25144   1.27533    0.000
 4700.00    1.24264   1.26227    0.000
 4701.00    1.23543   1.25282    0.000
 4702.00    1.22707   1.24765    0.000
 4703.00    1.21910   1.24631    0.000
 4704.00    1.21521   1.24746    0.000
 4705.00    1.21481   1.24931    0.000
 4706.00    1.21587   1.25065    0.000
 4707.00    1.22112   1.25174    0.000
 4708.00    1.23325   1.25409    0.000
 4709.00    1.24719   1.25909    0.000
 4710.00    1.25553   1.26671    0.000
 4711.00    1.25675   1.27529    0.000
 4712.00    1.25444   1.28291    0.000
 4713.00    1.25495   1.28916    0.000
 4714.00    1.26362   1.29564    0.000
 4715.00    1.28111   1.30464    0.000
 4716.00    1.30330   1.31723    0.000
 4717.00    1.32232   1.33237    0.000
 4718.00    1.33418   1.34747    0.000
 4719.00    1.34337   1.35989    0.000
 4720.00    1.35255   1.36813    0.000
 4721.00    1.35633   1.37204    0.000
 4722.00    1.35085   1.37217    0.000
 4723.00    1.33903   1.36873    0.000
 4724.00    1.32440   1.36095    0.000
 4725.00    1.30803   1.34777    0.000
 4726.00    1.29138   1.32928    0.000
 4727.00    1.27714   1.30801    0.000
 4728.00    1.26584   1.28837    0.000
 4729.00    1.25587   1.27482    0.000
 4730.00    1.24919   1.26969    0.000
 4731.00    1.25084   1.27255    0.000
 4732.00    1.25982   1.28075    0.000
 4733.00    1.26925   1.29088    0.000
 4734.00    1.27703   1.30019    0.000
 4735.00    1.28595   1.30753    0.000
 4736.00    1.29494   1.31314    0.000
 4737.00    1.29949   1.31803    0.000
 4738.00    1.29870   1.32295    0.000
 4739.00    1.29596   1.32776    0.000
 4740.00    1.29678   1.33216    0.000
 4741.00    1.30557   1.33630    0.000
 4742.00    1.32092   1.34061    0.000
 4743.00    1.33707   1.34539    0.000
 4744.00    1.34824   1.35058    0.000
 4745.00    1.35138   1.35592    0.000
 4746.00    1.34898   1.36093    0.000
 4747.00    1.34499   1.36484    0.000
 4748.00    1.33914   1.36674    0.000
 4749.00    1.32923   1.36591    0.000
 4750.00    1.31492   1.36196    0.000
 4751.00    1.29962   1.35500    0.000
 4752.00    1.29121   1.34592    0.000
 4753.00    1.29377   1.33638    0.000
 4754.00    1.30062   1.32818    0.000
 4755.00    1.30319   1.32270    0.000
 4756.00    1.29904   1.32030    0.000
 4757.00    1.29133   1.32005    0.000
 4758.00    1.28673   1.31993    0.000
 4759.00    1.28677   1.31745    0.000
 4760.00    1.28406   1.31072    0.000
 4761.00    1.27332   1.29931   54.060
 4762.00    1.25748   1.28497   54.261
 4763.00    1.24357   1.27096   55.493
 4764.00    1.23879   1.26071   56.102
 4765.00    1.24330   1.25675   55.475
 4766.00    1.24959   1.26009   55.089
 4767.00    1.25374   1.26983   55.331
 4768.00    1.25839   1.28332   54.989
 4769.00    1.26581   1.29736   53.930
 4770.00    1.27567   1.30962   53.343
 4771.00    1.28648   1.31953   53.507
 4772.00    1.29651   1.32825   53.682
 4773.00    1.30503   1.33713   53.514
 4774.00    1.31241   1.34628   53.302
 4775.00    1.31937   1.35446   53.545
 4776.00    1.32629   1.36010   54.444
 4777.00    1.33210   1.36220   54.994
 4778.00    1.33483   1.36034   54.051
 4779.00    1.33313   1.35483   53.054
 4780.00    1.32712   1.34666   53.991
 4781.00    1.31912   1.33701   55.721
 4782.00    1.31159   1.32694   55.764
 4783.00    1.30379   1.31751   55.141
 4784.00    1.29429   1.30967   55.982
 4785.00    1.28513   1.30378   57.110
 4786.00    1.27964   1.29989   56.465
 4787.00    1.27897   1.29859   55.323
 4788.00    1.28211   1.30057   55.572
 4789.00    1.28656   1.30624   56.644
 4790.00    1.29143   1.31611   57.096
 4791.00    1.29986   1.32988   56.574
 4792.00    1.31352   1.34601   55.749
 4793.00    1.32805   1.36184   55.700
 4794.00    1.33799   1.37404   56.621
 4795.00    1.34092   1.37972   57.104
 4796.00    1.33734   1.37801   56.400
 4797.00    1.32997   1.37068   55.875
 4798.00    1.32222   1.36141   56.370
 4799.00    1.31710   1.35417   56.986
 4800.00    1.31624   1.35134   56.997
 4801.00    1.31935   1.35248   56.826
 4802.00    1.32349   1.35487   56.737
 4803.00    1.32417   1.35527   56.387
 4804.00    1.32152   1.35200   55.899
 4805.00    1.32062   1.34580   55.977
 4806.00    1.32232   1.33904   56.639
 4807.00    1.32205   1.33401   57.077
 4808.00    1.31848   1.33218   56.992
 4809.00    1.31494   1.33387   56.827
 4810.00    1.31405   1.33821   56.787
 4811.00    1.31627   1.34394   56.749
 4812.00    1.32050   1.35032   56.845
 4813.00    1.32522   1.35715   57.361
 4814.00    1.33083   1.36452   58.087
 4815.00    1.33827   1.37235   58.431
 4816.00    1.34527   1.38006   58.104
 4817.00    1.34838   1.38637   57.269
 4818.00    1.34818   1.38961   56.371
 4819.00    1.34714   1.38826   55.909
 4820.00    1.34422   1.38156   56.192
 4821.00    1.33683   1.37030   56.995
 4822.00    1.32497   1.35687   57.058
 4823.00    1.31102   1.34458   55.689
 4824.00    1.29830   1.33663   54.763
 4825.00    1.28887   1.33396   55.971
 4826.00    1.28148   1.33465   -1.000
 4827.00    1.27548   1.33583   -1.000
 4828.00    1.27462   1.33561   -1.000
 4829.00    1.28009   1.33368   -1.000
 4830.00    1.28461   1.33098   57.410
 4831.00    1.28313   1.32879   57.142
 4832.00    1.28082   1.32841   56.947
 4833.00    1.28240   1.33047   56.662
 4834.00    1.28472   1.33382   56.340
 4835.00    1.28468   1.33627   -1.000
 4836.00    1.28428   1.33606   -1.000
 4837.00    1.28589   1.33260   56.917
 4838.00    1.28935   1.32637   56.953
 4839.00    1.29185   1.31906   56.532
 4840.00    1.28928   1.31305   56.574
 4841.00    1.28168   1.31011   57.301
 4842.00    1.27407   1.31052   57.765
 4843.00    1.26934   1.31346   57.188
 4844.00    1.26610   1.31768   55.755
 4845.00    1.26224   1.32125   -1.000
 4846.00    1.25669   1.32216   -1.000
 4847.00    1.25042   1.31979   -1.000
 4848.00    1.24533   1.31507    0.000
 4849.00    1.24007   1.30946    0.000
 4850.00    1.23114   1.30326    0.000
 4851.00    1.21881   1.29485    0.000
 4852.00    1.20617   1.28241    0.000
 4853.00    1.19374   1.26503    0.000
 4854.00    1.18177   1.24266    0.000
 4855.00    1.17715   1.21621    0.000
 4856.00    1.18870   1.18670    0.000
 4857.00    1.21635   1.15373    0.000
 4858.00    1.25348   1.11683    0.000
 4859.00    1.29361   1.07877    0.000
 4860.00    1.32983   1.04639    0.000
 4861.00    1.35264   1.02832    0.000
 4862.00    1.35356   1.03082    0.000
 4863.00    1.33035   1.05305    0.000
 4864.00    1.28819   1.08784    0.000
 4865.00    1.23976   1.12656    0.000
 4866.00    1.19823   1.16141    0.000
 4867.00    1.17006   1.18695    0.000
 4868.00    1.15515   1.20131    0.000
 4869.00    1.14814   1.20598    0.000
 4870.00    1.14420   1.20460    0.000
 4871.00    1.14332   1.20246    0.000
 4872.00    1.14815   1.20504    0.000
 4873.00    1.16152   1.21473    0.000
 4874.00    1.18218   1.23007    0.000
 4875.00    1.20341   1.24837   56.379
 4876.00    1.22009   1.26730   56.371
 4877.00    1.23216   1.28475   -1.000
 4878.00    1.24126   1.29889   -1.000
 4879.00    1.24858   1.30849   -1.000
 4880.00    1.25291   1.31226   -1.000
 4881.00    1.25125   1.30996   -1.000
 4882.00    1.24408   1.30332   -1.000
 4883.00    1.23592   1.29413   -1.000
 4884.00    1.22997   1.28332   -1.000
 4885.00    1.22606   1.27206   57.168
 4886.00    1.22049   1.26188   57.463
 4887.00    1.20938   1.25377   57.089
 4888.00    1.19787   1.24818   56.573
 4889.00    1.19691   1.24626   57.108
 4890.00    1.20974   1.25034   58.352
 4891.00    1.23152   1.26341   58.836
 4892.00    1.25569   1.28710   58.387
 4893.00    1.27690   1.31843   57.932
 4894.00    1.29362   1.35102   -1.000
 4895.00    1.30657   1.37857   -1.000
 4896.00    1.31543   1.39657   -1.000
 4897.00    1.31977   1.40360   -1.000
 4898.00    1.32136   1.40114   -1.000
 4899.00    1.32238   1.39238   -1.000
 4900.00    1.32268   1.38159   -1.000
 4901.00    1.32064   1.37259   -1.000
 4902.00    1.31475   1.36699   -1.000
 4903.00    1.30558   1.36505   -1.000
 4904.00    1.29730   1.36630   -1.000
 4905.00    1.29349   1.36857   -1.000
 4906.00    1.29328   1.36831   -1.000
 4907.00    1.29426   1.36297   -1.000
 4908.00    1.29500   1.35303   -1.000
 4909.00    1.29390   1.34171   59.496
 4910.00    1.28867   1.33325   60.107
 4911.00    1.27952   1.33104   -1.000
 4912.00    1.27064   1.33511   -1.000
 4913.00    1.26592   1.34192   -1.000
 4914.00    1.26602   1.34629   -1.000
 4915.00    1.26754   1.34317   -1.000
 4916.00    1.26365   1.32912   -1.000
 4917.00    1.24927   1.30440   -1.000
 4918.00    1.22402   1.27386   -1.000
 4919.00    1.19408   1.24553   -1.000
 4920.00    1.17092   1.22714   -1.000
 4921.00    1.16385   1.22296   -1.000
 4922.00    1.17617   1.23242   -1.000
 4923.00    1.20188   1.25135   -1.000
 4924.00    1.22959   1.27556   61.407
 4925.00    1.25632   1.30258   60.736
 4926.00    1.28593   1.33016   60.885
 4927.00    1.31478   1.35509   61.099
 4928.00    1.33335   1.37461   60.327
 4929.00    1.33859   1.38660   -1.000
 4930.00    1.33438   1.38941   -1.000
 4931.00    1.32654   1.38327   -1.000
 4932.00    1.31929   1.37008   -1.000
 4933.00    1.31115   1.35288   59.757
 4934.00    1.29888   1.33576   60.205
 4935.00    1.28478   1.32137   61.319
 4936.00    1.27394   1.30963   62.280
 4937.00    1.26872   1.30100   62.425
 4938.00    1.26913   1.29800   61.861
 4939.00    1.27434   1.30351   61.786
 4940.00    1.28348   1.31811    0.000
 4941.00    1.29613   1.33850    0.000
 4942.00    1.31162   1.35964    0.000
 4943.00    1.32818   1.37801    0.000
 4944.00    1.34323   1.39173    0.000
 4945.00    1.35390   1.40070    0.000
 4946.00    1.35879   1.40688    0.000
 4947.00    1.35921   1.41245    0.000
 4948.00    1.35745   1.41755    0.000
 4949.00    1.35558   1.42103    0.000
 4950.00    1.35516   1.42141    0.000
 4951.00    1.35681   1.41701    0.000
 4952.00    1.35829   1.40617    0.000
 4953.00    1.35511   1.38855    0.000
 4954.00    1.34902   1.36549    0.000
 4955.00    1.34924   1.33982    0.000
 4956.00    1.35914   1.31577    0.000
 4957.00    1.37266   1.29905    0.000
 4958.00    1.38375   1.29565    0.000
 4959.00    1.38970   1.30580    0.000
 4960.00    1.38908   1.32293    0.000
 4961.00    1.38133   1.33942    0.000
 4962.00    1.36783   1.35027    0.000
 4963.00    1.35165   1.35353    0.000
 4964.00    1.33595   1.34947    0.000
 4965.00    1.32317   1.34080    0.000
 4966.00    1.31422   1.33199    0.000
 4967.00    1.30886   1.32658    0.000
 4968.00    1.30686   1.32604    0.000
 4969.00    1.30774   1.33064    0.000
 4970.00    1.30978   1.33939    0.000
 4971.00    1.31127   1.35059    0.000
 4972.00    1.31271   1.36192    0.000
 4973.00    1.31524   1.37071    0.000
 4974.00    1.31790   1.37487    0.000
 4975.00    1.31875   1.37281    0.000
 4976.00    1.31704   1.36393    0.000
 4977.00    1.31241   1.34878    0.000
 4978.00    1.30379   1.32842    0.000
 4979.00    1.29031   1.30489    0.000
 4980.00    1.27249   1.28052    0.000
 4981.00    1.25259   1.25767    0.000
 4982.00    1.23456   1.23991    0.000
 4983.00    1.22218   1.23162    0.000
 4984.00    1.21744   1.23486    0.000
 4985.00    1.22045   1.24789    0.000
 4986.00    1.22962   1.26673    0.000
 4987.00    1.24250   1.28653    0.000
 4988.00    1.25637   1.30263    0.000
 4989.00    1.26874   1.31306    0.000
 4990.00    1.27792   1.31865    0.000
 4991.00    1.28507   1.32161    0.000
 4992.00    1.29396   1.32411    0.000
 4993.00    1.30476   1.32641    0.000
 4994.00    1.31265   1.32810    0.000
 4995.00    1.31361   1.32872    0.000
 4996.00    1.30729   1.32633    0.000
 4997.00    1.29803   1.31946    0.000
 4998.00    1.29314   1.30827    0.000
 4999.00    1.29658   1.29395    0.000
 5000.00    1.30847   1.27911    0.000
 5001.00    1.32993   1.26604    0.000
 5002.00    1.36296   1.25543    0.000
 5003.00    1.40644   1.24720    0.000
 5004.00    1.45534   1.24107    0.000
 5005.00    1.50140   1.23746    0.000
 5006.00    1.53451   1.23789    0.000
 5007.00    1.54512   1.24307    0.000
 5008.00    1.52795   1.25033    0.000
 5009.00    1.48726   1.25457    0.000
 5010.00    1.43349   1.25235    0.000
 5011.00    1.37617   1.24343    0.000
 5012.00    1.32219   1.23018    0.000
 5013.00    1.27493   1.21707    0.000
 5014.00    1.23636   1.20820    0.000
 5015.00    1.20952   1.20564    0.000
 5016.00    1.19616   1.20857    0.000
 5017.00    1.19390   1.21447    0.000
 5018.00    1.19818   1.22205    0.000
 5019.00    1.20476   1.23103    0.000
 5020.00    1.21140   1.24036    0.000
 5021.00    1.21881   1.24891    0.000
 5022.00    1.22743   1.25673    0.000
 5023.00    1.23538   1.26478    0.000
 5024.00    1.24265   1.27276    0.000
 5025.00    1.25306   1.27958    0.000
 5026.00    1.26719   1.28538    0.000
 5027.00    1.27917   1.29130    0.000
 5028.00    1.28529   1.29945    0.000
 5029.00    1.28801   1.31060   61.901
 5030.00    1.29135   1.32256   61.183
 5031.00    1.29746   1.33274   61.169
 5032.00    1.30281   1.33864   62.007
 5033.00    1.29941   1.33750   62.197
 5034.00    1.28591   1.32760   61.436
 5035.00    1.26891   1.30960   61.107
 5036.00    1.25218   1.28706   61.732
 5037.00    1.23479   1.26382   62.617
 5038.00    1.21701   1.24160   63.184
 5039.00    1.20166   1.22283   63.376
 5040.00    1.19240   1.21198   63.415
 5041.00    1.19225   1.21352   63.493
 5042.00    1.20133   1.22959   63.239
 5043.00    1.21722   1.25615   62.279
 5044.00    1.23706   1.28476   -1.000
 5045.00    1.25731   1.30824   -1.000
 5046.00    1.27277   1.32155   -1.000
 5047.00    1.27881   1.32279   -1.000
 5048.00    1.27547   1.31475   60.502
 5049.00    1.26755   1.30380   60.700
 5050.00    1.26329   1.29607   61.836
 5051.00    1.26809   1.29478   62.155
 5052.00    1.27688   1.30079   61.907
 5053.00    1.28282   1.31311   61.966
 5054.00    1.28810   1.32874   61.677
 5055.00    1.29661   1.34436   60.456
 5056.00    1.30554   1.35787   -1.000
 5057.00    1.31223   1.36862   -1.000
 5058.00    1.32067   1.37635   -1.000
 5059.00    1.33339   1.38036   -1.000
 5060.00    1.34491   1.38006   61.679
 5061.00    1.34904   1.37480   60.760
 5062.00    1.34454   1.36383   59.902
 5063.00    1.33369   1.34778   59.541
 5064.00    1.32035   1.32926   59.273
 5065.00    1.30636   1.31302   59.272
 5066.00    1.29056   1.30264   60.672
 5067.00    1.27522   1.29761   63.100
 5068.00    1.26743   1.29630   63.728
 5069.00    1.26941   1.29791   62.287
 5070.00    1.27561   1.30080   62.195
 5071.00    1.28029   1.30253   64.098
 5072.00    1.28099   1.30258   64.863
 5073.00    1.27919   1.30216   63.593
 5074.00    1.27848   1.30050   62.873
 5075.00    1.27836   1.29557   63.610
 5076.00    1.27436   1.28693   64.572
 5077.00    1.26421   1.27493   65.007
 5078.00    1.24986   1.25991   65.211
 5079.00    1.23764   1.24423   65.634
 5080.00    1.23466   1.23352   66.427
 5081.00    1.24071   1.23159   67.005
 5082.00    1.25009   1.23761   66.586
 5083.00    1.25897   1.24919   65.600
 5084.00    1.26621   1.26462   65.047
 5085.00    1.27204   1.28162   65.039
 5086.00    1.27734   1.29740   65.044
 5087.00    1.28300   1.31067   64.586
 5088.00    1.28953   1.32186   63.582
 5089.00    1.29676   1.33155   62.569
 5090.00    1.30403   1.33957   62.171
 5091.00    1.31035   1.34558   62.545
 5092.00    1.31366   1.34889   63.386
 5093.00    1.31022   1.34783   63.972
 5094.00    1.29757   1.34068   63.935
 5095.00    1.27754   1.32751   -1.000
 5096.00    1.25591   1.31065   -1.000
 5097.00    1.24111   1.29358   -1.000
 5098.00    1.23745   1.27998   65.408
 5099.00    1.24070   1.27306   64.645
 5100.00    1.24518   1.27426   63.793
 5101.00    1.24883   1.28074   63.681
 5102.00    1.25182   1.28750   64.265
 5103.00    1.25509   1.29105   64.303
 5104.00    1.25815   1.29028   63.351
 5105.00    1.25854   1.28578   62.552
 5106.00    1.25545   1.27900   62.658
 5107.00    1.25100   1.27208   63.378
 5108.00    1.24770   1.26806   64.214
 5109.00    1.24733   1.26868   64.762
 5110.00    1.25082   1.27397   64.531
 5111.00    1.25835   1.28422   63.134
 5112.00    1.26955   1.29790   60.996
 5113.00    1.28337   1.31237   59.159
 5114.00    1.29778   1.32622   58.555
 5115.00    1.31041   1.33809   59.655
 5116.00    1.32077   1.34664   61.621
 5117.00    1.32911   1.35075   62.597
 5118.00    1.33239   1.34872   62.124
 5119.00    1.32633   1.33969   61.338
 5120.00    1.31168   1.32444   61.247
 5121.00    1.29277   1.30498   62.221
 5122.00    1.27221   1.28396   63.655
 5123.00    1.25107   1.26407   64.476
 5124.00    1.23116   1.24841   64.448
 5125.00    1.21552   1.23896   64.036
 5126.00    1.20838   1.23502   63.644
 5127.00    1.21192   1.23525   63.702
 5128.00    1.22204   1.23895   64.930
 5129.00    1.23212   1.24571   67.402
 5130.00    1.23826   1.25518   69.115
 5131.00    1.24058   1.26642   68.275
 5132.00    1.24353   1.27733   66.566
 5133.00    1.25031   1.28592   65.878
 5134.00    1.25805   1.29116   65.653
 5135.00    1.26351   1.29215   64.941
 5136.00    1.26757   1.28756   64.034
 5137.00    1.27011   1.27853   63.719
 5138.00    1.26694   1.26815   64.581
 5139.00    1.25633   1.25875   66.151
 5140.00    1.24268   1.25255   66.557
 5141.00    1.23031   1.24883   65.536
 5142.00    1.22029   1.24553   65.534
 5143.00    1.21394   1.24404   67.285
 5144.00    1.21393   1.24473   68.366
 5145.00    1.22029   1.24505   67.458
 5146.00    1.22913   1.24437   66.247
 5147.00    1.23510   1.24374   66.182
 5148.00    1.23391   1.24358   67.342
 5149.00    1.22731   1.24362   68.582
 5150.00    1.22202   1.24294   68.104
 5151.00    1.22047   1.24225   66.066
 5152.00    1.22049   1.24387   64.392
 5153.00    1.22306   1.24946   64.191
 5154.00    1.23238   1.25966   65.355
 5155.00    1.25004   1.27428   66.379
 5156.00    1.27262   1.29118   65.507
 5157.00    1.29030   1.30700   64.099
 5158.00    1.29282   1.31832   64.677
 5159.00    1.28188   1.32256   -1.000
 5160.00    1.26654   1.31860   -1.000
 5161.00    1.25060   1.30497   -1.000
 5162.00    1.23290   1.28072   -1.000
 5163.00    1.21143   1.24723   65.675
 5164.00    1.18431   1.20606   66.205
 5165.00    1.15040   1.15947   67.166
 5166.00    1.11158   1.11270   68.552
 5167.00    1.07493   1.07271   69.397
 5168.00    1.04761   1.04541   69.038
 5169.00    1.03082   1.03210   68.703
 5170.00    1.02279   1.02902   69.585
 5171.00    1.02254   1.03188   70.995
 5172.00    1.03081   1.04186   71.423
 5173.00    1.05011   1.06449   70.029
 5174.00    1.07954   1.10005   67.792
 5175.00    1.11158   1.14018   67.185
 5176.00    1.13854   1.17543   -1.000
 5177.00    1.15692   1.20007   -1.000
 5178.00    1.16527   1.21034   -1.000
 5179.00    1.16280   1.20444   -1.000
 5180.00    1.15045   1.18441   67.142
 5181.00    1.13161   1.15585   67.710
 5182.00    1.11219   1.12643   66.644
 5183.00    1.09974   1.10581   66.489
 5184.00    1.09910   1.10412   68.252
 5185.00    1.11074   1.12348   70.021
 5186.00    1.13152   1.15490   70.156
 5187.00    1.15599   1.18733   68.912
 5188.00    1.17947   1.21353   67.535
 5189.00    1.19868   1.23079   67.221
 5190.00    1.21013   1.23834    0.000
 5191.00    1.21178   1.23649    0.000
 5192.00    1.20859   1.23097    0.000
 5193.00    1.20985   1.22943    0.000
 5194.00    1.21909   1.23373    0.000
 5195.00    1.23406   1.24226    0.000
 5196.00    1.25195   1.25473    0.000
 5197.00    1.27009   1.26946    0.000
 5198.00    1.28508   1.28286    0.000
 5199.00    1.29432   1.29204    0.000
 5200.00    1.29864   1.29439    0.000
 5201.00    1.29907   1.28824    0.000
 5202.00    1.29154   1.27396    0.000
 5203.00    1.27197   1.25347    0.000
 5204.00    1.24377   1.22914    0.000
 5205.00    1.21495   1.20543    0.000
 5206.00    1.19321   1.18840    0.000
 5207.00    1.18329   1.18096    0.000
 5208.00    1.18489   1.18309    0.000
 5209.00    1.19445   1.19569    0.000
 5210.00    1.20717   1.21735    0.000
 5211.00    1.21923   1.24321   63.562
 5212.00    1.22947   1.26832   65.487
 5213.00    1.23897   1.28838   -1.000
 5214.00    1.25019   1.30133   -1.000
 5215.00    1.26378   1.30843   61.758
 5216.00    1.27700   1.31378   60.457
 5217.00    1.28766   1.32076   59.681
 5218.00    1.29586   1.32942   59.088
 5219.00    1.30084   1.33702   58.838
 5220.00    1.30015   1.34002   59.664
 5221.00    1.29377   1.33588   61.355
 5222.00    1.28497   1.32309   62.344
 5223.00    1.27522   1.30237   62.148
 5224.00    1.26326   1.27747   62.022
 5225.00    1.24963   1.25413   62.406
 5226.00    1.23737   1.23821   62.580
 5227.00    1.22864   1.23456   62.638
 5228.00    1.22434   1.24443   63.464
 5229.00    1.22608   1.26168   64.666
 5230.00    1.23530   1.27893   64.831
 5231.00    1.24953   1.29290   64.248
 5232.00    1.26381   1.30195   64.283
 5233.00    1.27615   1.30809   64.325
 5234.00    1.28740   1.31576   62.928
 5235.00    1.29839   1.32679   61.324
 5236.00    1.30917   1.34067   61.538
 5237.00    1.31883   1.35515   62.911
 5238.00    1.32617   1.36760   63.439
 5239.00    1.33106   1.37680   -1.000
 5240.00    1.33426   1.38278   -1.000
 5241.00    1.33695   1.38570   -1.000
 5242.00    1.33976   1.38507   63.344
 5243.00    1.34170   1.38105   63.653
 5244.00    1.34142   1.37418   64.252
 5245.00    1.33874   1.36347   65.320
 5246.00    1.33378   1.34829   66.604
 5247.00    1.32608   1.33192   67.109
 5248.00    1.31575   1.31901   66.380
 5249.00    1.30444   1.31015   65.565
 5250.00    1.29461   1.30462   65.703
 5251.00    1.28888   1.30433   66.589
 5252.00    1.28920   1.30961   67.322
 5253.00    1.29616   1.31816   66.904
 5254.00    1.30754   1.32817   65.611
 5255.00    1.31831   1.33942   65.153
 5256.00    1.32537   1.35199   65.943
 5257.00    1.32927   1.36222   66.323
 5258.00    1.32924   1.36464   65.710
 5259.00    1.32168   1.35603   65.622
 5260.00    1.30484   1.33571   66.556
 5261.00    1.28044   1.30546   67.272
 5262.00    1.25155   1.26939   67.423
 5263.00    1.22144   1.23301   68.044
 5264.00    1.19286   1.20098   69.010
 5265.00    1.16814   1.17609   69.006
 5266.00    1.15034   1.16000   68.657
 5267.00    1.14248   1.15311   69.854
 5268.00    1.14471   1.15169   71.309
 5269.00    1.15453   1.15353   69.648
 5270.00    1.16930   1.16386   66.350
 5271.00    1.18705   1.18567   65.140
 5272.00    1.20684   1.21316   65.656
 5273.00    1.22818   1.24045   65.395
 5274.00    1.24990   1.26648   64.401
 5275.00    1.27027   1.29070   64.177
 5276.00    1.28768   1.31338   64.470
 5277.00    1.30122   1.33392   64.172
 5278.00    1.31135   1.34833   63.347
 5279.00    1.31872   1.35425   62.648
 5280.00    1.32254   1.35324   62.194
 5281.00    1.32213   1.34915   61.898
 5282.00    1.31902   1.34633   61.952
 5283.00    1.31710   1.34818   62.615
 5284.00    1.32210   1.35727   63.911
 5285.00    1.33730   1.37401   65.224
 5286.00    1.35980   1.39406   65.063
 5287.00    1.38311   1.41196   63.106
 5288.00    1.40006   1.42536   61.393
 5289.00    1.40640   1.43419   61.524
 5290.00    1.40315   1.43815   63.372
 5291.00    1.39458   1.43605   65.575
 5292.00    1.38589   1.42737   65.923
 5293.00    1.37818   1.41307   64.497
 5294.00    1.36705   1.39495   64.404
 5295.00    1.35094   1.37411   66.367
 5296.00    1.33445   1.35227   67.186
 5297.00    1.32267   1.33347   65.812
 5298.00    1.31829   1.32316   65.339
 5299.00    1.32147   1.32409   66.722
 5300.00    1.33016   1.33330   67.626
 5301.00    1.34163   1.34692   66.937
 5302.00    1.35341   1.36408   66.031
 5303.00    1.36456   1.38367   65.874
 5304.00    1.37544   1.40269   66.385
 5305.00    1.38605   1.41800   67.092
 5306.00    1.39588   1.42839   67.496
 5307.00    1.40478   1.43496   67.627
 5308.00    1.41251   1.43977   67.796
 5309.00    1.41730   1.44330   67.648
 5310.00    1.41708   1.44440   66.768
 5311.00    1.41237   1.44244   66.212
 5312.00    1.40583   1.43784   67.246
 5313.00    1.40005   1.43128   68.873
 5314.00    1.39598   1.42384   -2.000
 5315.00    1.39111   1.41608   -2.000
 5316.00    1.38330   1.40844   -2.000
 5317.00    1.37635   1.40239   -2.000
 5318.00    1.37576   1.39817   -2.000
 5319.00    1.38225   1.39355   -2.000
 5320.00    1.39066   1.38675   -2.000
 5321.00    1.39033   1.37681   -2.000
 5322.00    1.37432   1.36268   -2.000
 5323.00    1.34780   1.34381   -2.000
 5324.00    1.32004   1.32176   -2.000
 5325.00    1.29657   1.30012   -2.000
 5326.00    1.27971   1.28029   -2.000
 5327.00    1.26970   1.26269   -2.000
 5328.00    1.26628   1.25268   64.043
 5329.00    1.26964   1.25802   63.338
 5330.00    1.27967   1.27757   63.269
 5331.00    1.29525   1.30293   64.109
 5332.00    1.31323   1.32771   65.142
 5333.00    1.32862   1.34962   64.792
 5334.00    1.33834   1.36751   63.017
 5335.00    1.34273   1.37865   61.700
 5336.00    1.34345   1.38155   61.783
 5337.00    1.34226   1.37802   62.768
 5338.00    1.33961   1.37092   64.018
 5339.00    1.33527   1.36181   65.149
 5340.00    1.33203   1.35337   65.749
 5341.00    1.33462   1.35024   65.526
 5342.00    1.34249   1.35337   65.018
 5343.00    1.35011   1.35875   65.168
 5344.00    1.35386   1.36321   65.846
 5345.00    1.35372   1.36570   66.192
 5346.00    1.35242   1.36722   66.462
 5347.00    1.35378   1.36941   67.548
 5348.00    1.35947   1.37234   68.844
 5349.00    1.36890   1.37773   69.008
 5350.00    1.38021   1.38830   68.762
 5351.00    1.39191   1.40340   69.578
 5352.00    1.40509   1.41989   70.550
 5353.00    1.42076   1.43586   69.925
 5354.00    1.43551   1.45112   68.502
 5355.00    1.44505   1.46422   67.879
 5356.00    1.44955   1.47289   67.835
 5357.00    1.45113   1.47654   67.583
 5358.00    1.45008   1.47530   67.404
 5359.00    1.44562   1.46927   67.734
 5360.00    1.43729   1.45877   68.117
 5361.00    1.42586   1.44470   68.078
 5362.00    1.41378   1.42904   68.006
 5363.00    1.40271   1.41377   68.279
 5364.00    1.39167   1.39893   68.529
 5365.00    1.37955   1.38430   68.234
 5366.00    1.36690   1.37057   67.311
 5367.00    1.35445   1.35742   66.507
 5368.00    1.34236   1.34493   67.172
 5369.00    1.33218   1.33404   68.971
 5370.00    1.32738   1.32699   69.014
 5371.00    1.32971   1.32805   66.690
 5372.00    1.33781   1.34006   65.117
 5373.00    1.34994   1.36031   65.527
 5374.00    1.36504   1.38228   66.276
 5375.00    1.38142   1.40151   66.183
 5376.00    1.39645   1.41552   65.661
 5377.00    1.40723   1.42380   65.134
 5378.00    1.41141   1.42749   64.583
 5379.00    1.40900   1.42708   64.117
 5380.00    1.40240   1.42341   63.966
 5381.00    1.39466   1.41878   63.976
 5382.00    1.38867   1.41487   63.776
 5383.00    1.38629   1.41215   63.544
 5384.00    1.38793   1.41126   63.740
 5385.00    1.39211   1.41112   64.123
 5386.00    1.39603   1.40920   64.170
 5387.00    1.39693   1.40451   64.409
 5388.00    1.39299   1.39701   65.668
 5389.00    1.38446   1.38688   67.208
 5390.00    1.37335   1.37538   67.581
 5391.00    1.36248   1.36401   67.055
 5392.00    1.35422   1.35322   66.859
 5393.00    1.34874   1.34323   67.416
 5394.00    1.34436   1.33460   68.375
 5395.00    1.33838   1.32769   68.924
 5396.00    1.32996   1.32207   68.809
 5397.00    1.32273   1.31950   69.318
 5398.00    1.32051   1.32269   71.109
 5399.00    1.32271   1.32846   72.043
 5400.00    1.32576   1.33145   70.718
 5401.00    1.32508   1.33040   69.762
 5402.00    1.31837   1.32516   70.998
 5403.00    1.30774   1.31455   72.494
 5404.00    1.29640   1.30045   72.547
 5405.00    1.28635   1.28824   72.660
 5406.00    1.27971   1.28278   73.706
 5407.00    1.27913   1.28529   73.911
 5408.00    1.28502   1.29280   72.870
 5409.00    1.29472   1.30266   72.980
 5410.00    1.30663   1.31581   74.596
 5411.00    1.32146   1.33357   74.691
 5412.00    1.33883   1.35314   72.331
 5413.00    1.35625   1.37066   70.099
 5414.00    1.37127   1.38473   69.093
 5415.00    1.38262   1.39618   68.399
 5416.00    1.39056   1.40570   67.714
 5417.00    1.39652   1.41194   67.573
 5418.00    1.40129   1.41367   67.712
 5419.00    1.40452   1.41172   67.167
 5420.00    1.40493   1.40787   65.897
 5421.00    1.40130   1.40406   64.699
 5422.00    1.39466   1.40086   64.019
 5423.00    1.38800   1.39678   -2.000
 5424.00    1.38444   1.39223   -2.000
 5425.00    1.38579   1.38956   -2.000
 5426.00    1.39055   1.38755   -2.000
 5427.00    1.39353   1.38264   -2.000
 5428.00    1.38619   1.37237   -2.000
 5429.00    1.36505   1.35836   -2.000
 5430.00    1.34331   1.34692   -2.000
 5431.00    1.33661   1.34069   -2.000
 5432.00    1.34300   1.33628   -2.000
 5433.00    1.36017   1.33367   -2.000
 5434.00    1.40594   1.33588   -2.000
 5435.00    1.47947   1.34475   -2.000
 5436.00    1.52443   1.36025   -2.000
 5437.00    1.50091   1.38028   -2.000
 5438.00    1.44978   1.40165   -2.000
 5439.00    1.42301   1.42016   -2.000
 5440.00    1.42305   1.43254   -2.000
 5441.00    1.43102   1.43716   -2.000
 5442.00    1.43236   1.43377   -2.000
 5443.00    1.42243   1.42316   -2.000
 5444.00    1.40739   1.40686   -2.000
 5445.00    1.39362   1.38802   -2.000
 5446.00    1.38208   1.37130   72.563
 5447.00    1.37298   1.36216   71.321
 5448.00    1.36786   1.36248   70.744
 5449.00    1.36688   1.36738   72.156
 5450.00    1.36794   1.37157   73.369
 5451.00    1.36840   1.37271   73.039
 5452.00    1.36649   1.37032   72.264
 5453.00    1.36334   1.36493   71.882
 5454.00    1.36246   1.35783   71.736
 5455.00    1.36528   1.35201   71.612
 5456.00    1.37060   1.35217   71.451
 5457.00    1.37712   1.35889   71.117
 5458.00    1.38382   1.36718   70.551
 5459.00    1.38891   1.37286   70.311
 5460.00    1.39085   1.37491   70.933
 5461.00    1.39100   1.37420   71.280
 5462.00    1.39217   1.37189   69.761
 5463.00    1.39446   1.37009   67.657
 5464.00    1.39592   1.37160   67.016
 5465.00    1.39513   1.37546   67.027
 5466.00    1.39183   1.37888   65.965
 5467.00    1.38687   1.38167   64.792
 5468.00    1.38177   1.38330   65.011
 5469.00    1.37793   1.38159   65.522
 5470.00    1.37528   1.37605   64.871
 5471.00    1.37098   1.36823   64.509
 5472.00    1.36266   1.35851   65.773
 5473.00    1.35211   1.34680   66.512
 5474.00    1.34311   1.33553   65.034
 5475.00    1.33874   1.32586   64.276
 5476.00    1.34000   1.31748   65.700
 5477.00    1.34499   1.31421   65.144
 5478.00    1.35060   1.31868   62.619
 5479.00    1.35418   1.32667   67.021
 5480.00    1.35537   1.33363   76.685
 5481.00    1.35684   1.34006   63.238
 5482.00    1.36057   1.34857   50.360
 5483.00    1.36569   1.35876   92.617
 5484.00    1.37020   1.36852   -1.000
 5485.00    1.37223   1.37599   32.638
 5486.00    1.37134   1.37945    9.888
 5487.00    1.36899   1.37971    6.705
 5488.00    1.36731   1.38011    6.790
 5489.00    1.36811   1.38187    7.679
 5490.00    1.37089   1.38343    7.719
 5491.00    1.37328   1.38488    6.830
 5492.00    1.37499   1.38610    6.602
 5493.00    1.37788   1.38607    9.304
 5494.00    1.38207   1.38579   28.003
 5495.00    1.38587   1.38590 ********
 5496.00    1.38908   1.38473  116.367
 5497.00    1.39243   1.38213   52.608
 5498.00    1.39418   1.38080   63.763
 5499.00    1.39118   1.38039   83.285
 5500.00    1.38286   1.37741   75.929
 5501.00    1.37132   1.37176   68.651
 5502.00    1.35967   1.36650   69.358
 5503.00    1.35073   1.36299   71.364
 5504.00    1.34559   1.36034   71.790
 5505.00    1.34368   1.35737   71.584
 5506.00    1.34349   1.35411   71.257
 5507.00    1.34356   1.35284   70.648
 5508.00    1.34359   1.35350   69.615
 5509.00    1.34391   1.35280   68.094
 5510.00    1.34470   1.35006   66.112
 5511.00    1.34636   1.34638   64.358
 5512.00    1.35000   1.34326   64.425
 5513.00    1.35610   1.34356   66.579
 5514.00    1.36350   1.34859   67.707
 5515.00    1.37086   1.35762   65.847
 5516.00    1.37800   1.36929   64.307
 5517.00    1.38553   1.38230   65.200
 5518.00    1.39415   1.39528   66.187
 5519.00    1.40284   1.40560   65.289
 5520.00    1.40815   1.41145   64.126
 5521.00    1.40789   1.41285   64.130
 5522.00    1.40288   1.41030   64.777
 5523.00    1.39500   1.40434   65.340
 5524.00    1.38585   1.39560   65.771
 5525.00    1.37591   1.38499   66.362
 5526.00    1.36496   1.37424   67.442
 5527.00    1.35524   1.36512   68.893
 5528.00    1.35119   1.35986   70.071
 5529.00    1.35385   1.36083   70.569
 5530.00    1.36024   1.36641   70.467
 5531.00    1.36804   1.37231   69.866
 5532.00    1.37634   1.37680   68.971
 5533.00    1.38310   1.38033   68.776
 5534.00    1.38578   1.38317   70.294
 5535.00    1.38472   1.38599   72.099
 5536.00    1.38301   1.39027   71.342
 5537.00    1.38403   1.39529   69.005
 5538.00    1.38940   1.40008   68.042
 5539.00    1.39605   1.40513   68.294
 5540.00    1.39922   1.40979   67.920
 5541.00    1.39892   1.41259   66.924
 5542.00    1.39771   1.41290   66.288
 5543.00    1.39548   1.41189   65.765
 5544.00    1.39099   1.41192   65.009
 5545.00    1.38506   1.41362   65.316
 5546.00    1.38082   1.41644   67.577
 5547.00    1.38294   1.42078   69.373
 5548.00    1.39397   1.42605   68.023
 5549.00    1.41045   1.43002   65.543
 5550.00    1.42572   1.43164   64.464
 5551.00    1.43348   1.43083   64.311
 5552.00    1.43093   1.42759   63.954
 5553.00    1.42084   1.42260   63.460
 5554.00    1.40890   1.41744   63.246
 5555.00    1.40094   1.41365   63.345
 5556.00    1.39979   1.41110   63.530
 5557.00    1.40348   1.40856   63.492
 5558.00    1.40749   1.40600   63.320
 5559.00    1.40710   1.40346   63.608
 5560.00    1.40202   1.40003   64.405
 5561.00    1.39733   1.39531   64.832
 5562.00    1.39541   1.38941   64.459
 5563.00    1.39319   1.38329   63.940
 5564.00    1.38793   1.37829   64.309
 5565.00    1.37991   1.37391   66.350
 5566.00    1.37232   1.37001   68.959
 5567.00    1.36958   1.36767   69.233
 5568.00    1.37191   1.36666   67.771
 5569.00    1.37518   1.36615   68.291
 5570.00    1.37615   1.36721   70.910
 5571.00    1.37440   1.36982   72.145
 5572.00    1.37268   1.37159   71.382
 5573.00    1.37483   1.37416   71.179
 5574.00    1.38065   1.37983   71.768
 5575.00    1.38633   1.38566   71.637
 5576.00    1.38832   1.39008   71.461
 5577.00    1.38523   1.39446   72.849
 5578.00    1.37959   1.39763   74.401
 5579.00    1.37553   1.39870   73.722
 5580.00    1.37418   1.39762   72.909
 5581.00    1.37384   1.39275   74.823
 5582.00    1.37145   1.38413   76.798
 5583.00    1.36411   1.37322   74.857
 5584.00    1.35079   1.35972   72.073
 5585.00    1.33288   1.34385   72.227
 5586.00    1.31454   1.32735   73.496
 5587.00    1.30020   1.31322   72.982
 5588.00    1.29201   1.30458   72.009
 5589.00    1.29012   1.30259   72.323
 5590.00    1.29339   1.30675   72.490
 5591.00    1.30012   1.31481   71.078
 5592.00    1.30865   1.32378   69.349
 5593.00    1.31714   1.33230   68.722
 5594.00    1.32365   1.33979   69.179
 5595.00    1.32754   1.34662   69.690
 5596.00    1.33005   1.35136   68.760
 5597.00    1.33177   1.35054   66.679
 5598.00    1.33162   1.34533   65.779
 5599.00    1.32936   1.34079   66.852
 5600.00    1.32674   1.33872   68.238
 5601.00    1.32587   1.33903   68.480
 5602.00    1.32842   1.34334   67.752
 5603.00    1.33569   1.35342   67.005
 5604.00    1.34830   1.36923   67.103
 5605.00    1.36529   1.38726   67.730
 5606.00    1.38400   1.40375   67.702
 5607.00    1.40105   1.41679   67.440
 5608.00    1.41321   1.42523   68.574
 5609.00    1.41881   1.42845   70.442
 5610.00    1.41759   1.42651   70.533
 5611.00    1.40928   1.42020   69.506
 5612.00    1.39425   1.41009   70.162
 5613.00    1.37610   1.39654   72.193
 5614.00    1.36016   1.38011   73.054
 5615.00    1.34943   1.36449   72.691
 5616.00    1.34423   1.35627   72.823
 5617.00    1.34317   1.35590   73.233
 5618.00    1.34464   1.35790   72.570
 5619.00    1.34871   1.35984   70.765
 5620.00    1.35538   1.36234   68.751
 5621.00    1.36179   1.36519   67.423
 5622.00    1.36448   1.36674   67.212
 5623.00    1.36279   1.36540   67.800
 5624.00    1.35854   1.36246   68.543
 5625.00    1.35508   1.36276   68.947
 5626.00    1.35597   1.36842   68.751
 5627.00    1.36357   1.37671   67.988
 5628.00    1.37704   1.38558   67.104
 5629.00    1.39134   1.39461   66.861
 5630.00    1.40174   1.40210   67.140
 5631.00    1.40724   1.40636   66.363
 5632.00    1.40783   1.40683   64.323
 5633.00    1.40287   1.40374   63.303
 5634.00    1.39424   1.39804   64.235
 5635.00    1.38721   1.39090   65.283
 5636.00    1.38382   1.38325   64.934
 5637.00    1.38042   1.37630   63.828
 5638.00    1.37465   1.37155   62.946
 5639.00    1.36834   1.36923   62.637
 5640.00    1.36422   1.36788   62.722
 5641.00    1.36403   1.36738   62.695
 5642.00    1.36684   1.36935   62.360
 5643.00    1.36968   1.37327   62.045
 5644.00    1.37165   1.37761   62.441
 5645.00    1.37439   1.38219   64.158
 5646.00    1.37883   1.38682   66.346
 5647.00    1.38460   1.39118   67.043
 5648.00    1.39124   1.39452   66.714
 5649.00    1.39815   1.39623   67.618
 5650.00    1.40365   1.39701   69.454
 5651.00    1.40550   1.39716   69.959
 5652.00    1.40274   1.39505   69.296
 5653.00    1.39577   1.38926   69.526
 5654.00    1.38592   1.38007   71.415
 5655.00    1.37483   1.36977   74.130
 5656.00    1.36369   1.35999   75.334
 5657.00    1.35358   1.34914   73.455
 5658.00    1.34618   1.33830   71.110
 5659.00    1.34313   1.33370   71.005
 5660.00    1.34507   1.33627   71.787
 5661.00    1.35103   1.34047   71.118
 5662.00    1.35807   1.34450   69.757
 5663.00    1.36368   1.35069   69.333
 5664.00    1.36812   1.35917   69.784
 5665.00    1.37301   1.36710   70.211
 5666.00    1.37950   1.37245   69.828
 5667.00    1.38709   1.37584   68.580
 5668.00    1.39312   1.37978   67.350
 5669.00    1.39610   1.38535   66.817
 5670.00    1.39802   1.39193   66.831
 5671.00    1.40206   1.39916   66.923
 5672.00    1.41054   1.40722   66.630
 5673.00    1.42280   1.41498   65.673
 5674.00    1.43467   1.42047   64.143
 5675.00    1.44215   1.42327   62.900
 5676.00    1.44351   1.42442   63.238
 5677.00    1.43956   1.42354   65.073
 5678.00    1.43317   1.41948   66.481
 5679.00    1.42645   1.41325   66.293
 5680.00    1.41988   1.40642   65.382
 5681.00    1.41329   1.39873   65.272
 5682.00    1.40655   1.38997   67.044
 5683.00    1.40046   1.38263   69.548
 5684.00    1.39631   1.37842   69.808
 5685.00    1.39376   1.37640   68.335
 5686.00    1.39130   1.37522   68.377
 5687.00    1.38890   1.37547   69.981
 5688.00    1.38813   1.37878   70.549
 5689.00    1.39063   1.38550   69.538
 5690.00    1.39734   1.39405   68.599
 5691.00    1.40789   1.40233   68.918
 5692.00    1.42044   1.40932   70.654
 5693.00    1.43186   1.41384   72.555
 5694.00    1.43889   1.41508   73.020
 5695.00    1.44011   1.41350   72.642
 5696.00    1.43623   1.40941   72.703
 5697.00    1.43005   1.40261   72.434
 5698.00    1.42404   1.39374   70.931
 5699.00    1.41751   1.38524   69.727
 5700.00    1.40862   1.37750   70.243
 5701.00    1.39694   1.36977   71.322
 5702.00    1.38367   1.36330   71.356
 5703.00    1.37118   1.35841   70.713
 5704.00    1.36123   1.35352   69.557
 5705.00    1.35359   1.34673   66.241
 5706.00    1.34770   1.33816   61.044
 5707.00    1.34393   1.33020   56.972
 5708.00    1.34210   1.32419   55.307
 5709.00    1.34075   1.32131   55.097
 5710.00    1.33991   1.32357   55.867
 5711.00    1.34236   1.33011   58.573
 5712.00    1.35049   1.34057   63.056
 5713.00    1.36449   1.35538   66.059
 5714.00    1.38238   1.37126   65.658
 5715.00    1.40063   1.38582   64.448
 5716.00    1.41608   1.39912   64.218
 5717.00    1.42718   1.41049   64.368
 5718.00    1.43522   1.42005   64.547
 5719.00    1.44348   1.42850   65.262
 5720.00    1.45305   1.43514   66.445
 5721.00    1.46229   1.43975   67.314
 5722.00    1.46991   1.44255   67.826
 5723.00    1.47539   1.44323   68.637
 5724.00    1.47749   1.44184   69.396
 5725.00    1.47475   1.43855   69.132
 5726.00    1.46750   1.43335   68.568
 5727.00    1.45768   1.42784   69.303
 5728.00    1.44746   1.42487   71.086
 5729.00    1.43860   1.42425   72.367
 5730.00    1.43200   1.42360   72.793
 5731.00    1.42811   1.42267   72.874
 5732.00    1.42758   1.42387   72.158
 5733.00    1.43045   1.42762   -2.000
 5734.00    1.43461   1.43139   -2.000
 5735.00    1.43731   1.43364   -2.000
 5736.00    1.43730   1.43441   -2.000
 5737.00    1.43512   1.43445   -2.000
 5738.00    1.43294   1.43430   -2.000
 5739.00    1.43216   1.43387   -2.000
 5740.00    1.43122   1.43341   -2.000
 5741.00    1.42929   1.43303   -2.000
 5742.00    1.42928   1.43239   -2.000
 5743.00    1.43182   1.43179   -2.000
 5744.00    1.43095   1.43214   -2.000
 5745.00    1.42254   1.43291   -2.000
 5746.00    1.41045   1.43217   -2.000
 5747.00    1.40302   1.42855   -2.000
 5748.00    1.40912   1.42355   -2.000
 5749.00    1.43012   1.41996   -2.000
 5750.00    1.45690   1.41743   -2.000
 5751.00    1.47890   1.41382   -2.000
 5752.00    1.48934   1.40898    0.000
 5753.00    1.48589   1.40516    0.000
 5754.00    1.47086   1.40479    0.000
 5755.00    1.45045   1.40826    0.000
 5756.00    1.43254   1.41279    0.000
 5757.00    1.42001   1.41549    0.000
 5758.00    1.41025   1.41607    0.000
 5759.00    1.40195   1.41489    0.000
 5760.00    1.39647   1.41249    0.000
 5761.00    1.39523   1.40984    0.000
 5762.00    1.39848   1.40844    0.000
 5763.00    1.40457   1.41054    0.000
 5764.00    1.41091   1.41703    0.000
 5765.00    1.41672   1.42490    0.000
 5766.00    1.42267   1.43160    0.000
 5767.00    1.42889   1.43686    0.000
 5768.00    1.43460   1.44038    0.000
 5769.00    1.43824   1.44158    0.000
 5770.00    1.43831   1.44053    0.000
 5771.00    1.43471   1.43782    0.000
 5772.00    1.42886   1.43434    0.000
 5773.00    1.42358   1.43110    0.000
 5774.00    1.42122   1.42754    0.000
 5775.00    1.42142   1.42311    0.000
 5776.00    1.42170   1.41783    0.000
 5777.00    1.41869   1.41091    0.000
 5778.00    1.41004   1.40181    0.000
 5779.00    1.39629   1.39024    0.000
 5780.00    1.37999   1.37647    0.000
 5781.00    1.36462   1.36343    0.000
 5782.00    1.35373   1.35500    0.000
 5783.00    1.34993   1.35151    0.000
 5784.00    1.35287   1.35095    0.000
 5785.00    1.35849   1.35302    0.000
 5786.00    1.36290   1.35967    0.000
 5787.00    1.36493   1.37010    0.000
 5788.00    1.36623   1.38072    0.000
 5789.00    1.37045   1.39013    0.000
 5790.00    1.37894   1.39767    0.000
 5791.00    1.38925   1.40415    0.000
 5792.00    1.39788   1.41091    0.000
 5793.00    1.40227   1.41697    0.000
 5794.00    1.40298   1.42214    0.000
 5795.00    1.40364   1.42678    0.000
 5796.00    1.40761   1.43017    0.000
 5797.00    1.41628   1.43245    0.000
 5798.00    1.42759   1.43546    0.000
 5799.00    1.43731   1.44036    0.000
 5800.00    1.44356   1.44509    0.000
 5801.00    1.44718   1.44767    0.000
 5802.00    1.44955   1.44828    0.000
 5803.00    1.45175   1.44684    0.000
 5804.00    1.45406   1.44374    0.000
 5805.00    1.45601   1.44082    0.000
 5806.00    1.45674   1.43915    0.000
 5807.00    1.45541   1.43871    0.000
 5808.00    1.45191   1.43900    0.000
 5809.00    1.44718   1.43969    0.000
 5810.00    1.44336   1.44067    0.000
 5811.00    1.44160   1.44107    0.000
 5812.00    1.43927   1.44044    0.000
 5813.00    1.43379   1.43926    0.000
 5814.00    1.42733   1.43772    0.000
 5815.00    1.42373   1.43616    0.000
 5816.00    1.42469   1.43597    0.000
 5817.00    1.42910   1.43870    0.000
 5818.00    1.43326   1.44377    0.000
 5819.00    1.43466   1.44889    0.000
 5820.00    1.43477   1.45324    0.000
 5821.00    1.43551   1.45689    0.000
 5822.00    1.43656   1.45956    0.000
 5823.00    1.43739   1.46124    0.000
 5824.00    1.43857   1.46245    0.000
 5825.00    1.44128   1.46354    0.000
 5826.00    1.44662   1.46411    0.000
 5827.00    1.45397   1.46432    0.000
 5828.00    1.46075   1.46455    0.000
 5829.00    1.46511   1.46465    0.000
 5830.00    1.46691   1.46402    0.000
 5831.00    1.46627   1.46256    0.000
 5832.00    1.46314   1.46087    0.000
 5833.00    1.45806   1.45886    0.000
 5834.00    1.45221   1.45647    0.000
 5835.00    1.44633   1.45490    0.000
 5836.00    1.44095   1.45511    0.000
 5837.00    1.43787   1.45592    0.000
 5838.00    1.43928   1.45658    0.000
 5839.00    1.44460   1.45820    0.000
 5840.00    1.45082   1.46090    0.000
 5841.00    1.45513   1.46301    0.000
 5842.00    1.45613   1.46315    0.000
 5843.00    1.45479   1.46140    0.000
 5844.00    1.45292   1.45811    0.000
 5845.00    1.45006   1.45343    0.000
 5846.00    1.44517   1.44731    0.000
 5847.00    1.43987   1.44008    0.000
 5848.00    1.43641   1.43278    0.000
 5849.00    1.43403   1.42598    0.000
 5850.00    1.43019   1.41929    0.000
 5851.00    1.42294   1.41168    0.000
 5852.00    1.41165   1.40237    0.000
 5853.00    1.39739   1.39286    0.000
 5854.00    1.38206   1.38590    0.000
 5855.00    1.36743   1.38125    0.000
 5856.00    1.35621   1.37658    0.000
 5857.00    1.35259   1.37192    0.000
 5858.00    1.35874   1.37091    0.000
 5859.00    1.37221   1.37502    0.000
 5860.00    1.38759   1.38117    0.000
 5861.00    1.39855   1.38657    0.000
 5862.00    1.40209   1.39066    0.000
 5863.00    1.40058   1.39548    0.000
 5864.00    1.39789   1.40144    0.000
 5865.00    1.39701   1.40630    0.000
 5866.00    1.39987   1.40916    0.000
 5867.00    1.40712   1.41200    0.000
 5868.00    1.41774   1.41657    0.000
 5869.00    1.42933   1.42154    0.000
 5870.00    1.43991   1.42515    0.000
 5871.00    1.44867   1.42692    0.000
 5872.00    1.45565   1.42713    0.000
 5873.00    1.46124   1.42629    0.000
 5874.00    1.46458   1.42449    0.000
 5875.00    1.46379   1.42116    0.000
 5876.00    1.45773   1.41629    0.000
 5877.00    1.44629   1.41094    0.000
 5878.00    1.42989   1.40544    0.000
 5879.00    1.40949   1.39935    0.000
 5880.00    1.38689   1.39283    0.000
 5881.00    1.36483   1.38685    0.000
 5882.00    1.34701   1.38018    0.000
 5883.00    1.33525   1.36913    0.000
 5884.00    1.32494   1.35138    0.000
 5885.00    1.30956   1.32796    0.000
 5886.00    1.28837   1.30118    0.000
 5887.00    1.26501   1.27126    0.000
 5888.00    1.24384   1.23735    0.000
 5889.00    1.22760   1.20171    0.000
 5890.00    1.21546   1.17313    0.000
 5891.00    1.20620   1.15987    0.000
 5892.00    1.20163   1.15800    0.000
 5893.00    1.20400   1.16056    0.000
 5894.00    1.21324   1.16560    0.000
 5895.00    1.22805   1.17261    0.000
 5896.00    1.24698   1.18654    0.000
 5897.00    1.26821   1.21189    0.000
 5898.00    1.28948   1.24158    0.000
 5899.00    1.30879   1.26881    0.000
 5900.00    1.32505   1.29463    0.000
 5901.00    1.33870   1.32006   70.875
 5902.00    1.35166   1.34259   69.597
 5903.00    1.36483   1.35967   70.804
 5904.00    1.37713   1.37126   71.424
 5905.00    1.38734   1.37881   70.077
 5906.00    1.39491   1.38414   69.008
 5907.00    1.40001   1.38848   69.074
 5908.00    1.40309   1.39134   68.868
 5909.00    1.40372   1.39172   68.053
 5910.00    1.40086   1.39049   67.805
 5911.00    1.39544   1.38892   68.351
 5912.00    1.39034   1.38641   68.778
 5913.00    1.38809   1.38208   68.686
 5914.00    1.38966   1.37750   68.456
 5915.00    1.39336   1.37561   68.490
 5916.00    1.39614   1.37635   68.943
 5917.00    1.39695   1.37876   69.596
 5918.00    1.39678   1.38209   70.049
 5919.00    1.39706   1.38613   70.264
 5920.00    1.39917   1.39077   70.551
 5921.00    1.40415   1.39450   71.316
 5922.00    1.41161   1.39690   72.627
 5923.00    1.41841   1.39888   73.565
 5924.00    1.42067   1.40014   73.231
 5925.00    1.41708   1.40013   72.473
 5926.00    1.40935   1.39930   72.547
 5927.00    1.40195   1.39793   73.322
 5928.00    1.39882   1.39598   73.985
 5929.00    1.39986   1.39332   74.067
 5930.00    1.40313   1.39109   73.650
 5931.00    1.40742   1.39144   73.299
 5932.00    1.41125   1.39326   72.997
 5933.00    1.41199   1.39408   71.578
 5934.00    1.40820   1.39413   69.359
 5935.00    1.40141   1.39545   69.082
 5936.00    1.39495   1.39828   71.247
 5937.00    1.39264   1.40025   71.746
 5938.00    1.39593   1.40093   68.880
 5939.00    1.40261   1.40142   66.978
 5940.00    1.40948   1.40121   68.004
 5941.00    1.41414   1.40035   69.363
 5942.00    1.41604   1.40031   69.095
 5943.00    1.41652   1.40093   68.329
 5944.00    1.41714   1.40107   67.965
 5945.00    1.41854   1.40096   67.596
 5946.00    1.41918   1.40070   67.235
 5947.00    1.41623   1.39896   67.620
 5948.00    1.41023   1.39507   68.995
 5949.00    1.40494   1.39141   70.767
 5950.00    1.40214   1.39023   71.753
 5951.00    1.40071   1.38941   71.058
 5952.00    1.39879   1.38663   70.116
 5953.00    1.39499   1.38437   71.110
 5954.00    1.38963   1.38562   72.716
 5955.00    1.38447   1.38820   71.697
 5956.00    1.38121   1.38958   69.623
 5957.00    1.38095   1.39140   70.004
 5958.00    1.38372   1.39569   71.620
 5959.00    1.38863   1.40147   71.035
 5960.00    1.39437   1.40693   69.339
 5961.00    1.39965   1.41132   69.364
 5962.00    1.40362   1.41493   70.405
 5963.00    1.40622   1.41783   70.329
 5964.00    1.40843   1.41983   69.336
 5965.00    1.41136   1.42074   68.707
 5966.00    1.41514   1.42159   68.687
 5967.00    1.41944   1.42362   68.879
 5968.00    1.42408   1.42586   68.841
 5969.00    1.42852   1.42744   68.400
 5970.00    1.43139   1.42823   67.858
 5971.00    1.43165   1.42771   67.557
 5972.00    1.42943   1.42534   67.554
 5973.00    1.42509   1.42135   67.825
 5974.00    1.41863   1.41615   68.405
 5975.00    1.41059   1.41007   69.298
 5976.00    1.40250   1.40426   70.382
 5977.00    1.39526   1.39992   71.347
 5978.00    1.38866   1.39700   71.763
 5979.00    1.38303   1.39489   71.674
 5980.00    1.37987   1.39340   71.711
 5981.00    1.37976   1.39205   72.065
 5982.00    1.38166   1.39016   72.225
 5983.00    1.38406   1.38715   71.907
 5984.00    1.38579   1.38453   71.354
 5985.00    1.38760   1.38500   70.826
 5986.00    1.39157   1.38777   70.490
 5987.00    1.39778   1.39047   70.662
 5988.00    1.40405   1.39392   71.486
 5989.00    1.40851   1.39918   71.730
 5990.00    1.41038   1.40448   69.862
 5991.00    1.41002   1.40777   67.668
 5992.00    1.40849   1.41009   68.015
 5993.00    1.40651   1.41259   69.956
 5994.00    1.40458   1.41385   70.138
 5995.00    1.40362   1.41289   68.573
 5996.00    1.40424   1.41043   67.507
 5997.00    1.40513   1.40726   66.912
 5998.00    1.40437   1.40409   65.905
 5999.00    1.40184   1.40157   65.569
 6000.00    1.39823   1.39972   66.995
 6001.00    1.39325   1.39761   68.209
 6002.00    1.38665   1.39413   67.117
 6003.00    1.37985   1.39030   66.241
 6004.00    1.37464   1.38797   68.106
 6005.00    1.37159   1.38623   70.437
 6006.00    1.37053   1.38380   70.300
 6007.00    1.37132   1.38085   69.860
 6008.00    1.37354   1.37872   71.350
 6009.00    1.37631   1.37977   72.513
 6010.00    1.37852   1.38292   71.305
 6011.00    1.37922   1.38448   69.993
 6012.00    1.37869   1.38354   70.360
 6013.00    1.37868   1.38251   71.142
 6014.00    1.37982   1.38310   71.486
 6015.00    1.38039   1.38300   72.728
 6016.00    1.37929   1.38025   74.733
 6017.00    1.37742   1.37760   74.381
 6018.00    1.37618   1.37711   71.462
 6019.00    1.37650   1.37653   69.822
 6020.00    1.37832   1.37536   70.509
 6021.00    1.38081   1.37621   70.995
 6022.00    1.38391   1.37952   69.985
 6023.00    1.38858   1.38360   68.747
 6024.00    1.39534   1.38832   68.202
 6025.00    1.40358   1.39491   68.246
 6026.00    1.41124   1.40188   68.470
 6027.00    1.41589   1.40784   68.520
 6028.00    1.41771   1.41430   68.545
 6029.00    1.41893   1.42091   68.947
 6030.00    1.42037   1.42597   69.484
 6031.00    1.42138   1.42965   69.691
 6032.00    1.42176   1.43332   70.301
 6033.00    1.42196   1.43655   72.193
 6034.00    1.42282   1.43823   73.603
 6035.00    1.42476   1.43865   72.015
 6036.00    1.42671   1.43865   69.204
 6037.00    1.42682   1.43834   68.265
 6038.00    1.42401   1.43752   69.555
 6039.00    1.41877   1.43645   71.823
 6040.00    1.41391   1.43591   73.505
 6041.00    1.41298   1.43631   73.595
 6042.00    1.41815   1.43742   72.742
 6043.00    1.42880   1.43969   71.909
 6044.00    1.44074   1.44243   70.957
 6045.00    1.44974   1.44478   69.866
 6046.00    1.45484   1.44689   69.662
 6047.00    1.45635   1.44861   70.578
 6048.00    1.45400   1.44897   70.798
 6049.00    1.44792   1.44784   69.497
 6050.00    1.43948   1.44620   68.747
 6051.00    1.43171   1.44363   69.605
 6052.00    1.42871   1.43955   70.271
 6053.00    1.43082   1.43497   69.410
 6054.00    1.43300   1.43126   68.070
 6055.00    1.43151   1.42831   67.376
 6056.00    1.42692   1.42569   67.479
 6057.00    1.42117   1.42426   68.067
 6058.00    1.41583   1.42396   68.694
 6059.00    1.41146   1.42383   69.363
 6060.00    1.40775   1.42257   70.483
 6061.00    1.40509   1.42007   71.612
 6062.00    1.40454   1.41745   71.631
 6063.00    1.40587   1.41566   71.296
 6064.00    1.40795   1.41432   72.637
 6065.00    1.41172   1.41378   74.877
 6066.00    1.41960   1.41735   74.825
 6067.00    1.43170   1.42512   72.729
 6068.00    1.44548   1.43322   71.545
 6069.00    1.45723   1.44015   71.820
 6070.00    1.46366   1.44664   72.177
 6071.00    1.46429   1.45222   71.669
 6072.00    1.46071   1.45519   70.308
 6073.00    1.45437   1.45487   68.921
 6074.00    1.44645   1.45180   68.289
 6075.00    1.43833   1.44710   68.167
 6076.00    1.43114   1.44111   67.814
 6077.00    1.42500   1.43354   66.880
 6078.00    1.41951   1.42486   65.686
 6079.00    1.41441   1.41774   65.247
 6080.00    1.40974   1.41300   66.240
 6081.00    1.40584   1.40823   68.021
 6082.00    1.40277   1.40386   69.452
 6083.00    1.39984   1.40252   70.059
 6084.00    1.39671   1.40314   70.024
 6085.00    1.39431   1.40267   69.868
 6086.00    1.39364   1.40194   69.971
 6087.00    1.39473   1.40270   70.282
 6088.00    1.39697   1.40374   70.646
 6089.00    1.39934   1.40304   71.037
 6090.00    1.40105   1.40211   71.453
 6091.00    1.40177   1.40351   71.820
 6092.00    1.40142   1.40602   71.958
 6093.00    1.39999   1.40793   71.658
 6094.00    1.39810   1.41066   71.146
 6095.00    1.39695   1.41451   71.000
 6096.00    1.39751   1.41652   70.924
 6097.00    1.39998   1.41506   69.898
 6098.00    1.40328   1.41108   68.723
 6099.00    1.40538   1.40635   69.534
 6100.00    1.40500   1.40165   71.694
 6101.00    1.40189   1.39531   71.827
 6102.00    1.39580   1.38700   70.038
 6103.00    1.38688   1.38250   69.535
 6104.00    1.37759   1.38568   70.094
 6105.00    1.37188   1.39159   69.084
 6106.00    1.37207   1.39620   67.470
 6107.00    1.37796   1.40072   68.216
 6108.00    1.38688   1.40708   70.945
 6109.00    1.39481   1.41455   72.825
 6110.00    1.39842   1.41989   73.069
 6111.00    1.39604   1.42177   72.857
 6112.00    1.38838   1.42285   72.399
 6113.00    1.37793   1.42493   -1.000
 6114.00    1.36775   1.42586   -1.000
 6115.00    1.36028   1.42322   -1.000
 6116.00    1.35591   1.41772   -1.000
 6117.00    1.35354   1.41164   -1.000
 6118.00    1.35145   1.40490   -1.000
 6119.00    1.34813   1.39693   -1.000
 6120.00    1.34308   1.38920   -1.000
 6121.00    1.33740   1.38238   -1.000
 6122.00    1.33410   1.37738   -1.000
 6123.00    1.33582   1.37762   73.865
 6124.00    1.34288   1.38181   73.649
 6125.00    1.35257   1.38550   73.400
 6126.00    1.35961   1.38922   72.189
 6127.00    1.36138   1.39442   70.356
 6128.00    1.36085   1.39915   69.894
 6129.00    1.36204   1.40202   71.186
 6130.00    1.36693   1.40316   71.918
 6131.00    1.37359   1.40105   71.130
 6132.00    1.37669   1.39425   70.647
 6133.00    1.37397   1.38442   -2.000
 6134.00    1.36798   1.37414   -2.000
 6135.00    1.36056   1.36378   -2.000
 6136.00    1.35132   1.35253   -2.000
 6137.00    1.34066   1.34362   -2.000
 6138.00    1.33069   1.34382   -2.000
 6139.00    1.32427   1.35232   -2.000
 6140.00    1.32387   1.36141   -2.000
 6141.00    1.32938   1.36860   -2.000
 6142.00    1.33827   1.37840   -2.000
 6143.00    1.34776   1.39122   -2.000
 6144.00    1.35588   1.40081   -2.000
 6145.00    1.36267   1.40475   -1.000
 6146.00    1.36931   1.40628   70.358
 6147.00    1.37585   1.40716   72.471
 6148.00    1.38117   1.40616   73.759
 6149.00    1.38376   1.40347   73.228
 6150.00    1.38275   1.40030   72.313
 6151.00    1.37945   1.39793   72.381
 6152.00    1.37549   1.39645   73.742
 6153.00    1.37020   1.39424   74.804
 6154.00    1.36231   1.38943   73.849
 6155.00    1.35252   1.38322   71.858
 6156.00    1.34253   1.37575   70.640
 6157.00    1.33348   1.36394   70.718
 6158.00    1.32496   1.34836   71.755
 6159.00    1.31446   1.33294   72.925
 6160.00    1.30082   1.31775   73.390
 6161.00    1.28704   1.30133   72.903
 6162.00    1.27690   1.28825   71.963
 6163.00    1.27217   1.28367   71.596
 6164.00    1.27315   1.28473   72.113
 6165.00    1.27914   1.28614   72.530
 6166.00    1.28870   1.28899   72.052
 6167.00    1.29965   1.29635   71.048
 6168.00    1.30836   1.30369   70.388
 6169.00    1.31051   1.30647   70.892
 6170.00    1.30678   1.31027   72.709
 6171.00    1.30383   1.31930   75.054
 6172.00    1.30637   1.32803   76.671
 6173.00    1.31410   1.33334   76.530
 6174.00    1.32418   1.34010   75.343
 6175.00    1.33317   1.34876   75.054
 6176.00    1.33998   1.35515   75.943
 6177.00    1.34591   1.35989   76.522
 6178.00    1.35154   1.36573   76.023
 6179.00    1.35616   1.37066   74.956
 6180.00    1.35888   1.37316   74.000
 6181.00    1.35926   1.37540   73.474
 6182.00    1.35769   1.37672   72.942
 6183.00    1.35523   1.37481   71.793
 6184.00    1.35287   1.37055   70.522
 6185.00    1.35108   1.36524   70.024
 6186.00    1.34933   1.35728   70.106
 6187.00    1.34638   1.34687   70.129
 6188.00    1.34096   1.33791   70.435
 6189.00    1.33297   1.33249   71.567
 6190.00    1.32504   1.32788   72.734
 6191.00    1.32012   1.32348   72.711
 6192.00    1.31826   1.32487   71.674
 6193.00    1.31838   1.33281   70.735
 6194.00    1.32082   1.34030   70.908
 6195.00    1.32553   1.34491   72.053
 6196.00    1.33015   1.35016   71.897
 6197.00    1.33276   1.35651   68.928
 6198.00    1.33443   1.36027   65.024
 6199.00    1.33725   1.36063   62.205
 6200.00    1.34227   1.36135   60.914
 6201.00    1.34894   1.36500   61.216
 6202.00    1.35519   1.36965   63.382
 6203.00    1.35961   1.37313   67.146
 6204.00    1.36282   1.37607   70.882
 6205.00    1.36594   1.37927   72.946
 6206.00    1.36947   1.38129   73.338
 6207.00    1.37283   1.38058   72.812
 6208.00    1.37433   1.37715   71.981
 6209.00    1.37230   1.37100   71.377
 6210.00    1.36585   1.36232   71.428
 6211.00    1.35580   1.35227   72.066
 6212.00    1.34428   1.34169   72.726
 6213.00    1.33187   1.33073   73.068
 6214.00    1.31768   1.32101   73.186
 6215.00    1.30308   1.31361   73.228
 6216.00    1.29181   1.30902   73.267
 6217.00    1.28684   1.30779   73.302
 6218.00    1.28895   1.30848   73.281
 6219.00    1.29568   1.30899   73.130
 6220.00    1.30259   1.31055   72.873
 6221.00    1.30682   1.31450   72.858
 6222.00    1.30768   1.31877   73.427
 6223.00    1.30620   1.32102   74.192
 6224.00    1.30426   1.32180   74.578
 6225.00    1.30334   1.32193   75.145
 6226.00    1.30389   1.31988   76.700
 6227.00    1.30485   1.31565   78.386
 6228.00    1.30450   1.31125   78.822
 6229.00    1.30173   1.30647   78.595
 6230.00    1.29712   1.30182   78.720
 6231.00    1.29375   1.30078   78.268
 6232.00    1.29461   1.30406   76.371
 6233.00    1.29952   1.30850   74.450
 6234.00    1.30623   1.31365   73.744
 6235.00    1.31193   1.31891   73.417
 6236.00    1.31452   1.32174   72.474
 6237.00    1.31349   1.32176   71.340
 6238.00    1.30941   1.31935   70.733
 6239.00    1.30336   1.31393   70.816
 6240.00    1.29605   1.30742   71.464
 6241.00    1.28761   1.30281   72.450
 6242.00    1.27917   1.29850   73.395
 6243.00    1.27353   1.29432   73.849
 6244.00    1.27246   1.29411   73.919
 6245.00    1.27536   1.29702   74.400
 6246.00    1.28050   1.29959   75.544
 6247.00    1.28578   1.30255   76.672
 6248.00    1.28955   1.30586   77.456
 6249.00    1.29108   1.30686   78.283
 6250.00    1.29100   1.30501   78.927
 6251.00    1.29069   1.30088   78.500
 6252.00    1.28962   1.29381   77.412
 6253.00    1.28554   1.28578   77.115
 6254.00    1.27789   1.27898   77.593
 6255.00    1.26874   1.27413   77.597
 6256.00    1.26196   1.27111   77.206
 6257.00    1.26164   1.27033   77.301
 6258.00    1.26852   1.27314   76.643
 6259.00    1.28006   1.28079   73.655
 6260.00    1.29253   1.29079   70.998
 6261.00    1.30256   1.29933   71.690
 6262.00    1.30941   1.30856   73.027
 6263.00    1.31402   1.31937   70.611
 6264.00    1.31685   1.32693   67.842
 6265.00    1.31813   1.32995   69.480
 6266.00    1.31888   1.33341   73.468
 6267.00    1.32026   1.33784   74.544
 6268.00    1.32262   1.33989   73.174
 6269.00    1.32542   1.34040   72.755
 6270.00    1.32740   1.34218   73.545
 6271.00    1.32765   1.34500   74.379
 6272.00    1.32663   1.34733   74.896
 6273.00    1.32574   1.34872   75.271
 6274.00    1.32659   1.34922   75.698
 6275.00    1.32982   1.34910   76.516
 6276.00    1.33430   1.34790   78.250
 6277.00    1.33767   1.34574   80.457
 6278.00    1.33731   1.34353   80.974
 6279.00    1.33297   1.34156   79.173
 6280.00    1.32805   1.33993    0.000
 6281.00    1.32599   1.34010    0.000
 6282.00    1.32805   1.34289    0.000
 6283.00    1.33321   1.34733    0.000
 6284.00    1.33882   1.35248    0.000
 6285.00    1.34346   1.35765    0.000
 6286.00    1.34778   1.36285    0.000
 6287.00    1.35207   1.36735    0.000
 6288.00    1.35560   1.37012    0.000
 6289.00    1.35781   1.37060    0.000
 6290.00    1.35875   1.36912    0.000
 6291.00    1.35891   1.36623    0.000
 6292.00    1.35914   1.36189    0.000
 6293.00    1.36068   1.35637    0.000
 6294.00    1.36458   1.35118    0.000
 6295.00    1.37031   1.34631    0.000
 6296.00    1.37636   1.34030    0.000
 6297.00    1.38253   1.33410    0.000
 6298.00    1.38943   1.33029    0.000
 6299.00    1.39639   1.32905    0.000
 6300.00    1.40139   1.32822    0.000
 6301.00    1.40174   1.32745    0.000
 6302.00    1.39552   1.32943    0.000
 6303.00    1.38368   1.33544    0.000
 6304.00    1.36913   1.34239    0.000
 6305.00    1.35477   1.34775    0.000
 6306.00    1.34292   1.35296    0.000
 6307.00    1.33476   1.35877    0.000
 6308.00    1.33000   1.36256    0.000
 6309.00    1.32668   1.36307    0.000
 6310.00    1.32337   1.36071    0.000
 6311.00    1.32097   1.35629    0.000
 6312.00    1.32001   1.35166    0.000
 6313.00    1.31826   1.34691    0.000
 6314.00    1.31316   1.33973    0.000
 6315.00    1.30406   1.33263    0.000
 6316.00    1.29350   1.33026    0.000
 6317.00    1.28715   1.32965    0.000
 6318.00    1.28898   1.32770    0.000
 6319.00    1.29833   1.32940    0.000
 6320.00    1.31154   1.33637    0.000
 6321.00    1.32351   1.34329   75.275
 6322.00    1.33083   1.34878   74.184
 6323.00    1.33295   1.35572   74.677
 6324.00    1.33122   1.36383   77.188
 6325.00    1.32816   1.37002   -1.000
 6326.00    1.32681   1.37372   -1.000
 6327.00    1.32993   1.37611   -1.000
 6328.00    1.33823   1.37847   -1.000
 6329.00    1.35005   1.37980   76.065
 6330.00    1.36228   1.37810   72.725
 6331.00    1.37116   1.37441   70.593
 6332.00    1.37363   1.37079   70.219
 6333.00    1.36844   1.36731   70.524
 6334.00    1.35800   1.36220   70.914
 6335.00    1.34697   1.35558   71.358
 6336.00    1.33852   1.35140   71.548
 6337.00    1.33342   1.35136   71.116
 6338.00    1.33009   1.35200   70.400
 6339.00    1.32666   1.35157   70.043
 6340.00    1.32432   1.35279   70.183
 6341.00    1.32507   1.35580   70.598
 6342.00    1.32763   1.35741   71.090
 6343.00    1.32898   1.35704   71.713
 6344.00    1.32730   1.35735   72.969
 6345.00    1.32293   1.36010   75.012
 6346.00    1.31877   1.36304   -1.000
 6347.00    1.31760   1.36522   -1.000
 6348.00    1.31931   1.36839   -1.000
 6349.00    1.32246   1.37189   -1.000
 6350.00    1.32612   1.37286   -1.000
 6351.00    1.33018   1.37137   -1.000
 6352.00    1.33532   1.36909   78.451
 6353.00    1.34076   1.36491   77.169
 6354.00    1.34309   1.35713   76.040
 6355.00    1.33984   1.34817   76.222
 6356.00    1.33185   1.34116   76.225
 6357.00    1.32230   1.33391   74.857
 6358.00    1.31543   1.32456   72.862
 6359.00    1.31305   1.31729   71.500
 6360.00    1.31329   1.31456   71.586
 6361.00    1.31348   1.31324   72.530
 6362.00    1.31214   1.31269   72.382
 6363.00    1.31115   1.31606   70.697
 6364.00    1.31505   1.32340   69.030
 6365.00    1.32491   1.33174   68.145
 6366.00    1.33729   1.34003   67.767
 6367.00    1.34807   1.34932   68.220
 6368.00    1.35461   1.35929   70.262
 6369.00    1.35784   1.36769   72.961
 6370.00    1.36094   1.37396   73.946
 6371.00    1.36447   1.37950   73.472
 6372.00    1.36641   1.38488   73.850
 6373.00    1.36544   1.38856   74.949
 6374.00    1.36190   1.38954   74.977
 6375.00    1.35825   1.38921   74.321
 6376.00    1.35748   1.38867   74.605
 6377.00    1.36015   1.38690   75.592
 6378.00    1.36463   1.38369   76.010
 6379.00    1.36837   1.38102   75.816
 6380.00    1.36936   1.37932   75.488
 6381.00    1.36770   1.37797   74.467
 6382.00    1.36501   1.37804   72.307
 6383.00    1.36305   1.37918   70.075
 6384.00    1.36244   1.37976   68.764
 6385.00    1.36142   1.38035   68.020
 6386.00    1.35835   1.38159   67.561
 6387.00    1.35419   1.38189   68.310
 6388.00    1.35155   1.37990   70.438
 6389.00    1.35325   1.37629   71.548
 6390.00    1.35902   1.37262   70.013
 6391.00    1.36372   1.36941   67.965
 6392.00    1.36305   1.36515   67.456
 6393.00    1.35746   1.36024   68.477
 6394.00    1.34945   1.35860   70.175
 6395.00    1.34148   1.35938   71.532
 6396.00    1.33471   1.35849   72.349
 6397.00    1.32874   1.35830   73.570
 6398.00    1.32415   1.36083   75.082
 6399.00    1.32309   1.36177   75.120
 6400.00    1.32634   1.36131   73.811
 6401.00    1.33229   1.36559   73.592
 6402.00    1.33810   1.37181   74.794
 6403.00    1.34101   1.37441   75.162
 6404.00    1.34110   1.37570   73.939
 6405.00    1.34109   1.37836   72.538
 6406.00    1.34283   1.37956   71.445
 6407.00    1.34616   1.37653   70.202
 6408.00    1.34882   1.37262   69.427
 6409.00    1.34808   1.37193   70.266
 6410.00    1.34456   1.37118   72.177
 6411.00    1.34116   1.36780   73.259
 6412.00    1.33866   1.36665   72.795
 6413.00    1.33622   1.36862   71.675
 6414.00    1.33418   1.36914   71.311
 6415.00    1.33376   1.36834   72.485
 6416.00    1.33553   1.36822   73.901
 6417.00    1.33880   1.36747   73.858
 6418.00    1.34124   1.36644   73.661
 6419.00    1.34109   1.36638   75.289
 6420.00    1.34017   1.36641   77.717
 6421.00    1.34134   1.36748   78.470
 6422.00    1.34513   1.37203   76.977
 6423.00    1.35042   1.37828   74.670
 6424.00    1.35567   1.38261   73.635
 6425.00    1.36005   1.38563   74.422
 6426.00    1.36414   1.38793   74.726
 6427.00    1.36833   1.38799   73.011
 6428.00    1.37140   1.38600   71.413
 6429.00    1.37141   1.38296   71.677
 6430.00    1.36673   1.37865   72.909
 6431.00    1.35781   1.37503   73.363
 6432.00    1.34788   1.37467   72.007
 6433.00    1.33980   1.37565   69.799
 6434.00    1.33442   1.37575   69.146
 6435.00    1.33163   1.37591   -1.000
 6436.00    1.33108   1.37787   -1.000
 6437.00    1.33225   1.38045   -1.000
 6438.00    1.33453   1.38105   -1.000
 6439.00    1.33777   1.38219   -1.000
 6440.00    1.34231   1.38765   -1.000
 6441.00    1.34865   1.39406   -1.000
 6442.00    1.35677   1.39780   -1.000
 6443.00    1.36457   1.40073   73.380
 6444.00    1.36857   1.40271   75.095
 6445.00    1.36749   1.40050   77.213
 6446.00    1.36252   1.39422   78.038
 6447.00    1.35526   1.38715   77.245
 6448.00    1.34707   1.37946   76.003
 6449.00    1.33886   1.36979   75.446
 6450.00    1.33146   1.36247   75.982
 6451.00    1.32648   1.36128   76.626
 6452.00    1.32530   1.36232   76.048
 6453.00    1.32718   1.36443   74.889
 6454.00    1.33036   1.36900   74.246
 6455.00    1.33438   1.37350   73.017
 6456.00    1.33923   1.37715   70.347
 6457.00    1.34358   1.38132   68.734
 6458.00    1.34612   1.38322   70.348
 6459.00    1.34735   1.38193   73.378
 6460.00    1.34889   1.38116   74.487
 6461.00    1.35228   1.38013   73.473
 6462.00    1.35721   1.37616   72.130
 6463.00    1.36031   1.37447   71.664
 6464.00    1.35918   1.37772   72.346
 6465.00    1.35585   1.38060   73.508
 6466.00    1.35359   1.38262   74.364
 6467.00    1.35409   1.38604   74.763
 6468.00    1.35661   1.38896   74.993
 6469.00    1.35811   1.38993   75.356
 6470.00    1.35750   1.39008   74.851
 6471.00    1.35759   1.38875   71.733
 6472.00    1.36129   1.38727   69.858
 6473.00    1.36917   1.38762   77.151
 6474.00    1.37897   1.38700   83.850
 6475.00    1.38624   1.38482   62.862
 6476.00    1.38826   1.38422   53.418
 6477.00    1.38542   1.38407  137.155
 6478.00    1.37958   1.38092   -1.000
 6479.00    1.37322   1.37699   25.140
 6480.00    1.36887   1.37446    8.952
 6481.00    1.36825   1.37102    6.631
 6482.00    1.37027   1.36683    6.967
 6483.00    1.37174   1.36528    7.586
 6484.00    1.37082   1.36598    7.427
 6485.00    1.36770   1.36610    7.152
 6486.00    1.36377   1.36494    7.238
 6487.00    1.36065   1.36266    7.591
 6488.00    1.35868   1.35826    7.527
 6489.00    1.35650   1.34975    6.810
 6490.00    1.35073   1.33635    7.028
 6491.00    1.33820   1.32034   11.404
 6492.00    1.31952   1.30417   48.782
 6493.00    1.29829   1.28740   -2.000
 6494.00    1.27879   1.27131   88.008
 6495.00    1.26477   1.26103   55.120
 6496.00    1.25819   1.25780   72.592
 6497.00    1.25933   1.26030   85.032
 6498.00    1.26714   1.26836   74.924
 6499.00    1.27919   1.28030   71.703
 6500.00    1.29184   1.29561   74.115
 6501.00    1.30245   1.31238   73.627
 6502.00    1.31119   1.32785   71.819
 6503.00    1.31944   1.34147   72.373
 6504.00    1.32821   1.35285   73.741
 6505.00    1.33753   1.36163   73.824
 6506.00    1.34633   1.36814   73.700
 6507.00    1.35377   1.37240   74.463
 6508.00    1.36006   1.37426   75.197
 6509.00    1.36538   1.37513   75.209
 6510.00    1.36949   1.37574   75.209
 6511.00    1.37255   1.37479   75.334
 6512.00    1.37540   1.37222   74.562
 6513.00    1.37866   1.36977   73.169
 6514.00    1.38217   1.36701   72.933
 6515.00    1.38486   1.36314   73.992
 6516.00    1.38509   1.36021   74.493
 6517.00    1.38226   1.35947   73.983
 6518.00    1.37736   1.35922   73.908
 6519.00    1.37257   1.35997   74.466
 6520.00    1.37038   1.36323   74.368
 6521.00    1.37158   1.36710   73.172
 6522.00    1.37511   1.36976   71.717
 6523.00    1.37914   1.37163   71.221
 6524.00    1.38170   1.37349   72.390
 6525.00    1.38135   1.37461   73.867
 6526.00    1.37777   1.37380   73.428
 6527.00    1.37255   1.37238   72.026
 6528.00    1.36807   1.37196    0.000
 6529.00    1.36528   1.37163    0.000
 6530.00    1.36346   1.37088    0.000
 6531.00    1.36066   1.37066    0.000
 6532.00    1.35582   1.37115    0.000
 6533.00    1.35149   1.37190    0.000
 6534.00    1.35172   1.37332    0.000
 6535.00    1.35884   1.37562    0.000
 6536.00    1.37186   1.37775    0.000
 6537.00    1.38547   1.37882    0.000
 6538.00    1.39463   1.37918    0.000
 6539.00    1.39912   1.37877    0.000
 6540.00    1.40243   1.37679    0.000
 6541.00    1.41007   1.37269    0.000
 6542.00    1.42747   1.36670    0.000
 6543.00    1.45832   1.36004    0.000
 6544.00    1.50368   1.35392    0.000
 6545.00    1.56096   1.34751    0.000
 6546.00    1.62124   1.34070    0.000
 6547.00    1.66911   1.33608    0.000
 6548.00    1.69147   1.33302    0.000
 6549.00    1.68267   1.32919    0.000
 6550.00    1.64516   1.32448    0.000
 6551.00    1.58885   1.31901    0.000
 6552.00    1.52727   1.31234    0.000
 6553.00    1.47472   1.30413    0.000
 6554.00    1.44142   1.29336    0.000
 6555.00    1.43436   1.27899    0.000
 6556.00    1.46612   1.26225    0.000
 6557.00    1.55532   1.24410    0.000
 6558.00    1.71789   1.22101    0.000
 6559.00    1.95655   1.19338    0.000
 6560.00    2.24022   1.17001    0.000
 6561.00    2.50878   1.15247    0.000
 6562.00    2.69849   1.13489    0.000
 6563.00    2.76056   1.12742    0.000
 6564.00    2.68628   1.14015    0.000
 6565.00    2.50369   1.15965    0.000
 6566.00    2.26014   1.17897    0.000
 6567.00    2.00739   1.20456    0.000
 6568.00    1.78248   1.23094    0.000
 6569.00    1.60585   1.24991    0.000
 6570.00    1.48373   1.26481    0.000
 6571.00    1.41067   1.27779    0.000
 6572.00    1.37300   1.28639    0.000
 6573.00    1.35654   1.29257    0.000
 6574.00    1.35534   1.29901    0.000
 6575.00    1.37041   1.30567    0.000
 6576.00    1.40734   1.31295    0.000
 6577.00    1.47431   1.32012    0.000
 6578.00    1.57971   1.32647    0.000
 6579.00    1.72615   1.33231    0.000
 6580.00    1.90520   1.33688    0.000
 6581.00    2.09557   1.34000    0.000
 6582.00    2.26365   1.34307    0.000
 6583.00    2.37414   1.34583    0.000
 6584.00    2.39956   1.34782    0.000
 6585.00    2.33323   1.34907    0.000
 6586.00    2.19471   1.34911    0.000
 6587.00    2.01755   1.34884    0.000
 6588.00    1.83913   1.34745    0.000
 6589.00    1.68479   1.34308    0.000
 6590.00    1.56256   1.33783    0.000
 6591.00    1.47189   1.33337    0.000
 6592.00    1.40859   1.32791    0.000
 6593.00    1.36845   1.32249    0.000
 6594.00    1.34777   1.32149    0.000
 6595.00    1.34099   1.32380    0.000
 6596.00    1.34132   1.32653    0.000
 6597.00    1.34469   1.33079    0.000
 6598.00    1.35004   1.33631    0.000
 6599.00    1.35658   1.34149    0.000
 6600.00    1.36277   1.34608    0.000
 6601.00    1.36552   1.34904    0.000
 6602.00    1.36202   1.34977    0.000
 6603.00    1.35371   1.34916    0.000
 6604.00    1.34479   1.34711    0.000
 6605.00    1.33817   1.34361    0.000
 6606.00    1.33469   1.34035    0.000
 6607.00    1.33321   1.33858    0.000
 6608.00    1.33256   1.33764    0.000
 6609.00    1.33411   1.33738   70.742
 6610.00    1.33971   1.33978   70.684
 6611.00    1.34876   1.34456   71.111
 6612.00    1.35897   1.34914   71.089
 6613.00    1.36779   1.35302   70.876
 6614.00    1.37378   1.35745   71.088
 6615.00    1.37755   1.36230   71.731
 6616.00    1.37978   1.36548   72.613
 6617.00    1.37956   1.36696   73.754
 6618.00    1.37621   1.36803   74.874
 6619.00    1.37068   1.36835   75.056
 6620.00    1.36470   1.36692   74.080
 6621.00    1.35994   1.36409   73.119
 6622.00    1.35682   1.36102   72.993
 6623.00    1.35409   1.35764   73.392
 6624.00    1.35022   1.35330   73.900
 6625.00    1.34441   1.34937   74.397
 6626.00    1.33780   1.34696   74.204
 6627.00    1.33329   1.34426   72.249
 6628.00    1.33249   1.34124   69.488
 6629.00    1.33455   1.33872   68.376
 6630.00    1.33721   1.33585   69.389
 6631.00    1.33788   1.33310   70.865
 6632.00    1.33584   1.33121   71.458
 6633.00    1.33235   1.32950   71.157
 6634.00    1.32864   1.32898   70.960
 6635.00    1.32538   1.33072   72.010
 6636.00    1.32336   1.33279   73.946
 6637.00    1.32336   1.33477   75.249
 6638.00    1.32557   1.33746   75.837
 6639.00    1.32949   1.33890   76.753
 6640.00    1.33395   1.33861   77.481
 6641.00    1.33733   1.33918   76.873
 6642.00    1.33788   1.33953   76.214
 6643.00    1.33521   1.33752   77.216
 6644.00    1.33252   1.33656   78.061
 6645.00    1.33336   1.33816   76.110
 6646.00    1.33654   1.33908   73.348
 6647.00    1.33861   1.33914   72.600
 6648.00    1.33823   1.34043   73.146
 6649.00    1.33599   1.34218   72.702
 6650.00    1.33343   1.34268   70.184
 6651.00    1.33184   1.34258   66.542
 6652.00    1.33129   1.34278   64.139
 6653.00    1.33104   1.34252   64.020
 6654.00    1.33024   1.34169   64.699
 6655.00    1.32861   1.34092   64.694
 6656.00    1.32683   1.33931   64.647
 6657.00    1.32552   1.33693   65.617
 6658.00    1.32442   1.33458   67.713
 6659.00    1.32309   1.33112   70.193
 6660.00    1.32136   1.32648   71.682
 6661.00    1.31885   1.32289   72.126
 6662.00    1.31493   1.31986   73.536
 6663.00    1.30991   1.31620   76.140
 6664.00    1.30526   1.31496   76.877
 6665.00    1.30184   1.31655   75.126
 6666.00    1.29953   1.31838   74.280
 6667.00    1.29889   1.32116   75.110
 6668.00    1.30143   1.32543   74.853
 6669.00    1.30762   1.32985   72.644
 6670.00    1.31634   1.33327   70.512
 6671.00    1.32568   1.33522   69.723
 6672.00    1.33343   1.33579   70.145
 6673.00    1.33780   1.33466   70.676
 6674.00    1.33777   1.33091   70.115
 6675.00    1.33375   1.32618   69.420
 6676.00    1.32745   1.32229   70.446
 6677.00    1.32127   1.31736   72.178
 6678.00    1.31722   1.31261   71.990
 6679.00    1.31496   1.31239   70.914
 6680.00    1.31296   1.31439   71.751
 6681.00    1.31110   1.31574   74.086
 6682.00    1.31069   1.31903   75.430
 6683.00    1.31343   1.32392   74.978
 6684.00    1.31914   1.32767   73.593
 6685.00    1.32303   1.33041   72.034
 6686.00    1.32031   1.33305   70.007
 6687.00    1.31234   1.33481   66.035
 6688.00    1.30352   1.33530   61.956
 6689.00    1.29705   1.33537   64.435
 6690.00    1.29566   1.33500   72.956
 6691.00    1.30233   1.33375   62.862
 6692.00    1.31690   1.33164   47.495
 6693.00    1.33357   1.32926   65.141
 6694.00    1.34691   1.32713   -1.000
 6695.00    1.35645   1.32469   38.295
 6696.00    1.36378   1.32230    0.000
 6697.00    1.37020   1.32154    0.000
 6698.00    1.37647   1.32158    0.000
 6699.00    1.38232   1.32165    0.000
 6700.00    1.38437   1.32250    0.000
 6701.00    1.37689   1.32341    0.000
 6702.00    1.36070   1.32392    0.000
 6703.00    1.34537   1.32413    0.000
 6704.00    1.33804   1.32391    0.000
 6705.00    1.33841   1.32392    0.000
 6706.00    1.33877   1.32393    0.000
 6707.00    1.32981   1.32301    0.000
 6708.00    1.31977   1.32186    0.000
 6709.00    1.33027   1.32039    0.000
 6710.00    1.36346   1.31706    0.000
 6711.00    1.40220   1.31302    0.000
 6712.00    1.43891   1.30886    0.000
 6713.00    1.47857   1.30323    0.000
 6714.00    1.52616   1.29730    0.000
 6715.00    1.58018   1.29287    0.000
 6716.00    1.62624   1.28977    0.000
 6717.00    1.64524   1.28730    0.000
 6718.00    1.63143   1.28707    0.000
 6719.00    1.59294   1.28998    0.000
 6720.00    1.54605   1.29355    0.000
 6721.00    1.50417   1.29696    0.000
 6722.00    1.46377   1.30098    0.000
 6723.00    1.42191   1.30521    0.000
 6724.00    1.40048   1.30873    0.000
 6725.00    1.41764   1.31108    0.000
 6726.00    1.45285   1.31293    0.000
 6727.00    1.48254   1.31516    0.000
 6728.00    1.51901   1.31698    0.000
 6729.00    1.57238   1.31797    0.000
 6730.00    1.61490   1.31904    0.000
 6731.00    1.62035   1.31988    0.000
 6732.00    1.59708   1.31981    0.000
 6733.00    1.56249   1.31918    0.000
 6734.00    1.52276   1.31822    0.000
 6735.00    1.48021   1.31660    0.000
 6736.00    1.43871   1.31464    0.000
 6737.00    1.40073   1.31254    0.000
 6738.00    1.36659   1.31016    0.000
 6739.00    1.34047   1.30762    0.000
 6740.00    1.33014   1.30568    0.000
 6741.00    1.33053   1.30457    0.000
 6742.00    1.32355   1.30292    0.000
 6743.00    1.30929   1.30102    0.000
 6744.00    1.30857   1.30035    0.000
 6745.00    1.32321   1.29961    0.000
 6746.00    1.33186   1.29767    0.000
 6747.00    1.32559   1.29620    0.000
 6748.00    1.31337   1.29573    0.000
 6749.00    1.30285   1.29473    0.000
 6750.00    1.29609   1.29394    0.000
 6751.00    1.29356   1.29564    0.000
 6752.00    1.29491   1.29783    0.000
 6753.00    1.29829   1.29987   72.279
 6754.00    1.30136   1.30432   72.002
 6755.00    1.30355   1.30927   71.364
 6756.00    1.30558   1.31340   69.915
 6757.00    1.30754   1.31812   68.625
 6758.00    1.30958   1.32231   68.507
 6759.00    1.31343   1.32494   68.545
 6760.00    1.32033   1.32678   67.390
 6761.00    1.32791   1.32737   66.069
 6762.00    1.33166   1.32627   66.082
 6763.00    1.32756   1.32438   67.127
 6764.00    1.31576   1.32155   68.299
 6765.00    1.30362   1.31824   69.625
 6766.00    1.29812   1.31521   71.141
 6767.00    1.29846   1.31198   71.693
 6768.00    1.30127   1.30988   70.187
 6769.00    1.30582   1.31006   67.103
 6770.00    1.31166   1.31087   64.301
 6771.00    1.31673   1.31240   64.072
 6772.00    1.31929   1.31606   66.721
 6773.00    1.31929   1.32051   69.117
 6774.00    1.31760   1.32441   68.740
 6775.00    1.31555   1.32821   67.315
 6776.00    1.31603   1.33141   66.701
 6777.00    1.32285   1.33264   66.799
 6778.00    1.33467   1.33226   67.060
 6779.00    1.34414   1.33060   67.236
 6780.00    1.34749   1.32686   67.624
 6781.00    1.34692   1.32205   68.846
 6782.00    1.34255   1.31715   70.471
 6783.00    1.33159   1.31197   71.016
 6784.00    1.31646   1.30780   70.686
 6785.00    1.30469   1.30562   71.324
 6786.00    1.29933   1.30429   72.930
 6787.00    1.29792   1.30412   73.607
 6788.00    1.29787   1.30571   72.957
 6789.00    1.29844   1.30703   72.238
 6790.00    1.30174   1.30771   71.863
 6791.00    1.30996   1.30911   71.374
 6792.00    1.31920   1.31009   70.576
 6793.00    1.32279   1.30984   69.623
 6794.00    1.32014   1.31024   68.739
 6795.00    1.31483   1.31126   67.921
 6796.00    1.30871   1.31185   66.649
 6797.00    1.30253   1.31309   64.729
 6798.00    1.29828   1.31481   63.309
 6799.00    1.29806   1.31633   63.431
 6800.00    1.30198   1.31763   64.514
 6801.00    1.30780   1.31866   65.460
 6802.00    1.31110   1.31963   66.252
 6803.00    1.30864   1.31959   67.441
 6804.00    1.30171   1.31880   69.267
 6805.00    1.29322   1.31891   71.454
 6806.00    1.28481   1.31824   73.111
 6807.00    1.27763   1.31669   73.762
 6808.00    1.27320   1.31663   -1.000
 6809.00    1.27190   1.31636   -1.000
 6810.00    1.27228   1.31525   -1.000
 6811.00    1.27373   1.31518   72.919
 6812.00    1.27776   1.31529   72.238
 6813.00    1.28386   1.31532   72.784
 6814.00    1.28808   1.31560   71.917
 6815.00    1.28848   1.31592   69.211
 6816.00    1.28745   1.31697   67.665
 6817.00    1.28803   1.31830   68.221
 6818.00    1.29175   1.31944   68.932
 6819.00    1.29704   1.32093   68.810
 6820.00    1.29995   1.32242   68.924
 6821.00    1.29873   1.32384   69.733
 6822.00    1.29489   1.32528   70.511
 6823.00    1.29067   1.32622   70.934
 6824.00    1.28783   1.32642   71.399
 6825.00    1.28671   1.32610   72.174
 6826.00    1.28657   1.32573   73.083
 6827.00    1.28730   1.32498   73.437
 6828.00    1.28906   1.32387   72.556
 6829.00    1.29052   1.32340   70.985
 6830.00    1.28967   1.32359   69.829
 6831.00    1.28615   1.32384   69.252
 6832.00    1.28149   1.32375   68.840
 6833.00    1.27844   1.32321   -1.000
 6834.00    1.27904   1.32228   -1.000
 6835.00    1.28181   1.32015   67.864
 6836.00    1.28329   1.31647   66.922
 6837.00    1.28091   1.31217   66.316
 6838.00    1.27425   1.30747   66.885
 6839.00    1.26599   1.30268   68.299
 6840.00    1.25946   1.29900   69.681
 6841.00    1.25569   1.29678   70.565
 6842.00    1.25402   1.29634   71.166
 6843.00    1.25312   1.29785   -1.000
 6844.00    1.25199   1.30088   -1.000
 6845.00    1.25084   1.30486   -1.000
 6846.00    1.25073   1.30865   -1.000
 6847.00    1.25320   1.31199   -1.000
 6848.00    1.25971   1.31454   -1.000
 6849.00    1.27097   1.31546   -1.000
 6850.00    1.28510   1.31522   71.911
 6851.00    1.29712   1.31356   70.913
 6852.00    1.30281   1.31055   70.366
 6853.00    1.30090   1.30782   69.132
 6854.00    1.29291   1.30434   67.503
 6855.00    1.28255   1.30004   67.432
 6856.00    1.27398   1.29790   68.803
 6857.00    1.27038   1.29653   68.964
 6858.00    1.27170   1.29450   67.702
 6859.00    1.27506   1.29465   67.758
 6860.00    1.27936   1.29619   69.400
 6861.00    1.28558   1.29677   70.098
 6862.00    1.29265   1.29805   69.446
 6863.00    1.29768   1.30055   69.503
 6864.00    1.29985   1.30200   70.551
 6865.00    1.30056   1.30213   71.154
 6866.00    1.30081   1.30263   71.151
 6867.00    1.30107   1.30283   71.451
 6868.00    1.30208   1.30156   71.715
 6869.00    1.30449   1.30085   70.998
 6870.00    1.30770   1.30147   69.983
 6871.00    1.31010   1.30156   69.905
 6872.00    1.30995   1.30170   70.388
 6873.00    1.30666   1.30357   70.212
 6874.00    1.30245   1.30595   69.039
 6875.00    1.29968   1.30754   67.380
 6876.00    1.29716   1.30934   66.015
 6877.00    1.29326   1.31147   65.413
 6878.00    1.28983   1.31256   65.353
 6879.00    1.28929   1.31245   65.644
 6880.00    1.29113   1.31238   66.789
 6881.00    1.29287   1.31236   68.767
 6882.00    1.29176   1.31177   69.799
 6883.00    1.28767   1.31164   69.090
 6884.00    1.28479   1.31343   69.098
 6885.00    1.28662   1.31582   71.244
 6886.00    1.29237   1.31789   73.144
 6887.00    1.29946   1.32147   72.635
 6888.00    1.30544   1.32575   71.163
 6889.00    1.30855   1.32841   70.475
 6890.00    1.30819   1.33074   70.660
 6891.00    1.30630   1.33333   70.459
 6892.00    1.30701   1.33413   68.135
 6893.00    1.31181   1.33389   64.686
 6894.00    1.31791   1.33408   63.141
 6895.00    1.32091   1.33367   64.168
 6896.00    1.31714   1.33274   65.877
 6897.00    1.30759   1.33236   66.501
 6898.00    1.29779   1.33261   65.764
 6899.00    1.29251   1.33302   64.950
 6900.00    1.29362   1.33340   65.726
 6901.00    1.29935   1.33458   67.670
 6902.00    1.30555   1.33632   68.622
 6903.00    1.30954   1.33774   68.296
 6904.00    1.31078   1.33924   68.309
 6905.00    1.31010   1.34061   69.243
 6906.00    1.30891   1.34167   70.449
 6907.00    1.30816   1.34223   70.968
 6908.00    1.30817   1.34148   70.349
 6909.00    1.30881   1.34034   69.641
 6910.00    1.30915   1.33848   69.987
 6911.00    1.30692   1.33510   70.463
 6912.00    1.30137   1.33242   69.662
 6913.00    1.29689   1.32992   68.426
 6914.00    1.29797   1.32671   67.921
 6915.00    1.30245   1.32570   67.206
 6916.00    1.30612   1.32581   65.419
 6917.00    1.30875   1.32542   64.016
 6918.00    1.31185   1.32656   64.203
 6919.00    1.31569   1.32804   64.955
 6920.00    1.31895   1.32842   65.180
 6921.00    1.31894   1.32853   65.707
 6922.00    1.31456   1.32828   67.305
 6923.00    1.30820   1.32732   69.019
 6924.00    1.30242   1.32608   69.718
 6925.00    1.29767   1.32523   69.570
 6926.00    1.29347   1.32489   69.325
 6927.00    1.28938   1.32509   69.588
 6928.00    1.28566   1.32587   70.438
 6929.00    1.28327   1.32674   -1.000
 6930.00    1.28214   1.32749   -1.000
 6931.00    1.28106   1.32862   -1.000
 6932.00    1.28089   1.32969   -1.000
 6933.00    1.28478   1.32999   -1.000
 6934.00    1.29296   1.33102   64.397
 6935.00    1.30188   1.33259   63.719
 6936.00    1.30805   1.33330   64.471
 6937.00    1.30990   1.33425   64.842
 6938.00    1.30912   1.33522   64.300
 6939.00    1.30948   1.33510   63.875
 6940.00    1.31280   1.33465   64.090
 6941.00    1.31771   1.33362   64.748
 6942.00    1.31965   1.33147   65.656
 6943.00    1.31397   1.32994   66.780
 6944.00    1.30263   1.32861   68.180
 6945.00    1.29157   1.32660   69.804
 6946.00    1.28299   1.32640   -1.000
 6947.00    1.27625   1.32701   -1.000
 6948.00    1.27177   1.32635   -1.000
 6949.00    1.27075   1.32690   -1.000
 6950.00    1.27367   1.32789   -1.000
 6951.00    1.27959   1.32729   -1.000
 6952.00    1.28556   1.32764   69.438
 6953.00    1.28835   1.32895   68.340
 6954.00    1.28657   1.32959   67.357
 6955.00    1.28160   1.33120   -1.000
 6956.00    1.27786   1.33398   -1.000
 6957.00    1.27840   1.33641   -1.000
 6958.00    1.28128   1.33906   -1.000
 6959.00    1.28490   1.34191   -1.000
 6960.00    1.29176   1.34419   -1.000
 6961.00    1.30067   1.34635   64.087
 6962.00    1.30268   1.34801   65.335
 6963.00    1.29571   1.34905   -1.000
 6964.00    1.29162   1.35037   -1.000
 6965.00    1.29706   1.35112   -1.000
 6966.00    1.30439   1.35122   -1.000
 6967.00    1.30678   1.35173   -1.000
 6968.00    1.30525   1.35154   -1.000
 6969.00    1.30276   1.35033   -1.000
 6970.00    1.30097   1.34894   -1.000
 6971.00    1.29927   1.34602   -1.000
 6972.00    1.29531   1.34158   -1.000
 6973.00    1.28827   1.33694   -1.000
 6974.00    1.27952   1.33115   -1.000
 6975.00    1.27071   1.32405   -1.000
 6976.00    1.26286   1.31837   -1.000
 6977.00    1.25575   1.31489   -1.000
 6978.00    1.24929   1.31191   -1.000
 6979.00    1.24733   1.31174   -2.000
 6980.00    1.25439   1.31592   -2.000
 6981.00    1.26629   1.32091   -2.000
 6982.00    1.27424   1.32648   -2.000
 6983.00    1.27725   1.33365   -2.000
 6984.00    1.27980   1.33974   -2.000
 6985.00    1.28303   1.34392   -2.000
 6986.00    1.28584   1.34713   -2.000
 6987.00    1.28920   1.34916   -2.000
 6988.00    1.29516   1.34990   -2.000
 6989.00    1.30461   1.34997   -2.000
 6990.00    1.31705   1.35003   -2.000
 6991.00    1.33066   1.34996   -2.000
 6992.00    1.33969   1.34974   -2.000
 6993.00    1.33280   1.34938   -2.000
 6994.00    1.30638   1.34852   -2.000
 6995.00    1.27628   1.34738   -2.000
 6996.00    1.25814   1.34561   -2.000
 6997.00    1.25026   1.34313   -2.000
 6998.00    1.24607   1.34080   -2.000
 6999.00    1.24471   1.33831   -2.000
 7000.00    1.24564   1.33559   -2.000
 7001.00    1.24518   1.33361   -2.000
 7002.00    1.24238   1.33240   -2.000
 7003.00    1.24148   1.33137   -2.000
 7004.00    1.24397   1.33078   -2.000
 7005.00    1.24574   1.33113   -2.000
 7006.00    1.24547   1.33199   -2.000
 7007.00    1.24744   1.33272   -2.000
 7008.00    1.25438   1.33343   -2.000
 7009.00    1.26441   1.33416   -2.000
 7010.00    1.27205   1.33395   -2.000
 7011.00    1.27048   1.33282   -2.000
 7012.00    1.25729   1.33128   -2.000
 7013.00    1.23645   1.32870   -2.000
 7014.00    1.21752   1.32648   -2.000
 7015.00    1.21105   1.32538   -2.000
 7016.00    1.21685   1.32383   -2.000
 7017.00    1.22570   1.32396   -2.000
 7018.00    1.23116   1.32636   -2.000
 7019.00    1.23270   1.32782   -2.000
 7020.00    1.23558   1.32926   -2.000
 7021.00    1.24661   1.33160   -2.000
 7022.00    1.26601   1.33288   -2.000
 7023.00    1.28754   1.33333   -2.000
 7024.00    1.30179   1.33401   -2.000
 7025.00    1.30263   1.33520   -2.000
 7026.00    1.29572   1.33673   -2.000
 7027.00    1.29017   1.33846   -2.000
 7028.00    1.28621   1.34077   -2.000
 7029.00    1.28083   1.34317   -2.000
 7030.00    1.27625   1.34529   -2.000
 7031.00    1.27610   1.34691   -2.000
 7032.00    1.28029   1.34756   -2.000
 7033.00    1.28584   1.34845   -2.000
 7034.00    1.28851   1.34913   -2.000
 7035.00    1.28575   1.34861   -2.000
 7036.00    1.27897   1.34991   -2.000
 7037.00    1.27149   1.35272   -2.000
 7038.00    1.26684   1.35456   -2.000
 7039.00    1.26776   1.35851   -2.000
 7040.00    1.27534   1.36476   -2.000
 7041.00    1.28671   1.36947   -2.000
 7042.00    1.29490   1.37416   -2.000
 7043.00    1.29519   1.37975   -2.000
 7044.00    1.28806   1.38321   -2.000
 7045.00    1.27691   1.38487   -2.000
 7046.00    1.26645   1.38582   -2.000
 7047.00    1.26089   1.38466   -2.000
 7048.00    1.26267   1.38142   -2.000
 7049.00    1.27075   1.37622   -2.000
 7050.00    1.28079   1.36906   -2.000
 7051.00    1.28774   1.36090   -2.000
 7052.00    1.28748   1.35136   -2.000
 7053.00    1.27881   1.34147   -2.000
 7054.00    1.26451   1.33279   -2.000
 7055.00    1.25238   1.32475   -2.000
 7056.00    1.25025   1.31771   -2.000
 7057.00    1.25451   1.31230   -2.000
 7058.00    1.25468   1.30828   -2.000
 7059.00    1.24801   1.30491   -2.000
 7060.00    1.23795   1.30184   -2.000
 7061.00    1.22612   1.30022   -2.000
 7062.00    1.21297   1.29879   -2.000
 7063.00    1.20100   1.29663   -2.000
 7064.00    1.19337   1.29596   -2.000
 7065.00    1.19112   1.29533   -2.000
 7066.00    1.19333   1.29416   -2.000
 7067.00    1.19802   1.29509   -2.000
 7068.00    1.20438   1.29647   -2.000
 7069.00    1.21473   1.29808   -2.000
 7070.00    1.22896   1.30199   -2.000
 7071.00    1.23972   1.30617   -2.000
 7072.00    1.24167   1.30985   -2.000
 7073.00    1.23921   1.31424   -2.000
 7074.00    1.23760   1.31803   -2.000
 7075.00    1.23561   1.32043   -2.000
 7076.00    1.22788   1.32194   -2.000
 7077.00    1.20859   1.32234   -2.000
 7078.00    1.18180   1.32112   -2.000
 7079.00    1.16515   1.31803   -2.000
 7080.00    1.17364   1.31358   -2.000
 7081.00    1.20864   1.30721   -2.000
 7082.00    1.25032   1.29916   -2.000
 7083.00    1.26395   1.29094   -2.000
 7084.00    1.24275   1.28136   -2.000
 7085.00    1.21555   1.27176   -2.000
 7086.00    1.20179   1.26437   -2.000
 7087.00    1.19830   1.25663   -2.000
 7088.00    1.19775   1.25003   -2.000
 7089.00    1.19694   1.24638   -2.000
 7090.00    1.20091   1.24273   -2.000
 7091.00    1.21868   1.24050   -2.000
 7092.00    1.24854   1.24048   -2.000
 7093.00    1.27940   1.24056   -2.000
 7094.00    1.30396   1.24189   -2.000
 7095.00    1.32040   1.24433   -2.000
 7096.00    1.32894   1.24731   -2.000
 7097.00    1.32903   1.25058   -2.000
 7098.00    1.31593   1.25397   -2.000
 7099.00    1.28665   1.25793   -2.000
 7100.00    1.25055   1.26092   -2.000
 7101.00    1.22261   1.26352   -2.000
 7102.00    1.21037   1.26619   -2.000
 7103.00    1.21272   1.26753   -2.000
 7104.00    1.22146   1.26835   -2.000
 7105.00    1.22867   1.26913   -2.000
 7106.00    1.23463   1.26897   -2.000
 7107.00    1.24094   1.26810   -2.000
 7108.00    1.24290   1.26736   -2.000
 7109.00    1.23605   1.26679   -2.000
 7110.00    1.22286   1.26619   -2.000
 7111.00    1.20906   1.26588   -2.000
 7112.00    1.19973   1.26648   -2.000
 7113.00    1.19775   1.26794   -2.000
 7114.00    1.20286   1.26938   -2.000
 7115.00    1.21228   1.27088   -2.000
 7116.00    1.22179   1.27261   -2.000
 7117.00    1.22864   1.27371   -2.000
 7118.00    1.23268   1.27403   -2.000
 7119.00    1.23315   1.27333   -2.000
 7120.00    1.22805   1.27213   -2.000
 7121.00    1.21961   1.27051   -2.000
 7122.00    1.21437   1.26712   -2.000
 7123.00    1.21248   1.26368   -2.000
 7124.00    1.20681   1.26053   -2.000
 7125.00    1.19624   1.25587   -2.000
 7126.00    1.18695   1.25143   -2.000
 7127.00    1.18022   1.24760   -2.000
 7128.00    1.17218   1.24401   -2.000
 7129.00    1.16492   1.24175   -2.000
 7130.00    1.16564   1.24018   -2.000
 7131.00    1.17602   1.24022   -2.000
 7132.00    1.19129   1.24234   -2.000
 7133.00    1.20490   1.24460   -2.000
 7134.00    1.21182   1.24817   -2.000
 7135.00    1.21297   1.25240   -2.000
 7136.00    1.21286   1.25532   -2.000
 7137.00    1.21386   1.25880   -2.000
 7138.00    1.21499   1.26190   -2.000
 7139.00    1.21195   1.26288   -2.000
 7140.00    1.20249   1.26414   -2.000
 7141.00    1.19324   1.26535   -2.000
 7142.00    1.19094   1.26437   -2.000
 7143.00    1.19073   1.26365   -2.000
 7144.00    1.18635   1.26310   -2.000
 7145.00    1.18244   1.26067   -2.000
 7146.00    1.18492   1.25978   -2.000
 7147.00    1.19068   1.25991   -2.000
 7148.00    1.19430   1.25893   -2.000
 7149.00    1.19476   1.26086   -2.000
 7150.00    1.19380   1.26477   -2.000
 7151.00    1.19368   1.26783   -2.000
 7152.00    1.19431   1.27221   -2.000
 7153.00    1.19241   1.27760   -2.000
 7154.00    1.18868   1.28178   -2.000
 7155.00    1.19021   1.28444   -2.000
 7156.00    1.19771   1.28665   -2.000
 7157.00    1.20136   1.28771   -2.000
 7158.00    1.19696   1.28625   -2.000
 7159.00    1.19110   1.28392   -2.000
 7160.00    1.18755   1.28044   -2.000
 7161.00    1.18368   1.27575   -2.000
 7162.00    1.18133   1.27154   -2.000
 7163.00    1.18671   1.26738   -2.000
 7164.00    1.19519   1.26399   -2.000
 7165.00    1.19417   1.26237   -2.000
 7166.00    1.18818   1.26273   -2.000
 7167.00    1.19403   1.26464   -2.000
 7168.00    1.20651   1.26756   -2.000
 7169.00    1.20523   1.27130   -2.000
 7170.00    1.19352   1.27492   -2.000
 7171.00    1.19192   1.27805   -2.000
 7172.00    1.20359   1.28043   -2.000
 7173.00    1.21563   1.28116   -2.000
 7174.00    1.21667   1.28090   -2.000
 7175.00    1.20439   1.27992   -2.000
 7176.00    1.19169   1.27736   -2.000
 7177.00    1.19280   1.27463   -2.000
 7178.00    1.20164   1.27228   -2.000
 7179.00    1.20608   1.26938   -2.000
 7180.00    1.21026   1.26700   -2.000
 7181.00    1.21985   1.26487   -2.000
 7182.00    1.22250   1.26300   -2.000
 7183.00    1.20791   1.26212   -2.000
 7184.00    1.18969   1.26006   -2.000
 7185.00    1.18268   1.25801   -2.000
 7186.00    1.18124   1.25679   -2.000
 7187.00    1.17630   1.25434   -2.000
 7188.00    1.17023   1.25302   -2.000
 7189.00    1.16525   1.25293   -2.000
 7190.00    1.15577   1.25270   -2.000
 7191.00    1.14175   1.25418   -2.000
 7192.00    1.13539   1.25631   -2.000
 7193.00    1.14493   1.25804   -2.000
 7194.00    1.16566   1.26026   -2.000
 7195.00    1.18642   1.26297   -2.000
 7196.00    1.19572   1.26476   -2.000
 7197.00    1.19261   1.26571   -2.000
 7198.00    1.18794   1.26716   -2.000
 7199.00    1.18840   1.26791   -2.000
 7200.00    1.19172   1.26799   -2.000
 7201.00    1.19434   1.26780   -2.000
 7202.00    1.19475   1.26669   -2.000
 7203.00    1.19445   1.26553   -2.000
 7204.00    1.19629   1.26369   -2.000
 7205.00    1.19859   1.26196   -2.000
 7206.00    1.19706   1.26053   -2.000
 7207.00    1.19356   1.25857   -2.000
 7208.00    1.19215   1.25898   -2.000
 7209.00    1.18532   1.26036   -2.000
 7210.00    1.16630   1.26156   -2.000
 7211.00    1.15854   1.26494   -2.000
 7212.00    1.18065   1.26822   -2.000
 7213.00    1.17709   1.27076   -2.000
 7214.00    1.10029   1.27417   -2.000
 7215.00    1.05333   1.27723   -2.000
 7216.00    1.15000   1.27937   -2.000
 7217.00    1.29425   1.28170   -2.000
 7218.00    1.33627   1.28403   -2.000
