###################################################################
## OUTPUT of StarlightChains_v04.for    [Cid@UFSC - 01/Apr/2007] ##
###################################################################

## Some input info
2012et.txt                               [arq_obs]
Base.CB07.vall.4m                        [arq_base]
Masks.EmLines.NEW.gm                     [arq_masks]
StCv04.C11.config                        [arq_config]
   66                                    [N_base]
    0                                    [N_YAV_components = # of components with extra extinction!]
    0                                    [i_FitPowerLaw (1/0 = Yes/No)]
-9.99                                    [alpha_PowerLaw]
CCM                                      [red_law_option]
 1.458241                                [q_norm = A(l_norm)/A(V)]

## (Re)Sampling Parameters
 3741.00                                 [l_ini (A)]
 7218.00                                 [l_fin (A)]
    1.00                                 [dl    (A)]     (OBS: dl_cushion =    50.00 A)

## Normalization info
 4020.00                                 [l_norm (A) - for base]
 4010.00                                 [llow_norm (A) - window for f_obs]
 4060.00                                 [lupp_norm (A) - window for f_obs]
5.868715E-17                             [fobs_norm (in input units)]

## S/N
 3691.00                                 [llow_SN (A) - window for S/N]
 7268.00                                 [lupp_SN (A) - window for S/N]
   9.043                                 [S/N in S/N window]
  10.444                                 [S/N in norm. window]
  13.992                                 [S/N_err in S/N window]
  16.159                                 [S/N_err in norm. window]
  1.0000                                 [fscale_chi2]

## etc...
    -2007394                             [idum_orig]
  2373                                   [NOl_eff]
  2361                                   [Nl_eff]
    12    NSIGMA                         [Ntot_cliped & clip_method]
  1614270                                [Nglobal_steps]
   7                                     [N_chains]
  24                                     [NEX0s_base = N_base in EX0s-fits]
 0   0   1        1   2.0   3.099E+01    [Clip-Bug, RC-Crash & Burn-In warning-flags, n_censored_weights, wei_nsig_threshold & wei_limit]
    18     17.554     17.048      0.506  [idt_all, wdt_TotTime, wdt_UsrTime & wdt_SysTime (sec)]

## Synthesis Results - Best model ##

 4.75148E-01                             [chi2/Nl_eff]
     3.89460                             [adev (%)]

   104.39729                             [sum-of-x (%)]
 1.04771E-16                             [Flux_tot (units of input spectrum!)]
 5.04092E-13                             [Mini_tot (???)]
 2.93177E-13                             [Mcor_tot (???)]

-126.23                                  [v0_min  (km/s)]
 169.94                                  [vd_min  (km/s)]
 0.3995                                  [AV_min  (mag)]
 0.0000                                  [YAV_min (mag)]

# j     x_j(%)      Mini_j(%)     Mcor_j(%)     age_j(yr)     Z_j      (L/M)_j    YAV?  Mstars   component_j        a/Fe...       SSP_chi2r SSP_adev(%)   SSP_AV   SSP_x(%)
  1      4.1646     7.5787E-02    1.3031E-01    1.000000E+06  0.00400  1.094E-02    0   1.0000   age020_m42            0.0000     1.0374E+00     5.8074   2.8005    86.3312
  2      0.0000     0.0000E+00    0.0000E+00    3.160000E+06  0.00400  4.007E-02    0   0.9999   age045_m42            0.0000     8.6864E-01     5.2274   2.0436    93.8121
  3      0.0233     1.8243E-04    2.9761E-04    5.010000E+06  0.00400  2.539E-02    0   0.9488   age055_m42            0.0000     9.0110E-01     5.3288   2.3747    90.9639
  4      0.0000     0.0000E+00    0.0000E+00    6.610000E+06  0.00400  2.620E-02    0   0.9220   age061_m42            0.0000     8.4134E-01     5.0980   1.9645    94.3197
  5      0.0000     0.0000E+00    0.0000E+00    1.000000E+07  0.00400  1.322E-02    0   0.8862   age070_m42            0.0000     7.1774E-01     4.5790   1.6571    97.6912
  6      0.0000     0.0000E+00    0.0000E+00    1.445000E+07  0.00400  7.883E-03    0   0.8571   age078_m42            0.0000     7.6576E-01     4.7327   1.9970    94.5923
  7      0.0000     0.0000E+00    0.0000E+00    2.512000E+07  0.00400  5.251E-03    0   0.8174   age090_m42            0.0000     7.2025E-01     4.5715   1.5182    98.6847
  8      0.0000     0.0000E+00    0.0000E+00    4.000000E+07  0.00400  3.649E-03    0   0.7851   age104_m42            0.0000     6.8578E-01     4.5015   1.2867    99.6985
  9      0.0000     0.0000E+00    0.0000E+00    5.500000E+07  0.00400  3.098E-03    0   0.7629   age110_m42            0.0000     7.3445E-01     4.6822   1.4493    99.2610
 10      0.0000     0.0000E+00    0.0000E+00    1.015200E+08  0.00400  2.228E-03    0   0.7207   age116_m42            0.0000     8.0725E-01     4.8958   1.4744    99.2083
 11      0.0000     0.0000E+00    0.0000E+00    2.861200E+08  0.00400  1.093E-03    0   0.6648   age125_m42            0.0000     7.9945E-01     4.7926   0.8957   103.0333
 12      0.0000     0.0000E+00    0.0000E+00    5.088000E+08  0.00400  6.597E-04    0   0.6365   age130_m42            0.0000     8.7515E-01     5.0154   0.8926   103.4483
 13      0.0000     0.0000E+00    0.0000E+00    1.434000E+09  0.00400  2.132E-04    0   0.5798   age139_m42            0.0000     7.3850E-01     4.7336  -0.0876   105.7252
 14      4.5184     1.5260E+01    1.4108E+01    4.250000E+09  0.00400  5.895E-05    0   0.5377   age158_m42            0.0000     7.9849E-01     5.0998  -0.4937    99.8277
 15      0.0000     0.0000E+00    0.0000E+00    7.500000E+09  0.00400  3.510E-05    0   0.5212   age171_m42            0.0000     9.3105E-01     5.4526  -0.6649    98.4334
 16      0.0000     0.0000E+00    0.0000E+00    1.300000E+10  0.00400  2.005E-05    0   0.5034   age193_m42            0.0000     1.0835E+00     5.8285  -0.8127    97.1756
 17      0.0000     0.0000E+00    0.0000E+00    1.800000E+10  0.00400  1.525E-05    0   0.4967   age213_m42            0.0000     1.0486E+00     5.7454  -0.8390    96.8645
 18      4.5495     7.3163E-02    1.2580E-01    1.000000E+06  0.00800  1.238E-02    0   1.0000   age020_m52            0.0000     1.0362E+00     5.8118   2.7968    86.4951
 19      0.0000     0.0000E+00    0.0000E+00    3.160000E+06  0.00800  3.074E-02    0   0.9966   age045_m52            0.0000     1.0158E+00     5.7515   2.7169    87.3784
 20      0.0000     0.0000E+00    0.0000E+00    5.010000E+06  0.00800  2.668E-02    0   0.9443   age055_m52            0.0000     9.0011E-01     5.3512   2.4583    90.0652
 21     10.2801     9.5816E-02    1.5119E-01    6.610000E+06  0.00800  2.136E-02    0   0.9177   age061_m52            0.0000     6.0001E-01     4.2960   1.1583    98.5967
 22      0.0000     0.0000E+00    0.0000E+00    1.000000E+07  0.00800  1.215E-02    0   0.8827   age070_m52            0.0000     7.2940E-01     4.5672   1.8353    97.6226
 23      0.0000     0.0000E+00    0.0000E+00    1.445000E+07  0.00800  8.717E-03    0   0.8552   age078_m52            0.0000     7.2963E-01     4.6379   1.9563    96.1859
 24      0.0000     0.0000E+00    0.0000E+00    2.512000E+07  0.00800  5.592E-03    0   0.8162   age090_m52            0.0000     6.9254E-01     4.4855   1.5786   100.0931
 25      0.0000     0.0000E+00    0.0000E+00    4.000000E+07  0.00800  3.896E-03    0   0.7841   age104_m52            0.0000     6.8045E-01     4.4776   1.4922   100.8674
 26      0.0000     0.0000E+00    0.0000E+00    1.015200E+08  0.00800  2.148E-03    0   0.7226   age116_m52            0.0000     7.2193E-01     4.6497   1.4361   100.3681
 27      0.0000     0.0000E+00    0.0000E+00    2.861200E+08  0.00800  9.925E-04    0   0.6683   age125_m52            0.0000     8.3819E-01     4.8898   0.9536   104.5755
 28      0.0000     0.0000E+00    0.0000E+00    9.047900E+08  0.00800  3.141E-04    0   0.6138   age135_m52            0.0000     9.0860E-01     5.2331   0.1618   108.5682
 29      0.0000     0.0000E+00    0.0000E+00    1.434000E+09  0.00800  1.719E-04    0   0.5853   age139_m52            0.0000     8.2655E-01     5.0558  -0.4047   105.6352
 30      0.8007     2.0250E+00    1.9498E+00    2.500000E+09  0.00800  7.872E-05    0   0.5600   age150_m52            0.0000     1.0245E+00     5.7014  -0.6443   101.2388
 31      0.0000     0.0000E+00    0.0000E+00    4.250000E+09  0.00800  4.336E-05    0   0.5426   age158_m52            0.0000     1.0521E+00     5.7660  -0.6560   100.1050
 32      0.0000     0.0000E+00    0.0000E+00    6.250000E+09  0.00800  3.159E-05    0   0.5319   age166_m52            0.0000     1.2999E+00     6.3905  -0.8405    99.2853
 33      0.0000     0.0000E+00    0.0000E+00    1.300000E+10  0.00800  1.361E-05    0   0.5073   age193_m52            0.0000     2.1248E+00     8.0792  -1.0000    85.9593
 34      0.0000     0.0000E+00    0.0000E+00    1.800000E+10  0.00800  9.886E-06    0   0.4990   age213_m52            0.0000     2.7309E+00     9.2004  -1.0000    81.4455
 35      2.2783     2.9377E-02    5.0511E-02    1.000000E+06  0.02000  1.544E-02    0   1.0000   age020_m62            0.0000     1.0428E+00     5.8383   2.7937    86.6563
 36      2.8289     1.4970E-02    2.5375E-02    3.160000E+06  0.02000  3.762E-02    0   0.9858   age045_m62            0.0000     1.0377E+00     5.8229   2.7324    87.4237
 37      0.0680     4.1064E-04    6.5960E-04    5.010000E+06  0.02000  3.296E-02    0   0.9342   age055_m62            0.0000     8.9031E-01     5.3067   2.3318    92.2224
 38     16.6803     2.8777E-01    4.3843E-01    8.710000E+06  0.02000  1.154E-02    0   0.8861   age067_m62            0.0000     1.3498E+00     6.1644   1.2537   102.3255
 39      0.1952     5.0706E-03    7.3863E-03    1.445000E+07  0.02000  7.663E-03    0   0.8472   age078_m62            0.0000     7.7623E-01     4.6609   1.4702   100.6326
 40      0.0000     0.0000E+00    0.0000E+00    2.512000E+07  0.02000  4.532E-03    0   0.8099   age090_m62            0.0000     8.3477E-01     4.8205   1.4589   100.6288
 41      0.0000     0.0000E+00    0.0000E+00    5.500000E+07  0.02000  2.733E-03    0   0.7595   age110_m62            0.0000     6.7343E-01     4.4241   1.4776    99.9741
 42      0.0000     0.0000E+00    0.0000E+00    1.609000E+08  0.02000  1.369E-03    0   0.6985   age120_m62            0.0000     8.1297E-01     4.8114   1.3164   102.7370
 43      0.0000     0.0000E+00    0.0000E+00    2.861200E+08  0.02000  9.013E-04    0   0.6714   age125_m62            0.0000     9.4067E-01     5.1304   1.0606   105.9270
 44      0.0000     0.0000E+00    0.0000E+00    5.088000E+08  0.02000  5.028E-04    0   0.6449   age130_m62            0.0000     1.0617E+00     5.5534   0.6947   108.1224
 45      7.9995     6.5593E+00    6.9688E+00    9.047900E+08  0.02000  2.428E-04    0   0.6179   age135_m62            0.0000     9.6254E-01     5.4836   0.1221   106.7744
 46      4.7362     7.4657E+00    7.5839E+00    1.434000E+09  0.02000  1.263E-04    0   0.5908   age139_m62            0.0000     9.9348E-01     5.6082  -0.3087   104.4601
 47      2.5958     8.6346E+00    8.4224E+00    2.500000E+09  0.02000  5.985E-05    0   0.5673   age150_m62            0.0000     1.2628E+00     6.3308  -0.6463   101.6110
 48      0.0000     0.0000E+00    0.0000E+00    4.250000E+09  0.02000  3.271E-05    0   0.5468   age158_m62            0.0000     1.6804E+00     7.3865  -0.9246    99.4592
 49      0.0000     0.0000E+00    0.0000E+00    1.000000E+10  0.02000  1.360E-05    0   0.5167   age181_m62            0.0000     2.5978E+00     8.9738  -1.0000    87.7856
 50      0.0000     0.0000E+00    0.0000E+00    1.800000E+10  0.02000  7.124E-06    0   0.5013   age213_m62            0.0000     3.6481E+00    10.6523  -1.0000    79.1940
 51      5.0927     3.9116E-02    6.7243E-02    1.000000E+06  0.05000  2.592E-02    0   0.9998   age020_m72            0.0000     1.0636E+00     5.9108   2.7863    86.6140
 52      0.0000     0.0000E+00    0.0000E+00    3.160000E+06  0.05000  4.845E-02    0   0.9577   age045_m72            0.0000     9.9244E-01     5.6615   2.6077    88.9360
 53      0.0001     5.1362E-07    8.0780E-07    5.010000E+06  0.05000  3.072E-02    0   0.9147   age055_m72            0.0000     8.1544E-01     4.8260   2.0984    94.9500
 54      0.0000     0.0000E+00    0.0000E+00    6.610000E+06  0.05000  1.455E-02    0   0.8877   age061_m72            0.0000     2.4131E+00     8.4166   1.3237   103.4220
 55      0.0000     0.0000E+00    0.0000E+00    1.000000E+07  0.05000  9.074E-03    0   0.8524   age070_m72            0.0000     1.0020E+00     5.4156   2.3076    94.0864
 56      0.0000     0.0000E+00    0.0000E+00    2.512000E+07  0.05000  4.250E-03    0   0.7902   age090_m72            0.0000     8.6191E-01     4.9794   1.9719    97.2011
 57      0.0000     0.0000E+00    0.0000E+00    4.000000E+07  0.05000  3.087E-03    0   0.7618   age104_m72            0.0000     8.9489E-01     5.0451   1.7294    99.5526
 58      0.0000     0.0000E+00    0.0000E+00    1.015200E+08  0.05000  1.700E-03    0   0.7096   age116_m72            0.0000     8.0180E-01     4.7505   1.4552   102.6188
 59      0.0000     0.0000E+00    0.0000E+00    2.861200E+08  0.05000  7.384E-04    0   0.6633   age125_m72            0.0000     9.8987E-01     5.2993   0.9330   107.1541
 60     18.1795     9.4771E+00    1.0383E+01    5.088000E+08  0.05000  3.819E-04    0   0.6372   age130_m72            0.0000     9.9049E-01     5.5195   0.4506   108.2163
 61      6.1617     7.3193E+00    7.6894E+00    9.047900E+08  0.05000  1.676E-04    0   0.6110   age135_m72            0.0000     1.2413E+00     6.3464  -0.2055   104.2181
 62      8.0212     1.8071E+01    1.8251E+01    1.434000E+09  0.05000  8.837E-05    0   0.5874   age139_m72            0.0000     1.3653E+00     6.5586  -0.6470   103.1000
 63      5.2235     2.4567E+01    2.3646E+01    2.500000E+09  0.05000  4.233E-05    0   0.5598   age150_m72            0.0000     1.8463E+00     7.7592  -0.9182    99.9939
 64      0.0000     0.0000E+00    0.0000E+00    6.250000E+09  0.05000  1.435E-05    0   0.5249   age166_m72            0.0000     2.9889E+00     9.6984  -1.0000    83.6588
 65      0.0000     0.0000E+00    0.0000E+00    1.300000E+10  0.05000  6.513E-06    0   0.5036   age193_m72            0.0000     4.5935E+00    12.1712  -1.0000    74.2809
 66      0.0000     0.0000E+00    0.0000E+00    1.800000E+10  0.05000  4.527E-06    0   0.4945   age213_m72            0.0000     5.6853E+00    13.7708  -1.0000    68.7821


## Synthesis Results - Average & Chains ##

# j      x_j: min, <> & last-chain-values for 1 ...  7 chains
  1      4.1646      1.8333      2.0887      2.4513      0.5655      1.9994      2.6575      2.1979      2.1622
  2      0.0000      0.3064      0.0000      0.0000      0.0000      0.2291      0.0000      0.0000      2.0076
  3      0.0233      0.4291      0.0000      0.1566      1.9601      0.0000      0.5643      0.0000      0.0000
  4      0.0000      0.2197      0.3761      0.0000      0.0000      0.0000      0.5807      0.0000      0.0000
  5      0.0000      0.3645      0.0000      0.3223      2.0976      0.0000      0.1095      0.0000      0.0000
  6      0.0000      0.6868      0.3200      0.0000      0.1151      0.4250      0.0000      2.0672      0.0000
  7      0.0000      0.5214      0.0000      0.1447      0.0231      0.0000      0.0000      0.0000      0.6796
  8      0.0000      0.8104      0.0000      0.0000      0.7058      1.2268      0.0000      0.6822      0.0000
  9      0.0000      0.3016      0.0000      0.0000      0.0871      0.0000      0.0000      0.0000      0.0000
 10      0.0000      0.3906      0.0000      0.3418      0.0000      0.0000      0.0000      0.0000      0.0000
 11      0.0000      0.3040      0.0005      0.0000      0.0000      0.3974      0.0000      0.0000      0.0000
 12      0.0000      0.3429      0.0000      0.0000      0.0000      0.0000      0.0000      0.0000      0.0000
 13      0.0000      0.4444      0.0000      0.0000      0.0000      0.0000      0.0000      0.0000      0.0000
 14      4.5184      4.2044      4.7121      4.6962      5.2917      5.0894      3.2704      3.8972      4.1147
 15      0.0000      0.3908      0.5024      0.3357      1.1094      0.0000      0.0000      0.7717      0.5915
 16      0.0000      0.0870      0.0000      0.0000      0.0000      0.0000      0.1375      0.0000      0.0000
 17      0.0000      0.0882      0.0000      0.0732      0.0715      0.0000      0.0000      0.0000      0.0000
 18      4.5495      2.6554      2.7377      2.8676      2.2006      2.6946      3.2369      2.9598      2.9783
 19      0.0000      1.0074      2.2265      1.3398      1.2576      0.0000      0.3024      1.6817      0.0000
 20      0.0000      0.5957      1.2840      0.0000      0.0000      1.2264      0.0000      0.0000      0.2297
 21     10.2801     10.4888     11.9135     10.6062     11.4071     11.8885     13.1294     12.9804     11.4796
 22      0.0000      1.1991      0.0000      0.6790      0.0000      1.9556      0.7825      1.7004      0.6137
 23      0.0000      0.5254      0.4519      0.3377      2.0606      1.5938      0.1543      0.0000      1.5606
 24      0.0000      0.2958      0.0414      0.0000      0.0000      0.0000      0.2366      0.0000      1.0018
 25      0.0000      0.2516      0.0000      0.0000      0.2339      0.8582      0.0000      0.0000      0.2542
 26      0.0000      0.4614      0.8926      0.0000      0.0000      0.0000      0.0000      0.0000      0.5522
 27      0.0000      0.4520      0.0000      0.6735      0.0000      0.0000      0.0000      0.0000      0.0000
 28      0.0000      0.8455      0.0000      1.5135      0.0000      0.0000      2.5694      0.0000      0.0000
 29      0.0000      0.9559      0.3372      0.3103      1.0294      1.0811      0.0000      1.8765      0.0000
 30      0.8007      2.4251      1.7968      3.0486      2.8344      1.8097      2.7746      1.4541      1.9622
 31      0.0000      0.1072      0.0000      0.0534      0.1639      0.0000      0.0000      0.0000      0.0000
 32      0.0000      0.1426      0.0000      0.0000      0.0472      0.0000      0.0000      0.0000      0.0000
 33      0.0000      0.0369      0.0000      0.0000      0.0000      0.0000      0.0000      0.0000      0.0000
 34      0.0000      0.0207      0.0000      0.1037      0.0132      0.0000      0.0000      0.0000      0.0000
 35      2.2783      0.2517      0.4815      2.4923      1.8186      0.0000      0.8412      0.3128      0.0000
 36      2.8289      2.5114      2.4717      1.8941      1.6408      2.2012      3.6183      1.7804      2.7384
 37      0.0680      1.8089      1.8051      1.7189      2.0950      2.2661      2.5982      3.3944      1.5543
 38     16.6803      9.8635     11.7288     12.3403     11.3913      9.8565     11.6728      8.7898     10.9153
 39      0.1952      1.9278      1.0411      2.4806      2.4385      3.0048      1.0001      2.5531      1.6413
 40      0.0000      0.6243      0.0000      0.3334      1.8143      0.0000      0.3261      0.0000      1.7987
 41      0.0000      0.2757      1.5087      0.0000      0.2884      0.8774      0.0000      0.0000      0.0000
 42      0.0000      0.2788      0.0000      0.0766      0.0000      0.0000      0.0000      0.0000      0.0000
 43      0.0000      0.3202      0.0000      0.0000      0.0000      0.0000      0.0000      0.0000      0.0000
 44      0.0000      0.6718      0.0000      0.0000      0.2446      0.0000      0.0000      0.0000      0.2049
 45      7.9995     12.9420     14.8071     11.8074     11.4254     13.4840     11.9977     10.1823     14.0126
 46      4.7362      5.0293      6.5997      4.9583      4.6648      3.9960      4.7548      5.6935      5.6244
 47      2.5958      2.1340      2.6130      2.8265      1.7503      2.1563      2.6759      1.3311      3.3652
 48      0.0000      0.4286      0.0000      0.0000      0.3389      0.8093      0.0000      0.7336      0.0000
 49      0.0000      0.0808      0.0000      0.0000      0.0000      0.0000      0.0000      0.0000      0.4714
 50      0.0000      0.0268      0.0000      0.0000      0.0000      0.2594      0.0000      0.0000      0.0000
 51      5.0927      3.6231      3.5978      4.2964      3.0948      4.1885      4.0121      2.9282      3.5721
 52      0.0000      0.3517      0.0000      0.1612      0.6537      0.1688      0.0000      0.1013      0.0117
 53      0.0001      1.8347      1.6589      1.6632      1.0503      3.0492      1.6399      2.5174      2.9745
 54      0.0000      0.7153      1.2078      0.0000      0.7188      0.0000      0.0000      0.7905      0.7179
 55      0.0000      0.5584      0.6158      0.0000      0.0000      0.2858      0.7172      2.3112      0.0000
 56      0.0000      0.1948      0.0000      1.0051      0.7129      0.0000      0.1263      0.0000      0.4369
 57      0.0000      0.2640      0.0735      0.0000      0.0000      0.1765      0.1664      0.0000      0.3140
 58      0.0000      0.2774      0.0514      0.0000      0.0000      0.0486      0.0000      0.0000      0.0000
 59      0.0000      0.4777      1.1959      1.0566      0.0000      0.0000      0.0000      0.0000      0.0000
 60     18.1795     11.7124     11.6409     13.2722     11.4101     11.5098     15.1321     17.2807     11.0804
 61      6.1617      4.0720      3.8822      3.8383      6.4009      4.5301      4.5247      3.6043      4.3419
 62      8.0212      5.1984      5.3044      5.9773      5.3725      6.4892      5.8133      4.6599      5.9911
 63      5.2235      1.5423      2.4021      1.8489      1.3574      2.1383      2.1429      2.6170      2.2984
 64      0.0000      0.1221      0.0000      0.0000      0.0000      0.0000      0.0000      0.0000      0.0000
 65      0.0000      0.0678      0.0000      0.0000      0.0000      0.0000      0.3094      0.5965      0.0000
 66      0.0000      0.0508      0.0770      0.0000      0.0000      0.0000      0.0000      0.0000      0.0000

# j      m_j: min, <> & last-chain-values for 1 ...  7 chains
  1  1.3031E-01  6.0216E-02  7.0408E-02  8.3999E-02  1.9342E-02  6.5476E-02  8.9409E-02  6.7427E-02  7.0482E-02
  2  0.0000E+00  2.7471E-03  0.0000E+00  0.0000E+00  0.0000E+00  2.0481E-03  0.0000E+00  0.0000E+00  1.7866E-02
  3  2.9761E-04  5.7624E-03  0.0000E+00  2.1934E-03  2.7406E-02  0.0000E+00  7.7619E-03  0.0000E+00  0.0000E+00
  4  0.0000E+00  2.7777E-03  4.8810E-03  0.0000E+00  0.0000E+00  0.0000E+00  7.5211E-03  0.0000E+00  0.0000E+00
  5  0.0000E+00  8.7800E-03  0.0000E+00  8.0992E-03  5.2610E-02  0.0000E+00  2.7008E-03  0.0000E+00  0.0000E+00
  6  0.0000E+00  2.6832E-02  1.2830E-02  0.0000E+00  4.6830E-03  1.6555E-02  0.0000E+00  7.5433E-02  0.0000E+00
  7  0.0000E+00  2.9163E-02  0.0000E+00  8.4413E-03  1.3463E-03  0.0000E+00  0.0000E+00  0.0000E+00  3.7729E-02
  8  0.0000E+00  6.2655E-02  0.0000E+00  0.0000E+00  5.6821E-02  9.4567E-02  0.0000E+00  4.9259E-02  0.0000E+00
  9  0.0000E+00  2.6686E-02  0.0000E+00  0.0000E+00  8.0223E-03  0.0000E+00  0.0000E+00  0.0000E+00  0.0000E+00
 10  0.0000E+00  4.5402E-02  0.0000E+00  4.1446E-02  0.0000E+00  0.0000E+00  0.0000E+00  0.0000E+00  0.0000E+00
 11  0.0000E+00  6.6439E-02  1.1971E-04  0.0000E+00  0.0000E+00  8.6601E-02  0.0000E+00  0.0000E+00  0.0000E+00
 12  0.0000E+00  1.1887E-01  0.0000E+00  0.0000E+00  0.0000E+00  0.0000E+00  0.0000E+00  0.0000E+00  0.0000E+00
 13  0.0000E+00  4.3430E-01  0.0000E+00  0.0000E+00  0.0000E+00  0.0000E+00  0.0000E+00  0.0000E+00  0.0000E+00
 14  1.4108E+01  1.3780E+01  1.5850E+01  1.6058E+01  1.8059E+01  1.6631E+01  1.0980E+01  1.1930E+01  1.3385E+01
 15  0.0000E+00  2.0854E+00  2.7511E+00  1.8688E+00  6.1633E+00  0.0000E+00  0.0000E+00  3.8459E+00  3.1322E+00
 16  0.0000E+00  7.8500E-01  0.0000E+00  0.0000E+00  0.0000E+00  0.0000E+00  1.2711E+00  0.0000E+00  0.0000E+00
 17  0.0000E+00  1.0319E+00  0.0000E+00  8.9341E-01  8.7089E-01  0.0000E+00  0.0000E+00  0.0000E+00  0.0000E+00
 18  1.2580E-01  7.7071E-02  8.1552E-02  8.6836E-02  6.6508E-02  7.7980E-02  9.6236E-02  8.0237E-02  8.5792E-02
 19  0.0000E+00  1.1735E-02  2.6620E-02  1.6283E-02  1.5254E-02  0.0000E+00  3.6087E-03  1.8298E-02  0.0000E+00
 20  0.0000E+00  7.5758E-03  1.6760E-02  0.0000E+00  0.0000E+00  1.5551E-02  0.0000E+00  0.0000E+00  2.8990E-03
 21  1.5119E-01  1.6192E-01  1.8876E-01  1.7083E-01  1.8337E-01  1.8299E-01  2.0762E-01  1.8716E-01  1.7589E-01
 22  0.0000E+00  3.1302E-02  0.0000E+00  1.8494E-02  0.0000E+00  5.0900E-02  2.0925E-02  4.1459E-02  1.5900E-02
 23  0.0000E+00  1.8522E-02  1.6351E-02  1.2421E-02  7.5637E-02  5.6019E-02  5.5724E-03  0.0000E+00  5.4600E-02
 24  0.0000E+00  1.5515E-02  2.2297E-03  0.0000E+00  0.0000E+00  0.0000E+00  1.2708E-02  0.0000E+00  5.2145E-02
 25  0.0000E+00  1.8197E-02  0.0000E+00  0.0000E+00  1.7610E-02  6.1882E-02  0.0000E+00  0.0000E+00  1.8241E-02
 26  0.0000E+00  5.5778E-02  1.1074E-01  0.0000E+00  0.0000E+00  0.0000E+00  0.0000E+00  0.0000E+00  6.6246E-02
 27  0.0000E+00  1.0937E-01  0.0000E+00  1.7002E-01  0.0000E+00  0.0000E+00  0.0000E+00  0.0000E+00  0.0000E+00
 28  0.0000E+00  5.9368E-01  0.0000E+00  1.1088E+00  0.0000E+00  0.0000E+00  1.8481E+00  0.0000E+00  0.0000E+00
 29  0.0000E+00  1.1695E+00  4.2344E-01  3.9608E-01  1.3115E+00  1.3188E+00  0.0000E+00  2.1444E+00  0.0000E+00
 30  1.9498E+00  6.1989E+00  4.7139E+00  8.1301E+00  7.5442E+00  4.6123E+00  7.2649E+00  3.4715E+00  4.9781E+00
 31  0.0000E+00  4.8222E-01  0.0000E+00  2.5074E-01  7.6726E-01  0.0000E+00  0.0000E+00  0.0000E+00  0.0000E+00
 32  0.0000E+00  8.6255E-01  0.0000E+00  0.0000E+00  2.9706E-01  0.0000E+00  0.0000E+00  0.0000E+00  0.0000E+00
 33  0.0000E+00  4.9380E-01  0.0000E+00  0.0000E+00  0.0000E+00  0.0000E+00  0.0000E+00  0.0000E+00  0.0000E+00
 34  0.0000E+00  3.7589E-01  0.0000E+00  1.9623E+00  2.4961E-01  0.0000E+00  0.0000E+00  0.0000E+00  0.0000E+00
 35  5.0511E-02  5.8567E-03  1.1502E-02  6.0514E-02  4.4070E-02  0.0000E+00  2.0053E-02  6.7995E-03  0.0000E+00
 36  2.5375E-02  2.3647E-02  2.3885E-02  1.8607E-02  1.6087E-02  2.0665E-02  3.4898E-02  1.5657E-02  2.5590E-02
 37  6.5960E-04  1.8422E-02  1.8868E-02  1.8265E-02  2.2217E-02  2.3010E-02  2.7105E-02  3.2289E-02  1.5711E-02
 38  4.3843E-01  2.7214E-01  3.3212E-01  3.5522E-01  3.2726E-01  2.7115E-01  3.2990E-01  2.2651E-01  2.9889E-01
 39  7.3863E-03  7.6583E-02  4.2446E-02  1.0281E-01  1.0087E-01  1.1902E-01  4.0697E-02  9.4731E-02  6.4713E-02
 40  0.0000E+00  4.0090E-02  0.0000E+00  2.2334E-02  1.2131E-01  0.0000E+00  2.1447E-02  0.0000E+00  1.1463E-01
 41  0.0000E+00  2.7532E-02  1.5462E-01  0.0000E+00  2.9991E-02  8.7358E-02  0.0000E+00  0.0000E+00  0.0000E+00
 42  0.0000E+00  5.1116E-02  0.0000E+00  1.4643E-02  0.0000E+00  0.0000E+00  0.0000E+00  0.0000E+00  0.0000E+00
 43  0.0000E+00  8.5713E-02  0.0000E+00  0.0000E+00  0.0000E+00  0.0000E+00  0.0000E+00  0.0000E+00  0.0000E+00
 44  0.0000E+00  3.0963E-01  0.0000E+00  0.0000E+00  1.1737E-01  0.0000E+00  0.0000E+00  0.0000E+00  9.3720E-02
 45  6.9688E+00  1.1835E+01  1.3897E+01  1.1265E+01  1.0879E+01  1.2294E+01  1.1238E+01  8.6966E+00  1.2717E+01
 46  7.5839E+00  8.4534E+00  1.1385E+01  8.6949E+00  8.1642E+00  6.6967E+00  8.1865E+00  8.9383E+00  9.3825E+00
 47  8.4224E+00  7.2681E+00  9.1340E+00  1.0044E+01  6.2073E+00  7.3226E+00  9.3358E+00  4.2345E+00  1.1375E+01
 48  0.0000E+00  2.5744E+00  0.0000E+00  0.0000E+00  2.1199E+00  4.8467E+00  0.0000E+00  4.1156E+00  0.0000E+00
 49  0.0000E+00  1.1032E+00  0.0000E+00  0.0000E+00  0.0000E+00  0.0000E+00  0.0000E+00  0.0000E+00  6.3865E+00
 50  0.0000E+00  6.7753E-01  0.0000E+00  0.0000E+00  0.0000E+00  6.5407E+00  0.0000E+00  0.0000E+00  0.0000E+00
 51  6.7243E-02  5.0216E-02  5.1179E-02  6.2127E-02  4.4664E-02  5.7881E-02  5.6961E-02  3.7906E-02  4.9137E-02
 52  0.0000E+00  2.4978E-03  0.0000E+00  1.1943E-03  4.8346E-03  1.1955E-03  0.0000E+00  6.7205E-04  8.2662E-05
 53  8.0780E-07  1.9629E-02  1.8216E-02  1.8566E-02  1.1700E-02  3.2527E-02  1.7973E-02  2.5156E-02  3.1584E-02
 54  0.0000E+00  1.5681E-02  2.7175E-02  0.0000E+00  1.6408E-02  0.0000E+00  0.0000E+00  1.6185E-02  1.5620E-02
 55  0.0000E+00  1.8848E-02  2.1334E-02  0.0000E+00  0.0000E+00  9.6169E-03  2.4798E-02  7.2865E-02  0.0000E+00
 56  0.0000E+00  1.3017E-02  0.0000E+00  7.0058E-02  4.9592E-02  0.0000E+00  8.6404E-03  0.0000E+00  2.8971E-02
 57  0.0000E+00  2.3409E-02  6.6858E-03  0.0000E+00  0.0000E+00  1.5603E-02  1.5113E-02  0.0000E+00  2.7637E-02
 58  0.0000E+00  4.1599E-02  7.9171E-03  0.0000E+00  0.0000E+00  7.2705E-03  0.0000E+00  0.0000E+00  0.0000E+00
 59  0.0000E+00  1.5418E-01  3.9616E-01  3.5583E-01  0.0000E+00  0.0000E+00  0.0000E+00  0.0000E+00  0.0000E+00
 60  1.0383E+01  7.0219E+00  7.1628E+00  8.3017E+00  7.1230E+00  6.8801E+00  9.2930E+00  9.6766E+00  6.5930E+00
 61  7.6894E+00  5.3341E+00  5.2193E+00  5.2457E+00  8.7308E+00  5.9166E+00  6.0714E+00  4.4098E+00  5.6449E+00
 62  1.8251E+01  1.2416E+01  1.3003E+01  1.4895E+01  1.3361E+01  1.5453E+01  1.4223E+01  1.0395E+01  1.4202E+01
 63  2.3646E+01  7.3288E+00  1.1715E+01  9.1664E+00  6.7165E+00  1.0131E+01  1.0431E+01  1.1615E+01  1.0840E+01
 64  0.0000E+00  1.6047E+00  0.0000E+00  0.0000E+00  0.0000E+00  0.0000E+00  0.0000E+00  0.0000E+00  0.0000E+00
 65  0.0000E+00  1.8839E+00  0.0000E+00  0.0000E+00  0.0000E+00  0.0000E+00  8.8060E+00  1.5478E+01  0.0000E+00
 66  0.0000E+00  1.9929E+00  3.1027E+00  0.0000E+00  0.0000E+00  0.0000E+00  0.0000E+00  0.0000E+00  0.0000E+00

# AV, chi2 & Mass for <> & i_chain = 1 ...  7 solutions
AV       0.3995      0.4698      0.4566      0.4685      0.4614      0.4643      0.4698      0.4789      0.4497
chi2 4.7515E-01  4.8365E-01  4.8062E-01  4.8056E-01  4.8183E-01  4.8122E-01  4.8005E-01  4.8136E-01  4.8054E-01
Mass 2.9318E-13  3.0696E-13  2.9385E-13  2.9370E-13  2.9148E-13  3.0559E-13  2.9968E-13  3.3270E-13  3.0106E-13
-126.23                                  [v0_min (km/s) before EX0s...]
 169.94                                  [vd_min (km/s) before EX0s...]


## Synthetic spectrum (Best Model) ##l_obs f_obs f_syn wei
 3478    [Nl_obs]
 3741.00    0.53507   0.76988    0.000
 3742.00    0.46627   0.75339    0.000
 3743.00    0.45215   0.72924    0.000
 3744.00    0.51600   0.69984    0.000
 3745.00    0.62584   0.66842   15.979
 3746.00    0.70384   0.63986   14.208
 3747.00    0.69980   0.62048   14.290
 3748.00    0.61889   0.61602   16.158
 3749.00    0.52587   0.62910   19.016
 3750.00    0.50912   0.65788   19.642
 3751.00    0.58387   0.69567   17.127
 3752.00    0.69974   0.73286   14.291
 3753.00    0.82233   0.76130   12.161
 3754.00    0.93605   0.77736   10.683
 3755.00    1.00718   0.78221    9.929
 3756.00    0.99612   0.78023   10.039
 3757.00    0.89599   0.77678   11.161
 3758.00    0.73398   0.77594   13.624
 3759.00    0.56005   0.77887   -1.000
 3760.00    0.43287   0.78335   -1.000
 3761.00    0.39992   0.78531   -1.000
 3762.00    0.46880   0.78141   -1.000
 3763.00    0.57625   0.77007   17.354
 3764.00    0.64577   0.75116   15.485
 3765.00    0.66213   0.72627   15.103
 3766.00    0.65269   0.69920   15.321
 3767.00    0.65414   0.67542   15.287
 3768.00    0.68008   0.66080   14.704
 3769.00    0.69885   0.65943   14.309
 3770.00    0.69544   0.67197   14.379
 3771.00    0.71836   0.69592   13.921
 3772.00    0.79527   0.72664   12.574
 3773.00    0.87375   0.75883   11.445
 3774.00    0.90491   0.78903   11.051
 3775.00    0.89989   0.81649   11.112
 3776.00    0.88625   0.84141   11.283
 3777.00    0.87779   0.86352   11.392
 3778.00    0.87540   0.88206   11.423
 3779.00    0.87201   0.89606   11.468
 3780.00    0.87042   0.90448   11.489
 3781.00    0.88690   0.90627   11.275
 3782.00    0.92633   0.90110   10.795
 3783.00    0.97273   0.88966   10.280
 3784.00    0.99817   0.87365   10.018
 3785.00    0.97494   0.85554   10.257
 3786.00    0.90428   0.83786   11.059
 3787.00    0.81985   0.82226   12.197
 3788.00    0.76495   0.80836   13.073
 3789.00    0.77051   0.79354   12.978
 3790.00    0.81630   0.77472   12.250
 3791.00    0.84757   0.74984   11.798
 3792.00    0.84537   0.71848   11.829
 3793.00    0.82774   0.68297   12.081
 3794.00    0.81051   0.64872   12.338
 3795.00    0.80011   0.62300   12.498
 3796.00    0.79785   0.61255   12.534
 3797.00    0.79562   0.62117   12.569
 3798.00    0.76800   0.64809   13.021
 3799.00    0.70642   0.68786   14.156
 3800.00    0.67242   0.73200   14.872
 3801.00    0.72661   0.77205   13.763
 3802.00    0.81765   0.80312   12.230
 3803.00    0.85326   0.82496   11.720
 3804.00    0.81290   0.84046   12.302
 3805.00    0.73962   0.85341   13.520
 3806.00    0.70802   0.86656   14.124
 3807.00    0.75653   0.87978   13.218
 3808.00    0.82894   0.89029   12.064
 3809.00    0.86560   0.89451   11.553
 3810.00    0.88765   0.89055   11.266
 3811.00    0.93093   0.88002   10.742
 3812.00    0.98759   0.86703   10.126
 3813.00    1.03496   0.85523    9.662
 3814.00    1.05881   0.84610    9.445
 3815.00    1.03918   0.83895    9.623
 3816.00    0.94796   0.83212   10.549
 3817.00    0.79894   0.82510   12.517
 3818.00    0.66422   0.81902   15.055
 3819.00    0.59718   0.81506   -1.000
 3820.00    0.59763   0.81303   -1.000
 3821.00    0.65090   0.81103   15.363
 3822.00    0.74262   0.80623   13.466
 3823.00    0.83633   0.79694   11.957
 3824.00    0.87834   0.78395   11.385
 3825.00    0.85293   0.76931   11.724
 3826.00    0.78957   0.75376   12.665
 3827.00    0.71322   0.73566   14.021
 3828.00    0.63446   0.71252   15.762
 3829.00    0.57252   0.68309   17.467
 3830.00    0.54967   0.64871   18.193
 3831.00    0.55698   0.61354   17.954
 3832.00    0.56669   0.58357   17.646
 3833.00    0.58394   0.56489   17.125
 3834.00    0.63165   0.56155   15.832
 3835.00    0.69154   0.57384   14.460
 3836.00    0.72485   0.59905   13.796
 3837.00    0.73564   0.63300   13.594
 3838.00    0.74722   0.67116   13.383
 3839.00    0.74199   0.70989   13.477
 3840.00    0.69598   0.74668   14.368
 3841.00    0.64549   0.77944   15.492
 3842.00    0.64764   0.80680   15.441
 3843.00    0.71232   0.82830   14.039
 3844.00    0.81068   0.84425   12.335
 3845.00    0.89889   0.85579   11.125
 3846.00    0.93938   0.86419   10.645
 3847.00    0.92177   0.87060    0.000
 3848.00    0.86777   0.87621    0.000
 3849.00    0.82821   0.88149    0.000
 3850.00    0.83015   0.88606    0.000
 3851.00    0.83825   0.88914    0.000
 3852.00    0.82709   0.88965    0.000
 3853.00    0.83194   0.88699    0.000
 3854.00    0.87363   0.88209    0.000
 3855.00    0.91208   0.87698    0.000
 3856.00    0.91436   0.87344    0.000
 3857.00    0.89431   0.87293    0.000
 3858.00    0.87513   0.87642    0.000
 3859.00    0.86738   0.88333    0.000
 3860.00    0.87500   0.89205    0.000
 3861.00    0.89754   0.90044    0.000
 3862.00    0.92380   0.90628    0.000
 3863.00    0.93650   0.90860    0.000
 3864.00    0.94261   0.90803    0.000
 3865.00    0.97017   0.90562    0.000
 3866.00    1.01230   0.90147    0.000
 3867.00    1.02752   0.89499    0.000
 3868.00    1.00735   0.88596    0.000
 3869.00    0.98089   0.87557    0.000
 3870.00    0.96330   0.86623    0.000
 3871.00    0.94905   0.86014    0.000
 3872.00    0.93430   0.85769    0.000
 3873.00    0.92601   0.85690    0.000
 3874.00    0.94773   0.85478    0.000
 3875.00    1.00862   0.84915    0.000
 3876.00    1.04097   0.84002    0.000
 3877.00    0.96391   0.82907    0.000
 3878.00    0.81937   0.81742    0.000
 3879.00    0.71360   0.80436    0.000
 3880.00    0.68135   0.78817    0.000
 3881.00    0.69284   0.76660   14.433
 3882.00    0.69941   0.73818   14.298
 3883.00    0.67311   0.70378   14.856
 3884.00    0.64539   0.66656   15.494
 3885.00    0.64740   0.63164   15.446
 3886.00    0.64102   0.60581   15.600
 3887.00    0.60441   0.59580   16.545
 3888.00    0.61835   0.60471   16.172
 3889.00    0.74057   0.63018   13.503
 3890.00    0.89123   0.66596   11.220
 3891.00    0.97161   0.70457   -1.000
 3892.00    0.96951   0.73972   10.315
 3893.00    0.92454   0.76847   10.816
 3894.00    0.88954   0.79108   11.242
 3895.00    0.88941   0.80911   11.243
 3896.00    0.90317   0.82412   11.072
 3897.00    0.91780   0.83732   10.896
 3898.00    0.95166   0.84919   10.508
 3899.00    0.99838   0.85930   10.016
 3900.00    1.01214   0.86696    9.880
 3901.00    0.98934   0.87184   10.108
 3902.00    0.98262   0.87454   10.177
 3903.00    0.98711   0.87694   10.131
 3904.00    0.93106   0.88190   10.741
 3905.00    0.83225   0.89130   12.016
 3906.00    0.80662   0.90437   12.397
 3907.00    0.88699   0.91862   11.274
 3908.00    0.99946   0.93108   10.005
 3909.00    1.08813   0.93913    9.190
 3910.00    1.13747   0.94187    8.791
 3911.00    1.12512   0.94009    8.888
 3912.00    1.03502   0.93521    9.662
 3913.00    0.92024   0.92829   10.867
 3914.00    0.87015   0.91991   11.492
 3915.00    0.90680   0.91049   11.028
 3916.00    0.98441   0.90063   10.158
 3917.00    1.03571   0.89127    9.655
 3918.00    1.02284   0.88388    9.777
 3919.00    1.00452   0.87925    9.955
 3920.00    1.05146   0.87676    9.511
 3921.00    1.10376   0.87437    9.060
 3922.00    1.07534   0.86926    9.299
 3923.00    1.02149   0.85889    9.790
 3924.00    1.01964   0.84199    9.807
 3925.00    1.00204   0.81880    9.980
 3926.00    0.88201   0.79039   11.338
 3927.00    0.70992   0.75822   14.086
 3928.00    0.58539   0.72414   17.083
 3929.00    0.55192   0.69068   18.119
 3930.00    0.59354   0.66167   16.848
 3931.00    0.64763   0.64194   15.441
 3932.00    0.66460   0.63581   15.047
 3933.00    0.65163   0.64530   15.346
 3934.00    0.64249   0.66907   15.564
 3935.00    0.66864   0.70267   14.956
 3936.00    0.72909   0.73989   13.716
 3937.00    0.78191   0.77475   12.789
 3938.00    0.80302   0.80318   12.453
 3939.00    0.81228   0.82381   12.311
 3940.00    0.82941   0.83763   12.057
 3941.00    0.85293   0.84716   11.724
 3942.00    0.87382   0.85519   11.444
 3943.00    0.88443   0.86356   11.307
 3944.00    0.88634   0.87230   11.282
 3945.00    0.88970   0.88029   11.240
 3946.00    0.89903   0.88664   11.123
 3947.00    0.91155   0.89100   10.970
 3948.00    0.92882   0.89356   10.766
 3949.00    0.95295   0.89496   10.494
 3950.00    0.96491   0.89548   10.364
 3951.00    0.93811   0.89467   10.660
 3952.00    0.88850   0.89191   11.255
 3953.00    0.85729   0.88705   11.665
 3954.00    0.84212   0.88040   11.875
 3955.00    0.81477   0.87195   12.273
 3956.00    0.78981   0.86076   12.661
 3957.00    0.80181   0.84536   12.472
 3958.00    0.83780   0.82432   11.936
 3959.00    0.85230   0.79680   11.733
 3960.00    0.81393   0.76306    0.000
 3961.00    0.72777   0.72427    0.000
 3962.00    0.65279   0.68155    0.000
 3963.00    0.64062   0.63584    0.000
 3964.00    0.65683   0.58853    0.000
 3965.00    0.65505   0.54291    0.000
 3966.00    0.66947   0.50483    0.000
 3967.00    0.72591   0.48119    0.000
 3968.00    0.74716   0.47718    0.000
 3969.00    0.66871   0.49429    0.000
 3970.00    0.54883   0.52959    0.000
 3971.00    0.48068   0.57697    0.000
 3972.00    0.50745   0.62946    0.000
 3973.00    0.61498   0.68120    0.000
 3974.00    0.73926   0.72867    0.000
 3975.00    0.82409   0.77044    0.000
 3976.00    0.85695   0.80586    0.000
 3977.00    0.84445   0.83444    0.000
 3978.00    0.79531   0.85602    0.000
 3979.00    0.71783   0.87129    0.000
 3980.00    0.62581   0.88192    0.000
 3981.00    0.57084   0.89033   -1.000
 3982.00    0.62961   0.89869   -1.000
 3983.00    0.78237   0.90816   12.782
 3984.00    0.90445   0.91861   11.056
 3985.00    0.94103   0.92904   10.627
 3986.00    0.94424   0.93846   10.591
 3987.00    0.95930   0.94651   10.424
 3988.00    0.98781   0.95338   10.123
 3989.00    1.00274   0.95914    9.973
 3990.00    0.97569   0.96324   10.249
 3991.00    0.93500   0.96485   10.695
 3992.00    0.93977   0.96352   10.641
 3993.00    0.97864   0.95981   10.218
 3994.00    0.99247   0.95571   10.076
 3995.00    0.97819   0.95397   10.223
 3996.00    0.97140   0.95661   10.294
 3997.00    0.96792   0.96352   10.331
 3998.00    0.94200   0.97228   10.616
 3999.00    0.90432   0.97936   11.058
 4000.00    0.88514   0.98178   11.298
 4001.00    0.89248   0.97839   11.205
 4002.00    0.92097   0.97075   10.858
 4003.00    0.97231   0.96252   10.285
 4004.00    1.03972   0.95751    9.618
 4005.00    1.08759   0.95781    9.195
 4006.00    1.08663   0.96320    9.203
 4007.00    1.05367   0.97184    9.491
 4008.00    1.02295   0.98120    9.776
 4009.00    1.01298   0.98937    9.872
 4010.00    1.02850   0.99584    9.723
 4011.00    1.06511   1.00100    9.389
 4012.00    1.10866   1.00524    9.020
 4013.00    1.13772   1.00876    8.790
 4014.00    1.14725   1.01186    8.716
 4015.00    1.15891   1.01472    8.629
 4016.00    1.17472   1.01717    8.513
 4017.00    1.15814   1.01835    8.635
 4018.00    1.10406   1.01686    9.057
 4019.00    1.06374   1.01156    9.401
 4020.00    1.05697   1.00238    9.461
 4021.00    1.04505   0.99074    9.569
 4022.00    1.02266   0.97959    9.778
 4023.00    1.03634   0.97197    9.649
 4024.00    1.07978   0.96909    9.261
 4025.00    1.08116   0.96948    9.249
 4026.00    1.01897   0.96982    9.814
 4027.00    0.94564   0.96706   10.575
 4028.00    0.91969   0.96041   10.873
 4029.00    0.96638   0.95213   10.348
 4030.00    1.03414   0.94637    9.670
 4031.00    1.03715   0.94694    9.642
 4032.00    0.99561   0.95548   10.044
 4033.00    1.00000   0.97073   10.000
 4034.00    1.04362   0.98914    9.582
 4035.00    1.04798   1.00642    9.542
 4036.00    0.99736   1.01892   10.026
 4037.00    0.93369   1.02461   10.710
 4038.00    0.89336   1.02329   11.194
 4039.00    0.89357   1.01594   11.191
 4040.00    0.92991   1.00397   10.754
 4041.00    0.97628   0.98919   10.243
 4042.00    0.98843   0.97441   10.117
 4043.00    0.95071   0.96346   10.518
 4044.00    0.93110   0.95986   10.740
 4045.00    0.99349   0.96476   10.065
 4046.00    1.09067   0.97604    9.169
 4047.00    1.13934   0.98910    8.777
 4048.00    1.11300   0.99899    8.985
 4049.00    1.03452   1.00259    9.666
 4050.00    0.95499   0.99967   10.471
 4051.00    0.90833   0.99237   11.009
 4052.00    0.87999   0.98353   11.364
 4053.00    0.85876   0.97563   11.645
 4054.00    0.87023   0.97031   11.491
 4055.00    0.91598   0.96815   10.917
 4056.00    0.94279   0.96850   10.607
 4057.00    0.92457   0.96963   10.816
 4058.00    0.90119   0.96927   11.096
 4059.00    0.90296   0.96578   11.075
 4060.00    0.91713   0.95938   10.904
 4061.00    0.93720   0.95220   10.670
 4062.00    0.97859   0.94706   10.219
 4063.00    1.03594   0.94579    9.653
 4064.00    1.07293   0.94815    9.320
 4065.00    1.05852   0.95225    9.447
 4066.00    0.98542   0.95565   10.148
 4067.00    0.88197   0.95652   11.338
 4068.00    0.80424   0.95459   12.434
 4069.00    0.79943   0.95088   12.509
 4070.00    0.87638   0.94642   11.411
 4071.00    0.95972   0.94119   10.420
 4072.00    0.94785   0.93438   10.550
 4073.00    0.88252   0.92573   11.331
 4074.00    0.89107   0.91680   11.222
 4075.00    0.96857   0.91089   10.325
 4076.00    1.01178   0.91135    9.884
 4077.00    0.98257   0.91925   10.177
 4078.00    0.91811   0.93206   10.892
 4079.00    0.88766   0.94487   11.266
 4080.00    0.93322   0.95328   10.716
 4081.00    0.99374   0.95575   10.063
 4082.00    0.98689   0.95397   10.133
 4083.00    0.93691   0.95124   10.673
 4084.00    0.91675   0.95018   10.908
 4085.00    0.95144   0.95134   10.510
 4086.00    1.00511   0.95331    9.949
 4087.00    0.98953   0.95383   10.106
 4088.00    0.87317   0.95104   11.453
 4089.00    0.77400   0.94397   12.920
 4090.00    0.78544   0.93225   12.732
 4091.00    0.82920   0.91570   12.060
 4092.00    0.82935   0.89402    0.000
 4093.00    0.84369   0.86699    0.000
 4094.00    0.89837   0.83485    0.000
 4095.00    0.88757   0.79836    0.000
 4096.00    0.76542   0.75893    0.000
 4097.00    0.64784   0.71923    0.000
 4098.00    0.63719   0.68399    0.000
 4099.00    0.72353   0.65943    0.000
 4100.00    0.83284   0.65138    0.000
 4101.00    0.87478   0.66242    0.000
 4102.00    0.83043   0.69016    0.000
 4103.00    0.76980   0.72797    0.000
 4104.00    0.75412   0.76782    0.000
 4105.00    0.79436   0.80313    0.000
 4106.00    0.85514   0.83084    0.000
 4107.00    0.87834   0.85146    0.000
 4108.00    0.85227   0.86756    0.000
 4109.00    0.81733   0.88188    0.000
 4110.00    0.81367   0.89614    0.000
 4111.00    0.85598   0.91042    0.000
 4112.00    0.91135   0.92342    0.000
 4113.00    0.92725   0.93328   10.785
 4114.00    0.90856   0.93850   11.006
 4115.00    0.90358   0.93885   11.067
 4116.00    0.93621   0.93561   10.681
 4117.00    0.99092   0.93123   10.092
 4118.00    1.01469   0.92835    9.855
 4119.00    0.96785   0.92868   10.332
 4120.00    0.90403   0.93246   11.062
 4121.00    0.90684   0.93854   11.027
 4122.00    0.97668   0.94478   10.239
 4123.00    1.05108   0.94885    9.514
 4124.00    1.05882   0.94925    9.444
 4125.00    0.97980   0.94587   10.206
 4126.00    0.89910   0.93977   11.122
 4127.00    0.89273   0.93257   11.202
 4128.00    0.90883   0.92596   11.003
 4129.00    0.88664   0.92156   11.279
 4130.00    0.87165   0.92089   11.473
 4131.00    0.90567   0.92515   11.042
 4132.00    0.93547   0.93453   10.690
 4133.00    0.92017   0.94781   10.868
 4134.00    0.90688   0.96255   11.027
 4135.00    0.93233   0.97577   10.726
 4136.00    0.96184   0.98458   10.397
 4137.00    0.96324   0.98676   10.382
 4138.00    0.94987   0.98127   10.528
 4139.00    0.94744   0.96899   10.555
 4140.00    0.96910   0.95330   10.319
 4141.00    0.99214   0.93931   10.079
 4142.00    0.96861   0.93167   10.324
 4143.00    0.91969   0.93229   10.873
 4144.00    0.93420   0.93926   10.704
 4145.00    0.99852   0.94834   10.015
 4146.00    0.99234   0.95553   10.077
 4147.00    0.91106   0.95875   10.976
 4148.00    0.87633   0.95807   11.411
 4149.00    0.91966   0.95486   10.874
 4150.00    0.96777   0.95053   10.333
 4151.00    0.99645   0.94613   10.036
 4152.00    1.03191   0.94268    9.691
 4153.00    1.04550   0.94129    9.565
 4154.00    0.98344   0.94287   10.168
 4155.00    0.88983   0.94765   11.238
 4156.00    0.86001   0.95495   11.628
 4157.00    0.89544   0.96341   11.168
 4158.00    0.93470   0.97158   10.699
 4159.00    0.95963   0.97848   10.421
 4160.00    0.98533   0.98363   10.149
 4161.00    1.01379   0.98672    9.864
 4162.00    1.02994   0.98749    9.710
 4163.00    1.00895   0.98591    9.911
 4164.00    0.95052   0.98229   10.518
 4165.00    0.91537   0.97709   10.924
 4166.00    0.94913   0.97040   10.544
 4167.00    0.99834   0.96187   10.016
 4168.00    1.00283   0.95105    9.951
 4169.00    0.99235   0.93841   10.081
 4170.00    1.01092   0.92593    9.951
 4171.00    1.04329   0.91625    9.569
 4172.00    1.05464   0.91120    9.332
 4173.00    1.02962   0.91084    9.781
 4174.00    0.97944   0.91381   10.742
 4175.00    0.94006   0.91851   10.295
 4176.00    0.93822   0.92394    8.436
 4177.00    0.96901   0.92964    7.372
 4178.00    0.99799   0.93529    7.410
 4179.00    0.97774   0.94037    7.853
 4180.00    0.92326   0.94442    8.060
 4181.00    0.92245   0.94722    7.991
 4182.00    0.99912   0.94875    7.856
 4183.00    1.07638   0.94907    7.789
 4184.00    1.09901   0.94865    7.788
 4185.00    1.07706   0.94848    7.753
 4186.00    1.04814   0.94988    7.683
 4187.00    1.04858   0.95369    7.681
 4188.00    1.06989   0.95972    7.772
 4189.00    1.06960   0.96659    7.877
 4190.00    1.04545   0.97214    7.916
 4191.00    1.03430   0.97400    7.858
 4192.00    1.04969   0.97043    7.770
 4193.00    1.06908   0.96120    7.773
 4194.00    1.04595   0.94798    7.960
 4195.00    0.94904   0.93372    8.351
 4196.00    0.83519   0.92156    8.781
 4197.00    0.79786   0.91363    8.969
 4198.00    0.84312   0.91066    8.907
 4199.00    0.91324   0.91213    8.782
 4200.00    0.96629   0.91706    8.603
 4201.00    0.98435   0.92454    8.351
 4202.00    0.96529   0.93390    8.232
 4203.00    0.92430   0.94435    8.404
 4204.00    0.89612   0.95485    8.635
 4205.00    0.91278   0.96427    8.567
 4206.00    0.97558   0.97170    8.229
 4207.00    1.04462   0.97676    7.901
 4208.00    1.04019   0.97949    7.819
 4209.00    0.94056   0.97997    8.017
 4210.00    0.85984   0.97808    8.197
 4211.00    0.88463   0.97393    8.116
 4212.00    0.94256   0.96867    8.003
 4213.00    0.94791   0.96457    8.076
 4214.00    0.91432   0.96404    8.218
 4215.00    0.88136   0.96806    8.290
 4216.00    0.85983   0.97521    8.358
 4217.00    0.84936   0.98208    8.473
 4218.00    0.85032   0.98474    8.551
 4219.00    0.85669   0.98020    8.566
 4220.00    0.85534   0.96731    8.627
 4221.00    0.84388   0.94725    8.702
 4222.00    0.83638   0.92365    8.569
 4223.00    0.84823   0.90216    8.304
 4224.00    0.88697   0.88882    8.261
 4225.00    0.94440   0.88771    8.437
 4226.00    0.99665   0.89881    8.439
 4227.00    1.01561   0.91760    8.237
 4228.00    0.98481   0.93706    8.204
 4229.00    0.93470   0.95101    8.384
 4230.00    0.92688   0.95669    8.469
 4231.00    0.97935   0.95523    8.343
 4232.00    1.05601   0.95001    8.180
 4233.00    1.09598   0.94459    8.156
 4234.00    1.05441   0.94138    8.346
 4235.00    0.97324   0.94134    8.607
 4236.00    0.93789   0.94452    8.673
 4237.00    0.96061   0.95053    8.556
 4238.00    0.99908   0.95866    8.455
 4239.00    1.03144   0.96785    8.402
 4240.00    1.04830   0.97657    8.352
 4241.00    1.02061   0.98301    8.385
 4242.00    0.93881   0.98554    8.562
 4243.00    0.87101   0.98329    8.674
 4244.00    0.88577   0.97666    8.497
 4245.00    0.94830   0.96725   -2.000
 4246.00    0.99453   0.95736   -2.000
 4247.00    1.02601   0.94908   -2.000
 4248.00    1.05250   0.94370   -2.000
 4249.00    1.02920   0.94145   -2.000
 4250.00    0.93059   0.94183   -2.000
 4251.00    0.81670   0.94402   -2.000
 4252.00    0.76375   0.94720   -2.000
 4253.00    0.80143   0.95050   -2.000
 4254.00    0.91131   0.95283   -2.000
 4255.00    1.03460   0.95309   -2.000
 4256.00    1.10873   0.95101   -2.000
 4257.00    1.09624   0.94808   -2.000
 4258.00    1.01165   0.94719   -2.000
 4259.00    0.92301   0.95104   -2.000
 4260.00    0.88085   0.96027    8.549
 4261.00    0.88582   0.97269    8.772
 4262.00    0.91869   0.98425    8.828
 4263.00    0.95730   0.99090    8.681
 4264.00    0.98344   0.99017    8.456
 4265.00    0.98862   0.98173    8.383
 4266.00    0.98488   0.96704    8.456
 4267.00    0.99678   0.94862    8.449
 4268.00    1.02212   0.92962    8.312
 4269.00    1.03181   0.91334    8.207
 4270.00    1.00980   0.90275    8.219
 4271.00    0.96197   0.89970    8.328
 4272.00    0.90669   0.90444    8.557
 4273.00    0.86829   0.91550    8.922
 4274.00    0.86763   0.93008    9.211
 4275.00    0.90789   0.94469    9.120
 4276.00    0.95107   0.95614    8.847
 4277.00    0.95334   0.96246    8.787
 4278.00    0.93864   0.96351    8.880
 4279.00    0.95626   0.96066    8.858
 4280.00    0.98752   0.95581    8.801
 4281.00    0.98163   0.95029    8.923
 4282.00    0.93348   0.94435    9.132
 4283.00    0.87527   0.93737    9.191
 4284.00    0.84693   0.92862    9.075
 4285.00    0.86503   0.91809    8.944
 4286.00    0.89385   0.90717    8.982
 4287.00    0.89745   0.89842    9.242
 4288.00    0.89570   0.89440    9.482
 4289.00    0.91545   0.89608    9.443
 4290.00    0.94037   0.90190    9.223
 4291.00    0.94372   0.90841    9.031
 4292.00    0.92058   0.91190    8.939
 4293.00    0.88306   0.90987    8.910
 4294.00    0.85241   0.90161    8.840
 4295.00    0.84431   0.88803    8.703
 4296.00    0.85863   0.87123    8.614
 4297.00    0.87794   0.85419    8.631
 4298.00    0.87254   0.83997    8.683
 4299.00    0.83081   0.83077    8.737
 4300.00    0.77208   0.82699    8.865
 4301.00    0.72415   0.82725    9.009
 4302.00    0.70791   0.82913    8.941
 4303.00    0.72244   0.83047    8.724
 4304.00    0.74493   0.83044    8.717
 4305.00    0.75621   0.82998    8.939
 4306.00    0.75413   0.83124    9.008
 4307.00    0.76242   0.83622    8.851
 4308.00    0.81126   0.84560    8.800
 4309.00    0.86815   0.85857    8.939
 4310.00    0.86214   0.87372    9.060
 4311.00    0.81260   0.89018    9.071
 4312.00    0.80867   0.90779    9.031
 4313.00    0.86485   0.92632    8.876
 4314.00    0.92234   0.94439    8.595
 4315.00    0.93702   0.95945    8.664
 4316.00    0.90458   0.96879    9.682
 4317.00    0.86709   0.97068   11.303
 4318.00    0.87009   0.96490   11.801
 4319.00    0.88645   0.95236   11.330
 4320.00    0.86438   0.93476   11.485
 4321.00    0.82426   0.91461   12.126
 4322.00    0.81773   0.89564   12.194
 4323.00    0.84783   0.88209   11.780
 4324.00    0.88752   0.87715   11.455
 4325.00    0.91831   0.88107   10.913
 4326.00    0.93040   0.89073    9.964
 4327.00    0.91811   0.90124    9.234
 4328.00    0.89231   0.90830    9.060
 4329.00    0.88908   0.90962    9.093
 4330.00    0.92338   0.90450    0.000
 4331.00    0.95223   0.89251    0.000
 4332.00    0.94058   0.87252    0.000
 4333.00    0.91214   0.84320    0.000
 4334.00    0.89505   0.80461    0.000
 4335.00    0.88426   0.75975    0.000
 4336.00    0.88340   0.71493    0.000
 4337.00    0.92486   0.67841    0.000
 4338.00    1.01054   0.65768    0.000
 4339.00    1.08677   0.65677    0.000
 4340.00    1.10633   0.67484    0.000
 4341.00    1.06210   0.70685    0.000
 4342.00    0.98203   0.74583    0.000
 4343.00    0.91482   0.78523    0.000
 4344.00    0.88383   0.82027    0.000
 4345.00    0.87541   0.84798    0.000
 4346.00    0.87030   0.86691    0.000
 4347.00    0.85795   0.87709    0.000
 4348.00    0.84197   0.88047    0.000
 4349.00    0.83620   0.88085    0.000
 4350.00    0.84799   0.88274    0.000
 4351.00    0.87328   0.88936   10.353
 4352.00    0.89784   0.90122   10.041
 4353.00    0.90740   0.91616   10.121
 4354.00    0.90982   0.93094   10.366
 4355.00    0.92320   0.94320   10.278
 4356.00    0.93968   0.95255   10.119
 4357.00    0.93934   0.96032   10.444
 4358.00    0.93082   0.96827   10.890
 4359.00    0.93999   0.97728   10.634
 4360.00    0.97667   0.98672   10.094
 4361.00    1.02649   0.99478   10.045
 4362.00    1.04938   0.99940   10.327
 4363.00    1.01620   0.99931   10.406
 4364.00    0.95601   0.99465   10.283
 4365.00    0.91483   0.98706   10.253
 4366.00    0.89893   0.97886   10.390
 4367.00    0.89631   0.97186   10.597
 4368.00    0.90655   0.96645   10.702
 4369.00    0.92825   0.96173   10.640
 4370.00    0.94537   0.95669   10.603
 4371.00    0.94383   0.95145   10.725
 4372.00    0.92660   0.94769   10.829
 4373.00    0.90634   0.94757   10.741
 4374.00    0.89726   0.95191   10.565
 4375.00    0.90470   0.95897   10.480
 4376.00    0.91989   0.96479   10.582
 4377.00    0.93173   0.96487   10.812
 4378.00    0.93385   0.95631   10.925
 4379.00    0.92110   0.93922   10.847
 4380.00    0.88995   0.91704   10.815
 4381.00    0.85191   0.89543   10.911
 4382.00    0.83207   0.88014   10.928
 4383.00    0.83222   0.87456   10.798
 4384.00    0.82659   0.87857   10.716
 4385.00    0.81242   0.88915   10.789
 4386.00    0.81786   0.90238   10.941
 4387.00    0.85553   0.91525   11.034
 4388.00    0.90955   0.92631   10.946
 4389.00    0.95022   0.93520   10.712
 4390.00    0.95138   0.94215   10.501
 4391.00    0.92425   0.94769   10.461
 4392.00    0.90807   0.95260   10.640
 4393.00    0.92173   0.95750   10.816
 4394.00    0.95617   0.96228   10.663
 4395.00    0.98677   0.96589   10.359
 4396.00    0.99130   0.96702   10.276
 4397.00    0.97905   0.96507   10.270
 4398.00    0.97745   0.96054    9.999
 4399.00    0.99719   0.95456    9.653
 4400.00    1.03032   0.94804    9.576
 4401.00    1.05800   0.94164    9.686
 4402.00    1.05689   0.93616    9.740
 4403.00    1.00815   0.93283    9.791
 4404.00    0.92158   0.93296    9.966
 4405.00    0.86044   0.93728   10.064
 4406.00    0.87577   0.94546    9.885
 4407.00    0.93176   0.95606    9.670
 4408.00    0.96974   0.96660    9.704
 4409.00    0.98136   0.97408    9.945
 4410.00    0.98122   0.97601   10.191
 4411.00    0.97498   0.97180   10.249
 4412.00    0.96418   0.96346   10.103
 4413.00    0.95251   0.95503    9.988
 4414.00    0.94516   0.95071   10.053
 4415.00    0.94646   0.95268   10.192
 4416.00    0.94969   0.96007   10.312
 4417.00    0.93470   0.96964   10.502
 4418.00    0.89553   0.97774   10.791
 4419.00    0.85334   0.98223   11.001
 4420.00    0.83455   0.98315   10.990
 4421.00    0.85593   0.98209   10.815
 4422.00    0.91308   0.98077   10.587
 4423.00    0.97789   0.98007   10.390
 4424.00    1.01067   0.97984   10.282
 4425.00    0.98206   0.97943   10.295
 4426.00    0.93288   0.97821   10.383
 4427.00    0.95122   0.97583   10.439
 4428.00    1.01994   0.97224   10.441
 4429.00    1.02966   0.96758   10.465
 4430.00    0.97578   0.96232   10.532
 4431.00    0.95462   0.95755   10.584
 4432.00    0.98839   0.95502   10.578
 4433.00    1.02181   0.95653   10.516
 4434.00    1.03144   0.96267   10.468
 4435.00    1.03129   0.97187   10.527
 4436.00    1.02644   0.98060   10.699
 4437.00    1.01238   0.98512   10.918
 4438.00    0.99366   0.98357   11.117
 4439.00    0.98112   0.97724   11.240
 4440.00    0.98072   0.96992   11.245
 4441.00    0.98643   0.96585   11.173
 4442.00    0.97434   0.96741   11.227
 4443.00    0.93445   0.97405   11.546
 4444.00    0.91145   0.98301   11.888
 4445.00    0.94405   0.99100   11.891
 4446.00    0.98891   0.99574   11.619
 4447.00    0.98997   0.99639   11.372
 4448.00    0.96143   0.99308   11.353
 4449.00    0.94466   0.98630   11.578
 4450.00    0.95627   0.97660   11.815
 4451.00    0.98473   0.96484   11.859
 4452.00    0.99627   0.95249   11.841
 4453.00    0.97375   0.94135   11.881
 4454.00    0.94224   0.93287   11.838
 4455.00    0.93022   0.92755   11.690
 4456.00    0.94183   0.92496   11.725
 4457.00    0.96754   0.92447   12.033
 4458.00    0.99314   0.92580   12.263
 4459.00    1.00580   0.92911   12.196
 4460.00    0.99960   0.93437   12.081
 4461.00    0.98647   0.94078    0.000
 4462.00    0.99209   0.94673    0.000
 4463.00    1.01244   0.95043    0.000
 4464.00    1.01019   0.95087    0.000
 4465.00    0.98090   0.94838    0.000
 4466.00    0.96227   0.94473    0.000
 4467.00    0.96869   0.94250    0.000
 4468.00    0.97946   0.94419    0.000
 4469.00    0.97949   0.95118    0.000
 4470.00    0.97005   0.96313    0.000
 4471.00    0.95955   0.97806    0.000
 4472.00    0.95721   0.99298    0.000
 4473.00    0.96422   1.00479    0.000
 4474.00    0.97364   1.01099    0.000
 4475.00    0.97562   1.01014    0.000
 4476.00    0.96427   1.00241    0.000
 4477.00    0.94840   0.99006    0.000
 4478.00    0.94375   0.97722    0.000
 4479.00    0.95453   0.96866    0.000
 4480.00    0.97038   0.96762    0.000
 4481.00    0.96832   0.97417    0.000
 4482.00    0.93783   0.98507   12.585
 4483.00    0.91385   0.99546   12.771
 4484.00    0.93216   1.00128   12.795
 4485.00    0.96796   1.00102   12.660
 4486.00    0.97985   0.99610   12.497
 4487.00    0.96894   0.98957   12.441
 4488.00    0.95920   0.98425   12.526
 4489.00    0.96863   0.98140   12.599
 4490.00    0.99744   0.98060   12.522
 4491.00    1.02254   0.98086   12.382
 4492.00    1.02460   0.98178   12.335
 4493.00    1.00957   0.98381   12.472
 4494.00    0.99452   0.98763   12.716
 4495.00    0.99344   0.99331   12.780
 4496.00    1.00303   1.00017   12.595
 4497.00    1.00039   1.00736   12.524
 4498.00    0.98372   1.01467   12.721
 4499.00    0.98712   1.02251   12.869
 4500.00    1.02376   1.03113   12.719
 4501.00    1.06440   1.03988   12.413
 4502.00    1.08638   1.04723   12.234
 4503.00    1.09311   1.05165   12.395
 4504.00    1.09110   1.05267   12.694
 4505.00    1.08138   1.05104   12.553
 4506.00    1.06672   1.04811   12.112
 4507.00    1.05349   1.04477   12.137
 4508.00    1.04772   1.04103   12.712
 4509.00    1.05268   1.03630   13.143
 4510.00    1.06589   1.03024   13.043
 4511.00    1.08069   1.02327   12.717
 4512.00    1.09294   1.01649   12.478
 4513.00    1.10020   1.01117   12.441
 4514.00    1.09542   1.00809   12.562
 4515.00    1.07370   1.00719   12.720
 4516.00    1.04929   1.00769   12.869
 4517.00    1.04005   1.00831   13.006
 4518.00    1.03148   1.00773   13.049
 4519.00    1.00081   1.00485   12.941
 4520.00    0.96899   0.99907   12.866
 4521.00    0.96963   0.99044   13.015
 4522.00    0.98866   0.97952   13.210
 4523.00    0.98811   0.96727   13.185
 4524.00    0.95241   0.95495   13.101
 4525.00    0.89249   0.94412   13.227
 4526.00    0.84111   0.93619   13.485
 4527.00    0.82685   0.93192   13.634
 4528.00    0.84701   0.93099   13.578
 4529.00    0.88214   0.93236   13.408
 4530.00    0.91414   0.93513   13.340
 4531.00    0.93271   0.93929   13.442
 4532.00    0.93922   0.94564   13.458
 4533.00    0.94320   0.95476   13.254
 4534.00    0.95716   0.96597   13.116
 4535.00    0.98174   0.97721   13.189
 4536.00    0.99906   0.98598   13.184
 4537.00    0.99811   0.99085   12.962
 4538.00    0.98820   0.99204   12.823
 4539.00    0.97877   0.99096   12.923
 4540.00    0.97066   0.98914   13.057
 4541.00    0.97321   0.98736   13.039
 4542.00    1.00384   0.98545   12.905
 4543.00    1.04457   0.98269   12.763
 4544.00    1.04240   0.97855   12.691
 4545.00    0.99250   0.97325   12.683
 4546.00    0.94967   0.96768   12.669
 4547.00    0.94415   0.96280   12.641
 4548.00    0.96022   0.95920   12.668
 4549.00    0.97067   0.95698   12.765
 4550.00    0.95701   0.95599    0.000
 4551.00    0.93255   0.95644    0.000
 4552.00    0.92973   0.95913    0.000
 4553.00    0.95140   0.96489    0.000
 4554.00    0.97405   0.97382    0.000
 4555.00    0.98493   0.98487    0.000
 4556.00    0.98753   0.99613    0.000
 4557.00    0.99390   1.00534    0.000
 4558.00    1.01379   1.01067    0.000
 4559.00    1.03843   1.01135    0.000
 4560.00    1.05245   1.00814    0.000
 4561.00    1.05759   1.00319    0.000
 4562.00    1.06146   0.99915    0.000
 4563.00    1.05622   0.99804    0.000
 4564.00    1.03422   1.00019    0.000
 4565.00    1.01095   1.00430    0.000
 4566.00    1.00081   1.00815    0.000
 4567.00    0.98799   1.00996    0.000
 4568.00    0.96231   1.00970    0.000
 4569.00    0.95540   1.00878    0.000
 4570.00    0.98621   1.00844    0.000
 4571.00    1.01288   1.00917    0.000
 4572.00    0.99891   1.01053    0.000
 4573.00    0.96728   1.01117    0.000
 4574.00    0.95133   1.00960    0.000
 4575.00    0.95666   1.00494    0.000
 4576.00    0.98098   0.99740    0.000
 4577.00    1.02527   0.98824    0.000
 4578.00    1.06715   0.97916    0.000
 4579.00    1.05793   0.97167    0.000
 4580.00    0.99747   0.96693    0.000
 4581.00    0.95322   0.96548    0.000
 4582.00    0.95107   0.96723    0.000
 4583.00    0.94449   0.97160    0.000
 4584.00    0.91704   0.97761    0.000
 4585.00    0.90810   0.98383    0.000
 4586.00    0.93384   0.98868    0.000
 4587.00    0.96767   0.99096    0.000
 4588.00    0.98263   0.99039    0.000
 4589.00    0.97157   0.98777    0.000
 4590.00    0.96042   0.98441    0.000
 4591.00    0.98581   0.98143    0.000
 4592.00    1.02524   0.97958    0.000
 4593.00    1.02133   0.97914    0.000
 4594.00    0.98660   0.97987    0.000
 4595.00    0.98248   0.98119    0.000
 4596.00    1.01710   0.98244    0.000
 4597.00    1.05208   0.98324    0.000
 4598.00    1.06055   0.98379    0.000
 4599.00    1.04089   0.98453    0.000
 4600.00    1.01888   0.98585    0.000
 4601.00    1.02038   0.98817    0.000
 4602.00    1.03031   0.99190    0.000
 4603.00    1.02376   0.99740    0.000
 4604.00    1.01598   1.00458    0.000
 4605.00    1.02979   1.01258    0.000
 4606.00    1.04881   1.01985    0.000
 4607.00    1.04809   1.02483    0.000
 4608.00    1.03355   1.02684    0.000
 4609.00    1.02464   1.02624    0.000
 4610.00    1.03210   1.02409    0.000
 4611.00    1.05188   1.02164    0.000
 4612.00    1.06453   1.01955    0.000
 4613.00    1.06019   1.01778    0.000
 4614.00    1.05447   1.01622    0.000
 4615.00    1.05445   1.01475    0.000
 4616.00    1.04004   1.01367    0.000
 4617.00    1.01096   1.01385    0.000
 4618.00    1.00651   1.01558    0.000
 4619.00    1.03743   1.01825    0.000
 4620.00    1.05889   1.02094    0.000
 4621.00    1.04114   1.02272    0.000
 4622.00    1.00116   1.02289    0.000
 4623.00    0.97271   1.02155    0.000
 4624.00    0.98404   1.01929    0.000
 4625.00    1.02830   1.01656    0.000
 4626.00    1.06506   1.01387    0.000
 4627.00    1.06955   1.01186    0.000
 4628.00    1.04760   1.01057    0.000
 4629.00    1.02238   1.00907    0.000
 4630.00    1.01939   1.00660    0.000
 4631.00    1.03738   1.00317    0.000
 4632.00    1.05130   0.99917    0.000
 4633.00    1.04265   0.99493    0.000
 4634.00    1.00966   0.99076    0.000
 4635.00    0.97094   0.98718    0.000
 4636.00    0.95108   0.98473    0.000
 4637.00    0.94998   0.98363    0.000
 4638.00    0.95315   0.98368    0.000
 4639.00    0.96212   0.98386    0.000
 4640.00    0.98465   0.98263    0.000
 4641.00    1.00989   0.97882    0.000
 4642.00    1.01892   0.97216    0.000
 4643.00    1.00622   0.96355    0.000
 4644.00    0.97612   0.95528    0.000
 4645.00    0.93428   0.95005    0.000
 4646.00    0.89529   0.94950    0.000
 4647.00    0.88991   0.95354    0.000
 4648.00    0.92876   0.96057    0.000
 4649.00    0.96847   0.96829    0.000
 4650.00    0.97088   0.97466    0.000
 4651.00    0.95734   0.97861    0.000
 4652.00    0.95423   0.98083    0.000
 4653.00    0.94743   0.98325    0.000
 4654.00    0.92678   0.98761    0.000
 4655.00    0.91675   0.99443    0.000
 4656.00    0.93107   1.00236    0.000
 4657.00    0.94617   1.00865    0.000
 4658.00    0.94120   1.01069    0.000
 4659.00    0.92149   1.00719    0.000
 4660.00    0.90526   0.99849    0.000
 4661.00    0.91027   0.98597    0.000
 4662.00    0.92927   0.97131    0.000
 4663.00    0.93062   0.95624    0.000
 4664.00    0.91238   0.94305    0.000
 4665.00    0.91045   0.93462    0.000
 4666.00    0.93695   0.93294    0.000
 4667.00    0.96607   0.93786    0.000
 4668.00    0.97158   0.94739    0.000
 4669.00    0.94485   0.95871    0.000
 4670.00    0.90696   0.96935    0.000
 4671.00    0.89488   0.97801    0.000
 4672.00    0.91418   0.98436    0.000
 4673.00    0.94170   0.98831    0.000
 4674.00    0.96483   0.98956    0.000
 4675.00    0.98370   0.98798    0.000
 4676.00    0.99416   0.98420    0.000
 4677.00    0.98989   0.97963    0.000
 4678.00    0.97389   0.97566    0.000
 4679.00    0.95630   0.97326    0.000
 4680.00    0.94652   0.97277    0.000
 4681.00    0.95184   0.97367    0.000
 4682.00    0.97712   0.97499    0.000
 4683.00    1.01629   0.97619    0.000
 4684.00    1.04219   0.97723    0.000
 4685.00    1.03102   0.97811    0.000
 4686.00    0.99375   0.97888    0.000
 4687.00    0.96070   0.97965    0.000
 4688.00    0.95817   0.98058    0.000
 4689.00    0.98954   0.98200    0.000
 4690.00    1.02264   0.98416    0.000
 4691.00    1.02835   0.98673    0.000
 4692.00    1.01436   0.98876    0.000
 4693.00    1.00224   0.98909    0.000
 4694.00    1.00539   0.98663    0.000
 4695.00    1.02207   0.98108    0.000
 4696.00    1.03391   0.97338    0.000
 4697.00    1.02325   0.96536    0.000
 4698.00    0.98614   0.95845    0.000
 4699.00    0.94042   0.95315    0.000
 4700.00    0.92192   0.94970    0.000
 4701.00    0.94171   0.94834    0.000
 4702.00    0.97222   0.94878    0.000
 4703.00    0.98713   0.94999    0.000
 4704.00    0.98040   0.95103    0.000
 4705.00    0.96427   0.95186    0.000
 4706.00    0.95953   0.95313    0.000
 4707.00    0.96490   0.95541    0.000
 4708.00    0.95860   0.95864    0.000
 4709.00    0.94045   0.96210    0.000
 4710.00    0.93262   0.96496    0.000
 4711.00    0.94025   0.96757    0.000
 4712.00    0.94863   0.97126    0.000
 4713.00    0.94728   0.97720    0.000
 4714.00    0.93820   0.98536    0.000
 4715.00    0.93894   0.99454    0.000
 4716.00    0.96733   1.00331    0.000
 4717.00    1.00915   1.01062    0.000
 4718.00    1.03373   1.01570    0.000
 4719.00    1.03509   1.01824    0.000
 4720.00    1.02582   1.01844    0.000
 4721.00    1.01381   1.01659    0.000
 4722.00    1.00242   1.01249    0.000
 4723.00    0.99611   1.00551    0.000
 4724.00    0.99617   0.99559    0.000
 4725.00    0.99453   0.98395    0.000
 4726.00    0.98213   0.97310    0.000
 4727.00    0.95976   0.96534    0.000
 4728.00    0.93539   0.96166    0.000
 4729.00    0.91926   0.96195    0.000
 4730.00    0.91699   0.96536    0.000
 4731.00    0.92409   0.97027    0.000
 4732.00    0.93272   0.97514    0.000
 4733.00    0.93883   0.97919    0.000
 4734.00    0.94927   0.98220    0.000
 4735.00    0.98190   0.98494    0.000
 4736.00    1.03001   0.98807    0.000
 4737.00    1.04801   0.99104    0.000
 4738.00    1.01782   0.99336    0.000
 4739.00    0.97927   0.99541    0.000
 4740.00    0.96510   0.99762    0.000
 4741.00    0.97035   0.99993    0.000
 4742.00    0.98716   1.00202    0.000
 4743.00    1.01734   1.00389    0.000
 4744.00    1.04754   1.00566    0.000
 4745.00    1.04931   1.00686    0.000
 4746.00    1.02330   1.00690    0.000
 4747.00    1.00169   1.00571    0.000
 4748.00    0.99534   1.00319    0.000
 4749.00    0.98837   0.99918    0.000
 4750.00    0.98044   0.99411    0.000
 4751.00    0.98689   0.98898    0.000
 4752.00    1.00147   0.98474    0.000
 4753.00    1.00143   0.98202    0.000
 4754.00    0.98560   0.98093    0.000
 4755.00    0.97042   0.98094    0.000
 4756.00    0.95973   0.98093    0.000
 4757.00    0.94786   0.97953    0.000
 4758.00    0.93901   0.97572    0.000
 4759.00    0.93912   0.96921    0.000
 4760.00    0.93579   0.96113    0.000
 4761.00    0.91494   0.95361   15.592
 4762.00    0.89166   0.94837   15.954
 4763.00    0.89018   0.94638   15.908
 4764.00    0.90954   0.94812   15.750
 4765.00    0.93446   0.95325   15.871
 4766.00    0.95516   0.96035   15.952
 4767.00    0.96577   0.96778   15.639
 4768.00    0.96054   0.97429   15.372
 4769.00    0.94210   0.97944   15.522
 4770.00    0.92866   0.98399   15.654
 4771.00    0.93650   0.98880   15.410
 4772.00    0.96369   0.99370   15.308
 4773.00    0.99238   0.99774   15.653
 4774.00    0.99570   1.00024   15.790
 4775.00    0.96658   1.00110   15.236
 4776.00    0.93286   1.00011   14.538
 4777.00    0.91789   0.99713   14.116
 4778.00    0.91831   0.99285   13.840
 4779.00    0.93144   0.98798   13.658
 4780.00    0.96605   0.98273   13.804
 4781.00    1.00906   0.97751   14.373
 4782.00    1.02036   0.97319   15.125
 4783.00    0.99202   0.97000   15.696
 4784.00    0.96172   0.96771   15.849
 4785.00    0.95114   0.96694   15.768
 4786.00    0.94898   0.96820   15.940
 4787.00    0.94735   0.97132   16.386
 4788.00    0.94963   0.97643   16.595
 4789.00    0.94986   0.98337   16.438
 4790.00    0.93659   0.99122   16.280
 4791.00    0.92410   0.99877   16.146
 4792.00    0.94235   1.00454   15.768
 4793.00    0.98655   1.00711   15.276
 4794.00    1.02085   1.00603   15.066
 4795.00    1.01938   1.00220   15.294
 4796.00    0.98188   0.99727   15.849
 4797.00    0.94356   0.99297   16.328
 4798.00    0.94409   0.99050   16.281
 4799.00    0.96765   0.98987   15.924
 4800.00    0.97672   0.98994   15.735
 4801.00    0.98537   0.98921   15.648
 4802.00    1.02158   0.98696   15.423
 4803.00    1.05524   0.98371   15.268
 4804.00    1.04461   0.98070   15.450
 4805.00    1.01002   0.97866   15.735
 4806.00    0.99192   0.97786   15.743
 4807.00    0.99057   0.97851   15.541
 4808.00    0.99078   0.98034   15.389
 4809.00    0.99471   0.98283   15.371
 4810.00    1.00531   0.98575   15.427
 4811.00    1.00921   0.98914   15.427
 4812.00    0.99727   0.99301   15.344
 4813.00    0.98145   0.99710   15.369
 4814.00    0.97441   1.00087   15.583
 4815.00    0.97432   1.00357   15.735
 4816.00    0.97729   1.00435   15.614
 4817.00    0.98551   1.00258   15.333
 4818.00    0.99875   0.99804   15.089
 4819.00    1.01072   0.99119   14.992
 4820.00    1.02087   0.98313   14.987
 4821.00    1.03653   0.97541   14.887
 4822.00    1.04976   0.97002   14.783
 4823.00    1.03504   0.96803   15.052
 4824.00    0.99023   0.96833   15.575
 4825.00    0.94581   0.96898   15.589
 4826.00    0.92777   0.96889   15.076
 4827.00    0.94157   0.96806   14.871
 4828.00    0.97041   0.96701   15.095
 4829.00    0.98614   0.96592   15.129
 4830.00    0.98348   0.96508   14.879
 4831.00    0.97797   0.96496   14.834
 4832.00    0.96965   0.96529   15.075
 4833.00    0.94839   0.96504   15.251
 4834.00    0.93247   0.96347   15.175
 4835.00    0.95005   0.96066   14.944
 4836.00    0.97790   0.95683   14.741
 4837.00    0.97128   0.95243   14.697
 4838.00    0.94895   0.94848   14.762
 4839.00    0.95702   0.94581   14.793
 4840.00    0.97675   0.94428   14.741
 4841.00    0.96450   0.94317   14.651
 4842.00    0.93898   0.94209   14.583
 4843.00    0.93804   0.94054   14.578
 4844.00    0.94056   0.93758   14.631
 4845.00    0.91300   0.93269   14.702
 4846.00    0.87940   0.92624   14.756
 4847.00    0.87746   0.91908   14.754
 4848.00    0.89955   0.91136    0.000
 4849.00    0.91010   0.90186    0.000
 4850.00    0.87398   0.88914    0.000
 4851.00    0.79560   0.87266    0.000
 4852.00    0.74349   0.85224    0.000
 4853.00    0.77042   0.82825    0.000
 4854.00    0.85334   0.80188    0.000
 4855.00    0.95398   0.77416    0.000
 4856.00    1.06607   0.74567    0.000
 4857.00    1.20530   0.71832    0.000
 4858.00    1.38935   0.69614    0.000
 4859.00    1.57137   0.68426    0.000
 4860.00    1.62955   0.68665    0.000
 4861.00    1.51782   0.70300    0.000
 4862.00    1.32034   0.72845    0.000
 4863.00    1.12422   0.75718    0.000
 4864.00    0.96428   0.78475    0.000
 4865.00    0.85553   0.80793    0.000
 4866.00    0.80498   0.82509    0.000
 4867.00    0.80051   0.83647    0.000
 4868.00    0.81437   0.84349    0.000
 4869.00    0.82920   0.84837    0.000
 4870.00    0.84039   0.85415    0.000
 4871.00    0.83701   0.86290    0.000
 4872.00    0.80940   0.87415    0.000
 4873.00    0.78349   0.88628    0.000
 4874.00    0.80216   0.89830    0.000
 4875.00    0.86034   0.90954   16.218
 4876.00    0.91568   0.91915   16.069
 4877.00    0.94411   0.92637   15.811
 4878.00    0.94669   0.93036   15.711
 4879.00    0.93869   0.93056   15.740
 4880.00    0.93376   0.92777   15.769
 4881.00    0.92219   0.92351   15.958
 4882.00    0.89426   0.91858   16.453
 4883.00    0.87850   0.91343   16.785
 4884.00    0.90048   0.90897   16.448
 4885.00    0.92359   0.90604   15.973
 4886.00    0.90679   0.90495   16.008
 4887.00    0.87933   0.90585   16.381
 4888.00    0.88025   0.90932   16.670
 4889.00    0.88819   0.91652   16.908
 4890.00    0.87645   0.92852   17.248
 4891.00    0.86894   0.94442   17.514
 4892.00    0.89140   0.96085   17.537
 4893.00    0.92778   0.97447   17.506
 4894.00    0.95020   0.98335   17.616
 4895.00    0.94608   0.98702   17.793
 4896.00    0.92361   0.98622   17.851
 4897.00    0.90863   0.98243   17.655
 4898.00    0.90925   0.97760   17.347
 4899.00    0.90146   0.97382   17.332
 4900.00    0.87504   0.97193   17.698
 4901.00    0.85307   0.97137   18.040
 4902.00    0.85611   0.97166   18.134
 4903.00    0.88423   0.97235   18.227
 4904.00    0.92096   0.97211   18.318
 4905.00    0.94154   0.96952   18.038
 4906.00    0.93674   0.96465   17.569
 4907.00    0.91863   0.95907   17.560
 4908.00    0.90679   0.95477   17.928
 4909.00    0.91584   0.95327   17.904
 4910.00    0.93346   0.95476   17.568
 4911.00    0.93134   0.95735   17.712
 4912.00    0.91454   0.95819   18.114
 4913.00    0.91135   0.95506   17.815
 4914.00    0.91291   0.94669   17.280
 4915.00    0.88852   0.93313   17.663
 4916.00    0.85346   0.91639   18.528
 4917.00    0.84871   0.90019   18.369
 4918.00    0.87027   0.88858   17.563
 4919.00    0.88415   0.88423   17.458
 4920.00    0.87897   0.88771   17.986
 4921.00    0.86596   0.89744   18.288
 4922.00    0.86286   0.91099   18.106
 4923.00    0.88076   0.92681   17.766
 4924.00    0.90999   0.94363   17.542
 4925.00    0.93297   0.95910   17.482
 4926.00    0.94333   0.97079   17.349
 4927.00    0.94719   0.97767   17.013
 4928.00    0.95985   0.97945   16.834
 4929.00    0.98237   0.97635   17.092
 4930.00    0.98235   0.96947   17.496
 4931.00    0.94110   0.96031   17.628
 4932.00    0.89365   0.95086   17.497
 4933.00    0.87902   0.94331   17.314
 4934.00    0.89800   0.93819   17.202
 4935.00    0.93072   0.93484   17.141
 4936.00    0.95397   0.93375   16.985
 4937.00    0.95290   0.93645   16.761
 4938.00    0.92844   0.94363   16.752
 4939.00    0.89825   0.95394   16.986
 4940.00    0.89089   0.96460    0.000
 4941.00    0.91329   0.97358    0.000
 4942.00    0.94143   0.98045    0.000
 4943.00    0.95881   0.98518    0.000
 4944.00    0.96940   0.98818    0.000
 4945.00    0.97204   0.99055    0.000
 4946.00    0.95782   0.99268    0.000
 4947.00    0.94195   0.99381    0.000
 4948.00    0.95740   0.99311    0.000
 4949.00    0.99336   0.99012    0.000
 4950.00    1.00119   0.98433    0.000
 4951.00    0.97435   0.97565    0.000
 4952.00    0.94954   0.96510    0.000
 4953.00    0.94395   0.95429    0.000
 4954.00    0.94862   0.94473    0.000
 4955.00    0.95427   0.93805    0.000
 4956.00    0.95720   0.93648    0.000
 4957.00    0.95781   0.94147    0.000
 4958.00    0.95941   0.95041    0.000
 4959.00    0.96622   0.95856    0.000
 4960.00    0.97876   0.96337    0.000
 4961.00    0.98712   0.96465    0.000
 4962.00    0.98107   0.96292    0.000
 4963.00    0.96624   0.95894    0.000
 4964.00    0.95110   0.95440    0.000
 4965.00    0.92758   0.95142    0.000
 4966.00    0.89441   0.95096    0.000
 4967.00    0.88484   0.95288    0.000
 4968.00    0.91629   0.95675    0.000
 4969.00    0.93861   0.96182    0.000
 4970.00    0.91011   0.96707    0.000
 4971.00    0.87019   0.97118    0.000
 4972.00    0.86643   0.97286    0.000
 4973.00    0.88882   0.97135    0.000
 4974.00    0.90887   0.96620    0.000
 4975.00    0.91425   0.95748    0.000
 4976.00    0.90377   0.94579    0.000
 4977.00    0.88249   0.93224    0.000
 4978.00    0.86303   0.91850    0.000
 4979.00    0.86240   0.90612    0.000
 4980.00    0.87848   0.89645    0.000
 4981.00    0.88551   0.89132    0.000
 4982.00    0.87827   0.89237    0.000
 4983.00    0.88345   0.89909    0.000
 4984.00    0.90819   0.90901    0.000
 4985.00    0.92766   0.91955    0.000
 4986.00    0.93066   0.92854    0.000
 4987.00    0.93004   0.93449    0.000
 4988.00    0.93190   0.93759    0.000
 4989.00    0.92946   0.93906    0.000
 4990.00    0.92012   0.94006    0.000
 4991.00    0.90905   0.94110    0.000
 4992.00    0.90316   0.94157    0.000
 4993.00    0.90617   0.94114    0.000
 4994.00    0.91128   0.93947    0.000
 4995.00    0.90776   0.93557    0.000
 4996.00    0.89975   0.92916    0.000
 4997.00    0.90122   0.92086    0.000
 4998.00    0.91715   0.91174    0.000
 4999.00    0.94194   0.90330    0.000
 5000.00    0.96422   0.89665    0.000
 5001.00    0.97686   0.89208    0.000
 5002.00    0.99077   0.88943    0.000
 5003.00    1.01809   0.88815    0.000
 5004.00    1.04595   0.88825    0.000
 5005.00    1.05300   0.89023    0.000
 5006.00    1.03519   0.89358    0.000
 5007.00    1.00026   0.89590    0.000
 5008.00    0.95740   0.89479    0.000
 5009.00    0.91772   0.88997    0.000
 5010.00    0.89457   0.88284    0.000
 5011.00    0.88902   0.87519    0.000
 5012.00    0.88013   0.86903    0.000
 5013.00    0.85811   0.86563    0.000
 5014.00    0.84703   0.86529    0.000
 5015.00    0.85857   0.86729    0.000
 5016.00    0.86359   0.87057    0.000
 5017.00    0.84587   0.87529    0.000
 5018.00    0.83181   0.88175    0.000
 5019.00    0.84182   0.88880    0.000
 5020.00    0.86452   0.89511    0.000
 5021.00    0.88302   0.90065    0.000
 5022.00    0.89009   0.90596    0.000
 5023.00    0.88852   0.91069    0.000
 5024.00    0.88759   0.91438    0.000
 5025.00    0.88917   0.91747    0.000
 5026.00    0.88739   0.92089    0.000
 5027.00    0.88933   0.92557    0.000
 5028.00    0.91256   0.93098    0.000
 5029.00    0.94988   0.93521   16.905
 5030.00    0.97258   0.93717   17.092
 5031.00    0.97626   0.93626   17.582
 5032.00    0.97780   0.93159   17.556
 5033.00    0.96970   0.92282   17.189
 5034.00    0.92952   0.91123   17.363
 5035.00    0.87210   0.89952   18.086
 5036.00    0.83707   0.88970   18.594
 5037.00    0.83518   0.88212   18.562
 5038.00    0.84955   0.87777   18.292
 5039.00    0.86122   0.87840   18.088
 5040.00    0.86221   0.88508   18.078
 5041.00    0.86800   0.89695   18.174
 5042.00    0.89535   0.91002   18.205
 5043.00    0.92685   0.91992   18.146
 5044.00    0.93477   0.92511   18.093
 5045.00    0.92025   0.92544   18.178
 5046.00    0.90055   0.92179   18.428
 5047.00    0.88655   0.91678   18.592
 5048.00    0.88001   0.91353   18.479
 5049.00    0.87469   0.91357   18.323
 5050.00    0.86896   0.91670   18.331
 5051.00    0.87593   0.92245   18.270
 5052.00    0.90241   0.93006   18.015
 5053.00    0.93178   0.93804   17.950
 5054.00    0.94545   0.94509   18.244
 5055.00    0.94098   0.95088   18.378
 5056.00    0.93089   0.95539   18.090
 5057.00    0.93678   0.95809   17.956
 5058.00    0.96244   0.95818   18.230
 5059.00    0.98360   0.95549   18.337
 5060.00    0.98661   0.95019   17.971
 5061.00    0.98383   0.94258   17.629
 5062.00    0.97605   0.93355   17.655
 5063.00    0.94361   0.92473   17.933
 5064.00    0.89516   0.91834   18.303
 5065.00    0.87294   0.91517   18.713
 5066.00    0.88356   0.91373   19.121
 5067.00    0.88891   0.91304   19.442
 5068.00    0.87631   0.91325   19.534
 5069.00    0.86994   0.91374   19.273
 5070.00    0.88352   0.91311   18.760
 5071.00    0.90888   0.91141   18.253
 5072.00    0.92910   0.90950   17.911
 5073.00    0.92869   0.90660   17.795
 5074.00    0.90878   0.90179   17.968
 5075.00    0.88413   0.89579   18.447
 5076.00    0.86730   0.88944   18.970
 5077.00    0.86313   0.88301   19.154
 5078.00    0.86559   0.87791   19.127
 5079.00    0.86546   0.87685   19.284
 5080.00    0.86495   0.88048   19.550
 5081.00    0.87258   0.88674   19.589
 5082.00    0.89029   0.89398   19.406
 5083.00    0.90986   0.90189   19.247
 5084.00    0.91215   0.90985   19.294
 5085.00    0.88955   0.91674   19.593
 5086.00    0.87234   0.92239   20.018
 5087.00    0.88962   0.92738   20.320
 5088.00    0.92281   0.93160   20.254
 5089.00    0.94197   0.93424   19.823
 5090.00    0.94721   0.93488   19.404
 5091.00    0.94595   0.93326   19.331
 5092.00    0.93012   0.92888   19.614
 5093.00    0.89716   0.92169   19.944
 5094.00    0.86672   0.91282   19.752
 5095.00    0.85819   0.90407   19.067
 5096.00    0.87261   0.89717   18.806
 5097.00    0.89330   0.89332   19.352
 5098.00    0.89337   0.89316   19.964
 5099.00    0.87355   0.89627   19.929
 5100.00    0.87269   0.90042   19.477
 5101.00    0.90095   0.90309   19.084
 5102.00    0.91828   0.90339   18.980
 5103.00    0.90883   0.90188   19.103
 5104.00    0.90258   0.89953   19.176
 5105.00    0.90956   0.89708   19.150
 5106.00    0.90557   0.89544   19.262
 5107.00    0.88910   0.89592   19.479
 5108.00    0.88863   0.89878   19.440
 5109.00    0.91103   0.90352   19.106
 5110.00    0.93366   0.91005   18.816
 5111.00    0.93619   0.91724   18.763
 5112.00    0.91599   0.92357   18.901
 5113.00    0.90117   0.92859   18.997
 5114.00    0.92648   0.93175   18.818
 5115.00    0.96866   0.93251   18.552
 5116.00    0.97242   0.93050   18.585
 5117.00    0.93930   0.92524   18.923
 5118.00    0.91253   0.91700   19.274
 5119.00    0.90997   0.90697   19.460
 5120.00    0.92008   0.89650   19.494
 5121.00    0.91866   0.88677   19.531
 5122.00    0.89054   0.87867   19.674
 5123.00    0.85650   0.87336   19.718
 5124.00    0.84817   0.87121   19.427
 5125.00    0.86797   0.87133   18.979
 5126.00    0.89581   0.87299   18.704
 5127.00    0.90578   0.87605   18.758
 5128.00    0.88939   0.88027   19.079
 5129.00    0.87519   0.88524   19.340
 5130.00    0.88542   0.89008   19.294
 5131.00    0.89550   0.89345   19.150
 5132.00    0.88147   0.89495   19.230
 5133.00    0.86160   0.89498   19.649
 5134.00    0.85992   0.89335   20.292
 5135.00    0.87556   0.88947   20.794
 5136.00    0.89368   0.88453   20.824
 5137.00    0.89777   0.88025   20.412
 5138.00    0.88779   0.87718   19.893
 5139.00    0.88498   0.87588   19.696
 5140.00    0.89382   0.87523   19.906
 5141.00    0.88921   0.87397   20.172
 5142.00    0.86436   0.87355   20.287
 5143.00    0.84629   0.87420   20.427
 5144.00    0.85152   0.87412   20.642
 5145.00    0.87085   0.87320   20.668
 5146.00    0.89334   0.87250   20.305
 5147.00    0.91308   0.87235   19.662
 5148.00    0.91670   0.87263   19.267
 5149.00    0.88943   0.87289   19.713
 5150.00    0.84889   0.87370   20.672
 5151.00    0.83518   0.87619   20.915
 5152.00    0.85134   0.88054   20.415
 5153.00    0.86705   0.88656   20.299
 5154.00    0.87310   0.89374   20.675
 5155.00    0.88150   0.90061   20.805
 5156.00    0.89307   0.90537   20.571
 5157.00    0.89722   0.90656   20.461
 5158.00    0.88773   0.90321   20.690
 5159.00    0.86687   0.89521   21.131
 5160.00    0.84644   0.88226   21.424
 5161.00    0.83698   0.86494   21.246
 5162.00    0.83068   0.84541   20.792
 5163.00    0.81333   0.82491   20.527
 5164.00    0.78545   0.80412   20.776
 5165.00    0.75777   0.78531   21.505
 5166.00    0.74074   0.77161   21.952
 5167.00    0.73934   0.76547   21.512
 5168.00    0.74899   0.76687   21.011
 5169.00    0.76038   0.77326   21.223
 5170.00    0.76583   0.78188   21.614
 5171.00    0.76657   0.79318   21.483
 5172.00    0.77719   0.80941   21.174
 5173.00    0.80726   0.82879   21.086
 5174.00    0.84712   0.84536   20.884
 5175.00    0.88132   0.85492   20.413
 5176.00    0.89962   0.85714   20.205
 5177.00    0.89590   0.85304   20.497
 5178.00    0.86845   0.84401   20.759
 5179.00    0.82889   0.83244   20.559
 5180.00    0.80279   0.82124   20.140
 5181.00    0.80305   0.81287   19.909
 5182.00    0.81886   0.81006   20.093
 5183.00    0.83400   0.81556   20.476
 5184.00    0.83844   0.82773   20.427
 5185.00    0.83732   0.84062   19.953
 5186.00    0.84677   0.85020   19.792
 5187.00    0.86364   0.85568   20.103
 5188.00    0.86565   0.85821   20.344
 5189.00    0.85213   0.85849   20.333
 5190.00    0.84539   0.85642    0.000
 5191.00    0.85133   0.85478    0.000
 5192.00    0.85823   0.85679    0.000
 5193.00    0.86752   0.86147    0.000
 5194.00    0.89020   0.86665    0.000
 5195.00    0.91776   0.87236    0.000
 5196.00    0.92915   0.87794    0.000
 5197.00    0.92113   0.88151    0.000
 5198.00    0.90603   0.88189    0.000
 5199.00    0.89396   0.87845    0.000
 5200.00    0.88704   0.87132    0.000
 5201.00    0.87630   0.86156    0.000
 5202.00    0.85530   0.85087    0.000
 5203.00    0.84044   0.84074    0.000
 5204.00    0.84772   0.83340    0.000
 5205.00    0.85812   0.83149    0.000
 5206.00    0.84685   0.83496    0.000
 5207.00    0.82409   0.84182    0.000
 5208.00    0.81367   0.85145    0.000
 5209.00    0.82381   0.86272    0.000
 5210.00    0.84784   0.87340    0.000
 5211.00    0.86976   0.88226   19.728
 5212.00    0.87964   0.88870   19.681
 5213.00    0.88528   0.89272   19.606
 5214.00    0.89543   0.89546   19.203
 5215.00    0.90661   0.89876   18.386
 5216.00    0.91154   0.90309   17.528
 5217.00    0.90664   0.90691   17.289
 5218.00    0.89668   0.90792   17.701
 5219.00    0.89427   0.90449   17.852
 5220.00    0.90125   0.89680   17.285
 5221.00    0.90227   0.88626   16.730
 5222.00    0.88814   0.87452   16.677
 5223.00    0.86641   0.86372   16.979
 5224.00    0.85241   0.85600   17.311
 5225.00    0.85921   0.85260   17.394
 5226.00    0.87502   0.85457   17.315
 5227.00    0.86876   0.86161   17.481
 5228.00    0.84321   0.86992   17.984
 5229.00    0.83470   0.87646   18.498
 5230.00    0.84819   0.88129   18.835
 5231.00    0.85479   0.88474   19.098
 5232.00    0.84732   0.88816   19.372
 5233.00    0.84427   0.89350   19.595
 5234.00    0.85695   0.90066   19.556
 5235.00    0.88363   0.90844   19.103
 5236.00    0.91672   0.91545   18.556
 5237.00    0.94643   0.92091   18.375
 5238.00    0.96496   0.92471   18.572
 5239.00    0.96918   0.92662   18.854
 5240.00    0.96372   0.92660   18.987
 5241.00    0.95467   0.92461   18.942
 5242.00    0.93884   0.92107   18.972
 5243.00    0.91363   0.91646   19.289
 5244.00    0.89319   0.91063   19.589
 5245.00    0.89299   0.90362   19.486
 5246.00    0.90711   0.89724   19.260
 5247.00    0.91912   0.89331   19.302
 5248.00    0.91868   0.89124   19.437
 5249.00    0.90537   0.89056   19.382
 5250.00    0.89009   0.89248   19.286
 5251.00    0.88806   0.89684   19.339
 5252.00    0.91021   0.90187   19.389
 5253.00    0.94714   0.90625   19.288
 5254.00    0.96207   0.90968   19.184
 5255.00    0.93932   0.91188   19.265
 5256.00    0.91362   0.91088   19.564
 5257.00    0.91070   0.90449   19.948
 5258.00    0.91151   0.89241   20.141
 5259.00    0.89498   0.87604   20.089
 5260.00    0.86330   0.85783   20.110
 5261.00    0.82723   0.83991   20.373
 5262.00    0.79672   0.82360   20.677
 5263.00    0.77886   0.81048   20.766
 5264.00    0.77663   0.80211   20.565
 5265.00    0.78721   0.79904   20.287
 5266.00    0.80297   0.80065   20.292
 5267.00    0.81807   0.80438   20.552
 5268.00    0.83077   0.80872   20.644
 5269.00    0.84210   0.81660   20.470
 5270.00    0.85350   0.82966   20.338
 5271.00    0.86102   0.84414   20.340
 5272.00    0.85785   0.85683   20.342
 5273.00    0.84581   0.86779   20.431
 5274.00    0.83700   0.87736   20.800
 5275.00    0.84930   0.88606   21.110
 5276.00    0.89165   0.89342   20.794
 5277.00    0.93608   0.89735   20.238
 5278.00    0.94302   0.89796   20.187
 5279.00    0.92160   0.89760   20.457
 5280.00    0.90956   0.89829   20.418
 5281.00    0.91793   0.90106   20.200
 5282.00    0.93493   0.90623   20.226
 5283.00    0.94795   0.91419   20.198
 5284.00    0.94951   0.92464   19.764
 5285.00    0.94062   0.93485   19.552
 5286.00    0.92866   0.94202   20.163
 5287.00    0.92360   0.94587   20.973
 5288.00    0.93084   0.94721   21.012
 5289.00    0.94442   0.94590   20.607
 5290.00    0.95541   0.94105   20.461
 5291.00    0.96066   0.93284   20.550
 5292.00    0.95723   0.92301   20.657
 5293.00    0.93821   0.91338   20.856
 5294.00    0.90510   0.90440   21.221
 5295.00    0.87590   0.89639   21.560
 5296.00    0.86692   0.89107   21.646
 5297.00    0.87933   0.89073   21.450
 5298.00    0.90049   0.89571   21.195
 5299.00    0.91002   0.90322   21.235
 5300.00    0.90568   0.91074   21.494
 5301.00    0.91056   0.91838   21.347
 5302.00    0.93274   0.92654   20.872
 5303.00    0.95181   0.93415   21.022
 5304.00    0.95669   0.93971   21.769
 5305.00    0.95758   0.94286   21.718
 5306.00    0.96034   0.94443   20.739
 5307.00    0.95886   0.94540   20.297
 5308.00    0.94742   0.94568   20.693
 5309.00    0.92757   0.94421   20.983
 5310.00    0.91414   0.94079   20.775
 5311.00    0.92420   0.93636   20.574
 5312.00    0.94047   0.93177   20.602
 5313.00    0.92789   0.92758   20.695
 5314.00    0.90336   0.92388   20.881
 5315.00    0.91373   0.92052   21.299
 5316.00    0.94344   0.91799   21.641
 5317.00    0.94079   0.91585   21.404
 5318.00    0.91625   0.91256   20.855
 5319.00    0.91444   0.90743   20.589
 5320.00    0.92529   0.90010   20.557
 5321.00    0.91243   0.88991   -2.000
 5322.00    0.88624   0.87759   -2.000
 5323.00    0.87510   0.86587   -2.000
 5324.00    0.86693   0.85757   -2.000
 5325.00    0.84403   0.85275   -2.000
 5326.00    0.83734   0.85028   -2.000
 5327.00    0.87765   0.85178   -2.000
 5328.00    0.93302   0.86015   -2.000
 5329.00    0.95790   0.87334   -2.000
 5330.00    0.95144   0.88603   -2.000
 5331.00    0.93620   0.89545   -2.000
 5332.00    0.93086   0.90180   -2.000
 5333.00    0.93972   0.90544   -2.000
 5334.00    0.94796   0.90591   -2.000
 5335.00    0.93991   0.90366   20.173
 5336.00    0.91394   0.90044   20.861
 5337.00    0.88502   0.89768   21.003
 5338.00    0.88032   0.89539   20.884
 5339.00    0.90578   0.89391   20.867
 5340.00    0.93280   0.89482   21.063
 5341.00    0.93991   0.89797   21.350
 5342.00    0.93215   0.90073   21.460
 5343.00    0.91926   0.90199   21.415
 5344.00    0.90551   0.90261   21.599
 5345.00    0.89532   0.90402   22.056
 5346.00    0.89340   0.90696   22.327
 5347.00    0.89560   0.91085   22.246
 5348.00    0.89223   0.91603   22.124
 5349.00    0.89240   0.92353   22.053
 5350.00    0.91901   0.93250   21.836
 5351.00    0.96754   0.94095   21.543
 5352.00    1.00742   0.94797   21.483
 5353.00    1.02202   0.95378   21.724
 5354.00    1.01365   0.95783   22.100
 5355.00    0.98761   0.95895   22.476
 5356.00    0.95224   0.95707   22.778
 5357.00    0.92756   0.95284   22.899
 5358.00    0.92927   0.94668   22.812
 5359.00    0.93512   0.93891   22.814
 5360.00    0.91281   0.93015   23.175
 5361.00    0.87894   0.92128   23.465
 5362.00    0.86875   0.91313   23.107
 5363.00    0.87377   0.90529   22.533
 5364.00    0.86722   0.89722   22.381
 5365.00    0.85251   0.88989   22.407
 5366.00    0.84535   0.88443   22.170
 5367.00    0.84363   0.88140   21.952
 5368.00    0.84314   0.88076   22.100
 5369.00    0.85730   0.88265   22.261
 5370.00    0.89152   0.88806   22.021
 5371.00    0.91892   0.89731   21.627
 5372.00    0.91890   0.90834   21.426
 5373.00    0.91003   0.91778   21.399
 5374.00    0.91018   0.92404   21.557
 5375.00    0.90674   0.92718   22.186
 5376.00    0.89555   0.92792   23.100
 5377.00    0.90366   0.92721   23.087
 5378.00    0.93928   0.92564   21.899
 5379.00    0.96673   0.92366   21.062
 5380.00    0.96067   0.92201   21.274
 5381.00    0.93394   0.92106   21.882
 5382.00    0.90989   0.92044   22.236
 5383.00    0.90433   0.91995   22.395
 5384.00    0.91427   0.91900   22.586
 5385.00    0.92013   0.91656   22.867
 5386.00    0.91511   0.91256   23.074
 5387.00    0.91065   0.90749   22.939
 5388.00    0.91075   0.90176   22.601
 5389.00    0.90721   0.89588   22.546
 5390.00    0.89664   0.88996   22.923
 5391.00    0.88384   0.88424   23.488
 5392.00    0.87426   0.87978   23.956
 5393.00    0.87138   0.87696   24.162
 5394.00    0.87585   0.87501   24.149
 5395.00    0.88536   0.87335   24.075
 5396.00    0.89502   0.87269   23.944
 5397.00    0.89970   0.87351   23.721
 5398.00    0.89874   0.87359   23.679
 5399.00    0.89494   0.87087   24.101
 5400.00    0.89101   0.86641   24.613
 5401.00    0.88866   0.86184   24.617
 5402.00    0.88832   0.85673   24.418
 5403.00    0.88691   0.85107   24.587
 5404.00    0.87536   0.84710   24.751
 5405.00    0.85186   0.84739   24.324
 5406.00    0.83815   0.85186   23.710
 5407.00    0.85224   0.85795   23.487
 5408.00    0.87572   0.86382   23.494
 5409.00    0.88425   0.87047   23.402
 5410.00    0.88269   0.87948   23.321
 5411.00    0.88496   0.88946   23.397
 5412.00    0.89201   0.89775   23.403
 5413.00    0.90040   0.90353   23.099
 5414.00    0.91068   0.90774   22.581
 5415.00    0.92098   0.91127   22.162
 5416.00    0.92341   0.91350   22.189
 5417.00    0.91768   0.91310   22.605
 5418.00    0.91725   0.91051   22.750
 5419.00    0.92716   0.90775   22.473
 5420.00    0.93440   0.90627   22.563
 5421.00    0.93387   0.90558   22.915
 5422.00    0.93804   0.90358   22.181
 5423.00    0.95132   0.89977   21.290
 5424.00    0.96085   0.89674   23.015
 5425.00    0.95415   0.89521   25.006
 5426.00    0.93035   0.89251   18.939
 5427.00    0.91150   0.88704   12.548
 5428.00    0.93938   0.88040   10.084
 5429.00    1.04945   0.87629    9.270
 5430.00    1.24187   0.87598   -2.000
 5431.00    1.42406   0.87728   -2.000
 5432.00    1.45958   0.87983   -2.000
 5433.00    1.35189   0.88492   -2.000
 5434.00    1.28691   0.89283   -2.000
 5435.00    1.59662   0.90247   -2.000
 5436.00    2.44103   0.91209   -2.000
 5437.00    3.15983   0.92017   -2.000
 5438.00    2.88982   0.92500   -2.000
 5439.00    2.03460   0.92542   -2.000
 5440.00    1.64625   0.92142   -2.000
 5441.00    1.82895   0.91473   -2.000
 5442.00    2.03208   0.90763   -2.000
 5443.00    1.97009   0.90094   -2.000
 5444.00    1.66055   0.89506   -2.000
 5445.00    1.26128   0.89114   -2.000
 5446.00    0.95691   0.89062   -2.000
 5447.00    0.84203   0.89321   -2.000
 5448.00    0.89486   0.89562   -2.000
 5449.00    0.97629   0.89524   -2.000
 5450.00    0.97375   0.89307   -2.000
 5451.00    0.93551   0.89109   -2.000
 5452.00    0.93754   0.88967   -2.000
 5453.00    0.95777   0.88837   22.869
 5454.00    0.95413   0.88769   14.674
 5455.00    0.93339   0.88925   10.349
 5456.00    0.91735   0.89255   10.126
 5457.00    0.91419   0.89498   11.115
 5458.00    0.91999   0.89570   11.188
 5459.00    0.92304   0.89533   10.741
 5460.00    0.91680   0.89435   10.726
 5461.00    0.90617   0.89330   11.146
 5462.00    0.90028   0.89316   11.401
 5463.00    0.90659   0.89467   10.766
 5464.00    0.92237   0.89668   10.192
 5465.00    0.93467   0.89769   11.759
 5466.00    0.93658   0.89768   17.643
 5467.00    0.93209   0.89651   25.128
 5468.00    0.92793   0.89369   23.570
 5469.00    0.92859   0.88915   21.020
 5470.00    0.93085   0.88293   21.465
 5471.00    0.92699   0.87591   22.236
 5472.00    0.91966   0.86973   22.049
 5473.00    0.91957   0.86568   22.185
 5474.00    0.92795   0.86303   22.860
 5475.00    0.93512   0.86073   23.057
 5476.00    0.92877   0.86081   22.832
 5477.00    0.90527   0.86495   23.063
 5478.00    0.88800   0.87096   23.522
 5479.00    0.90314   0.87613   23.379
 5480.00    0.92897   0.88012   23.068
 5481.00    0.92591   0.88403   23.507
 5482.00    0.90179   0.88809   24.338
 5483.00    0.88876   0.89158   24.535
 5484.00    0.89242   0.89372   24.157
 5485.00    0.89931   0.89427   23.945
 5486.00    0.89779   0.89392   24.223
 5487.00    0.88595   0.89381   24.683
 5488.00    0.87650   0.89442   24.305
 5489.00    0.88172   0.89521   23.453
 5490.00    0.89736   0.89568   25.213
 5491.00    0.91255   0.89535   29.759
 5492.00    0.92129   0.89450   24.207
 5493.00    0.92378   0.89433   14.423
 5494.00    0.92571   0.89454   10.551
 5495.00    0.93049   0.89344   10.100
 5496.00    0.93392   0.89104   10.853
 5497.00    0.93011   0.88925   11.192
 5498.00    0.91641   0.88837   10.725
 5499.00    0.89652   0.88642   10.457
 5500.00    0.88030   0.88269   12.054
 5501.00    0.87371   0.87927   17.593
 5502.00    0.87365   0.87780   25.682
 5503.00    0.87153   0.87733   25.843
 5504.00    0.85909   0.87635   23.355
 5505.00    0.84544   0.87477   23.641
 5506.00    0.85445   0.87372   24.198
 5507.00    0.88493   0.87350   23.354
 5508.00    0.90720   0.87318   22.610
 5509.00    0.90737   0.87277   22.738
 5510.00    0.89534   0.87295   23.230
 5511.00    0.87860   0.87428   23.652
 5512.00    0.85843   0.87755   23.954
 5513.00    0.84307   0.88264   24.125
 5514.00    0.84513   0.88841   24.058
 5515.00    0.86581   0.89395   23.539
 5516.00    0.89546   0.89885   22.708
 5517.00    0.92404   0.90281   22.780
 5518.00    0.94486   0.90491   24.389
 5519.00    0.95698   0.90449   23.419
 5520.00    0.96431   0.90197   17.747
 5521.00    0.97288   0.89784   13.801
 5522.00    0.98459   0.89248   12.998
 5523.00    0.98879   0.88690   13.405
 5524.00    0.97392   0.88234   13.118
 5525.00    0.94552   0.87926   13.228
 5526.00    0.91780   0.87740   15.778
 5527.00    0.89962   0.87703   20.799
 5528.00    0.89246   0.87873   23.852
 5529.00    0.89088   0.88160   23.528
 5530.00    0.88897   0.88417   23.561
 5531.00    0.88674   0.88611   24.325
 5532.00    0.88778   0.88777   24.679
 5533.00    0.89590   0.88940   24.592
 5534.00    0.90945   0.89149   24.512
 5535.00    0.91855   0.89448   24.513
 5536.00    0.91678   0.89741   24.484
 5537.00    0.90883   0.89924   24.325
 5538.00    0.90091   0.90039   24.009
 5539.00    0.89461   0.90137   23.597
 5540.00    0.89024   0.90177   23.168
 5541.00    0.88885   0.90143   22.770
 5542.00    0.89040   0.90132   22.373
 5543.00    0.89317   0.90247   21.880
 5544.00    0.89501   0.90452   21.281
 5545.00    0.89454   0.90670   20.680
 5546.00    0.89295   0.90892   20.225
 5547.00    0.89399   0.91082   20.023
 5548.00    0.90099   0.91146   19.937
 5549.00    0.91472   0.91077   19.680
 5550.00    0.93022   0.90934   19.336
 5551.00    0.93913   0.90740   19.267
 5552.00    0.93953   0.90494   19.454
 5553.00    0.93573   0.90254   19.574
 5554.00    0.92971   0.90085   19.681
 5555.00    0.92013   0.89954   20.135
 5556.00    0.90565   0.89777   20.919
 5557.00    0.88888   0.89543   21.630
 5558.00    0.88268   0.89310   21.995
 5559.00    0.89892   0.89066   22.008
 5560.00    0.92557   0.88765   21.806
 5561.00    0.93915   0.88435   21.606
 5562.00    0.93283   0.88153   21.693
 5563.00    0.91532   0.87945   22.212
 5564.00    0.90110   0.87766   22.851
 5565.00    0.89884   0.87648   23.222
 5566.00    0.89891   0.87614   23.625
 5567.00    0.88976   0.87588   24.525
 5568.00    0.87871   0.87594   25.644
 5569.00    0.87796   0.87730   26.298
 5570.00    0.88705   0.87939   26.222
 5571.00    0.89723   0.88089   25.752
 5572.00    0.89860   0.88256   25.574
 5573.00    0.89023   0.88544   25.893
 5574.00    0.88588   0.88834   25.953
 5575.00    0.89329   0.89011   25.391
 5576.00    0.90053   0.89089   25.125
 5577.00    0.89925   0.89076   25.612
 5578.00    0.89841   0.88953   25.980
 5579.00    0.90142   0.88674   25.643
 5580.00    0.89616   0.88167   25.284
 5581.00    0.88337   0.87452   25.352
 5582.00    0.88485   0.86651   25.441
 5583.00    0.90160   0.85853   25.184
 5584.00    0.90332   0.85106   24.707
 5585.00    0.87783   0.84491   24.430
 5586.00    0.84678   0.84108   24.758
 5587.00    0.83623   0.84012   25.326
 5588.00    0.85978   0.84159   25.047
 5589.00    0.90320   0.84506   24.014
 5590.00    0.93147   0.85009   23.403
 5591.00    0.92762   0.85527   23.531
 5592.00    0.90026   0.85877   23.881
 5593.00    0.86855   0.86047   23.980
 5594.00    0.85090   0.86186   23.708
 5595.00    0.84833   0.86283   23.356
 5596.00    0.84895   0.86169   23.325
 5597.00    0.84749   0.85921   23.583
 5598.00    0.84648   0.85853   23.821
 5599.00    0.84938   0.86090   23.971
 5600.00    0.85744   0.86511   24.163
 5601.00    0.86693   0.87057   24.388
 5602.00    0.87251   0.87773   24.512
 5603.00    0.87348   0.88627   24.417
 5604.00    0.87386   0.89428   24.160
 5605.00    0.88070   0.90005   24.117
 5606.00    0.89749   0.90342   24.522
 5607.00    0.91676   0.90454   24.906
 5608.00    0.92954   0.90299   24.776
 5609.00    0.93673   0.89813   24.570
 5610.00    0.94053   0.89097   24.841
 5611.00    0.93508   0.88410   25.410
 5612.00    0.91507   0.87835   25.852
 5613.00    0.88428   0.87254   26.061
 5614.00    0.85257   0.86721   26.127
 5615.00    0.83194   0.86517   26.148
 5616.00    0.83034   0.86676   26.158
 5617.00    0.84744   0.86886   26.099
 5618.00    0.87614   0.86917   25.853
 5619.00    0.90464   0.86839   25.323
 5620.00    0.92101   0.86835   24.710
 5621.00    0.91731   0.86920   24.450
 5622.00    0.89670   0.86959   24.423
 5623.00    0.87399   0.86986   23.848
 5624.00    0.86080   0.87213   22.632
 5625.00    0.85908   0.87674   21.513
 5626.00    0.86486   0.88171   20.764
 5627.00    0.87150   0.88559   20.136
 5628.00    0.87554   0.88837   19.545
 5629.00    0.87775   0.88990   19.177
 5630.00    0.87938   0.88963   19.272
 5631.00    0.88123   0.88738   20.009
 5632.00    0.88460   0.88380   21.190
 5633.00    0.88911   0.88007   22.184
 5634.00    0.88611   0.87676   22.712
 5635.00    0.86651   0.87354   23.070
 5636.00    0.84305   0.87058   23.490
 5637.00    0.83855   0.86915   23.926
 5638.00    0.85002   0.86934   24.078
 5639.00    0.85802   0.86996   23.714
 5640.00    0.85894   0.87074   23.247
 5641.00    0.86048   0.87247   23.212
 5642.00    0.86336   0.87511   23.423
 5643.00    0.86440   0.87753   23.357
 5644.00    0.86574   0.87926   22.929
 5645.00    0.87115   0.88068   22.379
 5646.00    0.87935   0.88215   21.891
 5647.00    0.88843   0.88310   21.455
 5648.00    0.90144   0.88257   20.832
 5649.00    0.91699   0.88046   20.128
 5650.00    0.92002   0.87790   20.145
 5651.00    0.90281   0.87516   21.354
 5652.00    0.88385   0.87044   22.895
 5653.00    0.88106   0.86334   23.542
 5654.00    0.88831   0.85724   23.634
 5655.00    0.89186   0.85414   24.002
 5656.00    0.88511   0.85141   24.648
 5657.00    0.87057   0.84804   25.233
 5658.00    0.85882   0.84741   25.521
 5659.00    0.85834   0.85088   25.432
 5660.00    0.86904   0.85505   25.049
 5661.00    0.88326   0.85769   24.612
 5662.00    0.88886   0.86021   24.415
 5663.00    0.88081   0.86399   24.518
 5664.00    0.86573   0.86794   24.675
 5665.00    0.85560   0.87076   24.565
 5666.00    0.86145   0.87303   24.020
 5667.00    0.88064   0.87624   23.316
 5668.00    0.89790   0.88045   22.980
 5669.00    0.90718   0.88431   23.116
 5670.00    0.91418   0.88737   23.401
 5671.00    0.91904   0.89041   23.580
 5672.00    0.91677   0.89308   23.591
 5673.00    0.91473   0.89385   23.435
 5674.00    0.92667   0.89269   23.163
 5675.00    0.94555   0.89105   22.946
 5676.00    0.95107   0.88880   22.964
 5677.00    0.94252   0.88475   23.129
 5678.00    0.93394   0.87987   23.220
 5679.00    0.92904   0.87595   23.268
 5680.00    0.92328   0.87271   23.425
 5681.00    0.91699   0.86913   23.551
 5682.00    0.91387   0.86602   23.439
 5683.00    0.91485   0.86490   23.291
 5684.00    0.91750   0.86566   23.428
 5685.00    0.91709   0.86723   23.797
 5686.00    0.91316   0.86929   24.117
 5687.00    0.91676   0.87255   24.171
 5688.00    0.93695   0.87668   23.978
 5689.00    0.96486   0.88048   23.869
 5690.00    0.98509   0.88332   24.076
 5691.00    0.98959   0.88527   24.368
 5692.00    0.97885   0.88569   24.442
 5693.00    0.96087   0.88411   24.342
 5694.00    0.94304   0.88152   24.223
 5695.00    0.92625   0.87843   24.111
 5696.00    0.91090   0.87428   24.016
 5697.00    0.90087   0.86964   24.009
 5698.00    0.89664   0.86590   24.043
 5699.00    0.89202   0.86287   23.900
 5700.00    0.88284   0.85923   23.563
 5701.00    0.87194   0.85520   23.334
 5702.00    0.86612   0.85174   23.336
 5703.00    0.87238   0.84823   23.348
 5704.00    0.88859   0.84410   23.124
 5705.00    0.90221   0.84054   22.623
 5706.00    0.90403   0.83833   22.174
 5707.00    0.89344   0.83771   22.267
 5708.00    0.87542   0.83967   22.784
 5709.00    0.85790   0.84408   23.014
 5710.00    0.84721   0.84980   22.943
 5711.00    0.84706   0.85648   23.255
 5712.00    0.86028   0.86398   23.667
 5713.00    0.88616   0.87131   23.170
 5714.00    0.91215   0.87777   22.357
 5715.00    0.92146   0.88334   22.600
 5716.00    0.91603   0.88809   23.524
 5717.00    0.91055   0.89204   23.487
 5718.00    0.90760   0.89515   22.510
 5719.00    0.90229   0.89735   21.842
 5720.00    0.90119   0.89866   21.744
 5721.00    0.91425   0.89874   21.796
 5722.00    0.93517   0.89748   21.612
 5723.00    0.94978   0.89590   21.121
 5724.00    0.95395   0.89458   20.744
 5725.00    0.94928   0.89273   20.922
 5726.00    0.93393   0.89017   21.618
 5727.00    0.91094   0.88864   22.471
 5728.00    0.89830   0.88894   23.048
 5729.00    0.90967   0.88961   23.143
 5730.00    0.93322   0.88978   23.098
 5731.00    0.95000   0.89027   23.242
 5732.00    0.95391   0.89155   23.367
 5733.00    0.94845   0.89272   23.268
 5734.00    0.94150   0.89304   23.209
 5735.00    0.94099   0.89284   23.333
 5736.00    0.95084   0.89253   23.260
 5737.00    0.96468   0.89206   22.792
 5738.00    0.96487   0.89134   22.325
 5739.00    0.94418   0.89092   22.113
 5740.00    0.91632   0.89103   -2.000
 5741.00    0.89521   0.89103   -2.000
 5742.00    0.88398   0.89014   -2.000
 5743.00    0.88148   0.88881   -2.000
 5744.00    0.88598   0.88792   -2.000
 5745.00    0.89490   0.88701   -2.000
 5746.00    0.90520   0.88497   -2.000
 5747.00    0.91557   0.88192   -2.000
 5748.00    0.92563   0.87911   -2.000
 5749.00    0.92981   0.87727   -2.000
 5750.00    0.92015   0.87630   -2.000
 5751.00    0.90188   0.87582   -2.000
 5752.00    0.89076   0.87576   -2.000
 5753.00    0.89087   0.87650   -2.000
 5754.00    0.89406   0.87794   -2.000
 5755.00    0.89536   0.87919   -2.000
 5756.00    0.89505   0.87928   -2.000
 5757.00    0.89397   0.87825   -2.000
 5758.00    0.89226   0.87711   -2.000
 5759.00    0.88916   0.87704   -2.000
 5760.00    0.88486   0.87794    0.000
 5761.00    0.88380   0.87939    0.000
 5762.00    0.89089   0.88190    0.000
 5763.00    0.90450   0.88560    0.000
 5764.00    0.91764   0.88919    0.000
 5765.00    0.92174   0.89145    0.000
 5766.00    0.91261   0.89240    0.000
 5767.00    0.89691   0.89234    0.000
 5768.00    0.88517   0.89150    0.000
 5769.00    0.88235   0.88996    0.000
 5770.00    0.88502   0.88794    0.000
 5771.00    0.88108   0.88584    0.000
 5772.00    0.86572   0.88373    0.000
 5773.00    0.85412   0.88121    0.000
 5774.00    0.85793   0.87790    0.000
 5775.00    0.86675   0.87340    0.000
 5776.00    0.86705   0.86764    0.000
 5777.00    0.85716   0.86164    0.000
 5778.00    0.84385   0.85621    0.000
 5779.00    0.83758   0.85092    0.000
 5780.00    0.84214   0.84620    0.000
 5781.00    0.85042   0.84410    0.000
 5782.00    0.85575   0.84512    0.000
 5783.00    0.85772   0.84755    0.000
 5784.00    0.85926   0.85057    0.000
 5785.00    0.86456   0.85459    0.000
 5786.00    0.87684   0.85928    0.000
 5787.00    0.89695   0.86386    0.000
 5788.00    0.92224   0.86785    0.000
 5789.00    0.94646   0.87111    0.000
 5790.00    0.96111   0.87402    0.000
 5791.00    0.95893   0.87683    0.000
 5792.00    0.94248   0.87890    0.000
 5793.00    0.92287   0.88039    0.000
 5794.00    0.90890   0.88238    0.000
 5795.00    0.90333   0.88452    0.000
 5796.00    0.90155   0.88582    0.000
 5797.00    0.89614   0.88691    0.000
 5798.00    0.88701   0.88839    0.000
 5799.00    0.87901   0.88918    0.000
 5800.00    0.87303   0.88872    0.000
 5801.00    0.86733   0.88786    0.000
 5802.00    0.86278   0.88699    0.000
 5803.00    0.86249   0.88583    0.000
 5804.00    0.86968   0.88484    0.000
 5805.00    0.88623   0.88471    0.000
 5806.00    0.91089   0.88520    0.000
 5807.00    0.93716   0.88557    0.000
 5808.00    0.95169   0.88573    0.000
 5809.00    0.94461   0.88587    0.000
 5810.00    0.92045   0.88563    0.000
 5811.00    0.89121   0.88480    0.000
 5812.00    0.86786   0.88434    0.000
 5813.00    0.85764   0.88490    0.000
 5814.00    0.86201   0.88592    0.000
 5815.00    0.87433   0.88711    0.000
 5816.00    0.88065   0.88913    0.000
 5817.00    0.87827   0.89175    0.000
 5818.00    0.88459   0.89386    0.000
 5819.00    0.90715   0.89525    0.000
 5820.00    0.92833   0.89641    0.000
 5821.00    0.93266   0.89722    0.000
 5822.00    0.92156   0.89745    0.000
 5823.00    0.90484   0.89753    0.000
 5824.00    0.89390   0.89783    0.000
 5825.00    0.89320   0.89793    0.000
 5826.00    0.89783   0.89752    0.000
 5827.00    0.89969   0.89700    0.000
 5828.00    0.89274   0.89653    0.000
 5829.00    0.88202   0.89557    0.000
 5830.00    0.88139   0.89411    0.000
 5831.00    0.89589   0.89311    0.000
 5832.00    0.91852   0.89262    0.000
 5833.00    0.93847   0.89188    0.000
 5834.00    0.94652   0.89137    0.000
 5835.00    0.94219   0.89202    0.000
 5836.00    0.93182   0.89318    0.000
 5837.00    0.91986   0.89385    0.000
 5838.00    0.90852   0.89431    0.000
 5839.00    0.90123   0.89477    0.000
 5840.00    0.90034   0.89455    0.000
 5841.00    0.90174   0.89326    0.000
 5842.00    0.89899   0.89115    0.000
 5843.00    0.89140   0.88850    0.000
 5844.00    0.88256   0.88546    0.000
 5845.00    0.87613   0.88217    0.000
 5846.00    0.87447   0.87871    0.000
 5847.00    0.87765   0.87493    0.000
 5848.00    0.88193   0.87064    0.000
 5849.00    0.87891   0.86631    0.000
 5850.00    0.86418   0.86247    0.000
 5851.00    0.84555   0.85853    0.000
 5852.00    0.83299   0.85407    0.000
 5853.00    0.82867   0.85047    0.000
 5854.00    0.83139   0.84896    0.000
 5855.00    0.84068   0.84877    0.000
 5856.00    0.85297   0.84901    0.000
 5857.00    0.85986   0.85016    0.000
 5858.00    0.85769   0.85268    0.000
 5859.00    0.85273   0.85613    0.000
 5860.00    0.85183   0.85958    0.000
 5861.00    0.85620   0.86216    0.000
 5862.00    0.86090   0.86423    0.000
 5863.00    0.85732   0.86677    0.000
 5864.00    0.84546   0.86938    0.000
 5865.00    0.83706   0.87115    0.000
 5866.00    0.84252   0.87232    0.000
 5867.00    0.86416   0.87341    0.000
 5868.00    0.89284   0.87399    0.000
 5869.00    0.91238   0.87364    0.000
 5870.00    0.91843   0.87238    0.000
 5871.00    0.92086   0.87032    0.000
 5872.00    0.93053   0.86794    0.000
 5873.00    0.95142   0.86577    0.000
 5874.00    0.97147   0.86348    0.000
 5875.00    0.97211   0.86079    0.000
 5876.00    0.95695   0.85841    0.000
 5877.00    0.94411   0.85662    0.000
 5878.00    0.93442   0.85413    0.000
 5879.00    0.91765   0.85009    0.000
 5880.00    0.89818   0.84463    0.000
 5881.00    0.88776   0.83732    0.000
 5882.00    0.88440   0.82725    0.000
 5883.00    0.87670   0.81428    0.000
 5884.00    0.85656   0.79819    0.000
 5885.00    0.82364   0.78024    0.000
 5886.00    0.78815   0.76413    0.000
 5887.00    0.76261   0.75136    0.000
 5888.00    0.75099   0.74059    0.000
 5889.00    0.74807   0.73342    0.000
 5890.00    0.74144   0.73154    0.000
 5891.00    0.72453   0.73301    0.000
 5892.00    0.70797   0.73745    0.000
 5893.00    0.70360   0.74592    0.000
 5894.00    0.71018   0.75589    0.000
 5895.00    0.72411   0.76655    0.000
 5896.00    0.74778   0.78060    0.000
 5897.00    0.78029   0.79645    0.000
 5898.00    0.81169   0.81020    0.000
 5899.00    0.83326   0.82188    0.000
 5900.00    0.84426   0.83236    0.000
 5901.00    0.85072   0.84048   26.052
 5902.00    0.86190   0.84620   26.256
 5903.00    0.87730   0.85060   25.690
 5904.00    0.88422   0.85363   25.498
 5905.00    0.87778   0.85523   25.984
 5906.00    0.86694   0.85627   26.060
 5907.00    0.85998   0.85697   25.424
 5908.00    0.85892   0.85645   25.015
 5909.00    0.86254   0.85472   25.063
 5910.00    0.86786   0.85295   24.859
 5911.00    0.87166   0.85165   23.863
 5912.00    0.87180   0.85050   22.252
 5913.00    0.87001   0.84976   20.857
 5914.00    0.87073   0.85009   20.368
 5915.00    0.87649   0.85151   20.488
 5916.00    0.88634   0.85350   20.516
 5917.00    0.89559   0.85538   20.868
 5918.00    0.89804   0.85706   22.520
 5919.00    0.89086   0.85870   24.709
 5920.00    0.87601   0.85991   25.044
 5921.00    0.86097   0.86032   24.193
 5922.00    0.85476   0.86023   24.441
 5923.00    0.86102   0.85987   25.410
 5924.00    0.87526   0.85902   25.495
 5925.00    0.88319   0.85759   25.214
 5926.00    0.87340   0.85616   25.806
 5927.00    0.85351   0.85543   26.656
 5928.00    0.83822   0.85507   26.606
 5929.00    0.83288   0.85449   26.316
 5930.00    0.83691   0.85444   26.715
 5931.00    0.84933   0.85561   27.198
 5932.00    0.86570   0.85692   26.971
 5933.00    0.87582   0.85743   26.595
 5934.00    0.87401   0.85803   26.679
 5935.00    0.86697   0.85912   26.845
 5936.00    0.86434   0.85948   26.569
 5937.00    0.87050   0.85906   25.900
 5938.00    0.88099   0.85898   25.249
 5939.00    0.88306   0.85900   25.070
 5940.00    0.87173   0.85848   25.377
 5941.00    0.85705   0.85811   25.607
 5942.00    0.84906   0.85820   25.484
 5943.00    0.84952   0.85781   25.397
 5944.00    0.85433   0.85649   25.480
 5945.00    0.85635   0.85524   25.359
 5946.00    0.85163   0.85458   25.038
 5947.00    0.84180   0.85339   25.036
 5948.00    0.83240   0.85143   25.469
 5949.00    0.83072   0.85045   25.884
 5950.00    0.84038   0.85084   25.870
 5951.00    0.85941   0.85080   25.383
 5952.00    0.87977   0.85025   24.764
 5953.00    0.89165   0.85091   24.457
 5954.00    0.89487   0.85269   24.519
 5955.00    0.89664   0.85435   24.709
 5956.00    0.89832   0.85604   24.872
 5957.00    0.89613   0.85831   24.957
 5958.00    0.89015   0.86073   24.849
 5959.00    0.88452   0.86286   24.456
 5960.00    0.88376   0.86454   23.957
 5961.00    0.88971   0.86559   23.586
 5962.00    0.89775   0.86644   23.283
 5963.00    0.90145   0.86745   22.904
 5964.00    0.90071   0.86822   22.554
 5965.00    0.89953   0.86877   22.467
 5966.00    0.90096   0.86959   22.805
 5967.00    0.90421   0.87022   23.496
 5968.00    0.90247   0.86998   23.998
 5969.00    0.88975   0.86907   23.955
 5970.00    0.86854   0.86748   24.068
 5971.00    0.84643   0.86493   24.912
 5972.00    0.83158   0.86189   25.709
 5973.00    0.82999   0.85900   25.498
 5974.00    0.84314   0.85632   24.728
 5975.00    0.86503   0.85393   24.213
 5976.00    0.88174   0.85210   24.216
 5977.00    0.88432   0.85078   24.635
 5978.00    0.87697   0.84956   25.107
 5979.00    0.86762   0.84795   25.295
 5980.00    0.86111   0.84631   25.138
 5981.00    0.85830   0.84554   24.838
 5982.00    0.85655   0.84523   24.731
 5983.00    0.85478   0.84480   25.000
 5984.00    0.85500   0.84545   25.549
 5985.00    0.85723   0.84768   25.962
 5986.00    0.85843   0.84980   25.680
 5987.00    0.85753   0.85124   24.973
 5988.00    0.85734   0.85316   24.754
 5989.00    0.86297   0.85528   25.022
 5990.00    0.87816   0.85623   24.907
 5991.00    0.89550   0.85627   24.401
 5992.00    0.89966   0.85618   24.341
 5993.00    0.88613   0.85558   24.801
 5994.00    0.86360   0.85419   25.101
 5995.00    0.84503   0.85267   24.990
 5996.00    0.84094   0.85146   24.785
 5997.00    0.84992   0.85022   24.709
 5998.00    0.86171   0.84871   24.785
 5999.00    0.86849   0.84735   24.959
 6000.00    0.86762   0.84632   25.095
 6001.00    0.86214   0.84501   24.953
 6002.00    0.85648   0.84341   24.494
 6003.00    0.84961   0.84195   24.279
 6004.00    0.84051   0.84068   24.768
 6005.00    0.83732   0.84005   25.334
 6006.00    0.84721   0.84013   25.078
 6007.00    0.86178   0.84009   24.421
 6008.00    0.86806   0.83981   24.152
 6009.00    0.86364   0.83996   24.235
 6010.00    0.85443   0.84043   24.241
 6011.00    0.84962   0.84002   23.874
 6012.00    0.85432   0.83855   23.351
 6013.00    0.86362   0.83758   23.478
 6014.00    0.86935   0.83734   24.593
 6015.00    0.86671   0.83626   25.684
 6016.00    0.85632   0.83474   25.728
 6017.00    0.84476   0.83466   25.327
 6018.00    0.83982   0.83543   25.144
 6019.00    0.84588   0.83580   24.890
 6020.00    0.85683   0.83692   24.502
 6021.00    0.85600   0.83969   24.616
 6022.00    0.83945   0.84263   25.423
 6023.00    0.82380   0.84512   26.197
 6024.00    0.82036   0.84852   26.364
 6025.00    0.82486   0.85232   26.184
 6026.00    0.83055   0.85516   26.115
 6027.00    0.83445   0.85763   26.392
 6028.00    0.83760   0.86044   26.787
 6029.00    0.84291   0.86273   26.742
 6030.00    0.84789   0.86408   26.348
 6031.00    0.84639   0.86515   26.249
 6032.00    0.84172   0.86603   26.355
 6033.00    0.84339   0.86635   25.996
 6034.00    0.84682   0.86610   25.371
 6035.00    0.83794   0.86564   25.293
 6036.00    0.81843   0.86520   25.920
 6037.00    0.80357   0.86474   26.761
 6038.00    0.80325   0.86429   27.166
 6039.00    0.81786   0.86449   26.740
 6040.00    0.83934   0.86513   25.842
 6041.00    0.85779   0.86569   25.117
 6042.00    0.87241   0.86658   24.760
 6043.00    0.88588   0.86779   24.696
 6044.00    0.89291   0.86840   24.885
 6045.00    0.88757   0.86832   25.257
 6046.00    0.87565   0.86819   25.569
 6047.00    0.86744   0.86753   25.619
 6048.00    0.86616   0.86575   25.565
 6049.00    0.86792   0.86360   25.603
 6050.00    0.86411   0.86171   25.591
 6051.00    0.85132   0.85969   25.403
 6052.00    0.83984   0.85754   25.290
 6053.00    0.83865   0.85619   25.535
 6054.00    0.84226   0.85564   26.145
 6055.00    0.84235   0.85528   26.805
 6056.00    0.83803   0.85500   26.909
 6057.00    0.83424   0.85463   26.361
 6058.00    0.83847   0.85403   25.953
 6059.00    0.85076   0.85335   26.104
 6060.00    0.85979   0.85243   26.348
 6061.00    0.85839   0.85123   26.285
 6062.00    0.85141   0.85133   26.102
 6063.00    0.84737   0.85306   26.007
 6064.00    0.85256   0.85505   25.967
 6065.00    0.86550   0.85759   25.956
 6066.00    0.87727   0.86125   26.007
 6067.00    0.88333   0.86480   25.909
 6068.00    0.88589   0.86725   25.317
 6069.00    0.88391   0.86882   24.551
 6070.00    0.87282   0.86933   24.366
 6071.00    0.85640   0.86852   24.816
 6072.00    0.84612   0.86669   25.304
 6073.00    0.84752   0.86387   25.626
 6074.00    0.85783   0.85997   26.087
 6075.00    0.87073   0.85615   26.708
 6076.00    0.87937   0.85308   27.110
 6077.00    0.88046   0.84966   26.926
 6078.00    0.87442   0.84630   26.110
 6079.00    0.86371   0.84462   25.112
 6080.00    0.85243   0.84379   24.351
 6081.00    0.84615   0.84252   23.585
 6082.00    0.84785   0.84174   22.504
 6083.00    0.85168   0.84203   21.538
 6084.00    0.84905   0.84230   21.278
 6085.00    0.83916   0.84185   21.923
 6086.00    0.82709   0.84147   23.284
 6087.00    0.81872   0.84194   24.452
 6088.00    0.81706   0.84244   24.528
 6089.00    0.81905   0.84250   24.220
 6090.00    0.82052   0.84336   24.497
 6091.00    0.82170   0.84502   25.064
 6092.00    0.82487   0.84598   25.387
 6093.00    0.83136   0.84621   25.845
 6094.00    0.84068   0.84609   26.703
 6095.00    0.85014   0.84495   27.075
 6096.00    0.85570   0.84295   26.523
 6097.00    0.85336   0.84020   26.252
 6098.00    0.84325   0.83617   26.861
 6099.00    0.83140   0.83277   27.228
 6100.00    0.82292   0.83189   26.574
 6101.00    0.81838   0.83173   25.722
 6102.00    0.81815   0.83196   25.025
 6103.00    0.82431   0.83415   23.830
 6104.00    0.83801   0.83760   22.227
 6105.00    0.85709   0.84094   21.135
 6106.00    0.87258   0.84379   21.030
 6107.00    0.87199   0.84600   21.917
 6108.00    0.85830   0.84781   23.442
 6109.00    0.84963   0.84933   24.753
 6110.00    0.85164   0.84999   25.258
 6111.00    0.85406   0.84948   25.164
 6112.00    0.85084   0.84822   24.845
 6113.00    0.84457   0.84674   24.556
 6114.00    0.84012   0.84432   24.556
 6115.00    0.84074   0.84054   25.074
 6116.00    0.84348   0.83678   26.083
 6117.00    0.84163   0.83318   27.226
 6118.00    0.83264   0.82915   27.866
 6119.00    0.81906   0.82679   27.518
 6120.00    0.80645   0.82649   26.677
 6121.00    0.79922   0.82621   26.183
 6122.00    0.79436   0.82692   26.185
 6123.00    0.78620   0.82945   26.413
 6124.00    0.77564   0.83173   26.643
 6125.00    0.76711   0.83328   26.819
 6126.00    0.76225   0.83512   27.129
 6127.00    0.76175   0.83616   27.691
 6128.00    0.76852   0.83530   28.112
 6129.00    0.78327   0.83308   27.817
 6130.00    0.79956   0.82964   26.685
 6131.00    0.81070   0.82501   25.138
 6132.00    0.81687   0.81935   23.847
 6133.00    0.81945   0.81355   23.125
 6134.00    0.81583   0.81009   22.785
 6135.00    0.80561   0.80958   22.706
 6136.00    0.79495   0.81014   23.147
 6137.00    0.78869   0.81162   24.281
 6138.00    0.78512   0.81566   25.809
 6139.00    0.78305   0.82148   27.206
 6140.00    0.78561   0.82606   28.001
 6141.00    0.79402   0.82929   -2.000
 6142.00    0.80447   0.83263   -2.000
 6143.00    0.81164   0.83501   -2.000
 6144.00    0.81158   0.83529   -2.000
 6145.00    0.80550   0.83478   -2.000
 6146.00    0.80001   0.83436   -2.000
 6147.00    0.80051   0.83356   -2.000
 6148.00    0.80772   0.83259   -2.000
 6149.00    0.81516   0.83183   -2.000
 6150.00    0.81269   0.83031   -2.000
 6151.00    0.80043   0.82819   -2.000
 6152.00    0.78817   0.82612   -2.000
 6153.00    0.77932   0.82253   21.060
 6154.00    0.77000   0.81696   21.513
 6155.00    0.75950   0.81115   23.054
 6156.00    0.75068   0.80479   24.790
 6157.00    0.74408   0.79670   25.955
 6158.00    0.73792   0.78908   26.566
 6159.00    0.73143   0.78428   27.200
 6160.00    0.72648   0.78149   28.177
 6161.00    0.72930   0.77963   28.152
 6162.00    0.74394   0.77946   26.400
 6163.00    0.76161   0.78195   26.250
 6164.00    0.76984   0.78508   29.620
 6165.00    0.76880   0.78652   27.669
 6166.00    0.76563   0.78852   18.269
 6167.00    0.76368   0.79284   13.247
 6168.00    0.76530   0.79644   12.334
 6169.00    0.77643   0.79847   12.869
 6170.00    0.79758   0.80215   12.776
 6171.00    0.81485   0.80695   12.266
 6172.00    0.81419   0.81005   12.236
 6173.00    0.79595   0.81264   12.562
 6174.00    0.77197   0.81649   12.871
 6175.00    0.75991   0.81963   13.197
 6176.00    0.76837   0.82112   13.337
 6177.00    0.78741   0.82305   12.551
 6178.00    0.80295   0.82500   11.657
 6179.00    0.80805   0.82518   13.019
 6180.00    0.80625   0.82447   19.586
 6181.00    0.80987   0.82361   30.719
 6182.00    0.82115   0.82128   29.613
 6183.00    0.82605   0.81755   24.974
 6184.00    0.81697   0.81361   25.041
 6185.00    0.80179   0.81015   26.547
 6186.00    0.79134   0.80676   26.665
 6187.00    0.79245   0.80305   26.408
 6188.00    0.80379   0.80139   26.673
 6189.00    0.81638   0.80262   26.848
 6190.00    0.82124   0.80409   26.629
 6191.00    0.81430   0.80570   26.415
 6192.00    0.80249   0.80895   26.281
 6193.00    0.79910   0.81255   25.981
 6194.00    0.80575   0.81480   25.792
 6195.00    0.81201   0.81612   26.265
 6196.00    0.80777   0.81753   27.113
 6197.00    0.78955   0.81918   27.394
 6198.00    0.76658   0.82058   27.042
 6199.00    0.75402   0.82179   26.718
 6200.00    0.75679   0.82333   26.555
 6201.00    0.77019   0.82512   26.282
 6202.00    0.78696   0.82646   25.811
 6203.00    0.80016   0.82686   25.240
 6204.00    0.80561   0.82651   24.688
 6205.00    0.80321   0.82527   24.152
 6206.00    0.79791   0.82248   23.411
 6207.00    0.79493   0.81856   22.417
 6208.00    0.79367   0.81410   21.623
 6209.00    0.79182   0.80871   21.451
 6210.00    0.79053   0.80323   21.931
 6211.00    0.79097   0.79862   22.952
 6212.00    0.79056   0.79459   24.425
 6213.00    0.78694   0.79175   26.121
 6214.00    0.78153   0.79036   27.441
 6215.00    0.77569   0.78953   27.864
 6216.00    0.76768   0.78946   27.603
 6217.00    0.75703   0.79057   27.334
 6218.00    0.74759   0.79214   27.707
 6219.00    0.74485   0.79341   28.610
 6220.00    0.75288   0.79447   28.793
 6221.00    0.76748   0.79562   27.871
 6222.00    0.77528   0.79593   27.206
 6223.00    0.77014   0.79478   27.459
 6224.00    0.75937   0.79334   27.968
 6225.00    0.75127   0.79157   28.094
 6226.00    0.74909   0.78862   27.855
 6227.00    0.75211   0.78639   27.474
 6228.00    0.75711   0.78601   27.108
 6229.00    0.76158   0.78586   26.762
 6230.00    0.76515   0.78662   26.389
 6231.00    0.76986   0.78890   26.219
 6232.00    0.77843   0.79066   26.590
 6233.00    0.78908   0.79125   27.179
 6234.00    0.79664   0.79161   27.176
 6235.00    0.79945   0.79078   26.730
 6236.00    0.79965   0.78815   26.684
 6237.00    0.79909   0.78589   27.035
 6238.00    0.79778   0.78371   27.165
 6239.00    0.79285   0.78044   27.065
 6240.00    0.78148   0.77858   27.179
 6241.00    0.76659   0.77849   27.550
 6242.00    0.75491   0.77798   27.901
 6243.00    0.75173   0.77830   28.069
 6244.00    0.75862   0.78017   28.068
 6245.00    0.77157   0.78125   28.031
 6246.00    0.78392   0.78144   28.092
 6247.00    0.79094   0.78150   28.262
 6248.00    0.79015   0.78010   28.510
 6249.00    0.78100   0.77750   28.878
 6250.00    0.76551   0.77488   29.387
 6251.00    0.74877   0.77201   29.895
 6252.00    0.73667   0.76934   30.156
 6253.00    0.73335   0.76792   29.936
 6254.00    0.73796   0.76746   29.315
 6255.00    0.74309   0.76848   28.779
 6256.00    0.74450   0.77160   28.581
 6257.00    0.74766   0.77507   28.416
 6258.00    0.75821   0.77887   27.979
 6259.00    0.77503   0.78401   27.329
 6260.00    0.79192   0.78853   26.650
 6261.00    0.80028   0.79124   26.107
 6262.00    0.79661   0.79406   25.879
 6263.00    0.78609   0.79694   26.124
 6264.00    0.77923   0.79816   26.575
 6265.00    0.78667   0.79884   26.516
 6266.00    0.80485   0.80020   26.018
 6267.00    0.81577   0.80130   26.045
 6268.00    0.81202   0.80200   26.791
 6269.00    0.80224   0.80296   27.443
 6270.00    0.79363   0.80371   27.663
 6271.00    0.78693   0.80410   27.981
 6272.00    0.78136   0.80420   28.597
 6273.00    0.77686   0.80360   29.171
 6274.00    0.77571   0.80276   29.569
 6275.00    0.78087   0.80193   29.907
 6276.00    0.79071   0.80078   29.933
 6277.00    0.79940   0.80016   29.326
 6278.00    0.80083   0.80037   28.687
 6279.00    0.79171   0.80109   28.871
 6280.00    0.77576   0.80262    0.000
 6281.00    0.76086   0.80468    0.000
 6282.00    0.75237   0.80691    0.000
 6283.00    0.75147   0.80913    0.000
 6284.00    0.75471   0.81094    0.000
 6285.00    0.75838   0.81205    0.000
 6286.00    0.76449   0.81222    0.000
 6287.00    0.77533   0.81167    0.000
 6288.00    0.78589   0.81047    0.000
 6289.00    0.79044   0.80835    0.000
 6290.00    0.79095   0.80584    0.000
 6291.00    0.79160   0.80338    0.000
 6292.00    0.79242   0.80052    0.000
 6293.00    0.79335   0.79749    0.000
 6294.00    0.79785   0.79487    0.000
 6295.00    0.80742   0.79271    0.000
 6296.00    0.81750   0.79106    0.000
 6297.00    0.82407   0.78993    0.000
 6298.00    0.82798   0.78949    0.000
 6299.00    0.82920   0.79037    0.000
 6300.00    0.82401   0.79228    0.000
 6301.00    0.81356   0.79427    0.000
 6302.00    0.80672   0.79673    0.000
 6303.00    0.80728   0.79982    0.000
 6304.00    0.80922   0.80214    0.000
 6305.00    0.80748   0.80336    0.000
 6306.00    0.80227   0.80409    0.000
 6307.00    0.79466   0.80356    0.000
 6308.00    0.78493   0.80158    0.000
 6309.00    0.77425   0.79948    0.000
 6310.00    0.76505   0.79668    0.000
 6311.00    0.75986   0.79270    0.000
 6312.00    0.75967   0.78992    0.000
 6313.00    0.76032   0.78825    0.000
 6314.00    0.75486   0.78603    0.000
 6315.00    0.74271   0.78518    0.000
 6316.00    0.72965   0.78683    0.000
 6317.00    0.72182   0.78886    0.000
 6318.00    0.72339   0.79110    0.000
 6319.00    0.73480   0.79482    0.000
 6320.00    0.75273   0.79887    0.000
 6321.00    0.77078   0.80220   27.144
 6322.00    0.78283   0.80534   27.420
 6323.00    0.78833   0.80782   27.736
 6324.00    0.78977   0.80951   27.947
 6325.00    0.78763   0.81068   28.244
 6326.00    0.78242   0.81082   28.849
 6327.00    0.77836   0.81006   29.495
 6328.00    0.77946   0.80871   29.688
 6329.00    0.78439   0.80671   29.286
 6330.00    0.78847   0.80432   28.612
 6331.00    0.78693   0.80145   28.298
 6332.00    0.77906   0.79847   28.616
 6333.00    0.77128   0.79653   28.989
 6334.00    0.77034   0.79526   28.632
 6335.00    0.77691   0.79395   27.373
 6336.00    0.78526   0.79358   25.611
 6337.00    0.78520   0.79407   23.928
 6338.00    0.77559   0.79431   22.623
 6339.00    0.77090   0.79420   21.688
 6340.00    0.78111   0.79418   21.160
 6341.00    0.80039   0.79469   21.213
 6342.00    0.81796   0.79528   21.868
 6343.00    0.82562   0.79574   22.849
 6344.00    0.82161   0.79709   23.815
 6345.00    0.81162   0.79916   24.545
 6346.00    0.80458   0.80064   24.948
 6347.00    0.80823   0.80158   25.114
 6348.00    0.81938   0.80229   25.463
 6349.00    0.82527   0.80217   26.564
 6350.00    0.82221   0.80063   28.131
 6351.00    0.81683   0.79781   28.830
 6352.00    0.80786   0.79465   28.529
 6353.00    0.78736   0.79115   28.544
 6354.00    0.76074   0.78666   29.160
 6355.00    0.74428   0.78220   29.543
 6356.00    0.74368   0.77896   29.332
 6357.00    0.75290   0.77624   28.891
 6358.00    0.76465   0.77405   28.566
 6359.00    0.77412   0.77364   28.394
 6360.00    0.78148   0.77490   27.931
 6361.00    0.78942   0.77708   26.818
 6362.00    0.79779   0.78020   25.658
 6363.00    0.80382   0.78413   25.158
 6364.00    0.80415   0.78840   25.156
 6365.00    0.79814   0.79260   25.209
 6366.00    0.79172   0.79642   25.409
 6367.00    0.79193   0.79977   25.950
 6368.00    0.79923   0.80281   26.403
 6369.00    0.80836   0.80547   26.148
 6370.00    0.81127   0.80738   25.193
 6371.00    0.80582   0.80856   24.013
 6372.00    0.80302   0.80945   23.108
 6373.00    0.80999   0.80975   22.685
 6374.00    0.81546   0.80899   22.596
 6375.00    0.80876   0.80810   22.866
 6376.00    0.79533   0.80743   24.028
 6377.00    0.78311   0.80626   26.238
 6378.00    0.77222   0.80536   28.127
 6379.00    0.76178   0.80538   28.474
 6380.00    0.75445   0.80541   28.453
 6381.00    0.75362   0.80550   28.744
 6382.00    0.76088   0.80620   28.048
 6383.00    0.77229   0.80669   26.287
 6384.00    0.77901   0.80661   25.203
 6385.00    0.77915   0.80625   25.234
 6386.00    0.78073   0.80510   25.331
 6387.00    0.78968   0.80340   24.987
 6388.00    0.80407   0.80170   24.751
 6389.00    0.81283   0.79938   24.721
 6390.00    0.80201   0.79718   24.322
 6391.00    0.77679   0.79626   23.359
 6392.00    0.75926   0.79524   22.220
 6393.00    0.75874   0.79391   21.379
 6394.00    0.76772   0.79421   21.184
 6395.00    0.77632   0.79482   21.752
 6396.00    0.77756   0.79430   23.018
 6397.00    0.76991   0.79498   24.692
 6398.00    0.75666   0.79673   26.035
 6399.00    0.74300   0.79755   25.897
 6400.00    0.73458   0.79837   23.955
 6401.00    0.73601   0.79962   21.767
 6402.00    0.74763   0.80028   20.700
 6403.00    0.76118   0.80002   20.845
 6404.00    0.76849   0.79890   21.852
 6405.00    0.77557   0.79797   23.333
 6406.00    0.79201   0.79736   24.774
 6407.00    0.81380   0.79586   25.658
 6408.00    0.82844   0.79478   25.773
 6409.00    0.82472   0.79511   25.476
 6410.00    0.80168   0.79490   25.312
 6411.00    0.77567   0.79433   25.590
 6412.00    0.76323   0.79476   26.023
 6413.00    0.76417   0.79482   25.472
 6414.00    0.76963   0.79415   23.717
 6415.00    0.77149   0.79417   22.286
 6416.00    0.76799   0.79454   21.929
 6417.00    0.76605   0.79477   22.003
 6418.00    0.76829   0.79598   22.160
 6419.00    0.76632   0.79825   23.210
 6420.00    0.75915   0.80039   25.389
 6421.00    0.76103   0.80247   26.763
 6422.00    0.77709   0.80474   26.153
 6423.00    0.79326   0.80594   25.647
 6424.00    0.79859   0.80573   26.437
 6425.00    0.79496   0.80510   27.590
 6426.00    0.78684   0.80371   28.196
 6427.00    0.77666   0.80159   28.470
 6428.00    0.76612   0.79995   28.489
 6429.00    0.75668   0.79887   27.923
 6430.00    0.74934   0.79811   27.360
 6431.00    0.74502   0.79785   27.885
 6432.00    0.74635   0.79790   28.770
 6433.00    0.75577   0.79841   27.827
 6434.00    0.76882   0.79904   25.893
 6435.00    0.77671   0.79940   25.386
 6436.00    0.77799   0.80063   26.211
 6437.00    0.77895   0.80272   26.601
 6438.00    0.78728   0.80443   26.008
 6439.00    0.80600   0.80619   25.290
 6440.00    0.82474   0.80816   24.894
 6441.00    0.82865   0.80901   24.758
 6442.00    0.81751   0.80811   24.667
 6443.00    0.80171   0.80607   24.487
 6444.00    0.78950   0.80344   24.438
 6445.00    0.78507   0.79960   24.838
 6446.00    0.78874   0.79529   25.710
 6447.00    0.79824   0.79251   26.716
 6448.00    0.81033   0.79062   27.149
 6449.00    0.81986   0.78901   26.735
 6450.00    0.81910   0.78931   26.475
 6451.00    0.80516   0.79079   27.145
 6452.00    0.78688   0.79171   27.949
 6453.00    0.77509   0.79320   27.884
 6454.00    0.77289   0.79520   27.466
 6455.00    0.77825   0.79578   27.415
 6456.00    0.78719   0.79581   27.530
 6457.00    0.79584   0.79642   27.479
 6458.00    0.80168   0.79595   27.378
 6459.00    0.80341   0.79489   27.305
 6460.00    0.80115   0.79533   27.026
 6461.00    0.79806   0.79604   26.555
 6462.00    0.79985   0.79633   26.309
 6463.00    0.80664   0.79786   26.343
 6464.00    0.81050   0.79973   26.176
 6465.00    0.80562   0.80053   25.780
 6466.00    0.79302   0.80146   25.745
 6467.00    0.77846   0.80235   26.116
 6468.00    0.76983   0.80217   26.201
 6469.00    0.77068   0.80220   25.846
 6470.00    0.77862   0.80264   25.617
 6471.00    0.78849   0.80232   25.608
 6472.00    0.79486   0.80204   25.432
 6473.00    0.79611   0.80226   25.317
 6474.00    0.79480   0.80161   25.902
 6475.00    0.79522   0.80016   26.836
 6476.00    0.80050   0.79901   26.976
 6477.00    0.80749   0.79756   26.545
 6478.00    0.80970   0.79549   26.678
 6479.00    0.80639   0.79397   27.152
 6480.00    0.80184   0.79317   26.970
 6481.00    0.79993   0.79237   26.530
 6482.00    0.80262   0.79170   26.791
 6483.00    0.80911   0.79103   27.297
 6484.00    0.81560   0.78947   27.011
 6485.00    0.81543   0.78663   26.338
 6486.00    0.80424   0.78226   26.123
 6487.00    0.78672   0.77596   26.086
 6488.00    0.76964   0.76843   25.798
 6489.00    0.75261   0.76032   25.908
 6490.00    0.73428   0.75177   26.913
 6491.00    0.71984   0.74446   27.671
 6492.00    0.71369   0.73954   27.088
 6493.00    0.71185   0.73680   26.397
 6494.00    0.70883   0.73713   26.653
 6495.00    0.70422   0.74051   26.995
 6496.00    0.70154   0.74585   26.678
 6497.00    0.70625   0.75295   26.652
 6498.00    0.72163   0.76078   27.390
 6499.00    0.74604   0.76827   27.571
 6500.00    0.77426   0.77539   26.550
 6501.00    0.79890   0.78141   25.732
 6502.00    0.81247   0.78601   25.876
 6503.00    0.80985   0.78963   26.320
 6504.00    0.79483   0.79209   26.405
 6505.00    0.78030   0.79340   26.211
 6506.00    0.77380   0.79412   26.182
 6507.00    0.77302   0.79428   26.739
 6508.00    0.77505   0.79357   27.573
 6509.00    0.77943   0.79240   27.610
 6510.00    0.78444   0.79115   26.787
 6511.00    0.78694   0.78944   26.151
 6512.00    0.78616   0.78747   25.956
 6513.00    0.78347   0.78615   25.743
 6514.00    0.77812   0.78534   25.652
 6515.00    0.76898   0.78477   26.195
 6516.00    0.76236   0.78513   26.770
 6517.00    0.76746   0.78622   26.148
 6518.00    0.78166   0.78733   25.040
 6519.00    0.79422   0.78845   24.937
 6520.00    0.80094   0.78944   25.632
 6521.00    0.80276   0.79003   25.934
 6522.00    0.79752   0.79008   25.732
 6523.00    0.78343   0.78962   25.694
 6524.00    0.76680   0.78905   25.884
 6525.00    0.75731   0.78839   26.026
 6526.00    0.75900   0.78756   26.202
 6527.00    0.76881   0.78691   26.595
 6528.00    0.77695   0.78655    0.000
 6529.00    0.77677   0.78633    0.000
 6530.00    0.77527   0.78629    0.000
 6531.00    0.78159   0.78651    0.000
 6532.00    0.79401   0.78695    0.000
 6533.00    0.80579   0.78728    0.000
 6534.00    0.81218   0.78738    0.000
 6535.00    0.81368   0.78725    0.000
 6536.00    0.81686   0.78645    0.000
 6537.00    0.82361   0.78485    0.000
 6538.00    0.82539   0.78263    0.000
 6539.00    0.82143   0.77957    0.000
 6540.00    0.82836   0.77597    0.000
 6541.00    0.86030   0.77229    0.000
 6542.00    0.91752   0.76833    0.000
 6543.00    0.99420   0.76452    0.000
 6544.00    1.08151   0.76125    0.000
 6545.00    1.15963   0.75789    0.000
 6546.00    1.19892   0.75441    0.000
 6547.00    1.18188   0.75078    0.000
 6548.00    1.11224   0.74636    0.000
 6549.00    1.01146   0.74093    0.000
 6550.00    0.91119   0.73440    0.000
 6551.00    0.83277   0.72643    0.000
 6552.00    0.78621   0.71674    0.000
 6553.00    0.78907   0.70532    0.000
 6554.00    0.87559   0.69255    0.000
 6555.00    1.10399   0.67817    0.000
 6556.00    1.53117   0.66267    0.000
 6557.00    2.14696   0.64883    0.000
 6558.00    2.85947   0.63730    0.000
 6559.00    3.50177   0.62815    0.000
 6560.00    3.88357   0.62528    0.000
 6561.00    3.88908   0.62893    0.000
 6562.00    3.51380   0.63588    0.000
 6563.00    2.89017   0.64729    0.000
 6564.00    2.21541   0.66236    0.000
 6565.00    1.63161   0.67656    0.000
 6566.00    1.20964   0.68961    0.000
 6567.00    0.95451   0.70196    0.000
 6568.00    0.82762   0.71169    0.000
 6569.00    0.77536   0.71921    0.000
 6570.00    0.75135   0.72599    0.000
 6571.00    0.73685   0.73165    0.000
 6572.00    0.73170   0.73661    0.000
 6573.00    0.74251   0.74161    0.000
 6574.00    0.77705   0.74613    0.000
 6575.00    0.84123   0.75019    0.000
 6576.00    0.94799   0.75402    0.000
 6577.00    1.12070   0.75708    0.000
 6578.00    1.36357   0.75960    0.000
 6579.00    1.64110   0.76186    0.000
 6580.00    1.88768   0.76350    0.000
 6581.00    2.02330   0.76493    0.000
 6582.00    2.00288   0.76613    0.000
 6583.00    1.84062   0.76661    0.000
 6584.00    1.58788   0.76682    0.000
 6585.00    1.31415   0.76644    0.000
 6586.00    1.07788   0.76497    0.000
 6587.00    0.91146   0.76323    0.000
 6588.00    0.81583   0.76143    0.000
 6589.00    0.76625   0.75921    0.000
 6590.00    0.74037   0.75758    0.000
 6591.00    0.72758   0.75723    0.000
 6592.00    0.72413   0.75748    0.000
 6593.00    0.72897   0.75862    0.000
 6594.00    0.73680   0.76097    0.000
 6595.00    0.74006   0.76348    0.000
 6596.00    0.73946   0.76593    0.000
 6597.00    0.74218   0.76834    0.000
 6598.00    0.75159   0.76993    0.000
 6599.00    0.76641   0.77068    0.000
 6600.00    0.78436   0.77078    0.000
 6601.00    0.80169   0.77010    0.000
 6602.00    0.81122   0.76891    0.000
 6603.00    0.80621   0.76766    0.000
 6604.00    0.78742   0.76672    0.000
 6605.00    0.76351   0.76619    0.000
 6606.00    0.74927   0.76628    0.000
 6607.00    0.75464   0.76726    0.000
 6608.00    0.77138   0.76887    0.000
 6609.00    0.78523   0.77081   24.401
 6610.00    0.79223   0.77300   24.862
 6611.00    0.79437   0.77526   24.382
 6612.00    0.79298   0.77732   23.591
 6613.00    0.78770   0.77891   23.361
 6614.00    0.77673   0.78008   23.662
 6615.00    0.76259   0.78080   24.127
 6616.00    0.75562   0.78088   24.478
 6617.00    0.76313   0.78038   24.612
 6618.00    0.78130   0.77935   24.641
 6619.00    0.79871   0.77797   24.727
 6620.00    0.80184   0.77637   24.954
 6621.00    0.79109   0.77444   25.274
 6622.00    0.78550   0.77268   25.516
 6623.00    0.79445   0.77113   25.658
 6624.00    0.80587   0.76932   25.892
 6625.00    0.80702   0.76771   26.120
 6626.00    0.79444   0.76627   25.892
 6627.00    0.77068   0.76449   25.370
 6628.00    0.74285   0.76298   25.298
 6629.00    0.72336   0.76191   25.596
 6630.00    0.72486   0.76095   25.317
 6631.00    0.74202   0.76067   24.414
 6632.00    0.75453   0.76122   23.768
 6633.00    0.75611   0.76189   23.637
 6634.00    0.75647   0.76285   23.668
 6635.00    0.76106   0.76417   23.671
 6636.00    0.76773   0.76499   23.715
 6637.00    0.77293   0.76535   23.886
 6638.00    0.77387   0.76582   24.191
 6639.00    0.76958   0.76588   24.482
 6640.00    0.76093   0.76558   24.607
 6641.00    0.75028   0.76573   24.766
 6642.00    0.74079   0.76605   25.236
 6643.00    0.73536   0.76631   25.753
 6644.00    0.73595   0.76688   25.909
 6645.00    0.74269   0.76762   26.094
 6646.00    0.75327   0.76824   26.772
 6647.00    0.76244   0.76866   27.199
 6648.00    0.76654   0.76898   26.453
 6649.00    0.76880   0.76918   25.215
 6650.00    0.77381   0.76897   24.478
 6651.00    0.78083   0.76857   24.351
 6652.00    0.78734   0.76812   24.410
 6653.00    0.79314   0.76717   23.996
 6654.00    0.79852   0.76586   23.086
 6655.00    0.80208   0.76451   22.671
 6656.00    0.80059   0.76266   23.097
 6657.00    0.78963   0.76043   23.157
 6658.00    0.76804   0.75854   21.863
 6659.00    0.74062   0.75673   19.928
 6660.00    0.71373   0.75500   18.375
 6661.00    0.69254   0.75431   17.709
 6662.00    0.68307   0.75428   17.755
 6663.00    0.69167   0.75467   17.735
 6664.00    0.71622   0.75600   17.261
 6665.00    0.74370   0.75763   16.759
 6666.00    0.76118   0.75922   16.741
 6667.00    0.76234   0.76079   17.523
 6668.00    0.75255   0.76163   18.953
 6669.00    0.74581   0.76170   20.178
 6670.00    0.74606   0.76111   20.819
 6671.00    0.74575   0.75937   21.553
 6672.00    0.74413   0.75705   22.392
 6673.00    0.74858   0.75490   22.383
 6674.00    0.76035   0.75260   21.595
 6675.00    0.77424   0.75084   21.072
 6676.00    0.78880   0.75052   21.139
 6677.00    0.80410   0.75095   21.497
 6678.00    0.81034   0.75209   21.881
 6679.00    0.79635   0.75428   22.176
 6680.00    0.77230   0.75668   22.341
 6681.00    0.75941   0.75888   22.407
 6682.00    0.76202   0.76099   22.473
 6683.00    0.77099   0.76269   22.621
 6684.00    0.77845   0.76379   22.783
 6685.00    0.78059   0.76444   22.918
 6686.00    0.77815   0.76469   23.286
 6687.00    0.77396   0.76440   24.053
 6688.00    0.76985   0.76379   24.618
 6689.00    0.76920   0.76283   24.292
 6690.00    0.77945   0.76149   23.474
 6691.00    0.79894   0.76022   22.642
 6692.00    0.80510   0.75887   21.411
 6693.00    0.78222   0.75760   19.497
 6694.00    0.74691   0.75692   17.334
 6695.00    0.72225   0.75642   15.542
 6696.00    0.71465   0.75622    0.000
 6697.00    0.72394   0.75646    0.000
 6698.00    0.75104   0.75658    0.000
 6699.00    0.78625   0.75678    0.000
 6700.00    0.80651   0.75701    0.000
 6701.00    0.81123   0.75688    0.000
 6702.00    0.83508   0.75680    0.000
 6703.00    0.89296   0.75667    0.000
 6704.00    0.95595   0.75607    0.000
 6705.00    0.98873   0.75546    0.000
 6706.00    0.97461   0.75458    0.000
 6707.00    0.93854   0.75301    0.000
 6708.00    0.93969   0.75124    0.000
 6709.00    1.00470   0.74916    0.000
 6710.00    1.11089   0.74671    0.000
 6711.00    1.22285   0.74434    0.000
 6712.00    1.31010   0.74227    0.000
 6713.00    1.35915   0.74081    0.000
 6714.00    1.36940   0.73996    0.000
 6715.00    1.33172   0.73997    0.000
 6716.00    1.23739   0.74089    0.000
 6717.00    1.11466   0.74229    0.000
 6718.00    1.01159   0.74411    0.000
 6719.00    0.93858   0.74609    0.000
 6720.00    0.88044   0.74789    0.000
 6721.00    0.84551   0.74961    0.000
 6722.00    0.85435   0.75100    0.000
 6723.00    0.90262   0.75205    0.000
 6724.00    0.96789   0.75305    0.000
 6725.00    1.03138   0.75382    0.000
 6726.00    1.08474   0.75437    0.000
 6727.00    1.13357   0.75487    0.000
 6728.00    1.18060   0.75512    0.000
 6729.00    1.20524   0.75508    0.000
 6730.00    1.18410   0.75485    0.000
 6731.00    1.11737   0.75433    0.000
 6732.00    1.02917   0.75353    0.000
 6733.00    0.96082   0.75253    0.000
 6734.00    0.92882   0.75138    0.000
 6735.00    0.89460   0.75023    0.000
 6736.00    0.83346   0.74897    0.000
 6737.00    0.78481   0.74774    0.000
 6738.00    0.78346   0.74678    0.000
 6739.00    0.81151   0.74578    0.000
 6740.00    0.83614   0.74476    0.000
 6741.00    0.83812   0.74400    0.000
 6742.00    0.81799   0.74324    0.000
 6743.00    0.79469   0.74239    0.000
 6744.00    0.78347   0.74165    0.000
 6745.00    0.78447   0.74124    0.000
 6746.00    0.78524   0.74086    0.000
 6747.00    0.77006   0.74065    0.000
 6748.00    0.75201   0.74126    0.000
 6749.00    0.76823   0.74203    0.000
 6750.00    0.81306   0.74307    0.000
 6751.00    0.83745   0.74495    0.000
 6752.00    0.83098   0.74681    0.000
 6753.00    0.82565   0.74873   15.431
 6754.00    0.82484   0.75091   14.869
 6755.00    0.80327   0.75265   15.089
 6756.00    0.76422   0.75397   16.253
 6757.00    0.73582   0.75497   17.976
 6758.00    0.72605   0.75521   19.661
 6759.00    0.72402   0.75485   20.754
 6760.00    0.72604   0.75413   21.310
 6761.00    0.73565   0.75278   21.814
 6762.00    0.75339   0.75122   22.136
 6763.00    0.77474   0.74986   21.815
 6764.00    0.79046   0.74848   21.084
 6765.00    0.79231   0.74749   20.460
 6766.00    0.78139   0.74728   20.027
 6767.00    0.76515   0.74756   19.609
 6768.00    0.75148   0.74835   19.023
 6769.00    0.74527   0.74980   18.288
 6770.00    0.74549   0.75158   17.727
 6771.00    0.74755   0.75331   17.637
 6772.00    0.74694   0.75496   18.080
 6773.00    0.74679   0.75629   18.808
 6774.00    0.76210   0.75681   19.117
 6775.00    0.79326   0.75666   18.562
 6776.00    0.80846   0.75588   17.653
 6777.00    0.79163   0.75415   16.822
 6778.00    0.77408   0.75200   15.936
 6779.00    0.78170   0.74981   15.074
 6780.00    0.80085   0.74742   14.724
 6781.00    0.80862   0.74546   15.207
 6782.00    0.79438   0.74431   16.569
 6783.00    0.76528   0.74352   18.522
 6784.00    0.74327   0.74330   20.069
 6785.00    0.73828   0.74379   20.517
 6786.00    0.73991   0.74432   20.568
 6787.00    0.74120   0.74473   20.706
 6788.00    0.74542   0.74529   20.555
 6789.00    0.74960   0.74563   20.064
 6790.00    0.74278   0.74561   19.714
 6791.00    0.72379   0.74577   19.685
 6792.00    0.70443   0.74593   19.751
 6793.00    0.69879   0.74603   19.659
 6794.00    0.71557   0.74647   19.262
 6795.00    0.74711   0.74691   18.566
 6796.00    0.77349   0.74746   17.764
 6797.00    0.78077   0.74801   17.270
 6798.00    0.76740   0.74828   17.406
 6799.00    0.74719   0.74871   17.854
 6800.00    0.73914   0.74878   18.008
 6801.00    0.74611   0.74844   18.168
 6802.00    0.76050   0.74847   18.980
 6803.00    0.78161   0.74808   19.752
 6804.00    0.80882   0.74743   19.190
 6805.00    0.82653   0.74725   17.980
 6806.00    0.82041   0.74679   17.268
 6807.00    0.80243   0.74635   16.799
 6808.00    0.78917   0.74623   16.206
 6809.00    0.77129   0.74592   16.191
 6810.00    0.73738   0.74594   17.356
 6811.00    0.70384   0.74617   18.820
 6812.00    0.69192   0.74627   19.082
 6813.00    0.70143   0.74673   18.633
 6814.00    0.71795   0.74725   18.579
 6815.00    0.72377   0.74782   18.890
 6816.00    0.71474   0.74858   19.100
 6817.00    0.70956   0.74923   18.952
 6818.00    0.71933   0.74988   18.586
 6819.00    0.72848   0.75040   18.476
 6820.00    0.72324   0.75076   18.876
 6821.00    0.70939   0.75088   19.569
 6822.00    0.69826   0.75058   20.140
 6823.00    0.69719   0.75027   20.254
 6824.00    0.70631   0.74988   20.036
 6825.00    0.71837   0.74931   20.039
 6826.00    0.72496   0.74889   20.370
 6827.00    0.72127   0.74852   20.512
 6828.00    0.71335   0.74825   20.276
 6829.00    0.71495   0.74796   20.046
 6830.00    0.72501   0.74728   19.923
 6831.00    0.72824   0.74635   19.601
 6832.00    0.72571   0.74501   18.904
 6833.00    0.73476   0.74303   17.991
 6834.00    0.75751   0.74080   17.312
 6835.00    0.77811   0.73837   17.246
 6836.00    0.78166   0.73598   17.509
 6837.00    0.76285   0.73418   17.382
 6838.00    0.73366   0.73301   16.780
 6839.00    0.71435   0.73268   16.194
 6840.00    0.71083   0.73323   15.992
 6841.00    0.71440   0.73448   16.327
 6842.00    0.71112   0.73629   17.128
 6843.00    0.69335   0.73819   18.152
 6844.00    0.67507   0.73999   19.150
 6845.00    0.67465   0.74143   19.909
 6846.00    0.68559   0.74220   20.300
 6847.00    0.68739   0.74254   20.559
 6848.00    0.66823   0.74205   21.522
 6849.00    0.65223   0.74076   22.910
 6850.00    0.71658   0.73961   20.921
 6851.00    0.83820   0.73808   16.907
 6852.00    0.76143   0.73613   17.338
 6853.00    0.40268   0.73495   -1.000
 6854.00    0.19253   0.73395   -1.000
 6855.00    0.42799   0.73290   -1.000
 6856.00    0.75275   0.73274   13.370
 6857.00    0.81161   0.73303   12.519
 6858.00    0.74250   0.73333   13.428
 6859.00    0.74432   0.73389   13.357
 6860.00    0.77744   0.73460   12.879
 6861.00    0.77106   0.73508   12.994
 6862.00    0.75129   0.73522   13.303
 6863.00    0.75187   0.73543   13.291
 6864.00    0.76543   0.73546   13.068
 6865.00    0.77500   0.73506   12.906
 6866.00    0.77205   0.73478   12.951
 6867.00    0.75860   0.73478   13.181
 6868.00    0.74571   0.73478   13.411
 6869.00    0.74440   0.73488   13.434
 6870.00    0.76006   0.73527   13.157
 6871.00    0.78621   0.73591   12.719
 6872.00    0.80777   0.73652   12.380
 6873.00    0.81821   0.73698   12.222
 6874.00    0.82055   0.73744   12.187
 6875.00    0.81478   0.73773   12.273
 6876.00    0.79871   0.73761   12.520
 6877.00    0.77922   0.73742   12.833
 6878.00    0.76890   0.73745   13.006
 6879.00    0.77214   0.73745   12.951
 6880.00    0.78405   0.73745   12.754
 6881.00    0.79509   0.73825   12.577
 6882.00    0.79643   0.73947   12.556
 6883.00    0.78764   0.74052   12.696
 6884.00    0.77598   0.74217   12.887
 6885.00    0.77262   0.74401   12.943
 6886.00    0.78411   0.74527   12.753
 6887.00    0.80170   0.74651   12.473
 6888.00    0.81200   0.74761   12.315
 6889.00    0.81230   0.74800   12.311
 6890.00    0.80605   0.74816   12.406
 6891.00    0.79538   0.74832   12.573
 6892.00    0.78242   0.74820   12.781
 6893.00    0.77104   0.74799   12.970
 6894.00    0.76413   0.74789   13.087
 6895.00    0.76116   0.74799   13.138
 6896.00    0.76033   0.74825   13.152
 6897.00    0.76057   0.74843   13.148
 6898.00    0.76087   0.74882   13.143
 6899.00    0.75971   0.74938   13.163
 6900.00    0.75544   0.74982   13.237
 6901.00    0.74675   0.75032   13.391
 6902.00    0.73393   0.75064   13.625
 6903.00    0.72064   0.75081   13.876
 6904.00    0.71912   0.75090   13.906
 6905.00    0.74388   0.75040   13.443
 6906.00    0.77001   0.74972   12.987
 6907.00    0.73978   0.74885   13.517
 6908.00    0.67397   0.74734   14.838
 6909.00    0.67433   0.74615   14.830
 6910.00    0.75321   0.74503   13.276
 6911.00    0.81584   0.74367   12.257
 6912.00    0.82345   0.74320   12.144
 6913.00    0.81740   0.74306   12.234
 6914.00    0.82026   0.74295   12.191
 6915.00    0.82075   0.74341   12.184
 6916.00    0.81681   0.74386   12.243
 6917.00    0.81830   0.74411   12.220
 6918.00    0.82485   0.74418   12.123
 6919.00    0.82789   0.74395   12.079
 6920.00    0.82622   0.74356   12.103
 6921.00    0.82318   0.74308   12.148
 6922.00    0.81483   0.74260   12.273
 6923.00    0.79623   0.74227   12.559
 6924.00    0.77540   0.74230   12.897
 6925.00    0.76490   0.74251   13.074
 6926.00    0.76563   0.74278   13.061
 6927.00    0.77059   0.74313   12.977
 6928.00    0.77359   0.74362   12.927
 6929.00    0.77198   0.74420   12.954
 6930.00    0.76841   0.74447   13.014
 6931.00    0.76783   0.74491   13.024
 6932.00    0.77386   0.74552   12.922
 6933.00    0.78616   0.74585   12.720
 6934.00    0.79888   0.74614   12.517
 6935.00    0.80636   0.74632   12.401
 6936.00    0.80808   0.74614   12.375
 6937.00    0.80698   0.74574   12.392
 6938.00    0.80695   0.74509   12.392
 6939.00    0.80684   0.74399   12.394
 6940.00    0.79826   0.74305   12.527
 6941.00    0.77798   0.74226   12.854
 6942.00    0.75454   0.74122   13.253
 6943.00    0.73962   0.74080   13.520
 6944.00    0.74112   0.74070   13.493
 6945.00    0.75453   0.74030   13.253
 6946.00    0.76367   0.74039   13.095
 6947.00    0.76345   0.74053   13.098
 6948.00    0.76482   0.74035   13.075
 6949.00    0.77284   0.74060   12.939
 6950.00    0.78166   0.74103   12.793
 6951.00    0.78934   0.74145   12.669
 6952.00    0.80031   0.74220   12.495
 6953.00    0.81546   0.74321   12.263
 6954.00    0.83000   0.74426   12.048
 6955.00    0.83700   0.74536   11.947
 6956.00    0.83072   0.74646   12.038
 6957.00    0.81219   0.74732   12.312
 6958.00    0.79012   0.74822   12.656
 6959.00    0.77930   0.74889   12.832
 6960.00    0.79030   0.74920   12.653
 6961.00    0.81043   0.74971   12.339
 6962.00    0.81690   0.75002   12.241
 6963.00    0.80711   0.74992   12.390
 6964.00    0.79254   0.74999   12.618
 6965.00    0.77976   0.74973   12.825
 6966.00    0.77179   0.74907   12.957
 6967.00    0.77404   0.74815   12.919
 6968.00    0.78767   0.74638   12.696
 6969.00    0.80091   0.74423   12.486
 6970.00    0.80055   0.74183   12.491
 6971.00    0.78629   0.73876   12.718
 6972.00    0.76617   0.73551   13.052
 6973.00    0.74967   0.73269   13.339
 6974.00    0.74311   0.73076   13.457
 6975.00    0.74606   0.72944   13.404
 6976.00    0.75245   0.72918   13.290
 6977.00    0.75309   0.73065   13.279
 6978.00    0.74707   0.73283   13.386
 6979.00    0.74705   0.73546   13.386
 6980.00    0.75811   0.73851   13.191
 6981.00    0.76717   0.74129   13.035
 6982.00    0.76764   0.74374   13.027
 6983.00    0.77084   0.74554   12.973
 6984.00    0.78395   0.74679   12.756
 6985.00    0.79998   0.74771   12.500
 6986.00    0.80987   0.74808   12.348
 6987.00    0.80894   0.74826   12.362
 6988.00    0.79881   0.74834   -2.000
 6989.00    0.78629   0.74825   -2.000
 6990.00    0.77697   0.74800   -2.000
 6991.00    0.77365   0.74739   -2.000
 6992.00    0.77981   0.74661   -2.000
 6993.00    0.79725   0.74560   -2.000
 6994.00    0.81605   0.74430   -2.000
 6995.00    0.82004   0.74298   -2.000
 6996.00    0.80975   0.74149   -2.000
 6997.00    0.79959   0.73997   -2.000
 6998.00    0.79596   0.73884   -2.000
 6999.00    0.79703   0.73803   -2.000
 7000.00    0.80376   0.73734   -2.000
 7001.00    0.81794   0.73683   -2.000
 7002.00    0.83379   0.73676   -2.000
 7003.00    0.84248   0.73701   -2.000
 7004.00    0.84255   0.73731   -2.000
 7005.00    0.83775   0.73751   -2.000
 7006.00    0.83126   0.73773   -2.000
 7007.00    0.82690   0.73771   -2.000
 7008.00    0.83172   0.73716   -2.000
 7009.00    0.84785   0.73636   -2.000
 7010.00    0.86315   0.73537   -2.000
 7011.00    0.86539   0.73446   -2.000
 7012.00    0.85830   0.73373   -2.000
 7013.00    0.85071   0.73284   -2.000
 7014.00    0.84460   0.73266   -2.000
 7015.00    0.83838   0.73333   -2.000
 7016.00    0.83121   0.73379   -2.000
 7017.00    0.82529   0.73419   -2.000
 7018.00    0.82601   0.73475   -2.000
 7019.00    0.83147   0.73517   -2.000
 7020.00    0.82806   0.73541   -2.000
 7021.00    0.81032   0.73556   -2.000
 7022.00    0.79082   0.73604   -2.000
 7023.00    0.78180   0.73691   -2.000
 7024.00    0.78470   0.73775   -2.000
 7025.00    0.79369   0.73876   -2.000
 7026.00    0.79972   0.73985   -2.000
 7027.00    0.79930   0.74083   -2.000
 7028.00    0.79677   0.74176   -2.000
 7029.00    0.79708   0.74231   -2.000
 7030.00    0.80230   0.74282   -2.000
 7031.00    0.81027   0.74329   -2.000
 7032.00    0.81610   0.74355   -2.000
 7033.00    0.81831   0.74442   -2.000
 7034.00    0.81915   0.74567   -2.000
 7035.00    0.81982   0.74671   -2.000
 7036.00    0.82003   0.74853   -2.000
 7037.00    0.82048   0.75107   -2.000
 7038.00    0.82248   0.75338   -2.000
 7039.00    0.82561   0.75550   -2.000
 7040.00    0.82792   0.75746   -2.000
 7041.00    0.82765   0.75881   -2.000
 7042.00    0.82420   0.75952   -2.000
 7043.00    0.81915   0.75974   -2.000
 7044.00    0.81323   0.75911   -2.000
 7045.00    0.80161   0.75778   -2.000
 7046.00    0.78236   0.75563   -2.000
 7047.00    0.76873   0.75256   -2.000
 7048.00    0.77117   0.74927   -2.000
 7049.00    0.77343   0.74544   -2.000
 7050.00    0.75935   0.74147   -2.000
 7051.00    0.74517   0.73803   -2.000
 7052.00    0.74817   0.73481   -2.000
 7053.00    0.75280   0.73224   -2.000
 7054.00    0.74186   0.73015   -2.000
 7055.00    0.72646   0.72842   -2.000
 7056.00    0.72275   0.72713   -2.000
 7057.00    0.73118   0.72585   -2.000
 7058.00    0.74743   0.72510   -2.000
 7059.00    0.77114   0.72462   -2.000
 7060.00    0.80067   0.72377   -2.000
 7061.00    0.83050   0.72325   -2.000
 7062.00    0.85920   0.72285   -2.000
 7063.00    0.89212   0.72231   -2.000
 7064.00    0.92910   0.72226   -2.000
 7065.00    0.96000   0.72238   -2.000
 7066.00    0.97641   0.72297   -2.000
 7067.00    0.97747   0.72443   -2.000
 7068.00    0.96944   0.72591   -2.000
 7069.00    0.96029   0.72736   -2.000
 7070.00    0.94115   0.72901   -2.000
 7071.00    0.89222   0.73043   -2.000
 7072.00    0.82702   0.73146   -2.000
 7073.00    0.78840   0.73194   -2.000
 7074.00    0.79008   0.73184   -2.000
 7075.00    0.81149   0.73125   -2.000
 7076.00    0.83396   0.72968   -2.000
 7077.00    0.84805   0.72740   -2.000
 7078.00    0.84650   0.72461   -2.000
 7079.00    0.82646   0.72106   -2.000
 7080.00    0.79811   0.71725   -2.000
 7081.00    0.77698   0.71311   -2.000
 7082.00    0.76601   0.70910   -2.000
 7083.00    0.75724   0.70609   -2.000
 7084.00    0.74132   0.70312   -2.000
 7085.00    0.71718   0.70055   -2.000
 7086.00    0.70296   0.69903   -2.000
 7087.00    0.71431   0.69769   -2.000
 7088.00    0.73379   0.69718   -2.000
 7089.00    0.73560   0.69729   -2.000
 7090.00    0.72047   0.69734   -2.000
 7091.00    0.70321   0.69821   -2.000
 7092.00    0.69371   0.69922   -2.000
 7093.00    0.69229   0.70038   -2.000
 7094.00    0.68890   0.70183   -2.000
 7095.00    0.68013   0.70307   -2.000
 7096.00    0.68198   0.70461   -2.000
 7097.00    0.70690   0.70584   -2.000
 7098.00    0.74630   0.70677   -2.000
 7099.00    0.78503   0.70743   -2.000
 7100.00    0.81327   0.70771   -2.000
 7101.00    0.82945   0.70794   -2.000
 7102.00    0.83977   0.70787   -2.000
 7103.00    0.84660   0.70730   -2.000
 7104.00    0.84517   0.70643   -2.000
 7105.00    0.84101   0.70567   -2.000
 7106.00    0.85174   0.70507   -2.000
 7107.00    0.87396   0.70437   -2.000
 7108.00    0.87745   0.70374   -2.000
 7109.00    0.84411   0.70348   -2.000
 7110.00    0.78296   0.70374   -2.000
 7111.00    0.72345   0.70409   -2.000
 7112.00    0.69998   0.70435   -2.000
 7113.00    0.71187   0.70483   -2.000
 7114.00    0.72740   0.70503   -2.000
 7115.00    0.73300   0.70514   -2.000
 7116.00    0.73810   0.70506   -2.000
 7117.00    0.74940   0.70459   -2.000
 7118.00    0.76349   0.70414   -2.000
 7119.00    0.76640   0.70304   -2.000
 7120.00    0.74505   0.70205   -2.000
 7121.00    0.71023   0.70127   -2.000
 7122.00    0.68550   0.69974   -2.000
 7123.00    0.67850   0.69827   -2.000
 7124.00    0.68625   0.69705   -2.000
 7125.00    0.71196   0.69606   -2.000
 7126.00    0.75126   0.69557   -2.000
 7127.00    0.77037   0.69502   -2.000
 7128.00    0.74520   0.69501   -2.000
 7129.00    0.71272   0.69614   -2.000
 7130.00    0.71487   0.69744   -2.000
 7131.00    0.72916   0.69893   -2.000
 7132.00    0.72522   0.70059   -2.000
 7133.00    0.72750   0.70199   -2.000
 7134.00    0.75721   0.70351   -2.000
 7135.00    0.77901   0.70461   -2.000
 7136.00    0.77193   0.70494   -2.000
 7137.00    0.78219   0.70508   -2.000
 7138.00    0.82814   0.70522   -2.000
 7139.00    0.84103   0.70467   -2.000
 7140.00    0.78378   0.70363   -2.000
 7141.00    0.71773   0.70277   -2.000
 7142.00    0.69254   0.70166   -2.000
 7143.00    0.68756   0.70089   -2.000
 7144.00    0.67860   0.70040   -2.000
 7145.00    0.67113   0.69975   -2.000
 7146.00    0.67298   0.70031   -2.000
 7147.00    0.68235   0.70156   -2.000
 7148.00    0.69756   0.70278   -2.000
 7149.00    0.71823   0.70466   -2.000
 7150.00    0.73230   0.70652   -2.000
 7151.00    0.72049   0.70815   -2.000
 7152.00    0.68839   0.70931   -2.000
 7153.00    0.66523   0.70998   -2.000
 7154.00    0.66537   0.71064   -2.000
 7155.00    0.68128   0.71037   -2.000
 7156.00    0.69837   0.70929   -2.000
 7157.00    0.70475   0.70799   -2.000
 7158.00    0.70411   0.70663   -2.000
 7159.00    0.71147   0.70560   -2.000
 7160.00    0.73682   0.70467   -2.000
 7161.00    0.77634   0.70376   -2.000
 7162.00    0.80385   0.70363   -2.000
 7163.00    0.79202   0.70469   -2.000
 7164.00    0.75153   0.70643   -2.000
 7165.00    0.72056   0.70837   -2.000
 7166.00    0.73477   0.71033   -2.000
 7167.00    0.77346   0.71216   -2.000
 7168.00    0.70432   0.71378   -2.000
 7169.00    0.47542   0.71507   -2.000
 7170.00    0.33814   0.71564   -2.000
 7171.00    0.50515   0.71547   -2.000
 7172.00    0.76823   0.71470   -2.000
 7173.00    0.85948   0.71326   -2.000
 7174.00    0.83237   0.71185   -2.000
 7175.00    0.82332   0.71072   -2.000
 7176.00    0.81775   0.70908   -2.000
 7177.00    0.77279   0.70735   -2.000
 7178.00    0.72323   0.70583   -2.000
 7179.00    0.71106   0.70447   -2.000
 7180.00    0.73202   0.70373   -2.000
 7181.00    0.75904   0.70260   -2.000
 7182.00    0.76411   0.70122   -2.000
 7183.00    0.74275   0.70034   -2.000
 7184.00    0.71946   0.69904   -2.000
 7185.00    0.70580   0.69825   -2.000
 7186.00    0.68792   0.69803   -2.000
 7187.00    0.67163   0.69798   -2.000
 7188.00    0.68974   0.69868   -2.000
 7189.00    0.74446   0.69924   -2.000
 7190.00    0.79815   0.70010   -2.000
 7191.00    0.82842   0.70137   -2.000
 7192.00    0.84112   0.70276   -2.000
 7193.00    0.84402   0.70396   -2.000
 7194.00    0.83981   0.70453   -2.000
 7195.00    0.83195   0.70539   -2.000
 7196.00    0.82327   0.70612   -2.000
 7197.00    0.80796   0.70637   -2.000
 7198.00    0.77862   0.70620   -2.000
 7199.00    0.74691   0.70530   -2.000
 7200.00    0.73406   0.70471   -2.000
 7201.00    0.74171   0.70412   -2.000
 7202.00    0.75479   0.70319   -2.000
 7203.00    0.75861   0.70239   -2.000
 7204.00    0.74881   0.70130   -2.000
 7205.00    0.74109   0.70115   -2.000
 7206.00    0.75154   0.70169   -2.000
 7207.00    0.76673   0.70230   -2.000
 7208.00    0.76527   0.70350   -2.000
 7209.00    0.75140   0.70459   -2.000
 7210.00    0.74283   0.70574   -2.000
 7211.00    0.75054   0.70702   -2.000
 7212.00    0.77266   0.70811   -2.000
 7213.00    0.79169   0.70909   -2.000
 7214.00    0.79000   0.71000   -2.000
 7215.00    0.76461   0.71073   -2.000
 7216.00    0.72553   0.71122   -2.000
 7217.00    0.69163   0.71184   -2.000
 7218.00    0.67775   0.71243   -2.000
