###################################################################
## OUTPUT of StarlightChains_v04.for    [Cid@UFSC - 01/Apr/2007] ##
###################################################################

## Some input info
2013U.txt                                [arq_obs]
Base.CB07.vall.4m                        [arq_base]
Masks.EmLines.NEW.gm                     [arq_masks]
StCv04.C11.config                        [arq_config]
   66                                    [N_base]
    0                                    [N_YAV_components = # of components with extra extinction!]
    0                                    [i_FitPowerLaw (1/0 = Yes/No)]
-9.99                                    [alpha_PowerLaw]
CCM                                      [red_law_option]
 1.458241                                [q_norm = A(l_norm)/A(V)]

## (Re)Sampling Parameters
 3741.00                                 [l_ini (A)]
 7218.00                                 [l_fin (A)]
    1.00                                 [dl    (A)]     (OBS: dl_cushion =    50.00 A)

## Normalization info
 4020.00                                 [l_norm (A) - for base]
 4010.00                                 [llow_norm (A) - window for f_obs]
 4060.00                                 [lupp_norm (A) - window for f_obs]
5.636147E-17                             [fobs_norm (in input units)]

## S/N
 3691.00                                 [llow_SN (A) - window for S/N]
 7268.00                                 [lupp_SN (A) - window for S/N]
  11.491                                 [S/N in S/N window]
  12.356                                 [S/N in norm. window]
  19.038                                 [S/N_err in S/N window]
  20.472                                 [S/N_err in norm. window]
  1.0000                                 [fscale_chi2]

## etc...
    -2007414                             [idum_orig]
  2289                                   [NOl_eff]
  2287                                   [Nl_eff]
     2    NSIGMA                         [Ntot_cliped & clip_method]
  2254840                                [Nglobal_steps]
   7                                     [N_chains]
  37                                     [NEX0s_base = N_base in EX0s-fits]
 0   0   1        0   2.0   3.950E+01    [Clip-Bug, RC-Crash & Burn-In warning-flags, n_censored_weights, wei_nsig_threshold & wei_limit]
    18     18.044     17.550      0.494  [idt_all, wdt_TotTime, wdt_UsrTime & wdt_SysTime (sec)]

## Synthesis Results - Best model ##

 3.89322E-01                             [chi2/Nl_eff]
     2.50411                             [adev (%)]

   106.60400                             [sum-of-x (%)]
 1.14703E-16                             [Flux_tot (units of input spectrum!)]
 9.75331E-13                             [Mini_tot (???)]
 5.24849E-13                             [Mcor_tot (???)]

 -50.91                                  [v0_min  (km/s)]
 170.25                                  [vd_min  (km/s)]
 0.4814                                  [AV_min  (mag)]
 0.0000                                  [YAV_min (mag)]

# j     x_j(%)      Mini_j(%)     Mcor_j(%)     age_j(yr)     Z_j      (L/M)_j    YAV?  Mstars   component_j        a/Fe...       SSP_chi2r SSP_adev(%)   SSP_AV   SSP_x(%)
  1      0.0000     0.0000E+00    0.0000E+00    1.000000E+06  0.00400  1.094E-02    0   1.0000   age020_m42            0.0000     1.5580E+00     5.3027   2.9571    87.7535
  2      0.0000     0.0000E+00    0.0000E+00    3.160000E+06  0.00400  4.007E-02    0   0.9999   age045_m42            0.0000     1.1534E+00     4.2579   2.2144    94.6713
  3      0.0000     0.0000E+00    0.0000E+00    5.010000E+06  0.00400  2.539E-02    0   0.9488   age055_m42            0.0000     1.2387E+00     4.5378   2.5365    92.2244
  4      0.0000     0.0000E+00    0.0000E+00    6.610000E+06  0.00400  2.620E-02    0   0.9220   age061_m42            0.0000     1.0611E+00     4.0887   2.1322    95.3136
  5      0.0003     2.1204E-06    3.4920E-06    1.000000E+07  0.00400  1.322E-02    0   0.8862   age070_m42            0.0000     7.8014E-01     3.5581   1.7983    99.8656
  6      0.0000     0.0000E+00    0.0000E+00    1.445000E+07  0.00400  7.883E-03    0   0.8571   age078_m42            0.0000     8.9069E-01     3.8416   2.1368    96.7925
  7      0.7387     1.5519E-02    2.3574E-02    2.512000E+07  0.00400  5.251E-03    0   0.8174   age090_m42            0.0000     7.4539E-01     3.4938   1.6562   101.0276
  8      1.6895     5.1078E-02    7.4520E-02    4.000000E+07  0.00400  3.649E-03    0   0.7851   age104_m42            0.0000     6.8150E-01     3.3397   1.4310   101.7641
  9      0.0000     0.0000E+00    0.0000E+00    5.500000E+07  0.00400  3.098E-03    0   0.7629   age110_m42            0.0000     7.6444E-01     3.4785   1.6060   100.7401
 10      0.0000     0.0000E+00    0.0000E+00    1.015200E+08  0.00400  2.228E-03    0   0.7207   age116_m42            0.0000     8.6232E-01     3.7092   1.6402   100.2803
 11      0.0000     0.0000E+00    0.0000E+00    2.861200E+08  0.00400  1.093E-03    0   0.6648   age125_m42            0.0000     8.3353E-01     3.7522   1.0592   104.1896
 12      0.0000     0.0000E+00    0.0000E+00    5.088000E+08  0.00400  6.597E-04    0   0.6365   age130_m42            0.0000     9.2270E-01     3.9660   1.0707   103.9306
 13      6.3342     3.2776E+00    3.5314E+00    1.434000E+09  0.00400  2.132E-04    0   0.5798   age139_m42            0.0000     6.9968E-01     3.5586   0.1072   105.4883
 14      8.0177     1.5004E+01    1.4992E+01    4.250000E+09  0.00400  5.895E-05    0   0.5377   age158_m42            0.0000     9.0410E-01     4.1280  -0.2849    99.0092
 15      0.2794     8.7816E-01    8.5054E-01    7.500000E+09  0.00400  3.510E-05    0   0.5212   age171_m42            0.0000     1.1326E+00     4.6664  -0.4497    97.3376
 16      0.0000     0.0000E+00    0.0000E+00    1.300000E+10  0.00400  2.005E-05    0   0.5034   age193_m42            0.0000     1.4039E+00     5.2197  -0.5925    95.8714
 17      0.0000     0.0000E+00    0.0000E+00    1.800000E+10  0.00400  1.525E-05    0   0.4967   age213_m42            0.0000     1.3458E+00     5.1029  -0.6200    95.6341
 18      6.8160     6.0738E-02    1.1287E-01    1.000000E+06  0.00800  1.238E-02    0   1.0000   age020_m52            0.0000     1.5541E+00     5.3032   2.9535    87.9196
 19      0.0000     0.0000E+00    0.0000E+00    3.160000E+06  0.00800  3.074E-02    0   0.9966   age045_m52            0.0000     1.4970E+00     5.1890   2.8750    88.7754
 20      0.6223     2.5730E-03    4.5151E-03    5.010000E+06  0.00800  2.668E-02    0   0.9443   age055_m52            0.0000     1.2354E+00     4.6061   2.6187    91.3868
 21      0.0000     0.0000E+00    0.0000E+00    6.610000E+06  0.00800  2.136E-02    0   0.9177   age061_m52            0.0000     6.2603E-01     3.2863   1.3045   100.5678
 22      0.0000     0.0000E+00    0.0000E+00    1.000000E+07  0.00800  1.215E-02    0   0.8827   age070_m52            0.0000     7.9450E-01     3.6669   1.9705   100.0826
 23      0.6404     8.1040E-03    1.2879E-02    1.445000E+07  0.00800  8.717E-03    0   0.8552   age078_m52            0.0000     8.0895E-01     3.6720   2.0984    98.3194
 24      5.0308     9.9247E-02    1.5053E-01    2.512000E+07  0.00800  5.592E-03    0   0.8162   age090_m52            0.0000     6.8598E-01     3.3802   1.7192   102.3624
 25      0.0004     1.0515E-05    1.5321E-05    4.000000E+07  0.00800  3.896E-03    0   0.7841   age104_m52            0.0000     6.6675E-01     3.3168   1.6407   102.7530
 26      0.0000     0.0000E+00    0.0000E+00    1.015200E+08  0.00800  2.148E-03    0   0.7226   age116_m52            0.0000     7.2571E-01     3.4224   1.5987   101.5854
 27      0.0000     0.0000E+00    0.0000E+00    2.861200E+08  0.00800  9.925E-04    0   0.6683   age125_m52            0.0000     8.4487E-01     3.7814   1.1332   105.0135
 28      0.0000     0.0000E+00    0.0000E+00    9.047900E+08  0.00800  3.141E-04    0   0.6138   age135_m52            0.0000     9.4046E-01     4.1448   0.3742   107.4012
 29      0.0007     4.6957E-04    5.1074E-04    1.434000E+09  0.00800  1.719E-04    0   0.5853   age139_m52            0.0000     9.0474E-01     4.0923  -0.1932   104.6175
 30      0.0000     0.0000E+00    0.0000E+00    2.500000E+09  0.00800  7.872E-05    0   0.5600   age150_m52            0.0000     1.2624E+00     5.0001  -0.4188    99.6073
 31      0.0000     0.0000E+00    0.0000E+00    4.250000E+09  0.00800  4.336E-05    0   0.5426   age158_m52            0.0000     1.2998E+00     5.0614  -0.4307    98.4896
 32      0.0000     0.0000E+00    0.0000E+00    6.250000E+09  0.00800  3.159E-05    0   0.5319   age166_m52            0.0000     1.6912E+00     5.8579  -0.6049    97.2313
 33      2.9342     2.3783E+01    2.2421E+01    1.300000E+10  0.00800  1.361E-05    0   0.5073   age193_m52            0.0000     2.3073E+00     7.0130  -1.0000    93.4632
 34      0.7291     8.1359E+00    7.5443E+00    1.800000E+10  0.00800  9.886E-06    0   0.4990   age213_m52            0.0000     2.9424E+00     8.0984  -1.0000    88.6243
 35      0.0000     0.0000E+00    0.0000E+00    1.000000E+06  0.02000  1.544E-02    0   1.0000   age020_m62            0.0000     1.5655E+00     5.3374   2.9498    88.1082
 36      0.0000     0.0000E+00    0.0000E+00    3.160000E+06  0.02000  3.762E-02    0   0.9858   age045_m62            0.0000     1.5460E+00     5.3108   2.8891    88.8919
 37      0.0000     0.0000E+00    0.0000E+00    5.010000E+06  0.02000  3.296E-02    0   0.9342   age055_m62            0.0000     1.1936E+00     4.4448   2.4990    93.2738
 38     21.4186     2.0475E-01    3.3716E-01    8.710000E+06  0.02000  1.154E-02    0   0.8861   age067_m62            0.0000     1.7299E+00     5.6694   1.3420   107.2326
 39      1.3789     1.9851E-02    3.1253E-02    1.445000E+07  0.02000  7.663E-03    0   0.8472   age078_m62            0.0000     8.4139E-01     3.8533   1.5941   103.7123
 40      0.0003     8.4022E-06    1.2646E-05    2.512000E+07  0.02000  4.532E-03    0   0.8099   age090_m62            0.0000     9.1196E-01     4.0021   1.5809   103.7973
 41      0.0090     3.6181E-04    5.1066E-04    5.500000E+07  0.02000  2.733E-03    0   0.7595   age110_m62            0.0000     6.4382E-01     3.2631   1.6238   101.9686
 42      0.0000     0.0000E+00    0.0000E+00    1.609000E+08  0.02000  1.369E-03    0   0.6985   age120_m62            0.0000     7.9988E-01     3.6236   1.4826   103.7905
 43      0.0000     0.0000E+00    0.0000E+00    2.861200E+08  0.02000  9.013E-04    0   0.6714   age125_m62            0.0000     9.3534E-01     3.9607   1.2396   106.3741
 44      0.0000     0.0000E+00    0.0000E+00    5.088000E+08  0.02000  5.028E-04    0   0.6449   age130_m62            0.0000     1.1460E+00     4.4367   0.9016   107.1885
 45      0.0028     1.2855E-03    1.4761E-03    9.047900E+08  0.02000  2.428E-04    0   0.6179   age135_m62            0.0000     1.0501E+00     4.4105   0.3452   105.0966
 46      0.8721     7.6172E-01    8.3629E-01    1.434000E+09  0.02000  1.263E-04    0   0.5908   age139_m62            0.0000     1.1448E+00     4.6913  -0.0829   102.7170
 47      0.0000     0.0000E+00    0.0000E+00    2.500000E+09  0.02000  5.985E-05    0   0.5673   age150_m62            0.0000     1.6220E+00     5.7476  -0.4086    99.3863
 48      0.0000     0.0000E+00    0.0000E+00    4.250000E+09  0.02000  3.271E-05    0   0.5468   age158_m62            0.0000     2.2939E+00     7.0189  -0.6723    96.6589
 49      0.0000     0.0000E+00    0.0000E+00    1.000000E+10  0.02000  1.360E-05    0   0.5167   age181_m62            0.0000     3.2283E+00     8.4354  -0.9694    94.0733
 50      0.7208     1.1162E+01    1.0398E+01    1.800000E+10  0.02000  7.124E-06    0   0.5013   age213_m62            0.0000     4.1967E+00     9.8161  -1.0000    86.1724
 51      0.0000     0.0000E+00    0.0000E+00    1.000000E+06  0.05000  2.592E-02    0   0.9998   age020_m72            0.0000     1.5979E+00     5.4331   2.9408    88.1436
 52      5.7991     1.3204E-02    2.3500E-02    3.160000E+06  0.05000  4.845E-02    0   0.9577   age045_m72            0.0000     1.4260E+00     4.9925   2.7708    90.1719
 53      0.0000     0.0000E+00    0.0000E+00    5.010000E+06  0.05000  3.072E-02    0   0.9147   age055_m72            0.0000     1.0061E+00     4.2095   2.2373    97.2394
 54      0.0000     0.0000E+00    0.0000E+00    6.610000E+06  0.05000  1.455E-02    0   0.8877   age061_m72            0.0000     3.5196E+00     7.8353   1.4064   108.7438
 55      0.0000     0.0000E+00    0.0000E+00    1.000000E+07  0.05000  9.074E-03    0   0.8524   age070_m72            0.0000     1.3467E+00     4.7942   2.4560    95.9851
 56      0.0000     0.0000E+00    0.0000E+00    2.512000E+07  0.05000  4.250E-03    0   0.7902   age090_m72            0.0000     1.0335E+00     4.1230   2.1167    99.2616
 57      0.0000     0.0000E+00    0.0000E+00    4.000000E+07  0.05000  3.087E-03    0   0.7618   age104_m72            0.0000     1.0485E+00     4.1384   1.8736   101.6862
 58      0.0000     0.0000E+00    0.0000E+00    1.015200E+08  0.05000  1.700E-03    0   0.7096   age116_m72            0.0000     7.9270E-01     3.6408   1.6151   104.0131
 59      0.0001     1.2930E-05    1.5938E-05    2.861200E+08  0.05000  7.384E-04    0   0.6633   age125_m72            0.0000     1.0055E+00     4.0587   1.1278   106.8258
 60     23.9094     6.9067E+00    8.1783E+00    5.088000E+08  0.05000  3.819E-04    0   0.6372   age130_m72            0.0000     1.0466E+00     4.3399   0.6699   106.7082
 61     13.1260     8.6398E+00    9.8099E+00    9.047900E+08  0.05000  1.676E-04    0   0.6110   age135_m72            0.0000     1.5158E+00     5.5927   0.0345   101.8330
 62      4.1827     5.2215E+00    5.6996E+00    1.434000E+09  0.05000  8.837E-05    0   0.5874   age139_m72            0.0000     1.7506E+00     5.9900  -0.4047   100.6672
 63      0.0557     1.4526E-01    1.5111E-01    2.500000E+09  0.05000  4.233E-05    0   0.5598   age150_m72            0.0000     2.5485E+00     7.4329  -0.6582    96.8545
 64      0.6841     5.2590E+00    5.1298E+00    6.250000E+09  0.05000  1.435E-05    0   0.5249   age166_m72            0.0000     3.5276E+00     8.9489  -1.0000    90.9712
 65      0.6109     1.0348E+01    9.6838E+00    1.300000E+10  0.05000  6.513E-06    0   0.5036   age193_m72            0.0000     5.2874E+00    11.2057  -1.0000    80.9708
 66      0.0000     0.0000E+00    0.0000E+00    1.800000E+10  0.05000  4.527E-06    0   0.4945   age213_m72            0.0000     6.7228E+00    12.8054  -1.0000    75.0877


## Synthesis Results - Average & Chains ##

# j      x_j: min, <> & last-chain-values for 1 ...  7 chains
  1      0.0000      0.3921      0.0000      0.7333      0.0876      0.0000      0.0000      0.0245      0.5337
  2      0.0000      0.3416      0.0000      0.5561      0.4361      0.0000      1.0564      0.3088      0.2101
  3      0.0000      0.3431      0.0000      0.0000      0.7334      0.3570      0.6631      0.0000      0.0000
  4      0.0000      0.1890      0.0000      0.0190      0.7467      0.0000      0.0000      0.0000      0.0000
  5      0.0003      2.0129      1.9351      2.3906      1.6664      1.8992      1.9996      1.8447      2.5558
  6      0.0000      0.3139      0.4551      0.3617      0.0000      0.0000      0.0000      0.0463      0.0000
  7      0.7387      1.5317      3.3876      1.8730      1.3100      0.8532      2.9912      1.0864      0.6300
  8      1.6895      2.8683      2.6123      2.9364      4.1849      0.8789      3.2926      0.8178      2.3988
  9      0.0000      0.3694      0.4692      0.0000      0.0000      0.0000      0.3830      0.2060      0.1054
 10      0.0000      0.2634      0.2393      0.1098      0.0000      0.0432      0.0000      0.0000      0.0997
 11      0.0000      0.3237      0.0000      0.0000      0.0000      0.0000      0.0000      0.0000      0.0000
 12      0.0000      0.3814      0.0000      0.0000      0.0000      0.0000      1.6154      0.0000      0.0000
 13      6.3342      4.6394      5.3996      4.9309      3.2513      6.4724      4.9348      6.5191      4.6578
 14      8.0177      4.6755      4.8748      4.2165      4.9891      5.2473      5.0689      5.5479      5.3358
 15      0.2794      0.5643      0.2711      0.4820      0.0000      0.0000      0.0000      0.7467      0.5884
 16      0.0000      0.0488      0.0000      0.0000      0.0000      0.0000      0.0000      0.0000      0.0000
 17      0.0000      0.0897      0.0000      0.0018      0.0000      0.1282      0.1126      0.0000      0.0000
 18      6.8160      4.2538      4.8698      5.1825      4.1341      4.8250      4.5565      4.9455      4.8935
 19      0.0000      0.3004      0.5664      0.0000      0.9748      0.5450      0.1356      0.0000      0.5126
 20      0.6223      0.4734      0.0000      1.0491      0.5490      1.4135      0.9729      0.8375      0.5445
 21      0.0000      2.5819      2.1034      2.0326      2.7714      0.2370      1.9795      2.5994      1.8445
 22      0.0000      0.4337      0.0000      0.3903      0.4561      0.7957      0.0000      1.5956      0.0000
 23      0.6404      0.4732      0.2622      0.0000      1.2842      1.0011      0.3200      0.6753      0.0089
 24      5.0308      3.7060      4.7159      3.7926      4.9043      4.0227      3.2976      3.9599      3.9282
 25      0.0004      0.9149      1.2238      1.0184      0.2174      0.4915      0.9930      0.5314      1.5374
 26      0.0000      0.9338      1.9833      0.0000      0.8480      2.8879      0.0545      0.5827      2.3239
 27      0.0000      0.3912      0.0000      0.2708      0.0000      0.0000      0.0000      0.5909      0.0000
 28      0.0000      1.4648      0.0000      0.2486      0.4023      0.0000      0.0000      0.6447      0.2659
 29      0.0007      2.8266      2.2480      4.0199      3.0389      3.3517      1.5123      2.1130      2.9485
 30      0.0000      0.6697      1.6162      1.1772      0.8720      0.0000      1.0404      0.1280      0.0950
 31      0.0000      0.1533      0.0074      0.0863      0.5796      0.0000      0.0449      0.0000      0.0273
 32      0.0000      0.1518      0.0000      0.0000      0.1429      0.0000      0.5773      0.0000      0.0000
 33      2.9342      2.1267      2.2543      2.4561      2.7056      2.1304      2.0032      2.4182      2.1535
 34      0.7291      0.9335      0.9020      0.8503      1.0773      0.9287      0.8335      1.1121      0.7689
 35      0.0000      0.8203      0.6816      1.8132      0.0000      0.9813      1.1093      0.0000      1.2157
 36      0.0000      0.1258      0.0143      0.0000      0.0000      0.3830      0.0000      0.4209      0.0000
 37      0.0000      0.1904      0.0000      0.0234      0.0000      0.0000      0.4384      0.4437      0.0000
 38     21.4186     12.0246     12.5063     12.2015     12.9577     13.1695     12.9129     13.8580     11.9956
 39      1.3789      2.1877      1.9102      2.2832      2.0800      2.9522      2.5509      1.2609      3.2909
 40      0.0003      0.3803      0.1659      0.0000      0.2720      0.2163      0.0000      0.4438      0.0000
 41      0.0090      1.7821      2.7168      1.8274      3.1088      0.9518      1.0661      1.8373      0.0000
 42      0.0000      0.4030      0.1335      0.3444      0.0000      1.0453      0.9450      0.0000      0.8755
 43      0.0000      0.4128      0.8981      0.1645      0.0000      1.0507      0.0000      0.0000      0.0000
 44      0.0000      0.5631      0.0000      0.0449      0.2501      0.0943      0.4571      0.0000      0.0000
 45      0.0028      1.8775      2.2509      0.1457      1.4134      0.5725      0.7419      1.4553      4.7210
 46      0.8721      5.4944      5.5012      5.1745      3.7313      5.8703      4.8959      4.6996      4.9889
 47      0.0000      0.1528      0.3978      0.0000      0.0000      0.0000      0.0000      0.0000      0.3923
 48      0.0000      0.9531      0.9957      1.0642      0.7561      0.8748      1.3395      0.0000      0.0781
 49      0.0000      0.2526      0.0110      0.6049      0.0000      0.0000      0.0000      0.0000      0.5314
 50      0.7208      1.0492      1.2303      0.8806      1.2671      1.1394      0.9100      1.1033      1.1188
 51      0.0000      0.1695      0.0000      0.0000      0.4104      0.0000      0.1101      0.3160      0.7213
 52      5.7991      4.6760      4.7483      5.5434      5.1630      4.3822      4.6535      5.2788      5.9069
 53      0.0000      1.1326      0.6238      0.0000      0.0000      1.8327      0.2028      1.4684      0.5812
 54      0.0000      0.3316      0.1229      0.6737      0.0000      0.2647      0.9790      0.0000      0.4832
 55      0.0000      0.1863      0.0000      0.0000      0.1939      0.0000      0.0000      0.0000      0.2630
 56      0.0000      0.2480      0.0000      0.0000      0.0000      0.1942      0.0000      0.2421      0.0000
 57      0.0000      0.5427      0.0000      1.5489      0.7629      0.0023      0.0000      0.8101      0.0000
 58      0.0000      0.2165      0.0000      0.1113      0.0000      0.5316      0.0000      0.0967      0.4272
 59      0.0001      0.5304      0.2357      0.0000      0.1888      0.2214      0.2961      2.1017      0.4391
 60     23.9094     12.6766     14.0934     15.2173     16.2042     15.1314     16.5747     14.3650     14.0722
 61     13.1260      8.2279      8.9810      9.3622      9.3290      9.1739      8.3719      9.9423      8.4328
 62      4.1827      3.5440      3.7275      3.0216      2.5269      3.4794      3.9014      3.5592      3.0220
 63      0.0557      1.7031      1.0297      1.6881      1.9880      1.9719      1.9354      1.3460      2.0909
 64      0.6841      0.5890      0.5941      0.6188      0.6983      0.5758      0.6517      0.6233      0.7099
 65      0.6109      0.7051      0.3098      0.6454      0.7968      0.8491      0.8282      0.9013      0.9122
 66      0.0000      0.0239      0.0000      0.0000      0.0000      0.0000      0.0000      0.0643      0.0000

# j      m_j: min, <> & last-chain-values for 1 ...  7 chains
  1  0.0000E+00  6.7535E-03  0.0000E+00  1.2780E-02  1.4379E-03  0.0000E+00  0.0000E+00  4.0918E-04  8.9655E-03
  2  0.0000E+00  1.6062E-03  0.0000E+00  2.6458E-03  1.9547E-03  0.0000E+00  5.0784E-03  1.4105E-03  9.6336E-04
  3  0.0000E+00  2.4159E-03  0.0000E+00  0.0000E+00  4.9231E-03  2.5067E-03  4.7735E-03  0.0000E+00  0.0000E+00
  4  0.0000E+00  1.2529E-03  0.0000E+00  1.2771E-04  4.7208E-03  0.0000E+00  0.0000E+00  0.0000E+00  0.0000E+00
  5  3.4920E-06  2.5425E-02  2.6057E-02  3.0555E-02  2.0067E-02  2.3922E-02  2.5823E-02  2.2637E-02  3.1485E-02
  6  0.0000E+00  6.4305E-03  9.9395E-03  7.4975E-03  0.0000E+00  0.0000E+00  0.0000E+00  9.2133E-04  0.0000E+00
  7  2.3574E-02  4.4925E-02  1.0593E-01  5.5590E-02  3.6634E-02  2.4956E-02  8.9702E-02  3.0960E-02  1.8022E-02
  8  7.4520E-02  1.1628E-01  1.1290E-01  1.2046E-01  1.6175E-01  3.5533E-02  1.3648E-01  3.2209E-02  9.4845E-02
  9  0.0000E+00  1.7141E-02  2.3209E-02  0.0000E+00  0.0000E+00  0.0000E+00  1.8172E-02  9.2855E-03  4.7684E-03
 10  0.0000E+00  1.6055E-02  1.5551E-02  6.7726E-03  0.0000E+00  2.6228E-03  0.0000E+00  0.0000E+00  5.9285E-03
 11  0.0000E+00  3.7096E-02  0.0000E+00  0.0000E+00  0.0000E+00  0.0000E+00  0.0000E+00  0.0000E+00  0.0000E+00
 12  0.0000E+00  6.9344E-02  0.0000E+00  0.0000E+00  0.0000E+00  0.0000E+00  3.0026E-01  0.0000E+00  0.0000E+00
 13  3.5314E+00  2.3773E+00  2.9496E+00  2.5568E+00  1.5884E+00  3.3074E+00  2.5854E+00  3.2455E+00  2.3278E+00
 14  1.4992E+01  8.0354E+00  8.9316E+00  7.3332E+00  8.1750E+00  8.9934E+00  8.9072E+00  9.2639E+00  8.9440E+00
 15  8.5054E-01  1.5788E+00  8.0849E-01  1.3648E+00  0.0000E+00  0.0000E+00  0.0000E+00  2.0298E+00  1.6055E+00
 16  0.0000E+00  2.3074E-01  0.0000E+00  0.0000E+00  0.0000E+00  0.0000E+00  0.0000E+00  0.0000E+00  0.0000E+00
 17  0.0000E+00  5.5060E-01  0.0000E+00  1.1210E-02  0.0000E+00  7.8479E-01  7.0648E-01  0.0000E+00  0.0000E+00
 18  1.1287E-01  6.4741E-02  7.9014E-02  7.9817E-02  5.9989E-02  7.3234E-02  7.0905E-02  7.3130E-02  7.2640E-02
 19  0.0000E+00  1.8351E-03  3.6884E-03  0.0000E+00  5.6773E-03  3.3199E-03  8.4686E-04  0.0000E+00  3.0541E-03
 20  4.5151E-03  3.1568E-03  0.0000E+00  7.0800E-03  3.4905E-03  9.4008E-03  6.6341E-03  5.4264E-03  3.5417E-03
 21  0.0000E+00  2.0901E-02  1.8153E-02  1.6651E-02  2.1390E-02  1.9134E-03  1.6384E-02  2.0445E-02  1.4563E-02
 22  0.0000E+00  5.9364E-03  0.0000E+00  5.4059E-03  5.9524E-03  1.0862E-02  0.0000E+00  2.1221E-02  0.0000E+00
 23  1.2879E-02  8.7468E-03  5.1674E-03  0.0000E+00  2.2634E-02  1.8456E-02  6.0490E-03  1.2128E-02  1.5975E-04
 24  1.5053E-01  1.0192E-01  1.3826E-01  1.0555E-01  1.2859E-01  1.1033E-01  9.2725E-02  1.0581E-01  1.0536E-01
 25  1.5321E-05  3.4692E-02  4.9473E-02  3.9079E-02  7.8590E-03  1.8586E-02  3.8501E-02  1.9578E-02  5.6861E-02
 26  0.0000E+00  5.9190E-02  1.3402E-01  0.0000E+00  5.1248E-02  1.8255E-01  3.5319E-03  3.5882E-02  1.4367E-01
 27  0.0000E+00  4.9629E-02  0.0000E+00  3.4764E-02  0.0000E+00  0.0000E+00  0.0000E+00  7.2835E-02  0.0000E+00
 28  0.0000E+00  5.3935E-01  0.0000E+00  9.2637E-02  1.4122E-01  0.0000E+00  0.0000E+00  2.3064E-01  9.5502E-02
 29  5.1074E-04  1.8134E+00  1.5375E+00  2.6097E+00  1.8588E+00  2.1444E+00  9.9200E-01  1.3171E+00  1.8449E+00
 30  0.0000E+00  8.9772E-01  2.3095E+00  1.5967E+00  1.1144E+00  0.0000E+00  1.4259E+00  1.6668E-01  1.2414E-01
 31  0.0000E+00  3.6158E-01  1.8725E-02  2.0581E-01  1.3029E+00  0.0000E+00  1.0823E-01  0.0000E+00  6.2808E-02
 32  0.0000E+00  4.8173E-01  0.0000E+00  0.0000E+00  4.3235E-01  0.0000E+00  1.8727E+00  0.0000E+00  0.0000E+00
 33  2.2421E+01  1.4936E+01  1.6878E+01  1.7456E+01  1.8117E+01  1.4921E+01  1.4385E+01  1.6501E+01  1.4751E+01
 34  7.5443E+00  8.8778E+00  9.1450E+00  8.1838E+00  9.7680E+00  8.8086E+00  8.1054E+00  1.0276E+01  7.1327E+00
 35  0.0000E+00  1.0010E-02  8.8677E-03  2.2391E-02  0.0000E+00  1.1942E-02  1.3841E-02  0.0000E+00  1.4469E-02
 36  0.0000E+00  6.2098E-04  7.5405E-05  0.0000E+00  0.0000E+00  1.8857E-03  0.0000E+00  2.0191E-03  0.0000E+00
 37  0.0000E+00  1.0168E-03  0.0000E+00  1.2657E-04  0.0000E+00  0.0000E+00  2.3940E-03  2.3022E-03  0.0000E+00
 38  3.3716E-01  1.7397E-01  1.9289E-01  1.7864E-01  1.7874E-01  1.9001E-01  1.9102E-01  1.9480E-01  1.6927E-01
 39  3.1253E-02  4.5572E-02  4.2421E-02  4.8129E-02  4.1310E-02  6.1328E-02  5.4332E-02  2.5519E-02  6.6861E-02
 40  1.2646E-05  1.2806E-02  5.9568E-03  0.0000E+00  8.7334E-03  7.2638E-03  0.0000E+00  1.4518E-02  0.0000E+00
 41  5.1066E-04  9.3313E-02  1.5166E-01  9.6827E-02  1.5520E-01  4.9699E-02  5.7076E-02  9.3468E-02  0.0000E+00
 42  0.0000E+00  3.8740E-02  1.3683E-02  3.3500E-02  0.0000E+00  1.0022E-01  9.2890E-02  0.0000E+00  8.2093E-02
 43  0.0000E+00  5.7940E-02  1.3438E-01  2.3362E-02  0.0000E+00  1.4706E-01  0.0000E+00  0.0000E+00  0.0000E+00
 44  0.0000E+00  1.3608E-01  0.0000E+00  1.0992E-02  5.7624E-02  2.2730E-02  1.1295E-01  0.0000E+00  0.0000E+00
 45  1.4761E-03  9.0026E-01  1.1506E+00  7.0703E-02  6.4616E-01  2.7377E-01  3.6373E-01  6.7799E-01  2.2079E+00
 46  8.3629E-01  4.8426E+00  5.1690E+00  4.6152E+00  3.1355E+00  5.1598E+00  4.4121E+00  4.0244E+00  4.2886E+00
 47  0.0000E+00  2.7281E-01  7.5748E-01  0.0000E+00  0.0000E+00  0.0000E+00  0.0000E+00  0.0000E+00  6.8333E-01
 48  0.0000E+00  3.0019E+00  3.3433E+00  3.3921E+00  2.2705E+00  2.7479E+00  4.3137E+00  0.0000E+00  2.4004E-01
 49  0.0000E+00  1.8085E+00  8.4301E-02  4.3822E+00  0.0000E+00  0.0000E+00  0.0000E+00  0.0000E+00  3.7099E+00
 50  1.0398E+01  1.3911E+01  1.7390E+01  1.1814E+01  1.6018E+01  1.5065E+01  1.2336E+01  1.4212E+01  1.4468E+01
 51  0.0000E+00  1.2320E-03  0.0000E+00  0.0000E+00  2.8439E-03  0.0000E+00  8.1784E-04  2.2316E-03  5.1128E-03
 52  2.3500E-02  1.7416E-02  1.8853E-02  2.0892E-02  1.8334E-02  1.6277E-02  1.7721E-02  1.9102E-02  2.1457E-02
 53  0.0000E+00  6.3541E-03  3.7307E-03  0.0000E+00  0.0000E+00  1.0254E-02  1.1635E-03  8.0040E-03  3.1800E-03
 54  0.0000E+00  3.8116E-03  1.5063E-03  7.8369E-03  0.0000E+00  3.0345E-03  1.1507E-02  0.0000E+00  5.4170E-03
 55  0.0000E+00  3.2968E-03  0.0000E+00  0.0000E+00  3.2722E-03  0.0000E+00  0.0000E+00  0.0000E+00  4.5411E-03
 56  0.0000E+00  8.6890E-03  0.0000E+00  0.0000E+00  0.0000E+00  6.7857E-03  0.0000E+00  8.2415E-03  0.0000E+00
 57  0.0000E+00  2.5236E-02  0.0000E+00  7.2881E-02  3.3823E-02  1.0463E-04  0.0000E+00  3.6598E-02  0.0000E+00
 58  0.0000E+00  1.7024E-02  0.0000E+00  8.8581E-03  0.0000E+00  4.1694E-02  0.0000E+00  7.3910E-03  3.2770E-02
 59  1.5938E-05  8.9775E-02  4.2538E-02  0.0000E+00  3.0472E-02  3.7378E-02  5.1247E-02  3.4561E-01  7.2486E-02
 60  8.1783E+00  3.9852E+00  4.7234E+00  4.8411E+00  4.8569E+00  4.7439E+00  5.3277E+00  4.3877E+00  4.3148E+00
 61  9.8099E+00  5.6517E+00  6.5767E+00  6.5077E+00  6.1096E+00  6.2842E+00  5.8798E+00  6.6352E+00  5.6496E+00
 62  5.6996E+00  4.4386E+00  4.9769E+00  3.8296E+00  3.0174E+00  4.3458E+00  4.9960E+00  4.3309E+00  3.6914E+00
 63  1.5111E-01  4.2438E+00  2.7352E+00  4.2565E+00  4.7228E+00  4.9000E+00  4.9309E+00  3.2587E+00  5.0816E+00
 64  5.1298E+00  4.0594E+00  4.3654E+00  4.3156E+00  4.5885E+00  3.9576E+00  4.5924E+00  4.1739E+00  4.7721E+00
 65  9.6838E+00  1.0273E+01  4.8110E+00  9.5154E+00  1.1068E+01  1.2336E+01  1.2337E+01  1.2758E+01  1.2962E+01
 66  0.0000E+00  4.9260E-01  0.0000E+00  0.0000E+00  0.0000E+00  0.0000E+00  0.0000E+00  1.2868E+00  0.0000E+00

# AV, chi2 & Mass for <> & i_chain = 1 ...  7 solutions
AV       0.4814      0.4626      0.4686      0.4668      0.4675      0.4613      0.4693      0.4602      0.4647
chi2 3.8932E-01  3.9945E-01  3.9792E-01  3.9815E-01  3.9736E-01  3.9741E-01  3.9802E-01  3.9674E-01  3.9798E-01
Mass 5.2485E-13  5.5681E-13  5.2649E-13  5.5334E-13  5.8787E-13  5.5732E-13  5.4946E-13  5.7126E-13  5.7250E-13
 -50.91                                  [v0_min (km/s) before EX0s...]
 170.25                                  [vd_min (km/s) before EX0s...]


## Synthetic spectrum (Best Model) ##l_obs f_obs f_syn wei
 3478    [Nl_obs]
 3741.00    0.70611   0.75810    0.000
 3742.00    0.70082   0.75155    0.000
 3743.00    0.66914   0.73387    0.000
 3744.00    0.62679   0.70771    0.000
 3745.00    0.59154   0.67575   16.905
 3746.00    0.56984   0.64152   17.549
 3747.00    0.55967   0.61038   17.868
 3748.00    0.55476   0.58917   18.026
 3749.00    0.55347   0.58394   18.068
 3750.00    0.56177   0.59785   17.801
 3751.00    0.58505   0.62904   17.092
 3752.00    0.62616   0.67019   15.970
 3753.00    0.69155   0.71111   14.460
 3754.00    0.78217   0.74337   12.785
 3755.00    0.85724   0.76317   11.665
 3756.00    0.85825   0.77132   11.652
 3757.00    0.80608   0.77190   12.406
 3758.00    0.77596   0.77022   12.887
 3759.00    0.77438   0.77034   12.914
 3760.00    0.75628   0.77321   13.223
 3761.00    0.72034   0.77642   13.882
 3762.00    0.69841   0.77617   14.318
 3763.00    0.70250   0.76958   14.235
 3764.00    0.72182   0.75526   13.854
 3765.00    0.73362   0.73326   13.631
 3766.00    0.71809   0.70540   13.926
 3767.00    0.67558   0.67563   14.802
 3768.00    0.63033   0.64972   15.865
 3769.00    0.62718   0.63390   15.944
 3770.00    0.68024   0.63236   14.701
 3771.00    0.73338   0.64597   13.636
 3772.00    0.74244   0.67233   13.469
 3773.00    0.73600   0.70623   13.587
 3774.00    0.73931   0.74178   13.526
 3775.00    0.72892   0.77543   13.719
 3776.00    0.70730   0.80627   14.138
 3777.00    0.73152   0.83428   13.670
 3778.00    0.81488   0.85897   12.272
 3779.00    0.89378   0.87943   11.188
 3780.00    0.91593   0.89467   10.918
 3781.00    0.87933   0.90372   11.372
 3782.00    0.82333   0.90574   12.146
 3783.00    0.80528   0.90061   12.418
 3784.00    0.84003   0.88912   11.904
 3785.00    0.89550   0.87294   11.167
 3786.00    0.93654   0.85444   10.678
 3787.00    0.94540   0.83618   10.578
 3788.00    0.93876   0.81980   10.652
 3789.00    0.94966   0.80455   10.530
 3790.00    0.98302   0.78765   10.173
 3791.00    1.00845   0.76602    9.916
 3792.00    0.96733   0.73762   10.338
 3793.00    0.83309   0.70239   12.004
 3794.00    0.69227   0.66321   14.445
 3795.00    0.64104   0.62601   15.600
 3796.00    0.64403   0.59838   15.527
 3797.00    0.63047   0.58725   15.861
 3798.00    0.61430   0.59651   16.279
 3799.00    0.62855   0.62533   15.910
 3800.00    0.65648   0.66791   15.233
 3801.00    0.68443   0.71513   14.611
 3802.00    0.74087   0.75817   13.498
 3803.00    0.82601   0.79213   12.106
 3804.00    0.87582   0.81668   11.418
 3805.00    0.86262   0.83465   11.593
 3806.00    0.83932   0.84998   11.914
 3807.00    0.84072   0.86547   11.895
 3808.00    0.84610   0.88098   11.819
 3809.00    0.85058   0.89358   11.757
 3810.00    0.88110   0.89942   11.350
 3811.00    0.93188   0.89664   10.731
 3812.00    0.96082   0.88702   10.408
 3813.00    0.95894   0.87447   10.428
 3814.00    0.95210   0.86259   10.503
 3815.00    0.94191   0.85296   10.617
 3816.00    0.90736   0.84489   11.021
 3817.00    0.84842   0.83686   11.787
 3818.00    0.78629   0.82868   12.718
 3819.00    0.74179   0.82173   13.481
 3820.00    0.72703   0.81749   13.755
 3821.00    0.73939   0.81582   13.525
 3822.00    0.76700   0.81431   13.038
 3823.00    0.79845   0.80943   12.524
 3824.00    0.82202   0.79929   12.165
 3825.00    0.82380   0.78489   12.139
 3826.00    0.79868   0.76841   12.521
 3827.00    0.76121   0.75051   13.137
 3828.00    0.72788   0.72956   13.738
 3829.00    0.70061   0.70324   14.273
 3830.00    0.68022   0.67058   14.701
 3831.00    0.67565   0.63319   14.801
 3832.00    0.68181   0.59543   14.667
 3833.00    0.66939   0.56353   14.939
 3834.00    0.62219   0.54388   16.072
 3835.00    0.55813   0.54055   17.917
 3836.00    0.51658   0.55381   19.358
 3837.00    0.53715   0.58092   18.617
 3838.00    0.60084   0.61740   16.643
 3839.00    0.63545   0.65849   15.737
 3840.00    0.63400   0.70046   15.773
 3841.00    0.66116   0.74055   15.125
 3842.00    0.72613   0.77646   13.772
 3843.00    0.77738   0.80663   12.864
 3844.00    0.80491   0.83042   12.424
 3845.00    0.84027   0.84819   11.901
 3846.00    0.88764   0.86112   11.266
 3847.00    0.92222   0.87057    0.000
 3848.00    0.92176   0.87789    0.000
 3849.00    0.88341   0.88438    0.000
 3850.00    0.83980   0.89059    0.000
 3851.00    0.83153   0.89628    0.000
 3852.00    0.86279   0.90047    0.000
 3853.00    0.91002   0.90189    0.000
 3854.00    0.94311   0.89991    0.000
 3855.00    0.94587   0.89565    0.000
 3856.00    0.93271   0.89115    0.000
 3857.00    0.91810   0.88819    0.000
 3858.00    0.89021   0.88819    0.000
 3859.00    0.85059   0.89185    0.000
 3860.00    0.84046   0.89858    0.000
 3861.00    0.87996   0.90692    0.000
 3862.00    0.93290   0.91481    0.000
 3863.00    0.96430   0.92020    0.000
 3864.00    0.97308   0.92227    0.000
 3865.00    0.97102   0.92178    0.000
 3866.00    0.96826   0.91970    0.000
 3867.00    0.96308   0.91602    0.000
 3868.00    0.94376   0.90993    0.000
 3869.00    0.91190   0.90101    0.000
 3870.00    0.88439   0.89027    0.000
 3871.00    0.87065   0.88007    0.000
 3872.00    0.86739   0.87272    0.000
 3873.00    0.86552   0.86878    0.000
 3874.00    0.85946   0.86643    0.000
 3875.00    0.86316   0.86267    0.000
 3876.00    0.89456   0.85534    0.000
 3877.00    0.93738   0.84457    0.000
 3878.00    0.95402   0.83213    0.000
 3879.00    0.92192   0.81903    0.000
 3880.00    0.84553   0.80446    0.000
 3881.00    0.76218   0.78639   13.120
 3882.00    0.70826   0.76240   14.119
 3883.00    0.67777   0.73112   14.754
 3884.00    0.65895   0.69372   15.176
 3885.00    0.67558   0.65363   14.802
 3886.00    0.73701   0.61630   13.568
 3887.00    0.79376   0.58888   12.598
 3888.00    0.80210   0.57818   12.467
 3889.00    0.77510   0.58718   12.902
 3890.00    0.74231   0.61344   13.472
 3891.00    0.72057   0.65061   13.878
 3892.00    0.72695   0.69107   13.756
 3893.00    0.77913   0.72837   12.835
 3894.00    0.85250   0.75948   11.730
 3895.00    0.87887   0.78445   11.378
 3896.00    0.83969   0.80468   11.909
 3897.00    0.78735   0.82164   12.701
 3898.00    0.76652   0.83664   13.046
 3899.00    0.78721   0.85027   12.703
 3900.00    0.83924   0.86231   11.915
 3901.00    0.89945   0.87219   11.118
 3902.00    0.93770   0.87941   10.664
 3903.00    0.93089   0.88428   10.742
 3904.00    0.89090   0.88848   11.225
 3905.00    0.85538   0.89480   11.691
 3906.00    0.85515   0.90521   11.694
 3907.00    0.89860   0.91908   11.128
 3908.00    0.95821   0.93404   10.436
 3909.00    0.99808   0.94712   10.019
 3910.00    1.01676   0.95560    9.835
 3911.00    1.02492   0.95857    9.757
 3912.00    1.01118   0.95690    9.889
 3913.00    0.97533   0.95207   10.253
 3914.00    0.96346   0.94523   10.379
 3915.00    1.00384   0.93691    9.962
 3916.00    1.05066   0.92755    9.518
 3917.00    1.05627   0.91776    9.467
 3918.00    1.02929   0.90864    9.715
 3919.00    0.99490   0.90181   10.051
 3920.00    0.96479   0.89816   10.365
 3921.00    0.94403   0.89696   10.593
 3922.00    0.93538   0.89599   10.691
 3923.00    0.93436   0.89220   10.703
 3924.00    0.92857   0.88298   10.769
 3925.00    0.90656   0.86713   11.031
 3926.00    0.86214   0.84505   11.599
 3927.00    0.79525   0.81772   12.575
 3928.00    0.71456   0.78631   13.995
 3929.00    0.64448   0.75231   15.516
 3930.00    0.61490   0.71804   16.263
 3931.00    0.62746   0.68756   15.937
 3932.00    0.65570   0.66634   15.251
 3933.00    0.66856   0.65951   14.958
 3934.00    0.65362   0.66947   15.299
 3935.00    0.64984   0.69471   15.388
 3936.00    0.70322   0.73017   14.220
 3937.00    0.78216   0.76887   12.785
 3938.00    0.82842   0.80431   12.071
 3939.00    0.85147   0.83244   11.744
 3940.00    0.88301   0.85215   11.325
 3941.00    0.90492   0.86473   11.051
 3942.00    0.89847   0.87294   11.130
 3943.00    0.90165   0.87971   11.091
 3944.00    0.93833   0.88698   10.657
 3945.00    0.95643   0.89478   10.456
 3946.00    0.92405   0.90195   10.822
 3947.00    0.89808   0.90749   11.135
 3948.00    0.91624   0.91100   10.914
 3949.00    0.93280   0.91268   10.720
 3950.00    0.91450   0.91325   10.935
 3951.00    0.88885   0.91303   11.250
 3952.00    0.87819   0.91152   11.387
 3953.00    0.87123   0.90799   11.478
 3954.00    0.85679   0.90213   11.671
 3955.00    0.83716   0.89422   11.945
 3956.00    0.81857   0.88428   12.216
 3957.00    0.80524   0.87154   12.419
 3958.00    0.79303   0.85467   12.610
 3959.00    0.77329   0.83232   12.932
 3960.00    0.74842   0.80357    0.000
 3961.00    0.72808   0.76859    0.000
 3962.00    0.71015   0.72836    0.000
 3963.00    0.68552   0.68395    0.000
 3964.00    0.65650   0.63626    0.000
 3965.00    0.63076   0.58676    0.000
 3966.00    0.60497   0.53883    0.000
 3967.00    0.57468   0.49851    0.000
 3968.00    0.55237   0.47287    0.000
 3969.00    0.55361   0.46740    0.000
 3970.00    0.57678   0.48378    0.000
 3971.00    0.61112   0.51925    0.000
 3972.00    0.64885   0.56770    0.000
 3973.00    0.68948   0.62198    0.000
 3974.00    0.74015   0.67600    0.000
 3975.00    0.79440   0.72594    0.000
 3976.00    0.82172   0.77008    0.000
 3977.00    0.81862   0.80763    0.000
 3978.00    0.83162   0.83811    0.000
 3979.00    0.87454   0.86145    0.000
 3980.00    0.89595   0.87843    0.000
 3981.00    0.87524   0.89084   11.425
 3982.00    0.85688   0.90109   11.670
 3983.00    0.87545   0.91130   11.423
 3984.00    0.92423   0.92246   10.820
 3985.00    0.96821   0.93434   10.328
 3986.00    0.96910   0.94587   10.319
 3987.00    0.94555   0.95610   10.576
 3988.00    0.95491   0.96474   10.472
 3989.00    0.99110   0.97207   10.090
 3990.00    1.00029   0.97824    9.997
 3991.00    0.98360   0.98270   10.167
 3992.00    0.98247   0.98463   10.178
 3993.00    1.00033   0.98357    9.997
 3994.00    1.01329   0.98010    9.869
 3995.00    1.01596   0.97619    9.843
 3996.00    1.01479   0.97451    9.854
 3997.00    1.00709   0.97705    9.930
 3998.00    0.99147   0.98376   10.086
 3999.00    0.98328   0.99233   10.170
 4000.00    0.99331   0.99936   10.067
 4001.00    1.00429   1.00190    9.957
 4002.00    0.99373   0.99881   10.063
 4003.00    0.95793   0.99144   10.439
 4004.00    0.91160   0.98324   10.970
 4005.00    0.88242   0.97792   11.332
 4006.00    0.88621   0.97763   11.284
 4007.00    0.91264   0.98234   10.957
 4008.00    0.94347   0.99048   10.599
 4009.00    0.96570   0.99980   10.355
 4010.00    0.97877   1.00845   10.217
 4011.00    0.99496   1.01569   10.051
 4012.00    1.02648   1.02165    9.742
 4013.00    1.07551   1.02655    9.298
 4014.00    1.12002   1.03056    8.928
 4015.00    1.12607   1.03398    8.880
 4016.00    1.10262   1.03706    9.069
 4017.00    1.09077   1.03966    9.168
 4018.00    1.08635   1.04097    9.205
 4019.00    1.05444   1.03958    9.484
 4020.00    1.01258   1.03429    9.876
 4021.00    1.00592   1.02499    9.941
 4022.00    1.01925   1.01311    9.811
 4023.00    1.00903   1.00152    9.910
 4024.00    0.98728   0.99331   10.129
 4025.00    0.98770   0.98992   10.125
 4026.00    0.99633   0.99009   10.037
 4027.00    0.98586   0.99064   10.143
 4028.00    0.96962   0.98849   10.313
 4029.00    0.96897   0.98275   10.320
 4030.00    0.97279   0.97540   10.280
 4031.00    0.96468   0.97035   10.366
 4032.00    0.95102   0.97124   10.515
 4033.00    0.94578   0.97972   10.573
 4034.00    0.95620   0.99473   10.458
 4035.00    0.98348   1.01294   10.168
 4036.00    1.02261   1.03013    9.779
 4037.00    1.05424   1.04266    9.485
 4038.00    1.04812   1.04845    9.541
 4039.00    1.00558   1.04720    9.945
 4040.00    0.96902   1.03986   10.320
 4041.00    0.96695   1.02787   10.342
 4042.00    0.99191   1.01307   10.082
 4043.00    1.01225   0.99823    9.879
 4044.00    0.99552   0.98716   10.045
 4045.00    0.96525   0.98336   10.360
 4046.00    0.98038   0.98801   10.200
 4047.00    1.03087   0.99902    9.701
 4048.00    1.05646   1.01196    9.466
 4049.00    1.05739   1.02212    9.457
 4050.00    1.07289   1.02646    9.321
 4051.00    1.08646   1.02452    9.204
 4052.00    1.05644   1.01819    9.466
 4053.00    1.00000   1.01027   10.000
 4054.00    0.96314   1.00313   10.383
 4055.00    0.95578   0.99833   10.463
 4056.00    0.96442   0.99639   10.369
 4057.00    0.98029   0.99664   10.201
 4058.00    0.99686   0.99739   10.031
 4059.00    1.00441   0.99645    9.956
 4060.00    1.00167   0.99230    9.983
 4061.00    1.00392   0.98526    9.961
 4062.00    1.01420   0.97768    9.860
 4063.00    1.00644   0.97247    9.936
 4064.00    0.97724   0.97145   10.233
 4065.00    0.97074   0.97429   10.301
 4066.00    1.00314   0.97891    9.969
 4067.00    1.03061   0.98273    9.703
 4068.00    1.02381   0.98378    9.767
 4069.00    0.99891   0.98150   10.011
 4070.00    0.97799   0.97696   10.225
 4071.00    0.96897   0.97154   10.320
 4072.00    0.96001   0.96555   10.417
 4073.00    0.93044   0.95831   10.748
 4074.00    0.89043   0.94951   11.231
 4075.00    0.87538   0.94058   11.424
 4076.00    0.89580   0.93466   11.163
 4077.00    0.93207   0.93491   10.729
 4078.00    0.95627   0.94229   10.457
 4079.00    0.95008   0.95441   10.525
 4080.00    0.92864   0.96654   10.768
 4081.00    0.92332   0.97446   10.831
 4082.00    0.94394   0.97663   10.594
 4083.00    0.97697   0.97466   10.236
 4084.00    0.99419   0.97173   10.058
 4085.00    0.97769   0.97042   10.228
 4086.00    0.94758   0.97126   10.553
 4087.00    0.93222   0.97275   10.727
 4088.00    0.93282   0.97252   10.720
 4089.00    0.93327   0.96860   10.715
 4090.00    0.91534   0.96001   10.925
 4091.00    0.88048   0.94648   11.357
 4092.00    0.85968   0.92795    0.000
 4093.00    0.86462   0.90427    0.000
 4094.00    0.86228   0.87531    0.000
 4095.00    0.83227   0.84126    0.000
 4096.00    0.79657   0.80287    0.000
 4097.00    0.78763   0.76158    0.000
 4098.00    0.82387   0.72006    0.000
 4099.00    0.88001   0.68302    0.000
 4100.00    0.89677   0.65680    0.000
 4101.00    0.86285   0.64731    0.000
 4102.00    0.82391   0.65731    0.000
 4103.00    0.81104   0.68462    0.000
 4104.00    0.82275   0.72282    0.000
 4105.00    0.84159   0.76388    0.000
 4106.00    0.84659   0.80124    0.000
 4107.00    0.83067   0.83152    0.000
 4108.00    0.80691   0.85486    0.000
 4109.00    0.81100   0.87353    0.000
 4110.00    0.86555   0.89020    0.000
 4111.00    0.92222   0.90659    0.000
 4112.00    0.92377   0.92284    0.000
 4113.00    0.90529   0.93771   12.698
 4114.00    0.92544   0.94928   12.790
 4115.00    0.96514   0.95597   12.158
 4116.00    0.98177   0.95743   12.041
 4117.00    0.97935   0.95492   12.387
 4118.00    0.97941   0.95097   12.666
 4119.00    0.98700   0.94841   12.617
 4120.00    0.99263   0.94917   12.375
 4121.00    0.97980   0.95362   12.346
 4122.00    0.94929   0.96056   12.692
 4123.00    0.93031   0.96771   13.073
 4124.00    0.94653   0.97259   13.132
 4125.00    0.99362   0.97350   12.911
 4126.00    1.03270   0.97020   12.729
 4127.00    1.00658   0.96380   12.957
 4128.00    0.92053   0.95613   13.632
 4129.00    0.84981   0.94910   14.340
 4130.00    0.83463   0.94445   14.664
 4131.00    0.85635   0.94378   14.480
 4132.00    0.89104   0.94824   13.753
 4133.00    0.92724   0.95796   12.671
 4134.00    0.96450   0.97160   11.953
 4135.00    1.00484   0.98662   12.189
 4136.00    1.03484   0.99998   13.008
 4137.00    1.03633   1.00881   13.340
 4138.00    1.01539   1.01083   13.176
 4139.00    0.99275   1.00491   13.319
 4140.00    0.97738   0.99187   13.757
 4141.00    0.96809   0.97512   13.983
 4142.00    0.96277   0.96008   13.971
 4143.00    0.95983   0.95187   13.985
 4144.00    0.95819   0.95262   14.048
 4145.00    0.95682   0.96050   14.087
 4146.00    0.95461   0.97101   14.150
 4147.00    0.95519   0.97972   14.296
 4148.00    0.96903   0.98435   14.468
 4149.00    0.99259   0.98489   14.543
 4150.00    0.99767   0.98260   14.401
 4151.00    0.97714   0.97897   14.087
 4152.00    0.96733   0.97517   13.817
 4153.00    0.98631   0.97225   13.617
 4154.00    1.00649   0.97132   13.279
 4155.00    1.00891   0.97326   12.935
 4156.00    1.00449   0.97823   13.067
 4157.00    0.99937   0.98549   13.723
 4158.00    0.98546   0.99367   14.300
 4159.00    0.96418   1.00136   14.322
 4160.00    0.95120   1.00765   13.956
 4161.00    0.96229   1.01214   13.639
 4162.00    1.00091   1.01471   13.697
 4163.00    1.03897   1.01523   13.963
 4164.00    1.03745   1.01369   13.951
 4165.00    1.00514   1.01033   13.633
 4166.00    0.98271   1.00550   13.342
 4167.00    0.98363   0.99921   13.164
 4168.00    0.99490   0.99103   13.014
 4169.00    0.99942   0.98051   12.898
 4170.00    0.98515   0.96813   12.870
 4171.00    0.95265   0.95577   12.950
 4172.00    0.91494   0.94605   13.093
 4173.00    0.89442   0.94087   13.183
 4174.00    0.90457   0.94040   13.168
 4175.00    0.93213   0.94333   13.210
 4176.00    0.95513   0.94805   13.475
 4177.00    0.96220   0.95359   13.939
 4178.00    0.95746   0.95953   14.359
 4179.00    0.95883   0.96549   14.320
 4180.00    0.96774   0.97090   13.815
 4181.00    0.95648   0.97521   13.424
 4182.00    0.91914   0.97813   13.471
 4183.00    0.89228   0.97962   13.790
 4184.00    0.90073   0.97979   14.025
 4185.00    0.93315   0.97910   13.865
 4186.00    0.96109   0.97856   13.504
 4187.00    0.95932   0.97950   13.470
 4188.00    0.94631   0.98289   13.723
 4189.00    0.97010   0.98866   13.686
 4190.00    1.01760   0.99556   13.405
 4191.00    1.02676   1.00151   13.456
 4192.00    0.99816   1.00418   13.741
 4193.00    0.98351   1.00180   13.658
 4194.00    0.98763   0.99394   13.338
 4195.00    0.97868   0.98197   13.343
 4196.00    0.95492   0.96866   13.615
 4197.00    0.94110   0.95701   13.695
 4198.00    0.95784   0.94911   13.459
 4199.00    0.99892   0.94569   13.148
 4200.00    1.01058   0.94636   13.076
 4201.00    0.96187   0.95029   13.295
 4202.00    0.92782   0.95679   13.256
 4203.00    0.97498   0.96528   12.662
 4204.00    1.03783   0.97510   12.266
 4205.00    1.04128   0.98527   -2.000
 4206.00    1.01789   0.99457   -2.000
 4207.00    1.02276   1.00205   -2.000
 4208.00    1.05992   1.00725   -2.000
 4209.00    1.10849   1.01018   -2.000
 4210.00    1.14637   1.01090   -2.000
 4211.00    1.16084   1.00929   -2.000
 4212.00    1.15361   1.00539   -2.000
 4213.00    1.13805   1.00023   -2.000
 4214.00    1.13093   0.99592   -2.000
 4215.00    1.12470   0.99490   -2.000
 4216.00    1.09203   0.99827   -2.000
 4217.00    1.04657   1.00478   -2.000
 4218.00    1.03713   1.01116   -2.000
 4219.00    1.05756   1.01354   -2.000
 4220.00    1.05282   1.00889   -2.000
 4221.00    1.01441   0.99603   12.730
 4222.00    0.97926   0.97604   12.622
 4223.00    0.96522   0.95242   12.907
 4224.00    0.96379   0.93061   13.426
 4225.00    0.95746   0.91659   13.625
 4226.00    0.93974   0.91456   13.090
 4227.00    0.94079   0.92477   12.475
 4228.00    0.98796   0.94298   12.451
 4229.00    1.04505   0.96233   12.699
 4230.00    1.06110   0.97663   12.638
 4231.00    1.04034   0.98293   12.465
 4232.00    1.01212   0.98215   12.613
 4233.00    0.98962   0.97758   13.090
 4234.00    0.97667   0.97276   13.618
 4235.00    0.97726   0.97008   13.818
 4236.00    0.98723   0.97050   13.673
 4237.00    0.99014   0.97406   13.751
 4238.00    0.98055   0.98029   14.296
 4239.00    0.97615   0.98849   14.722
 4240.00    0.99193   0.99762   14.590
 4241.00    1.02419   1.00623   14.328
 4242.00    1.05077   1.01264   14.321
 4243.00    1.04174   1.01525   14.538
 4244.00    1.00234   1.01313   14.786
 4245.00    0.97536   1.00654   14.863
 4246.00    0.98050   0.99698   14.808
 4247.00    1.00111   0.98668   14.871
 4248.00    1.01633   0.97777   15.099
 4249.00    1.01494   0.97163   15.304
 4250.00    1.00314   0.96865   15.330
 4251.00    0.99857   0.96846   15.146
 4252.00    1.01167   0.97036   14.810
 4253.00    1.03894   0.97363   14.450
 4254.00    1.05946   0.97743   14.236
 4255.00    1.05345   0.98056   14.246
 4256.00    1.03337   0.98174   14.266
 4257.00    1.02124   0.98050   14.063
 4258.00    1.00957   0.97808   13.829
 4259.00    0.98614   0.97720   13.834
 4260.00    0.97022   0.98062   14.013
 4261.00    0.98385   0.98915   14.143
 4262.00    1.01745   1.00085   14.100
 4263.00    1.04390   1.01185   13.922
 4264.00    1.03778   1.01818   13.810
 4265.00    0.99784   1.01739   13.933
 4266.00    0.95768   1.00916   14.294
 4267.00    0.94121   0.99487   14.693
 4268.00    0.93678   0.97694   14.744
 4269.00    0.93105   0.95830   14.506
 4270.00    0.92769   0.94209   14.611
 4271.00    0.93389   0.93121   15.132
 4272.00    0.95232   0.92764   15.283
 4273.00    0.97918   0.93182   15.031
 4274.00    1.00495   0.94250   15.220
 4275.00    1.02001   0.95702   15.045
 4276.00    1.01931   0.97192   12.863
 4277.00    1.00989   0.98394   10.483
 4278.00    1.00645   0.99095    9.550
 4279.00    1.01294   0.99266    9.707
 4280.00    1.02131   0.99029   10.041
 4281.00    1.02058   0.98572    9.933
 4282.00    1.00781   0.98037    9.521
 4283.00    1.00382   0.97461    9.718
 4284.00    1.02672   0.96789   11.540
 4285.00    1.04421   0.95945   14.628
 4286.00    1.01318   0.94921   15.554
 4287.00    0.94755   0.93839   14.495
 4288.00    0.89144   0.92945   14.435
 4289.00    0.87215   0.92497   15.184
 4290.00    0.88892   0.92606   15.387
 4291.00    0.91084   0.93139   14.948
 4292.00    0.91725   0.93770   14.539
 4293.00    0.92955   0.94132   14.524
 4294.00    0.95957   0.93972   14.910
 4295.00    0.97412   0.93209   15.347
 4296.00    0.95459   0.91913   15.481
 4297.00    0.93105   0.90278   15.313
 4298.00    0.92687   0.88584   15.079
 4299.00    0.93083   0.87135   15.055
 4300.00    0.93006   0.86158   15.336
 4301.00    0.92505   0.85718   15.771
 4302.00    0.91730   0.85702   16.067
 4303.00    0.90657   0.85879   15.929
 4304.00    0.90168   0.86028   15.402
 4305.00    0.91518   0.86048   14.847
 4306.00    0.93441   0.86011   14.597
 4307.00    0.93117   0.86122   14.802
 4308.00    0.91175   0.86583   15.151
 4309.00    0.90750   0.87475   15.053
 4310.00    0.92186   0.88727   14.534
 4311.00    0.93622   0.90199   14.079
 4312.00    0.94630   0.91797   13.935
 4313.00    0.96042   0.93507   14.124
 4314.00    0.98358   0.95315   14.567
 4315.00    1.01007   0.97101   15.066
 4316.00    1.01842   0.98623   15.296
 4317.00    0.99498   0.99605   15.118
 4318.00    0.96218   0.99859   14.940
 4319.00    0.95243   0.99343   15.128
 4320.00    0.97557   0.98132   15.462
 4321.00    1.01263   0.96386   15.630
 4322.00    1.01906   0.94350   15.743
 4323.00    0.97467   0.92385   15.926
 4324.00    0.91647   0.90913   15.958
 4325.00    0.88820   0.90266   15.773
 4326.00    0.90332   0.90492   15.712
 4327.00    0.94418   0.91313   15.853
 4328.00    0.97120   0.92254   15.783
 4329.00    0.96472   0.92877   15.456
 4330.00    0.94006   0.92932    0.000
 4331.00    0.92022   0.92337    0.000
 4332.00    0.92080   0.91045    0.000
 4333.00    0.94136   0.88954    0.000
 4334.00    0.96845   0.85941    0.000
 4335.00    0.99503   0.82008    0.000
 4336.00    1.02250   0.77437    0.000
 4337.00    1.04925   0.72837    0.000
 4338.00    1.07112   0.69018    0.000
 4339.00    1.08943   0.66742    0.000
 4340.00    1.10243   0.66442    0.000
 4341.00    1.08597   0.68086    0.000
 4342.00    1.02134   0.71210    0.000
 4343.00    0.94602   0.75138    0.000
 4344.00    0.91053   0.79204    0.000
 4345.00    0.90573   0.82905    0.000
 4346.00    0.90086   0.85918    0.000
 4347.00    0.90174   0.88069    0.000
 4348.00    0.91972   0.89340    0.000
 4349.00    0.93401   0.89902    0.000
 4350.00    0.92846   0.90117    0.000
 4351.00    0.92474   0.90436   14.978
 4352.00    0.94393   0.91196   15.130
 4353.00    0.97640   0.92475   15.259
 4354.00    1.00494   0.94078   15.090
 4355.00    1.02223   0.95682   14.596
 4356.00    1.03101   0.97036   13.922
 4357.00    1.03960   0.98079   13.283
 4358.00    1.04235   0.98931   12.981
 4359.00    1.02126   0.99769   13.319
 4360.00    0.99478   1.00697   14.023
 4361.00    1.01356   1.01671   14.077
 4362.00    1.06734   1.02525   13.393
 4363.00    1.08785   1.03057   12.933
 4364.00    1.06707   1.03129   12.940
 4365.00    1.05564   1.02741   13.049
 4366.00    1.05677   1.02041   13.237
 4367.00    1.03548   1.01252   13.730
 4368.00    1.00623   1.00560   14.138
 4369.00    1.00929   1.00017   13.811
 4370.00    1.02551   0.99549   13.329
 4371.00    1.01181   0.99058   13.574
 4372.00    0.98737   0.98545   14.266
 4373.00    0.99237   0.98164   14.569
 4374.00    1.00939   0.98126   14.617
 4375.00    1.00536   0.98525   14.882
 4376.00    0.99520   0.99215   14.862
 4377.00    1.00624   0.99819   14.121
 4378.00    1.03272   0.99890   13.432
 4379.00    1.04743   0.99115   13.432
 4380.00    1.02059   0.97469   13.965
 4381.00    0.94998   0.95263   14.613
 4382.00    0.87742   0.93047   15.033
 4383.00    0.84318   0.91401   15.064
 4384.00    0.85383   0.90704   14.810
 4385.00    0.88542   0.90986   14.514
 4386.00    0.89629   0.91984   14.422
 4387.00    0.87614   0.93317   14.655
 4388.00    0.85896   0.94671   15.172
 4389.00    0.87193   0.95873   15.716
 4390.00    0.91423   0.96861   15.871
 4391.00    0.96407   0.97636   15.640
 4392.00    0.99223   0.98240   15.444
 4393.00    0.99405   0.98748   15.371
 4394.00    0.98884   0.99236   15.202
 4395.00    0.99052   0.99712   14.992
 4396.00    1.00004   1.00090   15.002
 4397.00    1.00746   1.00245   15.259
 4398.00    1.00272   1.00106   15.587
 4399.00    0.99481   0.99703   15.835
 4400.00    0.99664   0.99134   15.966
 4401.00    0.99443   0.98488   16.103
 4402.00    0.97219   0.97834   16.362
 4403.00    0.95233   0.97254   16.591
 4404.00    0.96074   0.96877   16.604
 4405.00    0.97918   0.96840   16.537
 4406.00    0.98270   0.97227   16.572
 4407.00    0.98315   0.98015   16.615
 4408.00    0.99676   0.99064   16.602
 4409.00    1.01256   1.00129   16.753
 4410.00    1.01461   1.00912   17.110
 4411.00    1.00166   1.01158   17.204
 4412.00    0.98436   1.00785   16.865
 4413.00    0.97945   0.99969   16.664
 4414.00    0.99228   0.99097   16.952
 4415.00    1.01079   0.98597   17.452
 4416.00    1.02677   0.98717   17.584
 4417.00    1.04308   0.99408   16.911
 4418.00    1.05718   1.00379   15.991
 4419.00    1.05747   1.01261   15.836
 4420.00    1.03693   1.01813   16.503
 4421.00    1.00087   1.02001   17.117
 4422.00    0.97414   1.01955   17.161
 4423.00    0.98588   1.01835   16.938
 4424.00    1.02415   1.01740   16.765
 4425.00    1.04819   1.01678   16.740
 4426.00    1.04442   1.01609   16.835
 4427.00    1.02597   1.01485   16.997
 4428.00    1.00546   1.01277   17.285
 4429.00    0.99107   1.00970   17.699
 4430.00    0.98895   1.00562   17.818
 4431.00    0.99724   1.00082   17.354
 4432.00    0.99849   0.99620   16.988
 4433.00    0.98488   0.99343   17.321
 4434.00    0.98695   0.99439   17.806
 4435.00    1.02660   0.99991   17.687
 4436.00    1.06808   1.00879   17.351
 4437.00    1.07220   1.01777   17.380
 4438.00    1.04821   1.02306   17.658
 4439.00    1.02722   1.02245   17.782
 4440.00    1.03352   1.01673   17.482
 4441.00    1.05809   1.00937   17.030
 4442.00    1.05469   1.00463   17.141
 4443.00    1.01652   1.00523   17.829
 4444.00    1.00178   1.01108   17.974
 4445.00    1.03207   1.01973   17.322
 4446.00    1.06044   1.02793   17.083
 4447.00    1.06036   1.03318   17.561
 4448.00    1.05020   1.03443   17.861
 4449.00    1.03736   1.03171   17.813
 4450.00    1.01126   1.02548   18.242
 4451.00    0.98793   1.01633   18.958
 4452.00    0.99864   1.00509   18.744
 4453.00    1.02229   0.99314   17.939
 4454.00    1.00715   0.98219   17.844
 4455.00    0.96151   0.97368   18.292
 4456.00    0.93544   0.96819   18.255
 4457.00    0.94381   0.96540   17.892
 4458.00    0.96787   0.96468   17.986
 4459.00    0.98494   0.96577   18.338
 4460.00    0.98534   0.96879   18.315
 4461.00    0.98730   0.97376    0.000
 4462.00    1.00824   0.97997    0.000
 4463.00    1.02890   0.98589    0.000
 4464.00    1.02422   0.98970    0.000
 4465.00    0.99950   0.99027    0.000
 4466.00    0.97106   0.98776    0.000
 4467.00    0.94617   0.98380    0.000
 4468.00    0.93196   0.98096    0.000
 4469.00    0.94126   0.98186    0.000
 4470.00    0.97321   0.98814    0.000
 4471.00    1.00515   0.99971    0.000
 4472.00    1.02479   1.01479    0.000
 4473.00    1.04360   1.03040    0.000
 4474.00    1.06586   1.04331    0.000
 4475.00    1.07770   1.05080    0.000
 4476.00    1.06912   1.05121    0.000
 4477.00    1.04342   1.04449    0.000
 4478.00    1.01516   1.03265    0.000
 4479.00    1.00169   1.01972    0.000
 4480.00    1.00081   1.01050    0.000
 4481.00    0.99632   1.00853    0.000
 4482.00    0.99155   1.01434   18.997
 4483.00    1.00363   1.02509   18.676
 4484.00    1.02981   1.03605   18.189
 4485.00    1.05225   1.04293   18.147
 4486.00    1.06299   1.04383   18.422
 4487.00    1.06347   1.03977   18.526
 4488.00    1.05535   1.03362   18.533
 4489.00    1.04009   1.02826   18.721
 4490.00    1.02088   1.02516   18.790
 4491.00    1.00534   1.02412   18.414
 4492.00    1.00737   1.02420   18.028
 4493.00    1.03174   1.02492   18.109
 4494.00    1.05947   1.02667   18.526
 4495.00    1.06977   1.03016   18.954
 4496.00    1.06097   1.03560   19.282
 4497.00    1.04423   1.04241   19.471
 4498.00    1.03537   1.04978   19.408
 4499.00    1.04305   1.05735   19.090
 4500.00    1.06227   1.06539   18.703
 4501.00    1.08263   1.07417   18.309
 4502.00    1.09465   1.08312   17.799
 4503.00    1.09569   1.09082   17.301
 4504.00    1.09120   1.09575   17.173
 4505.00    1.08750   1.09726   17.439
 4506.00    1.08886   1.09596   17.721
 4507.00    1.09837   1.09316   17.779
 4508.00    1.11538   1.08986   17.710
 4509.00    1.12705   1.08623   17.735
 4510.00    1.11619   1.08175   18.039
 4511.00    1.08892   1.07600   18.513
 4512.00    1.06930   1.06926   18.775
 4513.00    1.06973   1.06251   18.491
 4514.00    1.08546   1.05694   17.720
 4515.00    1.09812   1.05336   17.094
 4516.00    1.09020   1.05186   17.164
 4517.00    1.06736   1.05179   17.754
 4518.00    1.04680   1.05200   18.285
 4519.00    1.03538   1.05120   18.434
 4520.00    1.03333   1.04829   18.280
 4521.00    1.04192   1.04265   18.171
 4522.00    1.05509   1.03431   18.347
 4523.00    1.05235   1.02376   18.632
 4524.00    1.02766   1.01187   18.681
 4525.00    1.01078   0.99978   18.322
 4526.00    1.01764   0.98892   17.834
 4527.00    1.01807   0.98065   17.876
 4528.00    0.99718   0.97582   18.571
 4529.00    0.98765   0.97435   19.039
 4530.00    1.00178   0.97536   18.741
 4531.00    1.00384   0.97794   18.371
 4532.00    0.97970   0.98190   18.424
 4533.00    0.96027   0.98797   18.706
 4534.00    0.96716   0.99693   18.817
 4535.00    0.99395   1.00847   18.469
 4536.00    1.02694   1.02082   17.857
 4537.00    1.05444   1.03140   17.490
 4538.00    1.07047   1.03835   17.632
 4539.00    1.07527   1.04135   18.266
 4540.00    1.07365   1.04142   19.112
 4541.00    1.07236   1.04000   19.636
 4542.00    1.07494   1.03793   19.450
 4543.00    1.07852   1.03529   18.715
 4544.00    1.07035   1.03172   18.206
 4545.00    1.04069   1.02691   18.521
 4546.00    1.00467   1.02102   19.216
 4547.00    0.98659   1.01474   19.463
 4548.00    0.99242   1.00902   19.540
 4549.00    1.01071   1.00459   19.974
 4550.00    1.02018   1.00168    0.000
 4551.00    1.00719   1.00021    0.000
 4552.00    0.98189   1.00032    0.000
 4553.00    0.96245   1.00266    0.000
 4554.00    0.95927   1.00807    0.000
 4555.00    0.97745   1.01680    0.000
 4556.00    1.01790   1.02796    0.000
 4557.00    1.06353   1.03963    0.000
 4558.00    1.07805   1.04946    0.000
 4559.00    1.05360   1.05554    0.000
 4560.00    1.02772   1.05708    0.000
 4561.00    1.02692   1.05471    0.000
 4562.00    1.04343   1.05034    0.000
 4563.00    1.06110   1.04650    0.000
 4564.00    1.06918   1.04521    0.000
 4565.00    1.06900   1.04708    0.000
 4566.00    1.06921   1.05099    0.000
 4567.00    1.06438   1.05491    0.000
 4568.00    1.04080   1.05708    0.000
 4569.00    1.00918   1.05710    0.000
 4570.00    0.99689   1.05595    0.000
 4571.00    1.01016   1.05511    0.000
 4572.00    1.03495   1.05543    0.000
 4573.00    1.05623   1.05656    0.000
 4574.00    1.06301   1.05724    0.000
 4575.00    1.05043   1.05601    0.000
 4576.00    1.02182   1.05194    0.000
 4577.00    0.99063   1.04508    0.000
 4578.00    0.97319   1.03642    0.000
 4579.00    0.97870   1.02752    0.000
 4580.00    1.00091   1.02000    0.000
 4581.00    1.01372   1.01508    0.000
 4582.00    1.00288   1.01339    0.000
 4583.00    0.99089   1.01492    0.000
 4584.00    0.99732   1.01913    0.000
 4585.00    1.00994   1.02499    0.000
 4586.00    1.01556   1.03111    0.000
 4587.00    1.01956   1.03604    0.000
 4588.00    1.02796   1.03865    0.000
 4589.00    1.03694   1.03856    0.000
 4590.00    1.03755   1.03634    0.000
 4591.00    1.02178   1.03318    0.000
 4592.00    0.99702   1.03033    0.000
 4593.00    0.98387   1.02869    0.000
 4594.00    0.98617   1.02848    0.000
 4595.00    0.98873   1.02940    0.000
 4596.00    0.98476   1.03084    0.000
 4597.00    0.98059   1.03217    0.000
 4598.00    0.98425   1.03301    0.000
 4599.00    0.99973   1.03341    0.000
 4600.00    1.02158   1.03378    0.000
 4601.00    1.03836   1.03471    0.000
 4602.00    1.04202   1.03676    0.000
 4603.00    1.03376   1.04038    0.000
 4604.00    1.02934   1.04580    0.000
 4605.00    1.04089   1.05282    0.000
 4606.00    1.05142   1.06066    0.000
 4607.00    1.04319   1.06805    0.000
 4608.00    1.03436   1.07360    0.000
 4609.00    1.04529   1.07645    0.000
 4610.00    1.06121   1.07664    0.000
 4611.00    1.06633   1.07497    0.000
 4612.00    1.07431   1.07255    0.000
 4613.00    1.09284   1.07013    0.000
 4614.00    1.09911   1.06792    0.000
 4615.00    1.07873   1.06592    0.000
 4616.00    1.04915   1.06419    0.000
 4617.00    1.03227   1.06308    0.000
 4618.00    1.03730   1.06313    0.000
 4619.00    1.05949   1.06465    0.000
 4620.00    1.08328   1.06732    0.000
 4621.00    1.09609   1.07026    0.000
 4622.00    1.09404   1.07248    0.000
 4623.00    1.08059   1.07319    0.000
 4624.00    1.06485   1.07215    0.000
 4625.00    1.05842   1.06983    0.000
 4626.00    1.06877   1.06701    0.000
 4627.00    1.08537   1.06438    0.000
 4628.00    1.08921   1.06229    0.000
 4629.00    1.08206   1.06072    0.000
 4630.00    1.07658   1.05922    0.000
 4631.00    1.06453   1.05718    0.000
 4632.00    1.03317   1.05418    0.000
 4633.00    1.00132   1.05027    0.000
 4634.00    0.99415   1.04587    0.000
 4635.00    1.00041   1.04155    0.000
 4636.00    1.00090   1.03794    0.000
 4637.00    1.00831   1.03558    0.000
 4638.00    1.03344   1.03469    0.000
 4639.00    1.04854   1.03499    0.000
 4640.00    1.03047   1.03558    0.000
 4641.00    0.99909   1.03500    0.000
 4642.00    0.97808   1.03198    0.000
 4643.00    0.96494   1.02616    0.000
 4644.00    0.95639   1.01841    0.000
 4645.00    0.96320   1.01072    0.000
 4646.00    0.98681   1.00540    0.000
 4647.00    1.00999   1.00411    0.000
 4648.00    1.02173   1.00717    0.000
 4649.00    1.02699   1.01327    0.000
 4650.00    1.03314   1.02023    0.000
 4651.00    1.04273   1.02607    0.000
 4652.00    1.04959   1.02988    0.000
 4653.00    1.04233   1.03227    0.000
 4654.00    1.01904   1.03486    0.000
 4655.00    0.99066   1.03924    0.000
 4656.00    0.97696   1.04582    0.000
 4657.00    0.99459   1.05347    0.000
 4658.00    1.03361   1.05992    0.000
 4659.00    1.06758   1.06283    0.000
 4660.00    1.08349   1.06076    0.000
 4661.00    1.08223   1.05344    0.000
 4662.00    1.06925   1.04163    0.000
 4663.00    1.04917   1.02692    0.000
 4664.00    1.02123   1.01158    0.000
 4665.00    0.99074   0.99818    0.000
 4666.00    0.98129   0.98917    0.000
 4667.00    1.00471   0.98624    0.000
 4668.00    1.03178   0.98957    0.000
 4669.00    1.03476   0.99775    0.000
 4670.00    1.02501   1.00846    0.000
 4671.00    1.01890   1.01940    0.000
 4672.00    1.01171   1.02889    0.000
 4673.00    1.00171   1.03602    0.000
 4674.00    1.00285   1.04037    0.000
 4675.00    1.01621   1.04189    0.000
 4676.00    1.02100   1.04079    0.000
 4677.00    1.01514   1.03762    0.000
 4678.00    1.02410   1.03356    0.000
 4679.00    1.05057   1.03001    0.000
 4680.00    1.06742   1.02801    0.000
 4681.00    1.07139   1.02790    0.000
 4682.00    1.08603   1.02936    0.000
 4683.00    1.10914   1.03158    0.000
 4684.00    1.11430   1.03373    0.000
 4685.00    1.09907   1.03531    0.000
 4686.00    1.08410   1.03611    0.000
 4687.00    1.08131   1.03625    0.000
 4688.00    1.08796   1.03622    0.000
 4689.00    1.09026   1.03651    0.000
 4690.00    1.07686   1.03756    0.000
 4691.00    1.05871   1.03956    0.000
 4692.00    1.05129   1.04215    0.000
 4693.00    1.04586   1.04426    0.000
 4694.00    1.02917   1.04454    0.000
 4695.00    1.01141   1.04215    0.000
 4696.00    1.00784   1.03710    0.000
 4697.00    1.01688   1.03001    0.000
 4698.00    1.02975   1.02198    0.000
 4699.00    1.04129   1.01436    0.000
 4700.00    1.04881   1.00837    0.000
 4701.00    1.05058   1.00464    0.000
 4702.00    1.04602   1.00295    0.000
 4703.00    1.03622   1.00268    0.000
 4704.00    1.02544   1.00308    0.000
 4705.00    1.02027   1.00370    0.000
 4706.00    1.02089   1.00459    0.000
 4707.00    1.01996   1.00619    0.000
 4708.00    1.01630   1.00860    0.000
 4709.00    1.01717   1.01147    0.000
 4710.00    1.02485   1.01433    0.000
 4711.00    1.03383   1.01704    0.000
 4712.00    1.03763   1.02004    0.000
 4713.00    1.03426   1.02405    0.000
 4714.00    1.03412   1.02974    0.000
 4715.00    1.05146   1.03726    0.000
 4716.00    1.08076   1.04603    0.000
 4717.00    1.10297   1.05478    0.000
 4718.00    1.10792   1.06221    0.000
 4719.00    1.09678   1.06755    0.000
 4720.00    1.07828   1.07069    0.000
 4721.00    1.06267   1.07174    0.000
 4722.00    1.05423   1.07054    0.000
 4723.00    1.05241   1.06659    0.000
 4724.00    1.05447   1.05959    0.000
 4725.00    1.05473   1.05001    0.000
 4726.00    1.04443   1.03909    0.000
 4727.00    1.02165   1.02860    0.000
 4728.00    0.99875   1.02050    0.000
 4729.00    0.98903   1.01614    0.000
 4730.00    0.99579   1.01575    0.000
 4731.00    1.01342   1.01850    0.000
 4732.00    1.03045   1.02286    0.000
 4733.00    1.04028   1.02739    0.000
 4734.00    1.04524   1.03150    0.000
 4735.00    1.04569   1.03513    0.000
 4736.00    1.03798   1.03824    0.000
 4737.00    1.02877   1.04090    0.000
 4738.00    1.03401   1.04332    0.000
 4739.00    1.05305   1.04569    0.000
 4740.00    1.06739   1.04799    0.000
 4741.00    1.06628   1.05018    0.000
 4742.00    1.05280   1.05239    0.000
 4743.00    1.03768   1.05473    0.000
 4744.00    1.03017   1.05703    0.000
 4745.00    1.02234   1.05901    0.000
 4746.00    1.00404   1.06047    0.000
 4747.00    0.99700   1.06106    0.000
 4748.00    1.02724   1.06032    0.000
 4749.00    1.07023   1.05798    0.000
 4750.00    1.08264   1.05417    0.000
 4751.00    1.05977   1.04932    0.000
 4752.00    1.02600   1.04420    0.000
 4753.00    1.01107   1.03970    0.000
 4754.00    1.02687   1.03656    0.000
 4755.00    1.04937   1.03503    0.000
 4756.00    1.05426   1.03470    0.000
 4757.00    1.04818   1.03445    0.000
 4758.00    1.04396   1.03280    0.000
 4759.00    1.04036   1.02882    0.000
 4760.00    1.03155   1.02258    0.000
 4761.00    1.01557   1.01497   22.073
 4762.00    1.00016   1.00741   22.152
 4763.00    1.00072   1.00170   21.948
 4764.00    1.01516   0.99932   21.834
 4765.00    1.02036   1.00075   21.988
 4766.00    1.01007   1.00545   22.283
 4767.00    1.00206   1.01198   22.372
 4768.00    1.00438   1.01872   22.248
 4769.00    1.00932   1.02481   22.247
 4770.00    1.01381   1.03027   22.352
 4771.00    1.02234   1.03535   22.225
 4772.00    1.03715   1.04011   21.851
 4773.00    1.05466   1.04448   21.526
 4774.00    1.06380   1.04830   21.465
 4775.00    1.05661   1.05093   21.664
 4776.00    1.04813   1.05171   21.768
 4777.00    1.05703   1.05060   21.507
 4778.00    1.06890   1.04791   21.451
 4779.00    1.06142   1.04385   22.128
 4780.00    1.04695   1.03888   22.696
 4781.00    1.04554   1.03387   22.185
 4782.00    1.04686   1.02924   21.605
 4783.00    1.03764   1.02498   21.991
 4784.00    1.03231   1.02159   22.712
 4785.00    1.04211   1.01947   22.777
 4786.00    1.04827   1.01863   22.393
 4787.00    1.03588   1.01947   22.161
 4788.00    1.01825   1.02237   22.281
 4789.00    1.00904   1.02735   22.685
 4790.00    1.00522   1.03429   23.155
 4791.00    1.00520   1.04246   23.522
 4792.00    1.01639   1.05038   23.768
 4793.00    1.03733   1.05640   23.798
 4794.00    1.05351   1.05933   23.429
 4795.00    1.05816   1.05879   22.895
 4796.00    1.05745   1.05547   22.740
 4797.00    1.05624   1.05103   22.994
 4798.00    1.05437   1.04725   23.177
 4799.00    1.05150   1.04507   23.075
 4800.00    1.04751   1.04421   22.890
 4801.00    1.03952   1.04362   22.842
 4802.00    1.02428   1.04241   23.028
 4803.00    1.00547   1.04039   23.343
 4804.00    0.99175   1.03766   23.523
 4805.00    0.98977   1.03478   23.327
 4806.00    1.00117   1.03266   22.788
 4807.00    1.02016   1.03181   22.415
 4808.00    1.03683   1.03218   22.523
 4809.00    1.04287   1.03356   22.466
 4810.00    1.03660   1.03572   21.689
 4811.00    1.02733   1.03851   20.992
 4812.00    1.02465   1.04181   21.100
 4813.00    1.02696   1.04558   21.606
 4814.00    1.02502   1.04962   21.864
 4815.00    1.00825   1.05343   21.903
 4816.00    0.98053   1.05634   21.958
 4817.00    0.96754   1.05750   22.003
 4818.00    0.98442   1.05619   21.936
 4819.00    1.01766   1.05189   21.732
 4820.00    1.04907   1.04469   21.413
 4821.00    1.06953   1.03624   21.027
 4822.00    1.07390   1.02889   20.717
 4823.00    1.06000   1.02388   20.689
 4824.00    1.03640   1.02123   21.025
 4825.00    1.02058   1.02030   21.608
 4826.00    1.02071   1.02025   22.086
 4827.00    1.03091   1.02035   22.058
 4828.00    1.03789   1.01984   21.830
 4829.00    1.03051   1.01861   22.092
 4830.00    1.01842   1.01742   22.603
 4831.00    1.02133   1.01690   22.462
 4832.00    1.03450   1.01690   21.800
 4833.00    1.03784   1.01696   21.427
 4834.00    1.02823   1.01668   21.513
 4835.00    1.01522   1.01539   21.741
 4836.00    1.00346   1.01261   21.750
 4837.00    0.99243   1.00864   21.493
 4838.00    0.98062   1.00438   21.551
 4839.00    0.96948   1.00047   22.330
 4840.00    0.96690   0.99717   23.056
 4841.00    0.97867   0.99486   22.847
 4842.00    0.99927   0.99359   22.371
 4843.00    1.01462   0.99251   22.461
 4844.00    1.00786   0.99038   22.945
 4845.00    0.98044   0.98647   23.233
 4846.00    0.96184   0.98106   22.896
 4847.00    0.96596   0.97487   22.192
 4848.00    0.96916   0.96794    0.000
 4849.00    0.95761   0.95971    0.000
 4850.00    0.94758   0.94948    0.000
 4851.00    0.94632   0.93616    0.000
 4852.00    0.93999   0.91898    0.000
 4853.00    0.92768   0.89840    0.000
 4854.00    0.93161   0.87523    0.000
 4855.00    0.98040   0.84936    0.000
 4856.00    1.09618   0.82046    0.000
 4857.00    1.27549   0.78921    0.000
 4858.00    1.48507   0.75862    0.000
 4859.00    1.66730   0.73422    0.000
 4860.00    1.75987   0.72124    0.000
 4861.00    1.73580   0.72176    0.000
 4862.00    1.60848   0.73502    0.000
 4863.00    1.42268   0.75822    0.000
 4864.00    1.23582   0.78687    0.000
 4865.00    1.08973   0.81603    0.000
 4866.00    0.99893   0.84181    0.000
 4867.00    0.94294   0.86167    0.000
 4868.00    0.89656   0.87495    0.000
 4869.00    0.86585   0.88350    0.000
 4870.00    0.86233   0.89059    0.000
 4871.00    0.87332   0.89842    0.000
 4872.00    0.88106   0.90775    0.000
 4873.00    0.88238   0.91876    0.000
 4874.00    0.88490   0.93114    0.000
 4875.00    0.90016   0.94405   24.217
 4876.00    0.92643   0.95660   24.391
 4877.00    0.94286   0.96761   24.310
 4878.00    0.94064   0.97561   24.213
 4879.00    0.93481   0.98001   24.138
 4880.00    0.93170   0.98134   24.076
 4881.00    0.92032   0.98004   24.044
 4882.00    0.90554   0.97658   24.003
 4883.00    0.91107   0.97198   23.873
 4884.00    0.93909   0.96749   23.672
 4885.00    0.96460   0.96387   23.567
 4886.00    0.96449   0.96117   23.868
 4887.00    0.93380   0.95923   24.820
 4888.00    0.90262   0.95861   25.897
 4889.00    0.91123   0.96124   26.019
 4890.00    0.94670   0.96898   25.348
 4891.00    0.96716   0.98161   24.889
 4892.00    0.97470   0.99739   24.875
 4893.00    0.99520   1.01386   24.969
 4894.00    1.02253   1.02835   24.876
 4895.00    1.03409   1.03871   24.595
 4896.00    1.02539   1.04373   24.569
 4897.00    1.00516   1.04365   25.119
 4898.00    0.98312   1.04034   25.786
 4899.00    0.96637   1.03597   26.002
 4900.00    0.95738   1.03174   26.035
 4901.00    0.95608   1.02870   26.328
 4902.00    0.96181   1.02784   26.774
 4903.00    0.97167   1.02892   26.979
 4904.00    0.97989   1.03026   26.611
 4905.00    0.98313   1.03010   25.846
 4906.00    0.98383   1.02755   25.339
 4907.00    0.98837   1.02286   25.267
 4908.00    1.00307   1.01751   25.125
 4909.00    1.02021   1.01358   24.720
 4910.00    1.01913   1.01228   24.452
 4911.00    0.99902   1.01335   24.554
 4912.00    0.98266   1.01559   24.893
 4913.00    0.97975   1.01687   25.222
 4914.00    0.98102   1.01443   25.326
 4915.00    0.98167   1.00618   25.229
 4916.00    0.98329   0.99212   25.164
 4917.00    0.97947   0.97465   25.334
 4918.00    0.95983   0.95769   25.801
 4919.00    0.92734   0.94518   26.355
 4920.00    0.89625   0.93949   26.671
 4921.00    0.88044   0.94076   26.765
 4922.00    0.88841   0.94844   26.817
 4923.00    0.91892   0.96182   26.683
 4924.00    0.96072   0.97902   26.182
 4925.00    0.99420   0.99712   25.583
 4926.00    1.00560   1.01381   25.238
 4927.00    1.00274   1.02730   25.185
 4928.00    1.00041   1.03600   25.242
 4929.00    1.00333   1.03914   25.125
 4930.00    1.00970   1.03664   24.698
 4931.00    1.01596   1.02963   24.162
 4932.00    1.01751   1.02087   23.875
 4933.00    1.00976   1.01253   24.166
 4934.00    0.99351   1.00481   24.826
 4935.00    0.97707   0.99776   24.891
 4936.00    0.96796   0.99259   24.271
 4937.00    0.96839   0.99117   24.233
 4938.00    0.97713   0.99455   25.098
 4939.00    0.99064   1.00184   25.646
 4940.00    1.00313   1.01128    0.000
 4941.00    1.00822   1.02148    0.000
 4942.00    1.00462   1.03091    0.000
 4943.00    0.99699   1.03827    0.000
 4944.00    0.99190   1.04369    0.000
 4945.00    0.99501   1.04797    0.000
 4946.00    1.00701   1.05136    0.000
 4947.00    1.02355   1.05380    0.000
 4948.00    1.03753   1.05523    0.000
 4949.00    1.04189   1.05513    0.000
 4950.00    1.03387   1.05259    0.000
 4951.00    1.01892   1.04722    0.000
 4952.00    1.01449   1.03916    0.000
 4953.00    1.02930   1.02858    0.000
 4954.00    1.03620   1.01594    0.000
 4955.00    1.01334   1.00358    0.000
 4956.00    0.99410   0.99594    0.000
 4957.00    1.01401   0.99528    0.000
 4958.00    1.05302   0.99986    0.000
 4959.00    1.07633   1.00694    0.000
 4960.00    1.07534   1.01442    0.000
 4961.00    1.05885   1.02036    0.000
 4962.00    1.04147   1.02293    0.000
 4963.00    1.02899   1.02172    0.000
 4964.00    1.01338   1.01824    0.000
 4965.00    0.99684   1.01436    0.000
 4966.00    0.99830   1.01141    0.000
 4967.00    1.01622   1.01041    0.000
 4968.00    1.02176   1.01183    0.000
 4969.00    1.00784   1.01560    0.000
 4970.00    0.99817   1.02093    0.000
 4971.00    1.00419   1.02650    0.000
 4972.00    1.01573   1.03108    0.000
 4973.00    1.02148   1.03342    0.000
 4974.00    1.01635   1.03255    0.000
 4975.00    1.00312   1.02803    0.000
 4976.00    0.98874   1.01982    0.000
 4977.00    0.97540   1.00872    0.000
 4978.00    0.96133   0.99561    0.000
 4979.00    0.94633   0.98112    0.000
 4980.00    0.93140   0.96686    0.000
 4981.00    0.91689   0.95577    0.000
 4982.00    0.90664   0.95023    0.000
 4983.00    0.91338   0.95070    0.000
 4984.00    0.94276   0.95648    0.000
 4985.00    0.97508   0.96582    0.000
 4986.00    0.98869   0.97593    0.000
 4987.00    0.98540   0.98453    0.000
 4988.00    0.97830   0.99066    0.000
 4989.00    0.97767   0.99455    0.000
 4990.00    0.98488   0.99708    0.000
 4991.00    0.99047   0.99852    0.000
 4992.00    0.98771   0.99938    0.000
 4993.00    0.98075   1.00036    0.000
 4994.00    0.97821   1.00070    0.000
 4995.00    0.98652   0.99932    0.000
 4996.00    0.99712   0.99552    0.000
 4997.00    0.98877   0.98896    0.000
 4998.00    0.96224   0.98052    0.000
 4999.00    0.94418   0.97170    0.000
 5000.00    0.94872   0.96373    0.000
 5001.00    0.97022   0.95727    0.000
 5002.00    1.00448   0.95198    0.000
 5003.00    1.05170   0.94759    0.000
 5004.00    1.10675   0.94504    0.000
 5005.00    1.15719   0.94568    0.000
 5006.00    1.18537   0.94897    0.000
 5007.00    1.17571   0.95246    0.000
 5008.00    1.12769   0.95403    0.000
 5009.00    1.05638   0.95262    0.000
 5010.00    0.98836   0.94786    0.000
 5011.00    0.94592   0.94081    0.000
 5012.00    0.92701   0.93332    0.000
 5013.00    0.91833   0.92733    0.000
 5014.00    0.91439   0.92386    0.000
 5015.00    0.91462   0.92244    0.000
 5016.00    0.91801   0.92312    0.000
 5017.00    0.92312   0.92664    0.000
 5018.00    0.92865   0.93248    0.000
 5019.00    0.93344   0.93896    0.000
 5020.00    0.93666   0.94530    0.000
 5021.00    0.93905   0.95202    0.000
 5022.00    0.94318   0.95893    0.000
 5023.00    0.95084   0.96489    0.000
 5024.00    0.96099   0.96939    0.000
 5025.00    0.96753   0.97253    0.000
 5026.00    0.96242   0.97576    0.000
 5027.00    0.95274   0.98019    0.000
 5028.00    0.95893   0.98515    0.000
 5029.00    0.98334   0.99008   24.806
 5030.00    1.00694   0.99461   24.980
 5031.00    1.01415   0.99744   25.246
 5032.00    1.00264   0.99667   24.951
 5033.00    0.98750   0.99123   24.448
 5034.00    0.98787   0.98242   24.579
 5035.00    0.99597   0.97241   25.033
 5036.00    0.98858   0.96140   24.921
 5037.00    0.96187   0.94971   24.670
 5038.00    0.92957   0.93913   25.177
 5039.00    0.90840   0.93254   25.940
 5040.00    0.90851   0.93316   25.881
 5041.00    0.92438   0.94086   25.330
 5042.00    0.94440   0.95243   25.151
 5043.00    0.96352   0.96510   25.399
 5044.00    0.97803   0.97603   25.713
 5045.00    0.97971   0.98238   25.801
 5046.00    0.96706   0.98330   25.705
 5047.00    0.95387   0.98057   25.873
 5048.00    0.95224   0.97671   26.254
 5049.00    0.96021   0.97351   25.825
 5050.00    0.97161   0.97260   24.619
 5051.00    0.98316   0.97513   24.264
 5052.00    0.99396   0.98061   25.318
 5053.00    1.00419   0.98751   26.540
 5054.00    1.01146   0.99478   26.872
 5055.00    1.01053   1.00203   26.788
 5056.00    0.99979   1.00875   26.845
 5057.00    0.98401   1.01391   27.030
 5058.00    0.97413   1.01715   27.219
 5059.00    0.98190   1.01819   27.307
 5060.00    1.00437   1.01632   27.060
 5061.00    1.02599   1.01099   26.370
 5062.00    1.03633   1.00246   25.878
 5063.00    1.03416   0.99291   26.335
 5064.00    1.02523   0.98493   27.260
 5065.00    1.01581   0.97881   27.470
 5066.00    1.00197   0.97428   27.253
 5067.00    0.97833   0.97194   27.618
 5068.00    0.95514   0.97167   28.237
 5069.00    0.94620   0.97174   28.228
 5070.00    0.94871   0.97124   27.915
 5071.00    0.95292   0.97092   27.941
 5072.00    0.95661   0.97055   27.974
 5073.00    0.96070   0.96892   27.610
 5074.00    0.96297   0.96601   27.346
 5075.00    0.96001   0.96203   27.558
 5076.00    0.94950   0.95612   27.724
 5077.00    0.93025   0.94803   27.415
 5078.00    0.90305   0.94040   27.043
 5079.00    0.87650   0.93598   26.922
 5080.00    0.86751   0.93508   26.792
 5081.00    0.88196   0.93706   26.491
 5082.00    0.90770   0.94196   26.244
 5083.00    0.93490   0.94937   26.243
 5084.00    0.96359   0.95764   26.459
 5085.00    0.99218   0.96549   26.621
 5086.00    1.01416   0.97271   26.377
 5087.00    1.02462   0.97928   25.951
 5088.00    1.02323   0.98478   25.955
 5089.00    1.01595   0.98913   26.352
 5090.00    1.01147   0.99251   26.510
 5091.00    1.01086   0.99438   26.193
 5092.00    1.00858   0.99364   25.710
 5093.00    1.00081   0.98964   25.491
 5094.00    0.98744   0.98272   25.752
 5095.00    0.97221   0.97386   26.108
 5096.00    0.95890   0.96451   26.062
 5097.00    0.94558   0.95663   26.044
 5098.00    0.93050   0.95241   26.574
 5099.00    0.92102   0.95223   26.918
 5100.00    0.92392   0.95448   26.271
 5101.00    0.93309   0.95730   25.503
 5102.00    0.93907   0.95944   25.490
 5103.00    0.94011   0.96029   25.745
 5104.00    0.93913   0.95946   25.659
 5105.00    0.93957   0.95708   25.601
 5106.00    0.94154   0.95443   25.977
 5107.00    0.94073   0.95277   26.518
 5108.00    0.93888   0.95267   26.773
 5109.00    0.94742   0.95504   26.570
 5110.00    0.96820   0.95991   26.239
 5111.00    0.98697   0.96610   26.415
 5112.00    0.99663   0.97285   26.989
 5113.00    1.00437   0.97948   26.927
 5114.00    1.01279   0.98525   26.064
 5115.00    1.01498   0.98956   25.415
 5116.00    1.00569   0.99142   25.590
 5117.00    0.98606   0.98991   26.560
 5118.00    0.96524   0.98494   27.751
 5119.00    0.95481   0.97708   28.259
 5120.00    0.95367   0.96715   28.149
 5121.00    0.95198   0.95607   28.220
 5122.00    0.94846   0.94549   28.378
 5123.00    0.94777   0.93714   28.016
 5124.00    0.94812   0.93146   27.416
 5125.00    0.94399   0.92817   27.227
 5126.00    0.93427   0.92704   27.394
 5127.00    0.92253   0.92798   27.524
 5128.00    0.91522   0.93094   27.554
 5129.00    0.91742   0.93564   27.639
 5130.00    0.92837   0.94099   27.883
 5131.00    0.94423   0.94590   28.170
 5132.00    0.96119   0.95014   28.067
 5133.00    0.97260   0.95344   27.459
 5134.00    0.96795   0.95442   26.967
 5135.00    0.94833   0.95249   27.061
 5136.00    0.93403   0.94863   27.587
 5137.00    0.93541   0.94397   28.213
 5138.00    0.93793   0.94013   28.712
 5139.00    0.92994   0.93743   28.881
 5140.00    0.91662   0.93460   28.576
 5141.00    0.90732   0.93229   28.029
 5142.00    0.90760   0.93169   27.722
 5143.00    0.91406   0.93169   27.519
 5144.00    0.91660   0.93112   26.803
 5145.00    0.91325   0.93040   25.876
 5146.00    0.91127   0.93002   25.690
 5147.00    0.91422   0.93000   26.353
 5148.00    0.91938   0.92981   27.166
 5149.00    0.92165   0.92910   27.549
 5150.00    0.91796   0.92852   27.406
 5151.00    0.91415   0.92891   27.078
 5152.00    0.92041   0.93099   26.916
 5153.00    0.93976   0.93549   26.662
 5154.00    0.96492   0.94236   26.012
 5155.00    0.97798   0.95046   25.530
 5156.00    0.96787   0.95820   25.791
 5157.00    0.95288   0.96392   26.292
 5158.00    0.95422   0.96657   26.286
 5159.00    0.96237   0.96510   26.076
 5160.00    0.95865   0.95848   26.225
 5161.00    0.94087   0.94699   26.614
 5162.00    0.91691   0.93119   26.819
 5163.00    0.89577   0.91101   26.553
 5164.00    0.88064   0.88740   25.870
 5165.00    0.86566   0.86320   25.135
 5166.00    0.84626   0.84247   24.593
 5167.00    0.82502   0.82847   24.204
 5168.00    0.80440   0.82156   23.855
 5169.00    0.78455   0.81909   23.467
 5170.00    0.77303   0.81969   23.014
 5171.00    0.78457   0.82592   22.520
 5172.00    0.82063   0.83988   22.077
 5173.00    0.86597   0.85889   21.754
 5174.00    0.90738   0.87803   21.327
 5175.00    0.93844   0.89418   20.536
 5176.00    0.95301   0.90574   19.871
 5177.00    0.94728   0.91128   20.070
 5178.00    0.92965   0.91010   20.882
 5179.00    0.91471   0.90257   21.322
 5180.00    0.90451   0.89003   21.337
 5181.00    0.89313   0.87566   21.675
 5182.00    0.88309   0.86540   22.470
 5183.00    0.88193   0.86405   23.303
 5184.00    0.89156   0.87086   23.812
 5185.00    0.90668   0.88185   23.918
 5186.00    0.91588   0.89356   23.904
 5187.00    0.91231   0.90434   24.081
 5188.00    0.90531   0.91290   24.416
 5189.00    0.90830   0.91708   24.693
 5190.00    0.92491   0.91676    0.000
 5191.00    0.94849   0.91534    0.000
 5192.00    0.96468   0.91541    0.000
 5193.00    0.96524   0.91687    0.000
 5194.00    0.95721   0.92001    0.000
 5195.00    0.95340   0.92520    0.000
 5196.00    0.96365   0.93153    0.000
 5197.00    0.98321   0.93776    0.000
 5198.00    0.99251   0.94228    0.000
 5199.00    0.98580   0.94338    0.000
 5200.00    0.97843   0.94038    0.000
 5201.00    0.97834   0.93366    0.000
 5202.00    0.97808   0.92350    0.000
 5203.00    0.97001   0.91106    0.000
 5204.00    0.95152   0.89955    0.000
 5205.00    0.92396   0.89161    0.000
 5206.00    0.89387   0.88776    0.000
 5207.00    0.87685   0.88858    0.000
 5208.00    0.88666   0.89480    0.000
 5209.00    0.90990   0.90534    0.000
 5210.00    0.92112   0.91819    0.000
 5211.00    0.92111   0.93109   25.806
 5212.00    0.92582   0.94171   25.487
 5213.00    0.93686   0.94895   24.858
 5214.00    0.94523   0.95388   25.005
 5215.00    0.94367   0.95842   25.568
 5216.00    0.93335   0.96356   25.683
 5217.00    0.92849   0.96877   25.449
 5218.00    0.94066   0.97265   25.225
 5219.00    0.96300   0.97400   24.763
 5220.00    0.98091   0.97192   24.085
 5221.00    0.98361   0.96568   24.024
 5222.00    0.96934   0.95543   24.911
 5223.00    0.94698   0.94257   25.768
 5224.00    0.92395   0.92944   25.820
 5225.00    0.90047   0.91944   25.739
 5226.00    0.88269   0.91601   25.979
 5227.00    0.88557   0.91914   25.999
 5228.00    0.90940   0.92559   25.531
 5229.00    0.93463   0.93282   25.055
 5230.00    0.94764   0.93906   24.988
 5231.00    0.94930   0.94356   25.417
 5232.00    0.94569   0.94757   26.058
 5233.00    0.94370   0.95251   26.383
 5234.00    0.94819   0.95871   26.335
 5235.00    0.95963   0.96594   26.344
 5236.00    0.97029   0.97341   26.595
 5237.00    0.97041   0.98041   26.949
 5238.00    0.96362   0.98654   27.201
 5239.00    0.96159   0.99136   27.214
 5240.00    0.96750   0.99415   27.081
 5241.00    0.97598   0.99466   26.989
 5242.00    0.97845   0.99350   26.968
 5243.00    0.97081   0.99070   26.972
 5244.00    0.96201   0.98532   27.029
 5245.00    0.96259   0.97773   27.130
 5246.00    0.97017   0.97023   27.092
 5247.00    0.97782   0.96415   26.806
 5248.00    0.98373   0.95905   26.492
 5249.00    0.98561   0.95555   26.491
 5250.00    0.97633   0.95493   27.056
 5251.00    0.95693   0.95695   27.966
 5252.00    0.94384   0.96029   28.222
 5253.00    0.94939   0.96425   27.394
 5254.00    0.96988   0.96922   26.398
 5255.00    0.99349   0.97494   25.941
 5256.00    1.00704   0.97908   26.007
 5257.00    1.00430   0.97905   26.309
 5258.00    0.98834   0.97352   26.510
 5259.00    0.96468   0.96250   26.606
 5260.00    0.93796   0.94694   26.904
 5261.00    0.91021   0.92847   27.290
 5262.00    0.88208   0.90910   27.216
 5263.00    0.85791   0.89111   26.665
 5264.00    0.84430   0.87678   26.109
 5265.00    0.84277   0.86776   25.675
 5266.00    0.84946   0.86325   25.230
 5267.00    0.85888   0.86062   24.873
 5268.00    0.86628   0.86050   24.837
 5269.00    0.87051   0.86621   25.192
 5270.00    0.87511   0.87751   25.838
 5271.00    0.88853   0.89059   26.513
 5272.00    0.91491   0.90329   -2.000
 5273.00    0.94226   0.91544   -2.000
 5274.00    0.95573   0.92780   -2.000
 5275.00    0.95507   0.94087   -2.000
 5276.00    0.94895   0.95266   -2.000
 5277.00    0.94666   0.96049   -2.000
 5278.00    0.95489   0.96419   -2.000
 5279.00    0.97526   0.96523   -2.000
 5280.00    1.00143   0.96522   -2.000
 5281.00    1.01928   0.96538   -2.000
 5282.00    1.02121   0.96707   -2.000
 5283.00    1.01339   0.97225   -2.000
 5284.00    1.00329   0.98116   -2.000
 5285.00    0.99331   0.99138   -2.000
 5286.00    0.98611   1.00055   25.080
 5287.00    0.98571   1.00805   26.195
 5288.00    0.99130   1.01380   27.138
 5289.00    0.99773   1.01693   27.715
 5290.00    1.00607   1.01617   27.732
 5291.00    1.02136   1.01150   27.224
 5292.00    1.03460   1.00428   26.700
 5293.00    1.02751   0.99549   26.779
 5294.00    0.99817   0.98508   27.424
 5295.00    0.96104   0.97364   28.085
 5296.00    0.93159   0.96376   28.443
 5297.00    0.91996   0.95856   28.553
 5298.00    0.92576   0.95851   28.617
 5299.00    0.94065   0.96154   28.755
 5300.00    0.95441   0.96654   28.740
 5301.00    0.96023   0.97401   28.361
 5302.00    0.96029   0.98363   27.929
 5303.00    0.96212   0.99338   27.831
 5304.00    0.97271   1.00108   28.024
 5305.00    0.99248   1.00630   28.169
 5306.00    1.01082   1.01017   27.852
 5307.00    1.01621   1.01352   27.201
 5308.00    1.00591   1.01582   27.099
 5309.00    0.98835   1.01614   27.873
 5310.00    0.98123   1.01452   28.519
 5311.00    0.99152   1.01154   28.138
 5312.00    1.00565   1.00776   27.181
 5313.00    1.00955   1.00345   26.535
 5314.00    1.00010   0.99854   26.820
 5315.00    0.98353   0.99383   27.848
 5316.00    0.97100   0.99059   28.492
 5317.00    0.96503   0.98850   28.260
 5318.00    0.95836   0.98626   27.872
 5319.00    0.94955   0.98306   27.786
 5320.00    0.94445   0.97811   27.879
 5321.00    0.94396   0.97047   27.959
 5322.00    0.94348   0.96012   27.933
 5323.00    0.94145   0.94869   27.839
 5324.00    0.93872   0.93788   27.743
 5325.00    0.93269   0.92733   27.504
 5326.00    0.92050   0.91736   27.024
 5327.00    0.90729   0.91214   26.725
 5328.00    0.90192   0.91532   27.079
 5329.00    0.90760   0.92496   27.870
 5330.00    0.92175   0.93646   28.506
 5331.00    0.93846   0.94751   28.747
 5332.00    0.95318   0.95807   28.752
 5333.00    0.96741   0.96740   28.867
 5334.00    0.98237   0.97329   29.235
 5335.00    0.99263   0.97481   29.485
 5336.00    0.99436   0.97335   29.331
 5337.00    0.99222   0.97031   29.103
 5338.00    0.99148   0.96621   29.122
 5339.00    0.99193   0.96266   29.267
 5340.00    0.99116   0.96201   29.341
 5341.00    0.98708   0.96396   29.322
 5342.00    0.97876   0.96637   29.331
 5343.00    0.96682   0.96800   29.551
 5344.00    0.95258   0.96912   29.966
 5345.00    0.93859   0.97081   30.295
 5346.00    0.93193   0.97297   30.307
 5347.00    0.94115   0.97498   30.012
 5348.00    0.96126   0.97817   29.719
 5349.00    0.97673   0.98404   29.772
 5350.00    0.98613   0.99199   29.869
 5351.00    1.00039   1.00045   29.380
 5352.00    1.01938   1.00876   28.675
 5353.00    1.03293   1.01702   28.597
 5354.00    1.03634   1.02428   28.992
 5355.00    1.03196   1.02913   29.038
 5356.00    1.02509   1.03115   28.445
 5357.00    1.02026   1.03051   27.546
 5358.00    1.01660   1.02729   26.848
 5359.00    1.01005   1.02144   26.655
 5360.00    0.99769   1.01335   26.785
 5361.00    0.98029   1.00442   26.864
 5362.00    0.96427   0.99566   26.694
 5363.00    0.95602   0.98688   26.441
 5364.00    0.95607   0.97816   26.650
 5365.00    0.96065   0.97012   27.499
 5366.00    0.96392   0.96299   28.170
 5367.00    0.96181   0.95673   28.037
 5368.00    0.95481   0.95124   27.733
 5369.00    0.94862   0.94771   27.777
 5370.00    0.95219   0.94870   27.859
 5371.00    0.96547   0.95525   27.863
 5372.00    0.97644   0.96534   28.267
 5373.00    0.98017   0.97591   29.117
 5374.00    0.98420   0.98529   29.661
 5375.00    0.99238   0.99283   29.424
 5376.00    1.00051   0.99823   28.736
 5377.00    1.00515   1.00117   28.174
 5378.00    1.00633   1.00125   27.990
 5379.00    1.00572   0.99930   27.259
 5380.00    1.00494   0.99685   -2.000
 5381.00    1.00293   0.99476   -2.000
 5382.00    0.99857   0.99344   -2.000
 5383.00    0.99756   0.99309   -2.000
 5384.00    1.00780   0.99294   -2.000
 5385.00    1.02784   0.99195   -2.000
 5386.00    1.04449   0.98972   -2.000
 5387.00    1.03454   0.98606   -2.000
 5388.00    0.99634   0.98113   -2.000
 5389.00    0.98741   0.97533   -2.000
 5390.00    1.04608   0.96895   -2.000
 5391.00    1.10223   0.96251   -2.000
 5392.00    1.09053   0.95668   -2.000
 5393.00    1.06455   0.95173   -2.000
 5394.00    1.07727   0.94727   -2.000
 5395.00    1.07955   0.94326   -2.000
 5396.00    1.03122   0.94131   -2.000
 5397.00    0.97808   0.94222   -2.000
 5398.00    0.95846   0.94356   -2.000
 5399.00    0.94943   0.94324   -2.000
 5400.00    0.93054   0.94154   -2.000
 5401.00    0.91476   0.93863   -2.000
 5402.00    0.91503   0.93357   -2.000
 5403.00    0.92883   0.92656   21.788
 5404.00    0.94504   0.92030   12.363
 5405.00    0.95129   0.91774    9.803
 5406.00    0.94817   0.91891   10.093
 5407.00    0.94755   0.92156   11.062
 5408.00    0.95285   0.92509   10.907
 5409.00    0.95813   0.93132    9.691
 5410.00    0.96122   0.94095    9.697
 5411.00    0.96446   0.95157   14.162
 5412.00    0.96881   0.96059   26.840
 5413.00    0.97297   0.96781   19.490
 5414.00    0.97438   0.97460   10.868
 5415.00    0.97160   0.98118    9.327
 5416.00    0.96746   0.98572   10.221
 5417.00    0.96668   0.98709   10.765
 5418.00    0.97175   0.98619   10.311
 5419.00    0.98234   0.98465    9.964
 5420.00    0.99553   0.98345   10.053
 5421.00    1.00808   0.98184   10.228
 5422.00    1.01848   0.97862    9.755
 5423.00    1.02392   0.97501    9.079
 5424.00    1.01857   0.97314   10.188
 5425.00    1.00301   0.97225   16.353
 5426.00    0.98899   0.96953   31.840
 5427.00    0.98371   0.96342   34.365
 5428.00    0.98139   0.95612   27.922
 5429.00    0.97575   0.95144   28.431
 5430.00    0.96639   0.94907   30.942
 5431.00    0.95377   0.94659   30.510
 5432.00    0.93793   0.94482   29.578
 5433.00    0.92368   0.94614   30.174
 5434.00    0.91963   0.95170   31.231
 5435.00    0.92720   0.96047   30.662
 5436.00    0.94016   0.97061   28.135
 5437.00    0.95459   0.98093   27.973
 5438.00    0.96983   0.98992   34.757
 5439.00    0.98283   0.99595   34.437
 5440.00    0.98938   0.99808   17.962
 5441.00    0.98947   0.99639   10.800
 5442.00    0.98555   0.99140    9.347
 5443.00    0.97702   0.98356   10.065
 5444.00    0.96367   0.97422   10.887
 5445.00    0.95249   0.96602   10.594
 5446.00    0.95153   0.96196    9.854
 5447.00    0.96027   0.96230   10.331
 5448.00    0.97182   0.96396   13.881
 5449.00    0.97778   0.96483   21.696
 5450.00    0.97395   0.96496   26.123
 5451.00    0.96496   0.96464   24.380
 5452.00    0.95696   0.96315   24.544
 5453.00    0.95134   0.95993   26.628
 5454.00    0.94864   0.95689   27.910
 5455.00    0.95122   0.95702   27.673
 5456.00    0.95897   0.96006   26.976
 5457.00    0.96735   0.96330   26.978
 5458.00    0.97291   0.96538   27.787
 5459.00    0.97583   0.96645   28.272
 5460.00    0.97651   0.96674   27.971
 5461.00    0.97429   0.96610   27.827
 5462.00    0.96917   0.96542   28.231
 5463.00    0.96265   0.96608   28.628
 5464.00    0.95826   0.96740   28.773
 5465.00    0.95903   0.96851   28.956
 5466.00    0.95998   0.96974   29.081
 5467.00    0.95286   0.97064   28.745
 5468.00    0.94341   0.97004   28.223
 5469.00    0.94495   0.96735   28.133
 5470.00    0.95532   0.96280   28.407
 5471.00    0.96188   0.95686   28.580
 5472.00    0.96039   0.95032   28.678
 5473.00    0.95398   0.94429   28.973
 5474.00    0.94566   0.93849   29.274
 5475.00    0.93802   0.93305   29.312
 5476.00    0.93428   0.93084   29.437
 5477.00    0.93702   0.93313   29.902
 5478.00    0.94649   0.93723   29.950
 5479.00    0.96003   0.94073   29.035
 5480.00    0.97216   0.94434   28.067
 5481.00    0.97755   0.94966   27.810
 5482.00    0.97386   0.95589   27.966
 5483.00    0.96162   0.96114   28.083
 5484.00    0.94413   0.96451   28.152
 5485.00    0.92737   0.96599   28.213
 5486.00    0.91906   0.96657   28.103
 5487.00    0.92308   0.96738   27.729
 5488.00    0.93687   0.96844   27.162
 5489.00    0.95405   0.96908   26.369
 5490.00    0.96713   0.96938   25.211
 5491.00    0.97316   0.96936   23.779
 5492.00    0.97539   0.96915   22.394
 5493.00    0.98109   0.96939   21.419
 5494.00    0.99520   0.96948   21.090
 5495.00    1.00475   0.96818   21.226
 5496.00    0.99000   0.96615   21.351
 5497.00    0.96331   0.96527   21.220
 5498.00    0.95591   0.96497   20.922
 5499.00    0.96797   0.96281   20.700
 5500.00    0.97706   0.95886   20.815
 5501.00    0.97427   0.95567   21.421
 5502.00    0.96419   0.95412   22.468
 5503.00    0.95361   0.95267   23.463
 5504.00    0.94820   0.95021   23.894
 5505.00    0.95052   0.94774   24.208
 5506.00    0.96058   0.94697   25.030
 5507.00    0.97688   0.94728   25.942
 5508.00    0.99501   0.94681   26.339
 5509.00    1.00689   0.94559   26.714
 5510.00    1.00647   0.94448   27.555
 5511.00    0.99457   0.94426   28.194
 5512.00    0.97614   0.94574   28.118
 5513.00    0.95770   0.94896   28.088
 5514.00    0.94570   0.95354   28.613
 5515.00    0.94499   0.95911   29.113
 5516.00    0.95555   0.96543   29.103
 5517.00    0.97163   0.97185   28.895
 5518.00    0.98630   0.97683   28.880
 5519.00    0.99386   0.97945   29.153
 5520.00    0.99092   0.97995   29.462
 5521.00    0.97804   0.97847   29.373
 5522.00    0.96376   0.97496   29.042
 5523.00    0.96009   0.96992   29.045
 5524.00    0.96556   0.96428   29.191
 5525.00    0.96722   0.95878   28.807
 5526.00    0.95847   0.95392   28.303
 5527.00    0.94313   0.95097   28.559
 5528.00    0.93360   0.95111   29.058
 5529.00    0.94097   0.95324   28.597
 5530.00    0.95827   0.95556   27.593
 5531.00    0.97038   0.95761   27.103
 5532.00    0.97439   0.95965   27.028
 5533.00    0.97409   0.96165   26.948
 5534.00    0.96846   0.96377   27.304
 5535.00    0.95834   0.96654   28.462
 5536.00    0.95509   0.96932   29.351
 5537.00    0.96710   0.97166   28.869
 5538.00    0.98638   0.97415   27.993
 5539.00    1.00009   0.97661   27.775
 5540.00    1.00200   0.97793   27.926
 5541.00    0.99396   0.97776   27.996
 5542.00    0.98476   0.97725   28.159
 5543.00    0.98037   0.97756   28.638
 5544.00    0.97873   0.97852   29.317
 5545.00    0.97632   0.97985   29.889
 5546.00    0.97242   0.98206   30.055
 5547.00    0.97126   0.98485   29.957
 5548.00    0.98001   0.98696   30.137
 5549.00    0.99722   0.98798   30.587
 5550.00    1.01170   0.98805   30.669
 5551.00    1.01487   0.98696   30.314
 5552.00    1.00547   0.98473   30.077
 5553.00    0.98997   0.98218   29.961
 5554.00    0.97846   0.98021   29.531
 5555.00    0.97427   0.97858   28.965
 5556.00    0.97347   0.97664   28.833
 5557.00    0.96986   0.97466   29.254
 5558.00    0.95991   0.97304   29.931
 5559.00    0.94914   0.97109   30.418
 5560.00    0.94527   0.96823   30.407
 5561.00    0.94566   0.96481   30.141
 5562.00    0.94370   0.96160   30.052
 5563.00    0.94004   0.95878   30.214
 5564.00    0.93920   0.95600   30.357
 5565.00    0.94372   0.95372   30.015
 5566.00    0.95153   0.95225   29.172
 5567.00    0.95498   0.95120   28.635
 5568.00    0.94885   0.95071   28.770
 5569.00    0.93697   0.95138   28.741
 5570.00    0.92708   0.95267   27.812
 5571.00    0.92546   0.95341   26.353
 5572.00    0.92966   0.95477   25.035
 5573.00    0.92769   0.95787   24.248
 5574.00    0.91867   0.96100   23.778
 5575.00    0.91851   0.96312   22.976
 5576.00    0.93218   0.96513   21.894
 5577.00    0.94603   0.96698   21.303
 5578.00    0.95121   0.96784   21.669
 5579.00    0.95116   0.96714   23.034
 5580.00    0.95282   0.96425   24.843
 5581.00    0.96065   0.95938   25.858
 5582.00    0.96914   0.95330   26.024
 5583.00    0.96681   0.94590   26.593
 5584.00    0.95170   0.93723   27.675
 5585.00    0.93138   0.92828   28.282
 5586.00    0.91408   0.92081   28.388
 5587.00    0.90480   0.91608   28.772
 5588.00    0.90203   0.91420   29.363
 5589.00    0.90190   0.91532   29.512
 5590.00    0.90531   0.91897   29.093
 5591.00    0.91492   0.92355   28.342
 5592.00    0.92951   0.92778   27.308
 5593.00    0.94539   0.93169   26.042
 5594.00    0.95912   0.93581   24.800
 5595.00    0.96846   0.93877   23.837
 5596.00    0.97292   0.93844   23.287
 5597.00    0.97207   0.93609   23.236
 5598.00    0.96442   0.93493   23.769
 5599.00    0.95031   0.93522   24.822
 5600.00    0.93401   0.93585   26.006
 5601.00    0.92231   0.93792   26.905
 5602.00    0.92259   0.94324   27.417
 5603.00    0.93831   0.95158   27.516
 5604.00    0.96612   0.96051   27.129
 5605.00    0.99457   0.96854   26.414
 5606.00    1.00808   0.97535   25.754
 5607.00    1.00475   0.98044   25.377
 5608.00    0.99797   0.98267   25.291
 5609.00    0.99669   0.98140   25.370
 5610.00    0.99948   0.97758   25.433
 5611.00    0.99790   0.97243   25.433
 5612.00    0.98321   0.96582   25.496
 5613.00    0.95993   0.95730   25.867
 5614.00    0.94265   0.94897   26.685
 5615.00    0.94153   0.94463   27.445
 5616.00    0.95777   0.94410   27.328
 5617.00    0.98159   0.94402   26.465
 5618.00    0.99986   0.94351   25.584
 5619.00    1.00847   0.94416   25.060
 5620.00    1.00918   0.94613   24.974
 5621.00    1.00265   0.94736   25.299
 5622.00    0.99041   0.94652   25.941
 5623.00    0.97774   0.94513   26.740
 5624.00    0.97039   0.94597   27.480
 5625.00    0.97071   0.94933   27.956
 5626.00    0.97669   0.95319   28.026
 5627.00    0.98227   0.95704   27.696
 5628.00    0.98341   0.96157   27.246
 5629.00    0.98206   0.96584   27.174
 5630.00    0.98121   0.96830   27.589
 5631.00    0.98156   0.96853   27.954
 5632.00    0.98170   0.96706   27.830
 5633.00    0.97930   0.96447   27.341
 5634.00    0.97603   0.96105   26.821
 5635.00    0.97743   0.95693   26.545
 5636.00    0.98340   0.95292   26.560
 5637.00    0.98686   0.95024   26.689
 5638.00    0.98294   0.94882   26.689
 5639.00    0.97272   0.94770   26.398
 5640.00    0.96424   0.94712   25.958
 5641.00    0.96774   0.94824   25.668
 5642.00    0.98295   0.95047   25.569
 5643.00    1.00060   0.95256   25.513
 5644.00    1.01273   0.95457   25.468
 5645.00    1.01532   0.95691   25.535
 5646.00    1.00908   0.95939   25.854
 5647.00    0.99890   0.96120   26.332
 5648.00    0.99251   0.96183   26.242
 5649.00    0.99460   0.96174   25.190
 5650.00    0.99962   0.96152   24.270
 5651.00    1.00024   0.96034   24.383
 5652.00    0.99758   0.95663   24.987
 5653.00    0.99409   0.95076   25.171
 5654.00    0.98592   0.94525   24.945
 5655.00    0.96942   0.94071   24.813
 5656.00    0.94745   0.93475   25.157
 5657.00    0.92869   0.92807   25.921
 5658.00    0.92485   0.92537   26.428
 5659.00    0.93851   0.92696   26.295
 5660.00    0.95807   0.92849   26.043
 5661.00    0.97335   0.92924   26.027
 5662.00    0.98275   0.93225   26.009
 5663.00    0.98528   0.93752   25.890
 5664.00    0.97916   0.94199   25.898
 5665.00    0.97233   0.94462   25.966
 5666.00    0.97968   0.94692   25.665
 5667.00    0.99949   0.95028   24.914
 5668.00    1.01369   0.95422   24.089
 5669.00    1.01304   0.95775   23.643
 5670.00    1.00183   0.96115   23.846
 5671.00    0.99032   0.96530   24.373
 5672.00    0.98808   0.96941   24.556
 5673.00    0.99439   0.97183   24.394
 5674.00    1.00199   0.97267   24.354
 5675.00    1.00770   0.97315   24.468
 5676.00    1.01141   0.97256   24.500
 5677.00    1.01148   0.96965   24.455
 5678.00    1.00668   0.96560   24.481
 5679.00    0.99956   0.96199   24.628
 5680.00    0.99298   0.95806   24.887
 5681.00    0.98576   0.95306   25.277
 5682.00    0.97623   0.94874   25.746
 5683.00    0.96606   0.94656   26.061
 5684.00    0.95807   0.94556   25.915
 5685.00    0.95419   0.94476   25.128
 5686.00    0.95731   0.94493   24.041
 5687.00    0.97140   0.94716   -2.000
 5688.00    0.99311   0.95098   -2.000
 5689.00    1.00866   0.95514   -2.000
 5690.00    1.00666   0.95901   -2.000
 5691.00    0.98645   0.96266   -2.000
 5692.00    0.96234   0.96523   -2.000
 5693.00    0.95761   0.96590   -2.000
 5694.00    0.97345   0.96514   -2.000
 5695.00    0.98710   0.96327   -2.000
 5696.00    0.98883   0.95976   -2.000
 5697.00    0.98680   0.95507   -2.000
 5698.00    0.98267   0.95089   -2.000
 5699.00    0.97126   0.94701   -2.000
 5700.00    0.95775   0.94254   -2.000
 5701.00    0.95364   0.93842   -2.000
 5702.00    0.95857   0.93544   -2.000
 5703.00    0.96388   0.93234   -2.000
 5704.00    0.96643   0.92806   -2.000
 5705.00    0.96736   0.92359   -2.000
 5706.00    0.96623   0.91995   -2.000
 5707.00    0.96166   0.91709   23.608
 5708.00    0.95367   0.91576   23.084
 5709.00    0.94502   0.91703   23.197
 5710.00    0.94194   0.92029   23.720
 5711.00    0.94957   0.92539   24.303
 5712.00    0.96715   0.93280   24.431
 5713.00    0.98726   0.94089   23.900
 5714.00    0.99700   0.94835   23.164
 5715.00    0.98911   0.95535   22.686
 5716.00    0.96924   0.96180   22.581
 5717.00    0.94947   0.96721   22.766
 5718.00    0.94188   0.97174   23.041
 5719.00    0.94849   0.97533   23.292
 5720.00    0.95902   0.97791   23.571
 5721.00    0.96551   0.97942   23.918
 5722.00    0.96845   0.97974   24.266
 5723.00    0.97201   0.97918   24.486
 5724.00    0.98034   0.97804   24.451
 5725.00    0.99165   0.97572   24.157
 5726.00    0.99901   0.97271   23.733
 5727.00    0.99841   0.97097   23.346
 5728.00    0.99096   0.97062   23.166
 5729.00    0.98175   0.96994   23.367
 5730.00    0.97774   0.96896   23.951
 5731.00    0.98363   0.96948   24.263
 5732.00    0.99931   0.97142   23.606
 5733.00    1.01715   0.97291   22.702
 5734.00    1.02742   0.97351   22.592
 5735.00    1.02741   0.97389   23.242
 5736.00    1.02069   0.97422   24.093
 5737.00    1.01376   0.97408   24.868
 5738.00    1.01091   0.97348   25.516
 5739.00    1.00932   0.97299   25.938
 5740.00    1.00484   0.97283    0.000
 5741.00    0.99824   0.97257    0.000
 5742.00    0.99375   0.97192    0.000
 5743.00    0.99634   0.97158    0.000
 5744.00    1.00512   0.97173    0.000
 5745.00    1.01030   0.97129    0.000
 5746.00    1.00504   0.96931    0.000
 5747.00    0.99222   0.96669    0.000
 5748.00    0.97816   0.96481    0.000
 5749.00    0.96844   0.96326    0.000
 5750.00    0.96546   0.96115    0.000
 5751.00    0.96773   0.95882    0.000
 5752.00    0.97141   0.95733    0.000
 5753.00    0.97253   0.95745    0.000
 5754.00    0.97179   0.95896    0.000
 5755.00    0.97372   0.96064    0.000
 5756.00    0.97906   0.96147    0.000
 5757.00    0.98449   0.96162    0.000
 5758.00    0.98758   0.96137    0.000
 5759.00    0.98789   0.96083    0.000
 5760.00    0.98668   0.95995    0.000
 5761.00    0.98593   0.95931    0.000
 5762.00    0.98690   0.96029    0.000
 5763.00    0.98980   0.96344    0.000
 5764.00    0.99379   0.96703    0.000
 5765.00    0.99725   0.96999    0.000
 5766.00    0.99823   0.97262    0.000
 5767.00    0.99456   0.97472    0.000
 5768.00    0.98439   0.97547    0.000
 5769.00    0.96984   0.97484    0.000
 5770.00    0.95973   0.97333    0.000
 5771.00    0.96032   0.97145    0.000
 5772.00    0.96786   0.96956    0.000
 5773.00    0.97458   0.96730    0.000
 5774.00    0.97421   0.96450    0.000
 5775.00    0.96468   0.96114    0.000
 5776.00    0.94917   0.95682    0.000
 5777.00    0.93315   0.95166    0.000
 5778.00    0.92201   0.94585    0.000
 5779.00    0.91794   0.93907    0.000
 5780.00    0.91890   0.93226    0.000
 5781.00    0.91987   0.92791    0.000
 5782.00    0.91624   0.92618    0.000
 5783.00    0.91288   0.92540    0.000
 5784.00    0.92051   0.92595    0.000
 5785.00    0.93638   0.92929    0.000
 5786.00    0.94677   0.93436    0.000
 5787.00    0.94748   0.93924    0.000
 5788.00    0.94326   0.94374    0.000
 5789.00    0.93537   0.94786    0.000
 5790.00    0.92407   0.95166    0.000
 5791.00    0.91772   0.95535    0.000
 5792.00    0.92470   0.95826    0.000
 5793.00    0.93872   0.96049    0.000
 5794.00    0.94735   0.96299    0.000
 5795.00    0.94675   0.96526    0.000
 5796.00    0.94102   0.96648    0.000
 5797.00    0.93848   0.96801    0.000
 5798.00    0.94438   0.97062    0.000
 5799.00    0.95464   0.97254    0.000
 5800.00    0.96329   0.97310    0.000
 5801.00    0.96906   0.97343    0.000
 5802.00    0.97262   0.97336    0.000
 5803.00    0.97398   0.97207    0.000
 5804.00    0.97166   0.97056    0.000
 5805.00    0.96322   0.96988    0.000
 5806.00    0.95094   0.96972    0.000
 5807.00    0.94278   0.96956    0.000
 5808.00    0.94244   0.96975    0.000
 5809.00    0.94651   0.97040    0.000
 5810.00    0.95198   0.97065    0.000
 5811.00    0.95808   0.97011    0.000
 5812.00    0.96191   0.96956    0.000
 5813.00    0.95950   0.96936    0.000
 5814.00    0.95317   0.96898    0.000
 5815.00    0.95041   0.96890    0.000
 5816.00    0.95555   0.97034    0.000
 5817.00    0.96833   0.97280    0.000
 5818.00    0.98549   0.97491    0.000
 5819.00    1.00147   0.97676    0.000
 5820.00    1.00918   0.97882    0.000
 5821.00    1.00410   0.98036    0.000
 5822.00    0.99017   0.98101    0.000
 5823.00    0.97557   0.98146    0.000
 5824.00    0.96581   0.98208    0.000
 5825.00    0.96323   0.98230    0.000
 5826.00    0.96768   0.98214    0.000
 5827.00    0.97678   0.98215    0.000
 5828.00    0.98650   0.98222    0.000
 5829.00    0.99377   0.98160    0.000
 5830.00    0.99864   0.98045    0.000
 5831.00    1.00262   0.97966    0.000
 5832.00    1.00720   0.97885    0.000
 5833.00    1.01310   0.97737    0.000
 5834.00    1.01972   0.97626    0.000
 5835.00    1.02408   0.97655    0.000
 5836.00    1.02126   0.97707    0.000
 5837.00    1.00903   0.97708    0.000
 5838.00    0.99046   0.97774    0.000
 5839.00    0.97538   0.97916    0.000
 5840.00    0.97569   0.97997    0.000
 5841.00    0.98822   0.97961    0.000
 5842.00    0.99668   0.97863    0.000
 5843.00    0.99464   0.97705    0.000
 5844.00    0.98773   0.97472    0.000
 5845.00    0.98196   0.97167    0.000
 5846.00    0.98041   0.96816    0.000
 5847.00    0.98269   0.96436    0.000
 5848.00    0.98583   0.96029    0.000
 5849.00    0.98591   0.95621    0.000
 5850.00    0.98109   0.95215    0.000
 5851.00    0.97537   0.94729    0.000
 5852.00    0.97278   0.94172    0.000
 5853.00    0.96929   0.93744    0.000
 5854.00    0.96037   0.93490    0.000
 5855.00    0.95031   0.93235    0.000
 5856.00    0.94552   0.92983    0.000
 5857.00    0.94701   0.92946    0.000
 5858.00    0.95288   0.93159    0.000
 5859.00    0.96094   0.93454    0.000
 5860.00    0.96812   0.93735    0.000
 5861.00    0.97022   0.93982    0.000
 5862.00    0.96430   0.94271    0.000
 5863.00    0.95071   0.94629    0.000
 5864.00    0.93571   0.94925    0.000
 5865.00    0.93036   0.95079    0.000
 5866.00    0.93928   0.95237    0.000
 5867.00    0.95717   0.95476    0.000
 5868.00    0.97628   0.95661    0.000
 5869.00    0.99066   0.95723    0.000
 5870.00    0.99991   0.95707    0.000
 5871.00    1.00813   0.95621    0.000
 5872.00    1.01745   0.95466    0.000
 5873.00    1.02638   0.95264    0.000
 5874.00    1.03087   0.94987    0.000
 5875.00    1.02698   0.94662    0.000
 5876.00    1.01564   0.94394    0.000
 5877.00    1.00138   0.94195    0.000
 5878.00    0.98780   0.93907    0.000
 5879.00    0.97627   0.93539    0.000
 5880.00    0.96525   0.93180    0.000
 5881.00    0.95246   0.92744    0.000
 5882.00    0.93763   0.92024    0.000
 5883.00    0.92086   0.90969    0.000
 5884.00    0.90063   0.89555    0.000
 5885.00    0.87710   0.87869    0.000
 5886.00    0.85534   0.86132    0.000
 5887.00    0.84088   0.84331    0.000
 5888.00    0.83567   0.82422    0.000
 5889.00    0.83800   0.80902    0.000
 5890.00    0.84307   0.80121    0.000
 5891.00    0.84465   0.79746    0.000
 5892.00    0.83763   0.79682    0.000
 5893.00    0.82510   0.80075    0.000
 5894.00    0.81946   0.80648    0.000
 5895.00    0.82927   0.81459    0.000
 5896.00    0.85346   0.82882    0.000
 5897.00    0.88349   0.84550    0.000
 5898.00    0.90770   0.86005    0.000
 5899.00    0.92243   0.87505    0.000
 5900.00    0.93176   0.89121    0.000
 5901.00    0.93598   0.90464   28.064
 5902.00    0.93209   0.91456   27.861
 5903.00    0.92361   0.92259   27.953
 5904.00    0.91847   0.92841   27.851
 5905.00    0.91925   0.93220   27.109
 5906.00    0.92385   0.93528   25.818
 5907.00    0.93062   0.93757   24.907
 5908.00    0.93815   0.93802   25.051
 5909.00    0.94352   0.93735   25.564
 5910.00    0.94397   0.93679   25.454
 5911.00    0.93939   0.93571   25.234
 5912.00    0.93176   0.93353   25.716
 5913.00    0.92397   0.93139   26.472
 5914.00    0.91951   0.93070   26.735
 5915.00    0.92193   0.93107   26.662
 5916.00    0.93161   0.93205   26.765
 5917.00    0.94370   0.93342   27.223
 5918.00    0.95247   0.93537   27.946
 5919.00    0.95485   0.93776   28.649
 5920.00    0.95143   0.93965   29.127
 5921.00    0.94625   0.94075   29.444
 5922.00    0.94371   0.94168   29.629
 5923.00    0.94631   0.94235   29.559
 5924.00    0.95266   0.94213   29.387
 5925.00    0.95765   0.94128   29.563
 5926.00    0.95670   0.94040   30.162
 5927.00    0.94850   0.93962   30.754
 5928.00    0.93835   0.93841   30.954
 5929.00    0.93512   0.93701   30.656
 5930.00    0.93931   0.93684   29.969
 5931.00    0.94407   0.93781   29.155
 5932.00    0.94639   0.93827   28.586
 5933.00    0.94718   0.93817   28.486
 5934.00    0.94526   0.93915   28.488
 5935.00    0.93947   0.94088   28.094
 5936.00    0.93434   0.94145   27.630
 5937.00    0.93574   0.94138   27.619
 5938.00    0.94259   0.94190   27.730
 5939.00    0.95066   0.94202   27.431
 5940.00    0.95930   0.94132   27.034
 5941.00    0.96806   0.94122   27.050
 5942.00    0.97227   0.94165   27.417
 5943.00    0.96738   0.94136   27.861
 5944.00    0.95374   0.94069   28.283
 5945.00    0.93683   0.94052   28.634
 5946.00    0.92583   0.94008   28.778
 5947.00    0.92462   0.93823   28.644
 5948.00    0.92692   0.93607   28.347
 5949.00    0.92780   0.93542   28.076
 5950.00    0.92970   0.93516   27.993
 5951.00    0.93397   0.93351   28.109
 5952.00    0.93740   0.93208   28.252
 5953.00    0.93871   0.93284   28.199
 5954.00    0.94030   0.93412   27.852
 5955.00    0.94256   0.93447   27.607
 5956.00    0.94331   0.93543   28.099
 5957.00    0.94384   0.93792   29.089
 5958.00    0.94805   0.94075   29.490
 5959.00    0.95415   0.94329   29.254
 5960.00    0.95576   0.94558   29.349
 5961.00    0.95066   0.94756   29.863
 5962.00    0.94215   0.94929   30.085
 5963.00    0.93664   0.95070   29.726
 5964.00    0.93888   0.95137   29.119
 5965.00    0.94446   0.95188   28.828
 5966.00    0.94614   0.95305   29.123
 5967.00    0.94531   0.95408   29.361
 5968.00    0.94693   0.95451   28.903
 5969.00    0.95045   0.95476   28.489
 5970.00    0.95279   0.95448   28.938
 5971.00    0.95311   0.95297   29.769
 5972.00    0.95296   0.95070   30.136
 5973.00    0.95553   0.94798   30.070
 5974.00    0.96152   0.94466   30.010
 5975.00    0.96631   0.94136   30.166
 5976.00    0.96416   0.93874   30.485
 5977.00    0.95231   0.93667   30.701
 5978.00    0.93511   0.93490   30.723
 5979.00    0.92412   0.93337   30.784
 5980.00    0.92506   0.93206   30.847
 5981.00    0.93257   0.93104   30.469
 5982.00    0.93959   0.92968   29.758
 5983.00    0.94279   0.92819   29.445
 5984.00    0.94569   0.92828   29.799
 5985.00    0.95536   0.92973   30.459
 5986.00    0.96806   0.93077   30.966
 5987.00    0.97081   0.93204   31.054
 5988.00    0.96054   0.93475   30.974
 5989.00    0.94588   0.93750   31.140
 5990.00    0.93741   0.93887   31.111
 5991.00    0.94091   0.93999   30.172
 5992.00    0.94888   0.94143   29.015
 5993.00    0.94900   0.94191   28.658
 5994.00    0.94212   0.94115   28.729
 5995.00    0.93759   0.94005   28.368
 5996.00    0.94054   0.93884   27.826
 5997.00    0.94970   0.93722   27.763
 5998.00    0.95765   0.93549   28.173
 5999.00    0.95806   0.93419   28.785
 6000.00    0.95329   0.93309   29.614
 6001.00    0.94728   0.93134   30.588
 6002.00    0.93830   0.92939   31.093
 6003.00    0.92516   0.92811   30.836
 6004.00    0.91240   0.92687   30.586
 6005.00    0.90431   0.92555   30.933
 6006.00    0.90090   0.92448   31.557
 6007.00    0.90158   0.92354   32.088
 6008.00    0.90702   0.92348   32.626
 6009.00    0.91510   0.92442   33.084
 6010.00    0.92027   0.92496   32.930
 6011.00    0.92064   0.92438   32.056
 6012.00    0.92009   0.92360   31.013
 6013.00    0.92307   0.92368   30.316
 6014.00    0.93140   0.92347   30.230
 6015.00    0.94128   0.92174   30.798
 6016.00    0.94539   0.92016   31.817
 6017.00    0.94176   0.92011   32.650
 6018.00    0.93404   0.91986   32.545
 6019.00    0.92559   0.91894   31.854
 6020.00    0.91814   0.91950   31.480
 6021.00    0.91218   0.92160   31.312
 6022.00    0.90851   0.92351   30.590
 6023.00    0.91071   0.92559   29.011
 6024.00    0.92125   0.92932   26.852
 6025.00    0.93512   0.93329   24.639
 6026.00    0.94558   0.93625   22.881
 6027.00    0.95275   0.93963   22.004
 6028.00    0.95940   0.94349   22.192
 6029.00    0.96490   0.94632   23.258
 6030.00    0.96788   0.94827   24.790
 6031.00    0.96923   0.95041   26.237
 6032.00    0.97049   0.95222   27.207
 6033.00    0.97210   0.95308   27.922
 6034.00    0.97337   0.95335   28.739
 6035.00    0.97270   0.95344   29.628
 6036.00    0.96926   0.95325   30.451
 6037.00    0.96385   0.95270   31.194
 6038.00    0.95775   0.95201   31.865
 6039.00    0.95228   0.95169   32.406
 6040.00    0.94944   0.95175   32.631
 6041.00    0.95153   0.95193   32.335
 6042.00    0.95814   0.95284   31.748
 6043.00    0.96576   0.95416   31.321
 6044.00    0.97017   0.95504   30.659
 6045.00    0.96866   0.95579   28.962
 6046.00    0.96365   0.95671   26.769
 6047.00    0.96124   0.95680   25.138
 6048.00    0.96512   0.95581   24.160
 6049.00    0.97465   0.95470   23.563
 6050.00    0.98422   0.95329   23.635
 6051.00    0.98683   0.95096   24.789
 6052.00    0.98049   0.94836   26.444
 6053.00    0.96765   0.94645   27.358
 6054.00    0.95230   0.94493   27.601
 6055.00    0.93844   0.94347   28.027
 6056.00    0.92870   0.94268   28.516
 6057.00    0.92455   0.94236   28.684
 6058.00    0.92666   0.94206   29.057
 6059.00    0.93379   0.94151   30.147
 6060.00    0.94206   0.94042   31.364
 6061.00    0.94914   0.93898   31.857
 6062.00    0.95710   0.93822   31.715
 6063.00    0.96570   0.93808   31.429
 6064.00    0.96871   0.93793   31.281
 6065.00    0.96252   0.93952   31.365
 6066.00    0.95091   0.94324   31.649
 6067.00    0.94012   0.94698   31.986
 6068.00    0.93505   0.95030   32.175
 6069.00    0.93480   0.95374   32.232
 6070.00    0.93280   0.95656   32.405
 6071.00    0.92498   0.95795   32.693
 6072.00    0.91277   0.95794   32.673
 6073.00    0.90174   0.95658   31.658
 6074.00    0.89853   0.95399   29.377
 6075.00    0.90345   0.95084   26.858
 6076.00    0.91102   0.94722   25.256
 6077.00    0.91653   0.94271   24.734
 6078.00    0.91830   0.93862   25.047
 6079.00    0.91854   0.93602   26.152
 6080.00    0.92074   0.93348   28.026
 6081.00    0.92472   0.93077   30.011
 6082.00    0.92763   0.92964   30.993
 6083.00    0.92695   0.92972   30.844
 6084.00    0.92203   0.92931   30.113
 6085.00    0.91529   0.92876   -2.000
 6086.00    0.91108   0.92897   -2.000
 6087.00    0.91382   0.92958   -2.000
 6088.00    0.92461   0.92944   -2.000
 6089.00    0.93871   0.92900   -2.000
 6090.00    0.94953   0.92979   -2.000
 6091.00    0.95261   0.93115   -2.000
 6092.00    0.94707   0.93180   -2.000
 6093.00    0.93637   0.93275   -2.000
 6094.00    0.92689   0.93410   -2.000
 6095.00    0.92564   0.93427   -2.000
 6096.00    0.93308   0.93326   26.191
 6097.00    0.94131   0.93133   26.628
 6098.00    0.94349   0.92805   27.929
 6099.00    0.93843   0.92468   29.719
 6100.00    0.93077   0.92183   31.345
 6101.00    0.92828   0.91825   32.164
 6102.00    0.93307   0.91597   32.180
 6103.00    0.94070   0.91726   31.979
 6104.00    0.94642   0.91971   31.696
 6105.00    0.94815   0.92208   31.047
 6106.00    0.94891   0.92520   30.096
 6107.00    0.95263   0.92869   29.183
 6108.00    0.95456   0.93206   28.504
 6109.00    0.94630   0.93476   28.123
 6110.00    0.92880   0.93615   28.080
 6111.00    0.91204   0.93680   28.427
 6112.00    0.91036   0.93733   29.228
 6113.00    0.93018   0.93715   30.244
 6114.00    0.95616   0.93543   30.453
 6115.00    0.96805   0.93243   29.241
 6116.00    0.96173   0.92922   27.719
 6117.00    0.94423   0.92536   26.887
 6118.00    0.92593   0.92036   26.604
 6119.00    0.91438   0.91621   26.752
 6120.00    0.91017   0.91316   27.921
 6121.00    0.91074   0.91020   30.345
 6122.00    0.91338   0.90965   32.694
 6123.00    0.91464   0.91160   33.606
 6124.00    0.91077   0.91323   33.843
 6125.00    0.90292   0.91519   34.232
 6126.00    0.89804   0.91841   34.333
 6127.00    0.90048   0.92094   33.701
 6128.00    0.90841   0.92200   32.559
 6129.00    0.91592   0.92241   31.546
 6130.00    0.91636   0.92145   31.246
 6131.00    0.91034   0.91829   31.404
 6132.00    0.90502   0.91334   31.161
 6133.00    0.90443   0.90742   30.382
 6134.00    0.90763   0.90189   29.628
 6135.00    0.91154   0.89705   29.165
 6136.00    0.91301   0.89294   28.998
 6137.00    0.91151   0.89201   29.283
 6138.00    0.90842   0.89499   30.148
 6139.00    0.90464   0.89908   31.147
 6140.00    0.90136   0.90279   31.484
 6141.00    0.90162   0.90767   30.887
 6142.00    0.90795   0.91375   29.724
 6143.00    0.91888   0.91816   28.625
 6144.00    0.92933   0.92029   28.124
 6145.00    0.93213   0.92182   28.539
 6146.00    0.92385   0.92267   29.825
 6147.00    0.90960   0.92215   31.220
 6148.00    0.89733   0.92124   31.756
 6149.00    0.89225   0.92044   31.242
 6150.00    0.89515   0.91935   30.232
 6151.00    0.90200   0.91829   29.517
 6152.00    0.90765   0.91722   29.533
 6153.00    0.90824   0.91454   30.266
 6154.00    0.90212   0.91061   31.508
 6155.00    0.89015   0.90648   32.874
 6156.00    0.87529   0.90045   33.685
 6157.00    0.86176   0.89210   33.301
 6158.00    0.85230   0.88392   32.382
 6159.00    0.84741   0.87652   32.367
 6160.00    0.84639   0.86887   33.284
 6161.00    0.84815   0.86256   33.740
 6162.00    0.85234   0.85986   32.999
 6163.00    0.85887   0.86016   31.609
 6164.00    0.86598   0.86120   30.472
 6165.00    0.87099   0.86245   30.162
 6166.00    0.87274   0.86576   30.465
 6167.00    0.87201   0.87002   30.813
 6168.00    0.87114   0.87224   31.161
 6169.00    0.87296   0.87447   31.684
 6170.00    0.87911   0.87939   31.991
 6171.00    0.88883   0.88418   31.643
 6172.00    0.89805   0.88710   31.035
 6173.00    0.90341   0.89103   30.775
 6174.00    0.90667   0.89609   30.973
 6175.00    0.91078   0.89951   31.465
 6176.00    0.91583   0.90195   32.031
 6177.00    0.92181   0.90541   32.445
 6178.00    0.93069   0.90824   32.550
 6179.00    0.94199   0.90926   32.398
 6180.00    0.95005   0.91032   32.277
 6181.00    0.94810   0.91110   32.434
 6182.00    0.93209   0.90985   32.901
 6183.00    0.90630   0.90735   33.431
 6184.00    0.88326   0.90453   33.570
 6185.00    0.87023   0.90073   33.305
 6186.00    0.86485   0.89592   33.153
 6187.00    0.86315   0.89105   33.292
 6188.00    0.86289   0.88777   33.448
 6189.00    0.86343   0.88593   33.585
 6190.00    0.86504   0.88408   33.928
 6191.00    0.86727   0.88430   34.333
 6192.00    0.86956   0.88760   34.411
 6193.00    0.87400   0.89089   34.402
 6194.00    0.88301   0.89339   34.875
 6195.00    0.89317   0.89628   35.634
 6196.00    0.89890   0.89915   35.947
 6197.00    0.90100   0.90101   35.578
 6198.00    0.90375   0.90192   34.833
 6199.00    0.90798   0.90297   34.121
 6200.00    0.91277   0.90478   33.706
 6201.00    0.91879   0.90677   33.567
 6202.00    0.92577   0.90845   33.435
 6203.00    0.92952   0.90996   32.893
 6204.00    0.92593   0.91129   31.929
 6205.00    0.91525   0.91177   31.241
 6206.00    0.90148   0.91074   31.319
 6207.00    0.89093   0.90857   31.940
 6208.00    0.88791   0.90537   32.578
 6209.00    0.89165   0.90049   32.778
 6210.00    0.89689   0.89485   32.692
 6211.00    0.89599   0.88931   33.136
 6212.00    0.88745   0.88340   34.174
 6213.00    0.87823   0.87828   34.637
 6214.00    0.87374   0.87467   34.253
 6215.00    0.87395   0.87184   34.262
 6216.00    0.87685   0.87046   35.027
 6217.00    0.88009   0.87056   35.632
 6218.00    0.88150   0.87095   35.627
 6219.00    0.87913   0.87178   35.469
 6220.00    0.87077   0.87337   35.513
 6221.00    0.85627   0.87521   35.756
 6222.00    0.84309   0.87635   35.968
 6223.00    0.84199   0.87659   35.873
 6224.00    0.85530   0.87663   35.498
 6225.00    0.87649   0.87564   35.094
 6226.00    0.89410   0.87299   34.866
 6227.00    0.89849   0.87060   34.830
 6228.00    0.89071   0.86869   34.693
 6229.00    0.87884   0.86622   34.311
 6230.00    0.87090   0.86539   34.205
 6231.00    0.86978   0.86685   34.600
 6232.00    0.86922   0.86823   34.436
 6233.00    0.86246   0.86999   33.238
 6234.00    0.85086   0.87234   32.629
 6235.00    0.84132   0.87312   33.535
 6236.00    0.84217   0.87221   34.570
 6237.00    0.85436   0.87112   34.388
 6238.00    0.86728   0.86880   33.825
 6239.00    0.87178   0.86502   33.739
 6240.00    0.86790   0.86275   33.827
 6241.00    0.86099   0.86114   33.801
 6242.00    0.85789   0.85862   33.878
 6243.00    0.86081   0.85820   34.084
 6244.00    0.86577   0.85964   33.989
 6245.00    0.86784   0.86020   33.046
 6246.00    0.86413   0.86125   31.118
 6247.00    0.85638   0.86304   29.101
 6248.00    0.85033   0.86311   28.065
 6249.00    0.85157   0.86197   28.068
 6250.00    0.86240   0.86041   28.509
 6251.00    0.87758   0.85738   28.846
 6252.00    0.88846   0.85383   28.806
 6253.00    0.89367   0.85094   28.529
 6254.00    0.89639   0.84844   28.387
 6255.00    0.89562   0.84710   28.638
 6256.00    0.88927   0.84763   29.411
 6257.00    0.88091   0.84903   30.716
 6258.00    0.87582   0.85210   32.352
 6259.00    0.87442   0.85734   33.724
 6260.00    0.87418   0.86195   34.207
 6261.00    0.87280   0.86609   33.883
 6262.00    0.86875   0.87131   33.385
 6263.00    0.86159   0.87543   33.430
 6264.00    0.85295   0.87733   34.308
 6265.00    0.84713   0.87938   35.548
 6266.00    0.84813   0.88172   36.420
 6267.00    0.85723   0.88277   36.537
 6268.00    0.87092   0.88352   36.172
 6269.00    0.88120   0.88495   36.106
 6270.00    0.88350   0.88615   36.521
 6271.00    0.88016   0.88703   36.696
 6272.00    0.87606   0.88788   36.165
 6273.00    0.87545   0.88813   35.255
 6274.00    0.87750   0.88797   34.643
 6275.00    0.87735   0.88747   34.742
 6276.00    0.87525   0.88621   34.447
 6277.00    0.87607   0.88509   32.006
 6278.00    0.87939   0.88435   28.430
 6279.00    0.87995   0.88365   25.755
 6280.00    0.87611   0.88394    0.000
 6281.00    0.87012   0.88515    0.000
 6282.00    0.86423   0.88696    0.000
 6283.00    0.86012   0.88949    0.000
 6284.00    0.85912   0.89204    0.000
 6285.00    0.86174   0.89442    0.000
 6286.00    0.86668   0.89638    0.000
 6287.00    0.87179   0.89750    0.000
 6288.00    0.87542   0.89777    0.000
 6289.00    0.87678   0.89687    0.000
 6290.00    0.87621   0.89529    0.000
 6291.00    0.87540   0.89330    0.000
 6292.00    0.87750   0.89035    0.000
 6293.00    0.88516   0.88726    0.000
 6294.00    0.89886   0.88457    0.000
 6295.00    0.91664   0.88163    0.000
 6296.00    0.93425   0.87875    0.000
 6297.00    0.94673   0.87659    0.000
 6298.00    0.95010   0.87522    0.000
 6299.00    0.94500   0.87473    0.000
 6300.00    0.93673   0.87494    0.000
 6301.00    0.92669   0.87585    0.000
 6302.00    0.91108   0.87811    0.000
 6303.00    0.89101   0.88131    0.000
 6304.00    0.87398   0.88407    0.000
 6305.00    0.86503   0.88666    0.000
 6306.00    0.86455   0.88938    0.000
 6307.00    0.87056   0.89075    0.000
 6308.00    0.87989   0.89066    0.000
 6309.00    0.88921   0.89009    0.000
 6310.00    0.89511   0.88806    0.000
 6311.00    0.89390   0.88474    0.000
 6312.00    0.88321   0.88220    0.000
 6313.00    0.86499   0.87924    0.000
 6314.00    0.84518   0.87528    0.000
 6315.00    0.83215   0.87351    0.000
 6316.00    0.83200   0.87335    0.000
 6317.00    0.84301   0.87269    0.000
 6318.00    0.85833   0.87370    0.000
 6319.00    0.87036   0.87707    0.000
 6320.00    0.87523   0.88047    0.000
 6321.00    0.87636   0.88373   33.518
 6322.00    0.88007   0.88781   31.944
 6323.00    0.89116   0.89156   30.340
 6324.00    0.90932   0.89443   29.259
 6325.00    0.92755   0.89689   28.739
 6326.00    0.93714   0.89820   28.779
 6327.00    0.93184   0.89882   29.506
 6328.00    0.91242   0.89902   30.887
 6329.00    0.88777   0.89803   32.436
 6330.00    0.86894   0.89624   33.080
 6331.00    0.86475   0.89382   31.736
 6332.00    0.87576   0.89099   29.139
 6333.00    0.89407   0.88848   26.996
 6334.00    0.91038   0.88575   25.960
 6335.00    0.91787   0.88322   26.018
 6336.00    0.91594   0.88245   27.197
 6337.00    0.90959   0.88242   29.532
 6338.00    0.90514   0.88203   32.374
 6339.00    0.90715   0.88224   34.151
 6340.00    0.91429   0.88283   34.168
 6341.00    0.92080   0.88316   33.232
 6342.00    0.92055   0.88306   32.300
 6343.00    0.91064   0.88295   31.905
 6344.00    0.89532   0.88394   32.089
 6345.00    0.88167   0.88530   32.554
 6346.00    0.87321   0.88633   32.781
 6347.00    0.87068   0.88809   32.467
 6348.00    0.87380   0.89017   31.999
 6349.00    0.88090   0.89112   31.811
 6350.00    0.88860   0.89094   31.853
 6351.00    0.89366   0.89002   32.048
 6352.00    0.89448   0.88829   32.583
 6353.00    0.88999   0.88518   33.099
 6354.00    0.87943   0.88076   32.311
 6355.00    0.86605   0.87655   30.204
 6356.00    0.85796   0.87269   28.452
 6357.00    0.85962   0.86814   27.963
 6358.00    0.86844   0.86417   28.683
 6359.00    0.88001   0.86216   30.282
 6360.00    0.89077   0.86111   32.230
 6361.00    0.89842   0.86087   34.108
 6362.00    0.90195   0.86249   35.754
 6363.00    0.90112   0.86559   36.670
 6364.00    0.89652   0.86936   36.257
 6365.00    0.89023   0.87353   35.302
 6366.00    0.88501   0.87784   35.207
 6367.00    0.88184   0.88215   35.938
 6368.00    0.88024   0.88622   36.434
 6369.00    0.88024   0.88967   36.284
 6370.00    0.88208   0.89249   35.790
 6371.00    0.88509   0.89500   35.126
 6372.00    0.88897   0.89713   34.235
 6373.00    0.89566   0.89827   32.970
 6374.00    0.90573   0.89841   31.534
 6375.00    0.91357   0.89834   30.748
 6376.00    0.91328   0.89777   31.073
 6377.00    0.90562   0.89624   31.847
 6378.00    0.89485   0.89505   32.253
 6379.00    0.88472   0.89437   32.448
 6380.00    0.87807   0.89337   32.632
 6381.00    0.87673   0.89302   32.214
 6382.00    0.88048   0.89359   31.072
 6383.00    0.88670   0.89390   30.154
 6384.00    0.89242   0.89416   30.166
 6385.00    0.89574   0.89468   31.158
 6386.00    0.89668   0.89452   32.802
 6387.00    0.89719   0.89372   34.421
 6388.00    0.89938   0.89247   35.540
 6389.00    0.90414   0.89018   36.239
 6390.00    0.90929   0.88809   36.432
 6391.00    0.91026   0.88665   35.835
 6392.00    0.90502   0.88446   35.061
 6393.00    0.89512   0.88294   35.137
 6394.00    0.88391   0.88321   35.719
 6395.00    0.87499   0.88271   35.489
 6396.00    0.86987   0.88172   34.526
 6397.00    0.86777   0.88295   33.964
 6398.00    0.86634   0.88419   34.220
 6399.00    0.86312   0.88408   35.077
 6400.00    0.85791   0.88572   36.102
 6401.00    0.85301   0.88806   36.736
 6402.00    0.85285   0.88910   36.537
 6403.00    0.85932   0.88993   35.649
 6404.00    0.86629   0.89040   35.035
 6405.00    0.86751   0.89053   35.317
 6406.00    0.86556   0.88993   35.833
 6407.00    0.86539   0.88790   35.746
 6408.00    0.86743   0.88692   35.286
 6409.00    0.87063   0.88677   34.920
 6410.00    0.87524   0.88528   34.612
 6411.00    0.88061   0.88465   34.265
 6412.00    0.88379   0.88542   34.018
 6413.00    0.88291   0.88507   34.029
 6414.00    0.87884   0.88462   34.335
 6415.00    0.87335   0.88497   34.759
 6416.00    0.86784   0.88460   34.947
 6417.00    0.86235   0.88402   34.929
 6418.00    0.85595   0.88465   35.163
 6419.00    0.84930   0.88581   35.648
 6420.00    0.84512   0.88695   35.817
 6421.00    0.84596   0.88916   35.480
 6422.00    0.85285   0.89221   35.013
 6423.00    0.86366   0.89437   34.819
 6424.00    0.87393   0.89588   35.108
 6425.00    0.88002   0.89710   35.740
 6426.00    0.88050   0.89663   36.302
 6427.00    0.87736   0.89490   36.434
 6428.00    0.87431   0.89342   36.086
 6429.00    0.87327   0.89150   35.714
 6430.00    0.87432   0.88944   35.710
 6431.00    0.87661   0.88845   35.655
 6432.00    0.87939   0.88799   35.126
 6433.00    0.88300   0.88793   34.766
 6434.00    0.88714   0.88794   35.098
 6435.00    0.88903   0.88786   35.306
 6436.00    0.88678   0.88892   34.712
 6437.00    0.88260   0.89003   34.219
 6438.00    0.88071   0.89076   34.432
 6439.00    0.88475   0.89304   34.440
 6440.00    0.89429   0.89587   33.750
 6441.00    0.90360   0.89769   33.409
 6442.00    0.90862   0.89911   33.935
 6443.00    0.91039   0.89988   34.449
 6444.00    0.90956   0.89906   34.154
 6445.00    0.90425   0.89609   33.302
 6446.00    0.89451   0.89220   32.780
 6447.00    0.88348   0.88888   33.484
 6448.00    0.87397   0.88475   35.067
 6449.00    0.86730   0.88099   35.807
 6450.00    0.86415   0.87996   35.399
 6451.00    0.86480   0.87946   35.310
 6452.00    0.86898   0.87919   35.832
 6453.00    0.87556   0.88115   36.075
 6454.00    0.88200   0.88323   35.884
 6455.00    0.88541   0.88407   35.789
 6456.00    0.88520   0.88565   35.765
 6457.00    0.88297   0.88710   35.453
 6458.00    0.88130   0.88637   34.979
 6459.00    0.88207   0.88574   34.722
 6460.00    0.88429   0.88622   34.795
 6461.00    0.88567   0.88534   34.923
 6462.00    0.88518   0.88477   34.416
 6463.00    0.88430   0.88644   33.182
 6464.00    0.88750   0.88781   32.453
 6465.00    0.89696   0.88879   32.931
 6466.00    0.90793   0.89106   33.583
 6467.00    0.91417   0.89259   33.532
 6468.00    0.91298   0.89290   33.722
 6469.00    0.90590   0.89383   34.745
 6470.00    0.89802   0.89420   35.380
 6471.00    0.89246   0.89355   34.902
 6472.00    0.88788   0.89384   34.472
 6473.00    0.88408   0.89428   34.659
 6474.00    0.88357   0.89354   34.646
 6475.00    0.88494   0.89305   34.137
 6476.00    0.88190   0.89288   33.876
 6477.00    0.87130   0.89140   34.237
 6478.00    0.85597   0.88930   34.879
 6479.00    0.84328   0.88787   35.145
 6480.00    0.84142   0.88628   34.446
 6481.00    0.85049   0.88446   32.930
 6482.00    0.86362   0.88354   31.302
 6483.00    0.87569   0.88316   30.150
 6484.00    0.88424   0.88242   29.765
 6485.00    0.88713   0.88131   30.040
 6486.00    0.88378   0.87918   30.673
 6487.00    0.87818   0.87523   31.488
 6488.00    0.87551   0.86976   32.360
 6489.00    0.87620   0.86242   33.007
 6490.00    0.87650   0.85316   33.275
 6491.00    0.87066   0.84408   33.558
 6492.00    0.85620   0.83548   34.188
 6493.00    0.83898   0.82769   34.701
 6494.00    0.82701   0.82319   34.662
 6495.00    0.82400   0.82176   34.576
 6496.00    0.82877   0.82307   34.932
 6497.00    0.83609   0.82798   35.430
 6498.00    0.84212   0.83480   35.674
 6499.00    0.84762   0.84284   35.727
 6500.00    0.85312   0.85186   35.876
 6501.00    0.85682   0.86008   36.339
 6502.00    0.85973   0.86740   36.697
 6503.00    0.86661   0.87383   35.944
 6504.00    0.87820   0.87850   34.315
 6505.00    0.88901   0.88185   33.197
 6506.00    0.89310   0.88438   33.003
 6507.00    0.88771   0.88568   33.154
 6508.00    0.87687   0.88598   33.218
 6509.00    0.86918   0.88595   33.174
 6510.00    0.86809   0.88538   33.186
 6511.00    0.87107   0.88385   33.433
 6512.00    0.87416   0.88212   33.866
 6513.00    0.87430   0.88069   34.229
 6514.00    0.87144   0.87884   34.248
 6515.00    0.86840   0.87720   33.891
 6516.00    0.86963   0.87687   33.657
 6517.00    0.87731   0.87694   34.015
 6518.00    0.88620   0.87733   34.592
 6519.00    0.88985   0.87870   34.840
 6520.00    0.88939   0.88020   35.136
 6521.00    0.88971   0.88141   35.914
 6522.00    0.89368   0.88230   36.505
 6523.00    0.90043   0.88269   36.197
 6524.00    0.90492   0.88276   35.524
 6525.00    0.90464   0.88224   35.193
 6526.00    0.90417   0.88132   35.203
 6527.00    0.90680   0.88057   35.071
 6528.00    0.90919   0.87979    0.000
 6529.00    0.90634   0.87897    0.000
 6530.00    0.89560   0.87844    0.000
 6531.00    0.87913   0.87826    0.000
 6532.00    0.86376   0.87827    0.000
 6533.00    0.85460   0.87837    0.000
 6534.00    0.85264   0.87870    0.000
 6535.00    0.85720   0.87908    0.000
 6536.00    0.86730   0.87895    0.000
 6537.00    0.88304   0.87840    0.000
 6538.00    0.90480   0.87731    0.000
 6539.00    0.92993   0.87516    0.000
 6540.00    0.95481   0.87232    0.000
 6541.00    0.98199   0.86884    0.000
 6542.00    1.01987   0.86452    0.000
 6543.00    1.07821   0.86032    0.000
 6544.00    1.16122   0.85630    0.000
 6545.00    1.25742   0.85200    0.000
 6546.00    1.34158   0.84832    0.000
 6547.00    1.38155   0.84491    0.000
 6548.00    1.35543   0.84096    0.000
 6549.00    1.27163   0.83673    0.000
 6550.00    1.15979   0.83175    0.000
 6551.00    1.05606   0.82548    0.000
 6552.00    0.98733   0.81789    0.000
 6553.00    0.96035   0.80885    0.000
 6554.00    0.98709   0.79813    0.000
 6555.00    1.10613   0.78510    0.000
 6556.00    1.37752   0.77059    0.000
 6557.00    1.86669   0.75572    0.000
 6558.00    2.57570   0.73937    0.000
 6559.00    3.40541   0.72398    0.000
 6560.00    4.17929   0.71389    0.000
 6561.00    4.68205   0.70708    0.000
 6562.00    4.76733   0.70439    0.000
 6563.00    4.40965   0.71058    0.000
 6564.00    3.71229   0.72148    0.000
 6565.00    2.87690   0.73362    0.000
 6566.00    2.09831   0.74949    0.000
 6567.00    1.51221   0.76578    0.000
 6568.00    1.15196   0.77874    0.000
 6569.00    0.96595   0.79045    0.000
 6570.00    0.88839   0.80070    0.000
 6571.00    0.86376   0.80814    0.000
 6572.00    0.85990   0.81465    0.000
 6573.00    0.86566   0.82088    0.000
 6574.00    0.88191   0.82620    0.000
 6575.00    0.92001   0.83149    0.000
 6576.00    1.00146   0.83667    0.000
 6577.00    1.14996   0.84103    0.000
 6578.00    1.38015   0.84508    0.000
 6579.00    1.68312   0.84862    0.000
 6580.00    2.01308   0.85122    0.000
 6581.00    2.29920   0.85364    0.000
 6582.00    2.46253   0.85561    0.000
 6583.00    2.45052   0.85696    0.000
 6584.00    2.26431   0.85832    0.000
 6585.00    1.95580   0.85886    0.000
 6586.00    1.61599   0.85859    0.000
 6587.00    1.32576   0.85817    0.000
 6588.00    1.12534   0.85662    0.000
 6589.00    1.01395   0.85418    0.000
 6590.00    0.95819   0.85229    0.000
 6591.00    0.92590   0.85049    0.000
 6592.00    0.90067   0.84868    0.000
 6593.00    0.87755   0.84853    0.000
 6594.00    0.85952   0.84969    0.000
 6595.00    0.85241   0.85109    0.000
 6596.00    0.86031   0.85364    0.000
 6597.00    0.87795   0.85678    0.000
 6598.00    0.89333   0.85925    0.000
 6599.00    0.89881   0.86154    0.000
 6600.00    0.89369   0.86320    0.000
 6601.00    0.88346   0.86363    0.000
 6602.00    0.87654   0.86337    0.000
 6603.00    0.87868   0.86256    0.000
 6604.00    0.88943   0.86122    0.000
 6605.00    0.89888   0.85981    0.000
 6606.00    0.89711   0.85891    0.000
 6607.00    0.88661   0.85872    0.000
 6608.00    0.87658   0.85904    0.000
 6609.00    0.87437   0.86021   28.551
 6610.00    0.88192   0.86221   29.791
 6611.00    0.89370   0.86448   29.833
 6612.00    0.90125   0.86682   29.368
 6613.00    0.89788   0.86915   29.153
 6614.00    0.88436   0.87135   29.588
 6615.00    0.87106   0.87302   30.613
 6616.00    0.86735   0.87403   31.828
 6617.00    0.87496   0.87463   32.597
 6618.00    0.88846   0.87458   32.789
 6619.00    0.89759   0.87386   33.033
 6620.00    0.89587   0.87258   33.506
 6621.00    0.88384   0.87087   33.676
 6622.00    0.86647   0.86915   33.684
 6623.00    0.85091   0.86717   34.390
 6624.00    0.84290   0.86509   35.621
 6625.00    0.84503   0.86357   36.068
 6626.00    0.85516   0.86191   35.499
 6627.00    0.86737   0.86004   34.917
 6628.00    0.87540   0.85868   34.818
 6629.00    0.87599   0.85716   34.628
 6630.00    0.87384   0.85552   32.465
 6631.00    0.87638   0.85471   27.867
 6632.00    0.88311   0.85421   23.503
 6633.00    0.88840   0.85397   20.857
 6634.00    0.88860   0.85479   19.534
 6635.00    0.88266   0.85586   19.101
 6636.00    0.87179   0.85666   19.741
 6637.00    0.86256   0.85782   21.588
 6638.00    0.86906   0.85877   23.507
 6639.00    0.89801   0.85877   23.831
 6640.00    0.93580   0.85882   23.032
 6641.00    0.96373   0.85903   22.470
 6642.00    0.97208   0.85860   22.738
 6643.00    0.96410   0.85846   23.952
 6644.00    0.95528   0.85907   25.860
 6645.00    0.95630   0.85950   27.751
 6646.00    0.96367   0.85996   -1.000
 6647.00    0.96613   0.86081   -1.000
 6648.00    0.95198   0.86155   27.936
 6649.00    0.92439   0.86194   28.357
 6650.00    0.90183   0.86211   28.707
 6651.00    0.89347   0.86223   28.562
 6652.00    0.89274   0.86203   28.334
 6653.00    0.88847   0.86138   28.644
 6654.00    0.87361   0.86073   29.762
 6655.00    0.85812   0.85976   30.343
 6656.00    0.85951   0.85813   28.441
 6657.00    0.87246   0.85646   25.558
 6658.00    0.87756   0.85461   23.988
 6659.00    0.87371   0.85215   23.872
 6660.00    0.87252   0.85001   24.572
 6661.00    0.87689   0.84849   25.708
 6662.00    0.88276   0.84689   27.129
 6663.00    0.88776   0.84622   28.766
 6664.00    0.89117   0.84681   30.431
 6665.00    0.89236   0.84755   31.483
 6666.00    0.89170   0.84900   31.247
 6667.00    0.89118   0.85110   29.840
 6668.00    0.88996   0.85276   28.142
 6669.00    0.88141   0.85412   27.214
 6670.00    0.86751   0.85489   27.278
 6671.00    0.86684   0.85445   27.435
 6672.00    0.88508   0.85329   27.338
 6673.00    0.89942   0.85123   28.123
 6674.00    0.89625   0.84829   30.244
 6675.00    0.88912   0.84580   31.951
 6676.00    0.88776   0.84369   31.494
 6677.00    0.88566   0.84187   29.563
 6678.00    0.88082   0.84178   27.354
 6679.00    0.88101   0.84293   25.417
 6680.00    0.88687   0.84436   24.057
 6681.00    0.88950   0.84676   23.469
 6682.00    0.88450   0.84967   23.600
 6683.00    0.87439   0.85200   24.313
 6684.00    0.86217   0.85398   25.891
 6685.00    0.85132   0.85576   28.852
 6686.00    0.85006   0.85686   32.197
 6687.00    0.86467   0.85730   32.844
 6688.00    0.88461   0.85748   30.382
 6689.00    0.89438   0.85718   27.264
 6690.00    0.89880   0.85637   24.711
 6691.00    0.90899   0.85538   22.990
 6692.00    0.91583   0.85405   22.322
 6693.00    0.90619   0.85268   22.896
 6694.00    0.88794   0.85150   24.760
 6695.00    0.87507   0.85031   27.641
 6696.00    0.86837   0.84970    0.000
 6697.00    0.86365   0.84949    0.000
 6698.00    0.86125   0.84929    0.000
 6699.00    0.86334   0.84958    0.000
 6700.00    0.87073   0.84985    0.000
 6701.00    0.88090   0.84989    0.000
 6702.00    0.88779   0.85007    0.000
 6703.00    0.88848   0.84995    0.000
 6704.00    0.88640   0.84965    0.000
 6705.00    0.88683   0.84946    0.000
 6706.00    0.89358   0.84880    0.000
 6707.00    0.90539   0.84784    0.000
 6708.00    0.91847   0.84683    0.000
 6709.00    0.94158   0.84504    0.000
 6710.00    0.99471   0.84282    0.000
 6711.00    1.08611   0.84053    0.000
 6712.00    1.20573   0.83778    0.000
 6713.00    1.32912   0.83511    0.000
 6714.00    1.42483   0.83295    0.000
 6715.00    1.46898   0.83142    0.000
 6716.00    1.45094   0.83062    0.000
 6717.00    1.37738   0.83070    0.000
 6718.00    1.26778   0.83189    0.000
 6719.00    1.14523   0.83350    0.000
 6720.00    1.03179   0.83533    0.000
 6721.00    0.94408   0.83758    0.000
 6722.00    0.89240   0.83956    0.000
 6723.00    0.88066   0.84122    0.000
 6724.00    0.90853   0.84272    0.000
 6725.00    0.97354   0.84386    0.000
 6726.00    1.06867   0.84486    0.000
 6727.00    1.17963   0.84569    0.000
 6728.00    1.28284   0.84619    0.000
 6729.00    1.34681   0.84665    0.000
 6730.00    1.35198   0.84691    0.000
 6731.00    1.30296   0.84676    0.000
 6732.00    1.21659   0.84641    0.000
 6733.00    1.11342   0.84582    0.000
 6734.00    1.01439   0.84490    0.000
 6735.00    0.93759   0.84381    0.000
 6736.00    0.89063   0.84256    0.000
 6737.00    0.86873   0.84124    0.000
 6738.00    0.86041   0.83997    0.000
 6739.00    0.85295   0.83864    0.000
 6740.00    0.84242   0.83754    0.000
 6741.00    0.83373   0.83653    0.000
 6742.00    0.83143   0.83541    0.000
 6743.00    0.83658   0.83461    0.000
 6744.00    0.84608   0.83381    0.000
 6745.00    0.85354   0.83288    0.000
 6746.00    0.85187   0.83217    0.000
 6747.00    0.83793   0.83171    0.000
 6748.00    0.81950   0.83146    0.000
 6749.00    0.80818   0.83136    0.000
 6750.00    0.80722   0.83206    0.000
 6751.00    0.81331   0.83330    0.000
 6752.00    0.82150   0.83450    0.000
 6753.00    0.82780   0.83665   33.814
 6754.00    0.83137   0.83909   33.661
 6755.00    0.83283   0.84108   32.599
 6756.00    0.83261   0.84343   31.767
 6757.00    0.83172   0.84548   31.858
 6758.00    0.83207   0.84666   32.083
 6759.00    0.83430   0.84749   31.796
 6760.00    0.83677   0.84773   31.525
 6761.00    0.84020   0.84700   31.553
 6762.00    0.84841   0.84592   31.333
 6763.00    0.85792   0.84448   30.872
 6764.00    0.85654   0.84262   31.031
 6765.00    0.84161   0.84104   31.882
 6766.00    0.82432   0.83970   32.309
 6767.00    0.81416   0.83872   31.673
 6768.00    0.81311   0.83867   30.513
 6769.00    0.81668   0.83917   29.700
 6770.00    0.81794   0.84020   29.869
 6771.00    0.81701   0.84201   30.909
 6772.00    0.82022   0.84405   31.919
 6773.00    0.83166   0.84595   31.587
 6774.00    0.85111   0.84772   29.454
 6775.00    0.87416   0.84908   27.108
 6776.00    0.89315   0.84953   25.992
 6777.00    0.89880   0.84908   25.916
 6778.00    0.88605   0.84803   26.263
 6779.00    0.86155   0.84610   27.193
 6780.00    0.83663   0.84355   29.044
 6781.00    0.81682   0.84109   31.053
 6782.00    0.80264   0.83865   32.011
 6783.00    0.79226   0.83653   32.233
 6784.00    0.78487   0.83530   32.690
 6785.00    0.78325   0.83462   33.539
 6786.00    0.78972   0.83440   34.360
 6787.00    0.80265   0.83482   34.545
 6788.00    0.81689   0.83537   34.021
 6789.00    0.82517   0.83575   33.535
 6790.00    0.82414   0.83621   33.578
 6791.00    0.81733   0.83659   33.948
 6792.00    0.81170   0.83658   34.244
 6793.00    0.81393   0.83677   34.159
 6794.00    0.82323   0.83719   33.615
 6795.00    0.83095   0.83740   32.802
 6796.00    0.83118   0.83798   32.086
 6797.00    0.82441   0.83875   31.831
 6798.00    0.81527   0.83929   32.053
 6799.00    0.80982   0.84001   32.443
 6800.00    0.81022   0.84046   32.649
 6801.00    0.81488   0.84062   32.432
 6802.00    0.82258   0.84081   31.850
 6803.00    0.83226   0.84046   31.145
 6804.00    0.84091   0.84015   30.461
 6805.00    0.84484   0.83985   29.874
 6806.00    0.84270   0.83904   29.496
 6807.00    0.83591   0.83871   29.408
 6808.00    0.82830   0.83839   29.544
 6809.00    0.82494   0.83766   29.623
 6810.00    0.83042   0.83759   29.146
 6811.00    0.84586   0.83750   28.011
 6812.00    0.86601   0.83726   26.947
 6813.00    0.88011   0.83752   26.566
 6814.00    0.87462   0.83775   26.867
 6815.00    0.84751   0.83815   27.647
 6816.00    0.81686   0.83877   28.727
 6817.00    0.79960   0.83931   29.765
 6818.00    0.79713   0.84006   30.194
 6819.00    0.80321   0.84081   29.945
 6820.00    0.81012   0.84144   29.709
 6821.00    0.81278   0.84197   29.865
 6822.00    0.81072   0.84222   30.130
 6823.00    0.80774   0.84230   30.305
 6824.00    0.80970   0.84209   30.518
 6825.00    0.81715   0.84170   30.791
 6826.00    0.82498   0.84124   30.945
 6827.00    0.83036   0.84067   30.868
 6828.00    0.83398   0.84035   30.622
 6829.00    0.83596   0.84012   30.421
 6830.00    0.83502   0.83973   30.472
 6831.00    0.82925   0.83940   30.662
 6832.00    0.81850   0.83881   30.729
 6833.00    0.80862   0.83776   30.768
 6834.00    0.80716   0.83627   30.957
 6835.00    0.81457   0.83418   30.928
 6836.00    0.82386   0.83181   30.347
 6837.00    0.82323   0.82944   29.881
 6838.00    0.80637   0.82704   30.155
 6839.00    0.78402   0.82526   30.573
 6840.00    0.77051   0.82427   30.365
 6841.00    0.76793   0.82406   29.971
 6842.00    0.77312   0.82483   29.874
 6843.00    0.78557   0.82623   29.567
 6844.00    0.80439   0.82808   28.695
 6845.00    0.82544   0.83003   27.846
 6846.00    0.84234   0.83172   27.630
 6847.00    0.84847   0.83312   28.210
 6848.00    0.84327   0.83369   29.214
 6849.00    0.83411   0.83353   29.661
 6850.00    0.82652   0.83301   29.184
 6851.00    0.82004   0.83168   28.577
 6852.00    0.81367   0.83003   28.433
 6853.00    0.80804   0.82841   28.727
 6854.00    0.80422   0.82654   29.078
 6855.00    0.80271   0.82515   29.044
 6856.00    0.80164   0.82420   28.956
 6857.00    0.79825   0.82327   29.646
 6858.00    0.79443   0.82317   31.016
 6859.00    0.79551   0.82356   31.985
 6860.00    0.80386   0.82383   31.947
 6861.00    0.81735   0.82454   31.234
 6862.00    0.82937   0.82536   30.500
 6863.00    0.83354   0.82577   30.253
 6864.00    0.83129   0.82605   30.584
 6865.00    0.82741   0.82624   31.265
 6866.00    0.82168   0.82616   31.849
 6867.00    0.81378   0.82587   31.985
 6868.00    0.81045   0.82566   31.865
 6869.00    0.81745   0.82564   31.737
 6870.00    0.83019   0.82570   31.357
 6871.00    0.84098   0.82602   30.709
 6872.00    0.84630   0.82678   30.498
 6873.00    0.84368   0.82756   30.867
 6874.00    0.82968   0.82823   30.673
 6875.00    0.80830   0.82904   29.739
 6876.00    0.79444   0.82969   29.730
 6877.00    0.79766   0.82989   30.499
 6878.00    0.81250   0.82989   29.256
 6879.00    0.82043   0.82986   27.861
 6880.00    0.80026   0.82967   32.186
 6881.00    0.76722   0.82964   37.646
 6882.00    0.76942   0.83000   24.040
 6883.00    0.80984   0.83074   13.943
 6884.00    0.84091   0.83192   11.243
 6885.00    0.84376   0.83336   11.546
 6886.00    0.83756   0.83513   12.194
 6887.00    0.83241   0.83704   12.110
 6888.00    0.82406   0.83846   12.040
 6889.00    0.81364   0.83965   12.262
 6890.00    0.80773   0.84070   12.417
 6891.00    0.80878   0.84108   12.372
 6892.00    0.81316   0.84107   12.284
 6893.00    0.81178   0.84108   12.317
 6894.00    0.80007   0.84073   12.504
 6895.00    0.79159   0.84034   12.633
 6896.00    0.80009   0.84026   12.497
 6897.00    0.81561   0.84016   12.261
 6898.00    0.82341   0.84023   12.145
 6899.00    0.82701   0.84050   12.092
 6900.00    0.83600   0.84096   11.962
 6901.00    0.85232   0.84161   11.733
 6902.00    0.87130   0.84203   11.477
 6903.00    0.88461   0.84260   11.304
 6904.00    0.88812   0.84322   11.260
 6905.00    0.88556   0.84330   11.292
 6906.00    0.87776   0.84337   11.393
 6907.00    0.85886   0.84297   11.643
 6908.00    0.83192   0.84197   12.020
 6909.00    0.81242   0.84112   12.309
 6910.00    0.80744   0.83970   12.385
 6911.00    0.80964   0.83815   12.351
 6912.00    0.81072   0.83714   12.335
 6913.00    0.80700   0.83595   12.391
 6914.00    0.80035   0.83541   12.495
 6915.00    0.79655   0.83553   12.554
 6916.00    0.80032   0.83545   12.495
 6917.00    0.81215   0.83604   12.313
 6918.00    0.82461   0.83672   12.127
 6919.00    0.82864   0.83685   12.068
 6920.00    0.82758   0.83703   12.083
 6921.00    0.82954   0.83698   12.055
 6922.00    0.82994   0.83659   12.049
 6923.00    0.82152   0.83614   12.173
 6924.00    0.81294   0.83584   -2.000
 6925.00    0.81685   0.83572   -2.000
 6926.00    0.83170   0.83577   -2.000
 6927.00    0.84727   0.83596   -2.000
 6928.00    0.85408   0.83640   -2.000
 6929.00    0.85016   0.83706   -2.000
 6930.00    0.84516   0.83752   -2.000
 6931.00    0.84775   0.83802   -2.000
 6932.00    0.85592   0.83847   -2.000
 6933.00    0.86341   0.83896   -2.000
 6934.00    0.86574   0.83959   -2.000
 6935.00    0.86501   0.83988   -2.000
 6936.00    0.86979   0.84021   -2.000
 6937.00    0.88059   0.84055   -2.000
 6938.00    0.88600   0.84040   -2.000
 6939.00    0.87935   0.83982   -2.000
 6940.00    0.86451   0.83924   -2.000
 6941.00    0.84903   0.83842   -2.000
 6942.00    0.84003   0.83734   -2.000
 6943.00    0.84060   0.83665   -2.000
 6944.00    0.84899   0.83591   -2.000
 6945.00    0.86027   0.83536   -2.000
 6946.00    0.86852   0.83533   -2.000
 6947.00    0.87100   0.83509   -2.000
 6948.00    0.86851   0.83507   -2.000
 6949.00    0.86414   0.83540   -2.000
 6950.00    0.86068   0.83539   -2.000
 6951.00    0.85687   0.83556   -2.000
 6952.00    0.85135   0.83608   -2.000
 6953.00    0.84883   0.83648   -2.000
 6954.00    0.85274   0.83724   -2.000
 6955.00    0.85549   0.83844   -2.000
 6956.00    0.84973   0.83950   -2.000
 6957.00    0.84117   0.84053   -2.000
 6958.00    0.83913   0.84183   -2.000
 6959.00    0.84627   0.84280   -2.000
 6960.00    0.85678   0.84347   -2.000
 6961.00    0.85799   0.84425   -2.000
 6962.00    0.84602   0.84470   -2.000
 6963.00    0.83369   0.84505   -2.000
 6964.00    0.83061   0.84539   -2.000
 6965.00    0.83355   0.84528   -2.000
 6966.00    0.84004   0.84523   -2.000
 6967.00    0.85290   0.84502   -2.000
 6968.00    0.86759   0.84395   -2.000
 6969.00    0.87142   0.84265   -2.000
 6970.00    0.86195   0.84092   -2.000
 6971.00    0.84881   0.83841   -2.000
 6972.00    0.83681   0.83532   -2.000
 6973.00    0.82384   0.83182   -2.000
 6974.00    0.81046   0.82864   -2.000
 6975.00    0.80015   0.82586   -2.000
 6976.00    0.79337   0.82367   -2.000
 6977.00    0.78782   0.82258   -2.000
 6978.00    0.78179   0.82276   -2.000
 6979.00    0.77524   0.82443   -2.000
 6980.00    0.77032   0.82672   -2.000
 6981.00    0.77040   0.82948   -2.000
 6982.00    0.77815   0.83298   -2.000
 6983.00    0.79299   0.83599   -2.000
 6984.00    0.80873   0.83826   -2.000
 6985.00    0.82071   0.84017   -2.000
 6986.00    0.83305   0.84139   -2.000
 6987.00    0.84763   0.84206   -2.000
 6988.00    0.85465   0.84233   -2.000
 6989.00    0.84763   0.84247   -2.000
 6990.00    0.83470   0.84251   -2.000
 6991.00    0.82768   0.84219   -2.000
 6992.00    0.83374   0.84180   -2.000
 6993.00    0.85585   0.84118   -2.000
 6994.00    0.89177   0.84027   -2.000
 6995.00    0.92695   0.83927   -2.000
 6996.00    0.93879   0.83793   -2.000
 6997.00    0.93114   0.83648   -2.000
 6998.00    0.93461   0.83508   -2.000
 6999.00    0.95077   0.83382   -2.000
 7000.00    0.95008   0.83287   -2.000
 7001.00    0.93302   0.83204   -2.000
 7002.00    0.92743   0.83147   -2.000
 7003.00    0.92653   0.83139   -2.000
 7004.00    0.89747   0.83171   -2.000
 7005.00    0.84146   0.83198   -2.000
 7006.00    0.79149   0.83219   -2.000
 7007.00    0.77757   0.83256   -2.000
 7008.00    0.80784   0.83274   -2.000
 7009.00    0.85034   0.83251   -2.000
 7010.00    0.86491   0.83168   -2.000
 7011.00    0.85352   0.83082   -2.000
 7012.00    0.84020   0.83004   -2.000
 7013.00    0.83612   0.82877   -2.000
 7014.00    0.83848   0.82786   -2.000
 7015.00    0.83527   0.82759   -2.000
 7016.00    0.81923   0.82766   -2.000
 7017.00    0.79905   0.82808   -2.000
 7018.00    0.78682   0.82836   -2.000
 7019.00    0.78713   0.82902   -2.000
 7020.00    0.79864   0.83015   -2.000
 7021.00    0.81584   0.83073   -2.000
 7022.00    0.82988   0.83105   -2.000
 7023.00    0.83172   0.83167   -2.000
 7024.00    0.82643   0.83242   -2.000
 7025.00    0.83256   0.83328   -2.000
 7026.00    0.84811   0.83424   -2.000
 7027.00    0.84848   0.83553   -2.000
 7028.00    0.83553   0.83694   -2.000
 7029.00    0.84201   0.83797   -2.000
 7030.00    0.88544   0.83898   -2.000
 7031.00    0.95178   0.83967   -2.000
 7032.00    0.99413   0.83989   -2.000
 7033.00    0.96550   0.84043   -2.000
 7034.00    0.89306   0.84112   -2.000
 7035.00    0.84631   0.84189   -2.000
 7036.00    0.83950   0.84315   -2.000
 7037.00    0.84766   0.84476   -2.000
 7038.00    0.86756   0.84697   -2.000
 7039.00    0.90296   0.84951   -2.000
 7040.00    0.92866   0.85173   -2.000
 7041.00    0.91580   0.85402   -2.000
 7042.00    0.86964   0.85638   -2.000
 7043.00    0.81768   0.85797   -2.000
 7044.00    0.78971   0.85863   -2.000
 7045.00    0.79881   0.85881   -2.000
 7046.00    0.82828   0.85796   -2.000
 7047.00    0.85632   0.85603   -2.000
 7048.00    0.87606   0.85376   -2.000
 7049.00    0.88747   0.85068   -2.000
 7050.00    0.89009   0.84711   -2.000
 7051.00    0.88061   0.84335   -2.000
 7052.00    0.85385   0.83936   -2.000
 7053.00    0.81438   0.83590   -2.000
 7054.00    0.77887   0.83260   -2.000
 7055.00    0.76028   0.82982   -2.000
 7056.00    0.76132   0.82782   -2.000
 7057.00    0.77685   0.82595   -2.000
 7058.00    0.79794   0.82471   -2.000
 7059.00    0.82063   0.82368   -2.000
 7060.00    0.84292   0.82258   -2.000
 7061.00    0.84914   0.82178   -2.000
 7062.00    0.82274   0.82073   -2.000
 7063.00    0.78503   0.82005   -2.000
 7064.00    0.77390   0.81990   -2.000
 7065.00    0.78425   0.81946   -2.000
 7066.00    0.78717   0.81959   -2.000
 7067.00    0.78287   0.82037   -2.000
 7068.00    0.79195   0.82131   -2.000
 7069.00    0.82804   0.82285   -2.000
 7070.00    0.88509   0.82460   -2.000
 7071.00    0.92886   0.82643   -2.000
 7072.00    0.92836   0.82852   -2.000
 7073.00    0.88927   0.83012   -2.000
 7074.00    0.83316   0.83108   -2.000
 7075.00    0.77551   0.83163   -2.000
 7076.00    0.73330   0.83142   -2.000
 7077.00    0.72868   0.83041   -2.000
 7078.00    0.75884   0.82845   -2.000
 7079.00    0.78452   0.82572   -2.000
 7080.00    0.78831   0.82262   -2.000
 7081.00    0.79846   0.81851   -2.000
 7082.00    0.82703   0.81405   -2.000
 7083.00    0.84774   0.80988   -2.000
 7084.00    0.84265   0.80554   -2.000
 7085.00    0.81842   0.80180   -2.000
 7086.00    0.78688   0.79859   -2.000
 7087.00    0.75779   0.79574   -2.000
 7088.00    0.74026   0.79431   -2.000
 7089.00    0.74062   0.79324   -2.000
 7090.00    0.75544   0.79242   -2.000
 7091.00    0.77755   0.79268   -2.000
 7092.00    0.81382   0.79296   -2.000
 7093.00    0.87072   0.79394   -2.000
 7094.00    0.91856   0.79536   -2.000
 7095.00    0.91667   0.79653   -2.000
 7096.00    0.86762   0.79821   -2.000
 7097.00    0.80023   0.79967   -2.000
 7098.00    0.73130   0.80120   -2.000
 7099.00    0.67416   0.80256   -2.000
 7100.00    0.65426   0.80339   -2.000
 7101.00    0.67984   0.80421   -2.000
 7102.00    0.71294   0.80466   -2.000
 7103.00    0.72093   0.80479   -2.000
 7104.00    0.72242   0.80444   -2.000
 7105.00    0.73881   0.80378   -2.000
 7106.00    0.75625   0.80317   -2.000
 7107.00    0.75776   0.80255   -2.000
 7108.00    0.74676   0.80178   -2.000
 7109.00    0.74073   0.80097   -2.000
 7110.00    0.75999   0.80065   -2.000
 7111.00    0.79530   0.80071   -2.000
 7112.00    0.80603   0.80089   -2.000
 7113.00    0.78340   0.80122   -2.000
 7114.00    0.76140   0.80157   -2.000
 7115.00    0.75229   0.80218   -2.000
 7116.00    0.73654   0.80239   -2.000
 7117.00    0.70990   0.80233   -2.000
 7118.00    0.69276   0.80225   -2.000
 7119.00    0.71225   0.80139   -2.000
 7120.00    0.78099   0.80050   -2.000
 7121.00    0.86163   0.79938   -2.000
 7122.00    0.89837   0.79788   -2.000
 7123.00    0.89417   0.79642   -2.000
 7124.00    0.87980   0.79431   -2.000
 7125.00    0.83710   0.79251   -2.000
 7126.00    0.74592   0.79124   -2.000
 7127.00    0.66722   0.78970   -2.000
 7128.00    0.66409   0.78866   -2.000
 7129.00    0.69368   0.78835   -2.000
 7130.00    0.69239   0.78865   -2.000
 7131.00    0.67729   0.78985   -2.000
 7132.00    0.68368   0.79108   -2.000
 7133.00    0.70089   0.79246   -2.000
 7134.00    0.71125   0.79451   -2.000
 7135.00    0.72183   0.79629   -2.000
 7136.00    0.73334   0.79767   -2.000
 7137.00    0.72409   0.79868   -2.000
 7138.00    0.69298   0.79927   -2.000
 7139.00    0.67583   0.79956   -2.000
 7140.00    0.69292   0.79950   -2.000
 7141.00    0.72769   0.79881   -2.000
 7142.00    0.75514   0.79765   -2.000
 7143.00    0.75896   0.79697   -2.000
 7144.00    0.74564   0.79599   -2.000
 7145.00    0.73797   0.79478   -2.000
 7146.00    0.73890   0.79450   -2.000
 7147.00    0.73170   0.79450   -2.000
 7148.00    0.71241   0.79527   -2.000
 7149.00    0.69393   0.79675   -2.000
 7150.00    0.69390   0.79821   -2.000
 7151.00    0.72382   0.80056   -2.000
 7152.00    0.77394   0.80286   -2.000
 7153.00    0.82212   0.80461   -2.000
 7154.00    0.85398   0.80624   -2.000
 7155.00    0.86100   0.80718   -2.000
 7156.00    0.83354   0.80761   -2.000
 7157.00    0.77419   0.80709   -2.000
 7158.00    0.71350   0.80594   -2.000
 7159.00    0.68126   0.80493   -2.000
 7160.00    0.67508   0.80356   -2.000
 7161.00    0.68079   0.80209   -2.000
 7162.00    0.69370   0.80093   -2.000
 7163.00    0.71042   0.80045   -2.000
 7164.00    0.72202   0.80094   -2.000
 7165.00    0.72281   0.80213   -2.000
 7166.00    0.71600   0.80365   -2.000
 7167.00    0.70791   0.80553   -2.000
 7168.00    0.70444   0.80787   -2.000
 7169.00    0.71160   0.81018   -2.000
 7170.00    0.73330   0.81190   -2.000
 7171.00    0.76081   0.81302   -2.000
 7172.00    0.77457   0.81349   -2.000
 7173.00    0.76798   0.81319   -2.000
 7174.00    0.75098   0.81249   -2.000
 7175.00    0.73286   0.81138   -2.000
 7176.00    0.71897   0.80988   -2.000
 7177.00    0.71741   0.80833   -2.000
 7178.00    0.73286   0.80649   -2.000
 7179.00    0.74915   0.80487   -2.000
 7180.00    0.74449   0.80387   -2.000
 7181.00    0.72906   0.80249   -2.000
 7182.00    0.72773   0.80109   -2.000
 7183.00    0.73845   0.79980   -2.000
 7184.00    0.74028   0.79830   -2.000
 7185.00    0.71733   0.79748   -2.000
 7186.00    0.68081   0.79648   -2.000
 7187.00    0.68651   0.79558   -2.000
 7188.00    0.76058   0.79559   -2.000
 7189.00    0.82705   0.79555   -2.000
 7190.00    0.81530   0.79617   -2.000
 7191.00    0.75834   0.79716   -2.000
 7192.00    0.71106   0.79843   -2.000
 7193.00    0.68182   0.79997   -2.000
 7194.00    0.66638   0.80096   -2.000
 7195.00    0.67131   0.80191   -2.000
 7196.00    0.69189   0.80257   -2.000
 7197.00    0.70497   0.80332   -2.000
 7198.00    0.70428   0.80369   -2.000
 7199.00    0.70948   0.80314   -2.000
 7200.00    0.72559   0.80281   -2.000
 7201.00    0.73373   0.80208   -2.000
 7202.00    0.72449   0.80128   -2.000
 7203.00    0.70658   0.80035   -2.000
 7204.00    0.69339   0.79875   -2.000
 7205.00    0.69445   0.79809   -2.000
 7206.00    0.70519   0.79770   -2.000
 7207.00    0.71121   0.79769   -2.000
 7208.00    0.70463   0.79835   -2.000
 7209.00    0.69407   0.79880   -2.000
 7210.00    0.71385   0.80005   -2.000
 7211.00    0.76635   0.80163   -2.000
 7212.00    0.73109   0.80310   -2.000
 7213.00    0.53584   0.80463   -2.000
 7214.00    0.40778   0.80589   -2.000
 7215.00    0.56326   0.80698   -2.000
 7216.00    0.80011   0.80795   -2.000
 7217.00    0.84973   0.80883   -2.000
 7218.00    0.78805   0.80953   -2.000
