###################################################################
## OUTPUT of StarlightChains_v04.for    [Cid@UFSC - 01/Apr/2007] ##
###################################################################

## Some input info
2013gl.txt                               [arq_obs]
Base.CB07.vall.4m                        [arq_base]
Masks.EmLines.NEW.gm                     [arq_masks]
StCv04.C11.config                        [arq_config]
   66                                    [N_base]
    0                                    [N_YAV_components = # of components with extra extinction!]
    0                                    [i_FitPowerLaw (1/0 = Yes/No)]
-9.99                                    [alpha_PowerLaw]
CCM                                      [red_law_option]
 1.458241                                [q_norm = A(l_norm)/A(V)]

## (Re)Sampling Parameters
 3741.00                                 [l_ini (A)]
 7218.00                                 [l_fin (A)]
    1.00                                 [dl    (A)]     (OBS: dl_cushion =    50.00 A)

## Normalization info
 4020.00                                 [l_norm (A) - for base]
 4010.00                                 [llow_norm (A) - window for f_obs]
 4060.00                                 [lupp_norm (A) - window for f_obs]
3.492236E-16                             [fobs_norm (in input units)]

## S/N
 3691.00                                 [llow_SN (A) - window for S/N]
 7268.00                                 [lupp_SN (A) - window for S/N]
   4.636                                 [S/N in S/N window]
   6.785                                 [S/N in norm. window]
  40.412                                 [S/N_err in S/N window]
  59.144                                 [S/N_err in norm. window]
  1.0000                                 [fscale_chi2]

## etc...
    -2007409                             [idum_orig]
  2384                                   [NOl_eff]
  2369                                   [Nl_eff]
    15    NSIGMA                         [Ntot_cliped & clip_method]
  2295300                                [Nglobal_steps]
   7                                     [N_chains]
  24                                     [NEX0s_base = N_base in EX0s-fits]
 0   0   1        3   2.0   1.162E+02    [Clip-Bug, RC-Crash & Burn-In warning-flags, n_censored_weights, wei_nsig_threshold & wei_limit]
    26     26.170     25.661      0.509  [idt_all, wdt_TotTime, wdt_UsrTime & wdt_SysTime (sec)]

## Synthesis Results - Best model ##

 5.54481E-01                             [chi2/Nl_eff]
     1.43831                             [adev (%)]

   101.91850                             [sum-of-x (%)]
 4.67830E-16                             [Flux_tot (units of input spectrum!)]
 1.17930E-12                             [Mini_tot (???)]
 6.77245E-13                             [Mcor_tot (???)]

 -46.68                                  [v0_min  (km/s)]
 153.44                                  [vd_min  (km/s)]
 0.2036                                  [AV_min  (mag)]
 0.0000                                  [YAV_min (mag)]

# j     x_j(%)      Mini_j(%)     Mcor_j(%)     age_j(yr)     Z_j      (L/M)_j    YAV?  Mstars   component_j        a/Fe...       SSP_chi2r SSP_adev(%)   SSP_AV   SSP_x(%)
  1      1.8325     6.5198E-02    1.1353E-01    1.000000E+06  0.00400  1.094E-02    0   1.0000   age020_m42            0.0000     5.4522E+00     4.7696   2.0938    86.8128
  2      0.0000     0.0000E+00    0.0000E+00    3.160000E+06  0.00400  4.007E-02    0   0.9999   age045_m42            0.0000     3.1924E+00     3.3175   1.3767    92.5414
  3      0.0000     0.0000E+00    0.0000E+00    5.010000E+06  0.00400  2.539E-02    0   0.9488   age055_m42            0.0000     3.8376E+00     3.7728   1.6904    90.4825
  4      0.0000     0.0000E+00    0.0000E+00    6.610000E+06  0.00400  2.620E-02    0   0.9220   age061_m42            0.0000     2.7405E+00     3.0747   1.2994    92.9469
  5      0.1166     3.4330E-03    5.2977E-03    1.000000E+07  0.00400  1.322E-02    0   0.8862   age070_m42            0.0000     1.4292E+00     2.3157   0.9835    96.6505
  6      0.0138     6.8043E-04    1.0155E-03    1.445000E+07  0.00400  7.883E-03    0   0.8571   age078_m42            0.0000     2.0333E+00     2.7722   1.3127    94.0414
  7      0.0000     0.0000E+00    0.0000E+00    2.512000E+07  0.00400  5.251E-03    0   0.8174   age090_m42            0.0000     1.3277E+00     2.2332   0.8477    97.5090
  8      4.0979     4.3711E-01    5.9758E-01    4.000000E+07  0.00400  3.649E-03    0   0.7851   age104_m42            0.0000     1.0822E+00     1.9940   0.6242    98.1430
  9      0.4981     6.2584E-02    8.3140E-02    5.500000E+07  0.00400  3.098E-03    0   0.7629   age110_m42            0.0000     1.3151E+00     2.1445   0.7947    97.3121
 10      0.1121     1.9579E-02    2.4571E-02    1.015200E+08  0.00400  2.228E-03    0   0.7207   age116_m42            0.0000     1.6271E+00     2.4533   0.8263    96.9535
 11      0.0000     0.0000E+00    0.0000E+00    2.861200E+08  0.00400  1.093E-03    0   0.6648   age125_m42            0.0000     1.5130E+00     2.4204   0.2484   100.4307
 12      0.0000     0.0000E+00    0.0000E+00    5.088000E+08  0.00400  6.597E-04    0   0.6365   age130_m42            0.0000     1.8222E+00     2.7513   0.2559   100.3780
 13      0.0000     0.0000E+00    0.0000E+00    1.434000E+09  0.00400  2.132E-04    0   0.5798   age139_m42            0.0000     1.8825E+00     2.8390  -0.7039   101.8085
 14      2.4476     1.6161E+01    1.5132E+01    4.250000E+09  0.00400  5.895E-05    0   0.5377   age158_m42            0.0000     4.4615E+00     4.1715  -1.0000    91.9568
 15      0.0000     0.0000E+00    0.0000E+00    7.500000E+09  0.00400  3.510E-05    0   0.5212   age171_m42            0.0000     9.7793E+00     6.2505  -1.0000    84.2920
 16      0.0000     0.0000E+00    0.0000E+00    1.300000E+10  0.00400  2.005E-05    0   0.5034   age193_m42            0.0000     1.7072E+01     8.4742  -1.0000    77.9782
 17      1.2721     3.2468E+01    2.8082E+01    1.800000E+10  0.00400  1.525E-05    0   0.4967   age213_m42            0.0000     1.8115E+01     8.7983  -1.0000    76.8457
 18      4.7537     1.4946E-01    2.6026E-01    1.000000E+06  0.00800  1.238E-02    0   1.0000   age020_m52            0.0000     5.4534E+00     4.7800   2.0902    86.9782
 19      1.1753     1.4881E-02    2.5825E-02    3.160000E+06  0.00800  3.074E-02    0   0.9966   age045_m52            0.0000     5.2872E+00     4.6880   2.0148    87.6928
 20      0.0000     0.0000E+00    0.0000E+00    5.010000E+06  0.00800  2.668E-02    0   0.9443   age055_m52            0.0000     3.9576E+00     3.9197   1.7709    89.7431
 21     18.7114     3.4097E-01    5.4487E-01    6.610000E+06  0.00800  2.136E-02    0   0.9177   age061_m52            0.0000     1.1163E+00     2.1718   0.4858    97.5971
 22      0.0000     0.0000E+00    0.0000E+00    1.000000E+07  0.00800  1.215E-02    0   0.8827   age070_m52            0.0000     1.6736E+00     2.5950   1.1529    96.9258
 23      0.0000     0.0000E+00    0.0000E+00    1.445000E+07  0.00800  8.717E-03    0   0.8552   age078_m52            0.0000     1.7299E+00     2.5739   1.2771    95.4083
 24      0.4801     3.3421E-02    4.7500E-02    2.512000E+07  0.00800  5.592E-03    0   0.8162   age090_m52            0.0000     1.2532E+00     2.1824   0.9098    98.7711
 25      0.0000     0.0000E+00    0.0000E+00    4.000000E+07  0.00800  3.896E-03    0   0.7841   age104_m52            0.0000     1.1216E+00     2.0379   0.8317    99.0987
 26      0.0000     0.0000E+00    0.0000E+00    1.015200E+08  0.00800  2.148E-03    0   0.7226   age116_m52            0.0000     1.1840E+00     2.1031   0.7870    98.0920
 27      0.0000     0.0000E+00    0.0000E+00    2.861200E+08  0.00800  9.925E-04    0   0.6683   age125_m52            0.0000     1.5952E+00     2.5640   0.3190   101.3968
 28      0.0000     0.0000E+00    0.0000E+00    9.047900E+08  0.00800  3.141E-04    0   0.6138   age135_m52            0.0000     2.8693E+00     3.5201  -0.4494   104.1330
 29      0.0000     0.0000E+00    0.0000E+00    1.434000E+09  0.00800  1.719E-04    0   0.5853   age139_m52            0.0000     3.4346E+00     3.8228  -1.0000   100.7243
 30      0.0000     0.0000E+00    0.0000E+00    2.500000E+09  0.00800  7.872E-05    0   0.5600   age150_m52            0.0000     9.5153E+00     6.2420  -1.0000    87.3857
 31      0.0000     0.0000E+00    0.0000E+00    4.250000E+09  0.00800  4.336E-05    0   0.5426   age158_m52            0.0000     1.0196E+01     6.3600  -1.0000    85.9886
 32      0.0000     0.0000E+00    0.0000E+00    6.250000E+09  0.00800  3.159E-05    0   0.5319   age166_m52            0.0000     1.9251E+01     9.0006  -1.0000    78.6740
 33      0.0000     0.0000E+00    0.0000E+00    1.300000E+10  0.00800  1.361E-05    0   0.5073   age193_m52            0.0000     5.0158E+01    15.4049  -1.0000    63.0926
 34      0.0000     0.0000E+00    0.0000E+00    1.800000E+10  0.00800  9.886E-06    0   0.4990   age213_m52            0.0000     5.8841E+01    16.6735  -1.0000    59.6891
 35      0.6112     1.5408E-02    2.6830E-02    1.000000E+06  0.02000  1.544E-02    0   1.0000   age020_m62            0.0000     5.5348E+00     4.8332   2.0856    87.1958
 36      0.0026     2.6637E-05    4.5724E-05    3.160000E+06  0.02000  3.762E-02    0   0.9858   age045_m62            0.0000     5.5409E+00     4.8272   2.0267    87.8721
 37      0.0000     0.0000E+00    0.0000E+00    5.010000E+06  0.02000  3.296E-02    0   0.9342   age055_m62            0.0000     3.6017E+00     3.6147   1.6557    91.3745
 38     16.9786     5.7267E-01    8.8362E-01    8.710000E+06  0.02000  1.154E-02    0   0.8861   age067_m62            0.0000     6.2209E+00     5.2277   0.5389   103.1678
 39      0.0000     0.0000E+00    0.0000E+00    1.445000E+07  0.02000  7.663E-03    0   0.8472   age078_m62            0.0000     2.1749E+00     2.9828   0.7800   100.1928
 40      0.0000     0.0000E+00    0.0000E+00    2.512000E+07  0.02000  4.532E-03    0   0.8099   age090_m62            0.0000     2.5869E+00     3.2054   0.7695   100.0926
 41      0.0000     0.0000E+00    0.0000E+00    5.500000E+07  0.02000  2.733E-03    0   0.7595   age110_m62            0.0000     1.0943E+00     2.0282   0.8133    98.4082
 42      0.0000     0.0000E+00    0.0000E+00    1.609000E+08  0.02000  1.369E-03    0   0.6985   age120_m62            0.0000     1.3318E+00     2.2529   0.6736   100.0882
 43      7.5355     3.2543E+00    3.8046E+00    2.861200E+08  0.02000  9.013E-04    0   0.6714   age125_m62            0.0000     1.8162E+00     2.6553   0.4333   102.4690
 44      1.3613     1.0539E+00    1.1835E+00    5.088000E+08  0.02000  5.028E-04    0   0.6449   age130_m62            0.0000     3.0439E+00     3.5426   0.0846   103.7384
 45      0.0000     0.0000E+00    0.0000E+00    9.047900E+08  0.02000  2.428E-04    0   0.6179   age135_m62            0.0000     3.6890E+00     3.9160  -0.4853   102.3242
 46      0.0013     3.9585E-03    4.0724E-03    1.434000E+09  0.02000  1.263E-04    0   0.5908   age139_m62            0.0000     4.9235E+00     4.4293  -0.9206   100.3660
 47      0.0000     0.0000E+00    0.0000E+00    2.500000E+09  0.02000  5.985E-05    0   0.5673   age150_m62            0.0000     1.1500E+01     6.7221  -1.0000    87.6522
 48      0.0000     0.0000E+00    0.0000E+00    4.250000E+09  0.02000  3.271E-05    0   0.5468   age158_m62            0.0000     2.6020E+01    10.5002  -1.0000    75.9622
 49      0.0000     0.0000E+00    0.0000E+00    1.000000E+10  0.02000  1.360E-05    0   0.5167   age181_m62            0.0000     4.9732E+01    15.0478  -1.0000    64.5251
 50      0.0000     0.0000E+00    0.0000E+00    1.800000E+10  0.02000  7.124E-06    0   0.5013   age213_m62            0.0000     6.6613E+01    17.5926  -1.0000    58.0285
 51      1.9031     2.8578E-02    4.9754E-02    1.000000E+06  0.05000  2.592E-02    0   0.9998   age020_m72            0.0000     5.7422E+00     4.9596   2.0755    87.2817
 52      0.0000     0.0000E+00    0.0000E+00    3.160000E+06  0.05000  4.845E-02    0   0.9577   age045_m72            0.0000     5.0004E+00     4.4261   1.9157    88.8052
 53      0.0000     0.0000E+00    0.0000E+00    5.010000E+06  0.05000  3.072E-02    0   0.9147   age055_m72            0.0000     2.9901E+00     3.5851   1.3931    95.0314
 54      0.0000     0.0000E+00    0.0000E+00    6.610000E+06  0.05000  1.455E-02    0   0.8877   age061_m72            0.0000     1.5556E+01     7.8848   0.5701   105.3033
 55      0.0000     0.0000E+00    0.0000E+00    1.000000E+07  0.05000  9.074E-03    0   0.8524   age070_m72            0.0000     5.3572E+00     4.5103   1.5831    94.6057
 56      0.0000     0.0000E+00    0.0000E+00    2.512000E+07  0.05000  4.250E-03    0   0.7902   age090_m72            0.0000     3.2613E+00     3.4381   1.2771    96.6137
 57      0.0000     0.0000E+00    0.0000E+00    4.000000E+07  0.05000  3.087E-03    0   0.7618   age104_m72            0.0000     3.2669E+00     3.3518   1.0431    98.5633
 58      0.0104     2.3800E-03    2.9409E-03    1.015200E+08  0.05000  1.700E-03    0   0.7096   age116_m72            0.0000     1.4486E+00     2.3455   0.8048   100.2455
 59      8.4106     4.4335E+00    5.1208E+00    2.861200E+08  0.05000  7.384E-04    0   0.6633   age125_m72            0.0000     2.3365E+00     3.0469   0.3159   103.1456
 60     25.7749     2.6270E+01    2.9148E+01    5.088000E+08  0.05000  3.819E-04    0   0.6372   age130_m72            0.0000     3.3657E+00     3.8492  -0.1518   103.5501
 61      2.9821     6.9256E+00    7.3685E+00    9.047900E+08  0.05000  1.676E-04    0   0.6110   age135_m72            0.0000     7.0656E+00     5.4807  -0.8092    99.8485
 62      0.0000     0.0000E+00    0.0000E+00    1.434000E+09  0.05000  8.837E-05    0   0.5874   age139_m72            0.0000     1.2382E+01     7.0175  -1.0000    88.8995
 63      0.8357     7.6841E+00    7.4904E+00    2.500000E+09  0.05000  4.233E-05    0   0.5598   age150_m72            0.0000     2.6928E+01    10.6168  -1.0000    76.5729
 64      0.0000     0.0000E+00    0.0000E+00    6.250000E+09  0.05000  1.435E-05    0   0.5249   age166_m72            0.0000     5.7538E+01    16.2949  -1.0000    61.4086
 65      0.0000     0.0000E+00    0.0000E+00    1.300000E+10  0.05000  6.513E-06    0   0.5036   age193_m72            0.0000     8.1429E+01    19.5810  -1.0000    54.3003
 66      0.0000     0.0000E+00    0.0000E+00    1.800000E+10  0.05000  4.527E-06    0   0.4945   age213_m72            0.0000     9.6245E+01    21.3451  -1.0000    50.1616


## Synthesis Results - Average & Chains ##

# j      x_j: min, <> & last-chain-values for 1 ...  7 chains
  1      1.8325      1.4544      1.2465      1.6058      1.3575      1.7979      1.3965      1.6018      1.5640
  2      0.0000      0.2129      0.1336      0.0000      0.3012      0.3659      0.0000      0.1648      0.1443
  3      0.0000      0.1757      0.0000      0.1865      0.0000      0.0000      0.4207      0.0000      0.0000
  4      0.0000      0.1507      0.0000      0.0000      0.0000      0.0000      0.0000      0.2296      0.0000
  5      0.1166      0.3563      0.3203      1.2505      0.0000      0.2831      0.0457      0.0000      0.2799
  6      0.0138      0.2605      0.4770      0.4161      0.0257      0.4185      0.9488      0.3832      0.5424
  7      0.0000      0.8171      1.4392      0.2888      0.5838      0.4495      0.6788      0.6827      0.0000
  8      4.0979      1.8678      1.6934      1.7200      1.8600      1.2955      1.9253      1.7518      2.8294
  9      0.4981      0.3455      0.0269      0.4580      1.4678      0.3483      0.0849      0.0000      0.6222
 10      0.1121      0.2841      0.6820      0.4636      0.0000      0.0000      0.3659      0.0000      0.0000
 11      0.0000      0.5037      0.0000      0.0000      0.8851      0.0000      0.3124      0.0000      0.0000
 12      0.0000      0.5222      0.5352      0.0000      0.0000      0.0000      0.1674      0.0331      0.0000
 13      0.0000      0.2108      0.0000      0.0000      0.5290      0.0000      0.6127      0.7557      0.4487
 14      2.4476      0.9174      0.8787      1.5279      1.0830      0.9386      1.1946      0.7506      0.8396
 15      0.0000      0.0550      0.1625      0.1253      0.0000      0.2036      0.0434      0.0000      0.0000
 16      0.0000      0.0196      0.0300      0.0000      0.0000      0.0000      0.0000      0.0000      0.0000
 17      1.2721      0.6632      0.8698      0.7275      0.4036      0.5907      0.6615      1.0310      0.6474
 18      4.7537      3.4570      3.3333      3.4970      3.6752      3.3497      3.7046      3.6229      4.0265
 19      1.1753      1.3324      1.0860      1.1176      1.8060      1.6536      1.5256      0.8595      1.9393
 20      0.0000      0.3025      0.6597      0.1969      0.0000      0.5902      0.9695      0.0000      0.1307
 21     18.7114     20.9885     20.4675     20.3594     20.8007     21.1031     20.4259     20.9300     21.2395
 22      0.0000      0.2289      0.0000      0.3089      0.0000      0.3464      0.0000      0.0000      0.0000
 23      0.0000      0.1711      0.0000      0.2297      0.0831      0.0000      0.0000      0.0000      0.0000
 24      0.4801      1.0501      1.2554      1.5790      1.1999      1.6709      0.9916      1.2351      0.8002
 25      0.0000      0.5678      0.0000      0.1755      0.6603      0.1428      1.7380      0.9036      0.0000
 26      0.0000      0.5048      0.5565      0.0000      0.2878      0.8263      0.0000      0.1898      0.5150
 27      0.0000      0.6473      0.6470      0.1237      0.0000      0.0000      0.0000      0.0000      0.0000
 28      0.0000      0.0868      0.0127      0.0000      0.0000      0.0000      0.0164      0.0000      0.0000
 29      0.0000      0.0308      0.0000      0.0000      0.0000      0.0000      0.0000      0.0000      0.0000
 30      0.0000      0.0305      0.0000      0.0000      0.0000      0.0000      0.0000      0.0000      0.0002
 31      0.0000      0.0215      0.0000      0.0000      0.0000      0.0000      0.0000      0.0816      0.3282
 32      0.0000      0.0293      0.0000      0.0000      0.0000      0.0000      0.0000      0.0000      0.0000
 33      0.0000      0.0627      0.0000      0.0000      0.1455      0.0771      0.0000      0.0000      0.0434
 34      0.0000      0.0033      0.0000      0.0000      0.0000      0.0000      0.0019      0.0000      0.0000
 35      0.6112      0.2075      0.4966      0.3227      0.3644      0.4422      0.0000      0.0000      0.0000
 36      0.0026      0.0792      0.0000      0.3774      0.0000      0.0000      0.0000      0.0000      0.0000
 37      0.0000      0.1784      0.6532      0.0000      0.7277      0.1123      0.1048      0.6453      0.0000
 38     16.9786     16.2885     17.1626     16.7239     16.6992     16.9092     15.9436     17.0240     16.0288
 39      0.0000      0.2926      0.3044      0.0000      0.0000      0.0000      0.0433      0.7889      0.0700
 40      0.0000      0.2058      0.0919      0.0973      0.0000      0.0086      0.0000      0.0000      0.0000
 41      0.0000      0.2962      0.7525      0.0000      0.0833      0.1900      0.0000      0.8027      0.3696
 42      0.0000      0.6805      0.0000      0.0000      0.5867      0.5779      0.5227      1.8952      0.0000
 43      7.5355      2.5390      2.2100      1.9602      3.3094      2.1682      3.3731      2.5557      6.6223
 44      1.3613      4.1691      4.0661      5.0588      3.6471      4.2150      2.9963      4.0050      1.7946
 45      0.0000      0.0954      0.0000      0.0000      0.0000      0.0000      0.5192      0.0424      0.0000
 46      0.0013      0.7516      0.5927      0.3704      0.6928      0.6420      0.8081      0.7248      1.0069
 47      0.0000      0.0638      0.0000      0.0000      0.0000      0.0000      0.0000      0.0000      0.1213
 48      0.0000      0.0205      0.0199      0.0093      0.0000      0.1324      0.1069      0.0169      0.0000
 49      0.0000      0.0087      0.0000      0.0000      0.0000      0.0618      0.0000      0.0000      0.0000
 50      0.0000      0.0050      0.0000      0.0000      0.0000      0.0000      0.0000      0.0000      0.0000
 51      1.9031      1.2297      1.3565      1.4473      1.3157      1.6153      1.9539      1.8812      1.6054
 52      0.0000      0.1065      0.0000      0.0304      0.1764      0.0000      0.0000      0.0000      0.4702
 53      0.0000      0.0731      0.0000      0.0000      0.2386      0.0000      0.0000      0.0368      0.0000
 54      0.0000      0.0453      0.0000      0.0000      0.0000      0.0000      0.0000      0.0000      0.0000
 55      0.0000      0.0304      0.0000      0.0000      0.0000      0.0000      0.0000      0.0000      0.0000
 56      0.0000      0.1021      0.0000      0.0000      0.0000      0.0000      0.0000      0.0000      0.0000
 57      0.0000      0.0717      0.0000      0.0000      0.0000      0.0000      0.0000      0.0000      0.0000
 58      0.0104      0.4518      0.2013      0.5265      0.0000      0.1426      0.0329      0.0000      1.0444
 59      8.4106      8.5721     10.0967     11.4682      8.3105      9.3572      9.6495      9.2514      8.3173
 60     25.7749     23.0857     23.3654     23.1437     24.2365     25.1101     23.7575     23.3669     23.6967
 61      2.9821      2.5370      2.6076      2.6255      2.9690      2.4888      2.5690      2.6393      2.3295
 62      0.0000      0.0206      0.0000      0.0000      0.1277      0.0000      0.0000      0.0639      0.0000
 63      0.8357      1.2257      1.3515      1.3923      1.2005      1.1953      1.1983      0.9209      1.2328
 64      0.0000      0.0219      0.0000      0.0000      0.0000      0.0000      0.0000      0.0000      0.1612
 65      0.0000      0.0067      0.0000      0.0000      0.0000      0.0000      0.0000      0.0000      0.0000
 66      0.0000      0.0028      0.0000      0.0000      0.0000      0.0000      0.0000      0.0000      0.0000

# j      m_j: min, <> & last-chain-values for 1 ...  7 chains
  1  1.1353E-01  1.0419E-01  8.7485E-02  1.1257E-01  1.0287E-01  1.2863E-01  1.0111E-01  1.1360E-01  1.0920E-01
  2  0.0000E+00  4.1633E-03  2.5599E-03  0.0000E+00  6.2312E-03  7.1471E-03  0.0000E+00  3.1900E-03  2.7505E-03
  3  0.0000E+00  5.1459E-03  0.0000E+00  5.3453E-03  0.0000E+00  0.0000E+00  1.2453E-02  0.0000E+00  0.0000E+00
  4  0.0000E+00  4.1556E-03  0.0000E+00  0.0000E+00  0.0000E+00  0.0000E+00  0.0000E+00  6.2694E-03  0.0000E+00
  5  5.2977E-03  1.8718E-02  1.6487E-02  6.4287E-02  0.0000E+00  1.4854E-02  2.4264E-03  0.0000E+00  1.4334E-02
  6  1.0155E-03  2.2202E-02  3.9821E-02  3.4698E-02  2.3172E-03  3.5616E-02  8.1710E-02  3.2324E-02  4.5048E-02
  7  0.0000E+00  9.9686E-02  1.7202E-01  3.4476E-02  7.5343E-02  5.4760E-02  8.3695E-02  8.2458E-02  0.0000E+00
  8  5.9758E-01  3.1496E-01  2.7976E-01  2.8381E-01  3.3179E-01  2.1816E-01  3.2812E-01  2.9243E-01  4.6501E-01
  9  8.3140E-02  6.6674E-02  5.0825E-03  8.6505E-02  2.9967E-01  6.7122E-02  1.6567E-02  0.0000E+00  1.1703E-01
 10  2.4571E-02  7.2016E-02  1.6939E-01  1.1501E-01  0.0000E+00  0.0000E+00  9.3751E-02  0.0000E+00  0.0000E+00
 11  0.0000E+00  2.4013E-01  0.0000E+00  0.0000E+00  4.4633E-01  0.0000E+00  1.5049E-01  0.0000E+00  0.0000E+00
 12  0.0000E+00  3.9491E-01  3.9651E-01  0.0000E+00  0.0000E+00  0.0000E+00  1.2793E-01  2.4746E-02  0.0000E+00
 13  0.0000E+00  4.4921E-01  0.0000E+00  0.0000E+00  1.1927E+00  0.0000E+00  1.3199E+00  1.5946E+00  9.3219E-01
 14  1.5132E+01  6.5581E+00  6.1539E+00  1.0688E+01  8.1898E+00  6.7004E+00  8.6311E+00  5.3122E+00  5.8499E+00
 15  0.0000E+00  6.4010E-01  1.8533E+00  1.4269E+00  0.0000E+00  2.3659E+00  5.1093E-01  0.0000E+00  0.0000E+00
 16  0.0000E+00  3.8491E-01  5.7877E-01  0.0000E+00  0.0000E+00  0.0000E+00  0.0000E+00  0.0000E+00  0.0000E+00
 17  2.8082E+01  1.6930E+01  2.1753E+01  1.8172E+01  1.0898E+01  1.5059E+01  1.7065E+01  2.6053E+01  1.6106E+01
 18  2.6026E-01  2.1885E-01  2.0674E-01  2.1663E-01  2.4612E-01  2.1177E-01  2.3703E-01  2.2706E-01  2.4844E-01
 19  2.5825E-02  3.3856E-02  2.7033E-02  2.7787E-02  4.8542E-02  4.1959E-02  3.9176E-02  2.1619E-02  4.8026E-02
 20  0.0000E+00  8.3905E-03  1.7928E-02  5.3458E-03  0.0000E+00  1.6349E-02  2.7180E-02  0.0000E+00  3.5327E-03
 21  5.4487E-01  7.0674E-01  6.7519E-01  6.7083E-01  7.4090E-01  7.0962E-01  6.9512E-01  6.9770E-01  6.9703E-01
 22  0.0000E+00  1.3035E-02  0.0000E+00  1.7212E-02  0.0000E+00  1.9697E-02  0.0000E+00  0.0000E+00  0.0000E+00
 23  0.0000E+00  1.3153E-02  0.0000E+00  1.7279E-02  6.7580E-03  0.0000E+00  0.0000E+00  0.0000E+00  0.0000E+00
 24  4.7500E-02  1.2012E-01  1.4070E-01  1.7675E-01  1.4520E-01  1.9088E-01  1.1464E-01  1.3988E-01  8.9216E-02
 25  0.0000E+00  8.9570E-02  0.0000E+00  2.7091E-02  1.1018E-01  2.2499E-02  2.7707E-01  1.4110E-01  0.0000E+00
 26  0.0000E+00  1.3309E-01  1.4373E-01  0.0000E+00  8.0258E-02  2.1757E-01  0.0000E+00  4.9544E-02  1.3233E-01
 27  0.0000E+00  3.4159E-01  3.3448E-01  6.3891E-02  0.0000E+00  0.0000E+00  0.0000E+00  0.0000E+00  0.0000E+00
 28  0.0000E+00  1.3294E-01  1.9024E-02  0.0000E+00  0.0000E+00  0.0000E+00  2.5461E-02  0.0000E+00  0.0000E+00
 29  0.0000E+00  8.2206E-02  0.0000E+00  0.0000E+00  0.0000E+00  0.0000E+00  0.0000E+00  0.0000E+00  0.0000E+00
 30  0.0000E+00  1.7021E-01  0.0000E+00  0.0000E+00  0.0000E+00  0.0000E+00  0.0000E+00  0.0000E+00  1.3320E-03
 31  0.0000E+00  2.1065E-01  0.0000E+00  0.0000E+00  0.0000E+00  0.0000E+00  0.0000E+00  7.9190E-01  3.1374E+00
 32  0.0000E+00  3.8676E-01  0.0000E+00  0.0000E+00  0.0000E+00  0.0000E+00  0.0000E+00  0.0000E+00  0.0000E+00
 33  0.0000E+00  1.8318E+00  0.0000E+00  0.0000E+00  4.4954E+00  2.2486E+00  0.0000E+00  0.0000E+00  1.2350E+00
 34  0.0000E+00  1.2935E-01  0.0000E+00  0.0000E+00  0.0000E+00  0.0000E+00  7.5793E-02  0.0000E+00  0.0000E+00
 35  2.6830E-02  1.0532E-02  2.4696E-02  1.6029E-02  1.9569E-02  2.2418E-02  0.0000E+00  0.0000E+00  0.0000E+00
 36  4.5724E-05  1.6273E-03  0.0000E+00  7.5843E-03  0.0000E+00  0.0000E+00  0.0000E+00  0.0000E+00  0.0000E+00
 37  0.0000E+00  3.9636E-03  1.4215E-02  0.0000E+00  1.7101E-02  2.4921E-03  2.3526E-03  1.4192E-02  0.0000E+00
 38  8.8362E-01  9.8025E-01  1.0119E+00  9.8483E-01  1.0631E+00  1.0162E+00  9.6970E-01  1.0142E+00  9.4013E-01
 39  0.0000E+00  2.5351E-02  2.5844E-02  0.0000E+00  0.0000E+00  0.0000E+00  3.7961E-03  6.7672E-02  5.9121E-03
 40  0.0000E+00  2.8828E-02  1.2604E-02  1.3330E-02  0.0000E+00  1.2054E-03  0.0000E+00  0.0000E+00  0.0000E+00
 41  0.0000E+00  6.4503E-02  1.6056E-01  0.0000E+00  1.9194E-02  4.1332E-02  0.0000E+00  1.7308E-01  7.8459E-02
 42  0.0000E+00  2.7214E-01  0.0000E+00  0.0000E+00  2.4816E-01  2.3080E-01  2.1125E-01  7.5029E-01  0.0000E+00
 43  3.8046E+00  1.4824E+00  1.2641E+00  1.1198E+00  2.0438E+00  1.2641E+00  1.9903E+00  1.4772E+00  3.7681E+00
 44  1.1835E+00  4.1910E+00  4.0044E+00  4.9761E+00  3.8782E+00  4.2313E+00  3.0441E+00  3.9856E+00  1.7582E+00
 45  0.0000E+00  1.9037E-01  0.0000E+00  0.0000E+00  0.0000E+00  0.0000E+00  1.0466E+00  8.3729E-02  0.0000E+00
 46  4.0724E-03  2.7557E+00  2.1287E+00  1.3289E+00  2.6868E+00  2.3505E+00  2.9943E+00  2.6308E+00  3.5977E+00
 47  0.0000E+00  4.7418E-01  0.0000E+00  0.0000E+00  0.0000E+00  0.0000E+00  0.0000E+00  0.0000E+00  8.7847E-01
 48  0.0000E+00  2.6797E-01  2.5569E-01  1.1880E-01  0.0000E+00  1.7326E+00  1.4155E+00  2.1975E-01  0.0000E+00
 49  0.0000E+00  2.6039E-01  0.0000E+00  0.0000E+00  0.0000E+00  1.8380E+00  0.0000E+00  0.0000E+00  0.0000E+00
 50  0.0000E+00  2.7515E-01  0.0000E+00  0.0000E+00  0.0000E+00  0.0000E+00  0.0000E+00  0.0000E+00  0.0000E+00
 51  4.9754E-02  3.7176E-02  4.0175E-02  4.2814E-02  4.2075E-02  4.8764E-02  5.9696E-02  5.6302E-02  4.7300E-02
 52  0.0000E+00  1.6499E-03  0.0000E+00  4.6073E-04  2.8900E-03  0.0000E+00  0.0000E+00  0.0000E+00  7.0994E-03
 53  0.0000E+00  1.7061E-03  0.0000E+00  0.0000E+00  5.8890E-03  0.0000E+00  0.0000E+00  8.4910E-04  0.0000E+00
 54  0.0000E+00  2.1679E-03  0.0000E+00  0.0000E+00  0.0000E+00  0.0000E+00  0.0000E+00  0.0000E+00  0.0000E+00
 55  0.0000E+00  2.2357E-03  0.0000E+00  0.0000E+00  0.0000E+00  0.0000E+00  0.0000E+00  0.0000E+00  0.0000E+00
 56  0.0000E+00  1.4885E-02  0.0000E+00  0.0000E+00  0.0000E+00  0.0000E+00  0.0000E+00  0.0000E+00  0.0000E+00
 57  0.0000E+00  1.3861E-02  0.0000E+00  0.0000E+00  0.0000E+00  0.0000E+00  0.0000E+00  0.0000E+00  0.0000E+00
 58  2.9409E-03  1.4780E-01  6.4516E-02  1.6854E-01  0.0000E+00  4.6591E-02  1.0879E-02  0.0000E+00  3.3299E-01
 59  5.1208E+00  6.0351E+00  6.9640E+00  7.9005E+00  6.1892E+00  6.5788E+00  6.8659E+00  6.4481E+00  5.7070E+00
 60  2.9148E+01  3.0189E+01  2.9934E+01  2.9614E+01  3.3526E+01  3.2791E+01  3.1398E+01  3.0250E+01  3.0201E+01
 61  7.3685E+00  7.2488E+00  7.2991E+00  7.3403E+00  8.9736E+00  7.1013E+00  7.4184E+00  7.4654E+00  6.4871E+00
 62  0.0000E+00  1.0738E-01  0.0000E+00  0.0000E+00  7.0386E-01  0.0000E+00  0.0000E+00  3.2956E-01  0.0000E+00
 63  7.4904E+00  1.2704E+01  1.3723E+01  1.4121E+01  1.3163E+01  1.2372E+01  1.2552E+01  9.4489E+00  1.2454E+01
 64  0.0000E+00  6.2793E-01  0.0000E+00  0.0000E+00  0.0000E+00  0.0000E+00  0.0000E+00  0.0000E+00  4.5029E+00
 65  0.0000E+00  4.0682E-01  0.0000E+00  0.0000E+00  0.0000E+00  0.0000E+00  0.0000E+00  0.0000E+00  0.0000E+00
 66  0.0000E+00  2.4338E-01  0.0000E+00  0.0000E+00  0.0000E+00  0.0000E+00  0.0000E+00  0.0000E+00  0.0000E+00

# AV, chi2 & Mass for <> & i_chain = 1 ...  7 solutions
AV       0.2036      0.2266      0.2266      0.2196      0.2241      0.2285      0.2256      0.2288      0.2274
chi2 5.5448E-01  5.6452E-01  5.6278E-01  5.6107E-01  5.6211E-01  5.6214E-01  5.6213E-01  5.6214E-01  5.6205E-01
Mass 6.7725E-13  6.0407E-13  6.1666E-13  6.1160E-13  5.6914E-13  6.0650E-13  5.9695E-13  6.1201E-13  6.2048E-13
 -46.68                                  [v0_min (km/s) before EX0s...]
 153.44                                  [vd_min (km/s) before EX0s...]


## Synthetic spectrum (Best Model) ##l_obs f_obs f_syn wei
 3478    [Nl_obs]
 3741.00    0.71917   0.76854    0.000
 3742.00    0.70358   0.76385    0.000
 3743.00    0.67550   0.74815    0.000
 3744.00    0.64766   0.72381    0.000
 3745.00    0.62603   0.69258   21.300
 3746.00    0.60716   0.65644   22.220
 3747.00    0.58523   0.62044   23.423
 3748.00    0.56546   0.59260   24.022
 3749.00    0.55789   0.58066   23.181
 3750.00    0.56323   0.58927   22.045
 3751.00    0.57686   0.61747   21.890
 3752.00    0.59818   0.65806   22.212
 3753.00    0.62765   0.70062   21.970
 3754.00    0.66089   0.73625   21.465
 3755.00    0.69129   0.76048   21.412
 3756.00    0.71425   0.77352   21.632
 3757.00    0.72785   0.77874   21.738
 3758.00    0.73272   0.78080   22.018
 3759.00    0.73063   0.78351   22.832
 3760.00    0.72299   0.78738   23.830
 3761.00    0.71219   0.78996   24.396
 3762.00    0.70285   0.78819   24.424
 3763.00    0.69972   0.77951   24.026
 3764.00    0.70534   0.76234   23.154
 3765.00    0.71554   0.73674   22.167
 3766.00    0.71772   0.70412   21.944
 3767.00    0.70351   0.66746   22.780
 3768.00    0.67726   0.63332   23.828
 3769.00    0.64948   0.61010   24.323
 3770.00    0.63128   0.60369   24.754
 3771.00    0.62985   0.61602   25.466
 3772.00    0.64629   0.64471   25.736
 3773.00    0.67776   0.68291   25.191
 3774.00    0.71859   0.72296   24.537
 3775.00    0.75933   0.76059   24.251
 3776.00    0.78896   0.79470   24.173
 3777.00    0.80779   0.82524   24.049
 3778.00    0.82856   0.85184   23.781
 3779.00    0.85620   0.87371   23.531
 3780.00    0.88260   0.89040   23.583
 3781.00    0.90008   0.90151   23.781
 3782.00    0.90627   0.90625   23.601
 3783.00    0.90198   0.90424   23.205
 3784.00    0.88989   0.89618   23.325
 3785.00    0.87317   0.88332   23.913
 3786.00    0.85483   0.86729   24.181
 3787.00    0.83720   0.85034   24.113
 3788.00    0.82132   0.83411   24.452
 3789.00    0.80579   0.81768   25.236
 3790.00    0.78743   0.79846   25.814
 3791.00    0.76346   0.77392   26.066
 3792.00    0.73241   0.74233   26.445
 3793.00    0.69465   0.70347   27.062
 3794.00    0.65388   0.65953   27.661
 3795.00    0.61925   0.61628   28.077
 3796.00    0.60056   0.58255   28.317
 3797.00    0.59896   0.56674   28.471
 3798.00    0.60934   0.57349   28.668
 3799.00    0.62704   0.60232   29.035
 3800.00    0.64944   0.64683   29.546
 3801.00    0.67639   0.69663   29.803
 3802.00    0.70853   0.74237   29.471
 3803.00    0.74494   0.77924   28.935
 3804.00    0.78416   0.80689   28.554
 3805.00    0.82555   0.82815   27.859
 3806.00    0.86532   0.84691   26.599
 3807.00    0.89276   0.86601   25.627
 3808.00    0.90119   0.88555   25.530
 3809.00    0.89887   0.90222   25.766
 3810.00    0.89730   0.91167   25.660
 3811.00    0.89931   0.91235   25.398
 3812.00    0.90207   0.90619   25.482
 3813.00    0.90129   0.89704   26.181
 3814.00    0.89639   0.88882   27.202
 3815.00    0.89309   0.88279   27.422
 3816.00    0.89240   0.87666   26.553
 3817.00    0.88496   0.86843   26.054
 3818.00    0.86784   0.85919   26.586
 3819.00    0.85299   0.85149   27.039
 3820.00    0.84768   0.84745   26.676
 3821.00    0.84482   0.84712   26.382
 3822.00    0.83745   0.84694   26.677
 3823.00    0.82600   0.84196   26.953
 3824.00    0.81185   0.83012   26.857
 3825.00    0.79426   0.81329   26.852
 3826.00    0.77185   0.79437   27.122
 3827.00    0.74420   0.77392   27.265
 3828.00    0.71519   0.75005   27.216
 3829.00    0.69200   0.72045   27.418
 3830.00    0.67616   0.68405   27.869
 3831.00    0.66222   0.64186   28.027
 3832.00    0.64522   0.59784   27.928
 3833.00    0.62435   0.55943   28.246
 3834.00    0.60575   0.53489   29.132
 3835.00    0.59887   0.52917   30.066
 3836.00    0.60378   0.54309   30.613
 3837.00    0.61291   0.57343   30.770
 3838.00    0.62514   0.61377   30.947
 3839.00    0.64529   0.65807   31.541
 3840.00    0.67423   0.70244   32.000
 3841.00    0.70833   0.74402   31.376
 3842.00    0.74379   0.78082   30.255
 3843.00    0.77866   0.81174   29.828
 3844.00    0.81492   0.83659   29.979
 3845.00    0.85394   0.85609   29.894
 3846.00    0.88814   0.87106   29.460
 3847.00    0.90705   0.88253    0.000
 3848.00    0.90949   0.89209    0.000
 3849.00    0.90199   0.90078    0.000
 3850.00    0.89323   0.90891    0.000
 3851.00    0.88917   0.91659    0.000
 3852.00    0.88803   0.92268    0.000
 3853.00    0.88681   0.92531    0.000
 3854.00    0.88969   0.92472    0.000
 3855.00    0.90056   0.92268    0.000
 3856.00    0.91426   0.92044    0.000
 3857.00    0.92534   0.91948    0.000
 3858.00    0.93726   0.92103    0.000
 3859.00    0.95326   0.92447    0.000
 3860.00    0.96779   0.92928    0.000
 3861.00    0.97601   0.93525    0.000
 3862.00    0.98171   0.94056    0.000
 3863.00    0.98953   0.94317    0.000
 3864.00    0.99879   0.94310    0.000
 3865.00    1.00803   0.94190    0.000
 3866.00    1.01781   0.94055    0.000
 3867.00    1.02530   0.93844    0.000
 3868.00    1.02218   0.93399    0.000
 3869.00    1.00369   0.92599    0.000
 3870.00    0.97326   0.91509    0.000
 3871.00    0.93701   0.90373    0.000
 3872.00    0.90123   0.89482    0.000
 3873.00    0.87573   0.88944    0.000
 3874.00    0.87194   0.88577    0.000
 3875.00    0.88656   0.87979    0.000
 3876.00    0.89937   0.86937    0.000
 3877.00    0.89519   0.85559    0.000
 3878.00    0.87222   0.84012    0.000
 3879.00    0.83788   0.82389    0.000
 3880.00    0.80404   0.80684    0.000
 3881.00    0.77731   0.78649   33.782
 3882.00    0.75756   0.75960   34.395
 3883.00    0.74391   0.72547   34.470
 3884.00    0.73599   0.68523   34.295
 3885.00    0.73179   0.64058   34.126
 3886.00    0.72860   0.59639   -1.000
 3887.00    0.72679   0.56184   -1.000
 3888.00    0.72808   0.54547   -1.000
 3889.00    0.72912   0.55098   -1.000
 3890.00    0.72390   0.57697   -1.000
 3891.00    0.71208   0.61703   33.184
 3892.00    0.70005   0.66150   33.856
 3893.00    0.69919   0.70300   35.022
 3894.00    0.71822   0.73854   34.704
 3895.00    0.75088   0.76781   33.121
 3896.00    0.78283   0.79180   31.755
 3897.00    0.80641   0.81220   30.966
 3898.00    0.82074   0.83042   30.523
 3899.00    0.82819   0.84678   30.379
 3900.00    0.83259   0.86155   30.492
 3901.00    0.83742   0.87472   30.520
 3902.00    0.84561   0.88494   30.262
 3903.00    0.85948   0.89148   30.189
 3904.00    0.87940   0.89678   30.641
 3905.00    0.90261   0.90409   30.954
 3906.00    0.92454   0.91453   30.526
 3907.00    0.94072   0.92784   30.021
 3908.00    0.94956   0.94233   30.089
 3909.00    0.95435   0.95448   30.331
 3910.00    0.95992   0.96161   30.190
 3911.00    0.96891   0.96363   29.780
 3912.00    0.97794   0.96210   29.547
 3913.00    0.97656   0.95844   29.888
 3914.00    0.96089   0.95374   30.758
 3915.00    0.94138   0.94857   31.409
 3916.00    0.92911   0.94269   31.312
 3917.00    0.92649   0.93593   30.885
 3918.00    0.92851   0.92962   30.719
 3919.00    0.92585   0.92543   31.073
 3920.00    0.91574   0.92413   31.817
 3921.00    0.90564   0.92541   32.419
 3922.00    0.90168   0.92709   32.473
 3923.00    0.90289   0.92601   32.053
 3924.00    0.90193   0.92000   31.525
 3925.00    0.88851   0.90862   31.293
 3926.00    0.86098   0.89226   31.438
 3927.00    0.82732   0.87178   31.731
 3928.00    0.79096   0.84773   32.157
 3929.00    0.74890   0.81962   32.960
 3930.00    0.70368   0.78816   34.038
 3931.00    0.66540   0.75761   -1.000
 3932.00    0.64499   0.73468   -1.000
 3933.00    0.64958   0.72551   35.308
 3934.00    0.67590   0.73342   35.077
 3935.00    0.71328   0.75752   34.264
 3936.00    0.75586   0.79178   33.247
 3937.00    0.80180   0.82750   32.668
 3938.00    0.84453   0.85801   32.520
 3939.00    0.87499   0.88044   32.398
 3940.00    0.89094   0.89463   32.224
 3941.00    0.89650   0.90184   32.184
 3942.00    0.89743   0.90491   32.344
 3943.00    0.89820   0.90729   32.608
 3944.00    0.89874   0.91047   32.782
 3945.00    0.89760   0.91429   32.689
 3946.00    0.89782   0.91812   32.373
 3947.00    0.90350   0.92049   32.087
 3948.00    0.91371   0.92018   32.218
 3949.00    0.92394   0.91808   32.868
 3950.00    0.92945   0.91586   33.295
 3951.00    0.92778   0.91355   32.788
 3952.00    0.92106   0.90985   31.957
 3953.00    0.91386   0.90404   31.603
 3954.00    0.91009   0.89671   31.608
 3955.00    0.90849   0.88817   31.570
 3956.00    0.89955   0.87792   31.452
 3957.00    0.87683   0.86543   31.465
 3958.00    0.84675   0.84996   31.857
 3959.00    0.81859   0.83003   32.519
 3960.00    0.79529   0.80408    0.000
 3961.00    0.77420   0.77188    0.000
 3962.00    0.74917   0.73475    0.000
 3963.00    0.71699   0.69407    0.000
 3964.00    0.68132   0.64949    0.000
 3965.00    0.64788   0.60071    0.000
 3966.00    0.62143   0.55069    0.000
 3967.00    0.60677   0.50573    0.000
 3968.00    0.60826   0.47369    0.000
 3969.00    0.62359   0.46157    0.000
 3970.00    0.64254   0.47256    0.000
 3971.00    0.65749   0.50468    0.000
 3972.00    0.66823   0.55133    0.000
 3973.00    0.67987   0.60377    0.000
 3974.00    0.69991   0.65522    0.000
 3975.00    0.73094   0.70248    0.000
 3976.00    0.76865   0.74428    0.000
 3977.00    0.80547   0.77997    0.000
 3978.00    0.83372   0.80932    0.000
 3979.00    0.85129   0.83238    0.000
 3980.00    0.86189   0.84970    0.000
 3981.00    0.86999   0.86277   34.254
 3982.00    0.87914   0.87365   34.347
 3983.00    0.89178   0.88444   33.857
 3984.00    0.90853   0.89645   33.356
 3985.00    0.92641   0.90916   33.158
 3986.00    0.94108   0.92095   33.217
 3987.00    0.95279   0.93085   33.262
 3988.00    0.96469   0.93918   33.051
 3989.00    0.97671   0.94643   32.841
 3990.00    0.98621   0.95251   33.020
 3991.00    0.99188   0.95722   33.290
 3992.00    0.99384   0.96010   33.109
 3993.00    0.99229   0.96028   32.744
 3994.00    0.98813   0.95772   32.702
 3995.00    0.98401   0.95414   32.628
 3996.00    0.98302   0.95241   32.025
 3997.00    0.98638   0.95435   31.432
 3998.00    0.99222   0.95970   31.528
 3999.00    0.99474   0.96678   32.040
 4000.00    0.98996   0.97286   32.434
 4001.00    0.98236   0.97470   32.899
 4002.00    0.97882   0.97121   33.618
 4003.00    0.98119   0.96453   33.780
 4004.00    0.98703   0.95779   32.936
 4005.00    0.99186   0.95326   32.302
 4006.00    0.99420   0.95268   32.665
 4007.00    0.99913   0.95676   32.948
 4008.00    1.00871   0.96360   32.229
 4009.00    1.01497   0.97035   31.473
 4010.00    1.01112   0.97601   31.585
 4011.00    1.00000   0.98097   32.281
 4012.00    0.98897   0.98525   32.946
 4013.00    0.98523   0.98860   33.225
 4014.00    0.99187   0.99136   32.918
 4015.00    1.00594   0.99399   31.965
 4016.00    1.02088   0.99672   30.870
 4017.00    1.02965   0.99926   30.514
 4018.00    1.03259   1.00074   30.960
 4019.00    1.03816   1.00013   31.232
 4020.00    1.04604   0.99575   30.952
 4021.00    1.04388   0.98621   30.905
 4022.00    1.02938   0.97265   31.419
 4023.00    1.01512   0.95876   31.917
 4024.00    1.00763   0.94843   31.995
 4025.00    1.00202   0.94383   31.854
 4026.00    0.99438   0.94475   31.842
 4027.00    0.98552   0.94862   32.198
 4028.00    0.97756   0.95158   32.860
 4029.00    0.97201   0.95092   33.487
 4030.00    0.96795   0.94735   33.854
 4031.00    0.96411   0.94444   33.959
 4032.00    0.96597   0.94592   33.847
 4033.00    0.98146   0.95327   33.598
 4034.00    1.00582   0.96521   33.422
 4035.00    1.02561   0.97915   33.512
 4036.00    1.03652   0.99198   33.679
 4037.00    1.04205   1.00107   33.546
 4038.00    1.04206   1.00504   33.141
 4039.00    1.03394   1.00390   32.837
 4040.00    1.01923   0.99842   33.002
 4041.00    1.00266   0.98939   33.781
 4042.00    0.98825   0.97800   34.734
 4043.00    0.97811   0.96638   35.149
 4044.00    0.97197   0.95704   34.916
 4045.00    0.96895   0.95263   34.438
 4046.00    0.97007   0.95510   34.105
 4047.00    0.97604   0.96373   34.095
 4048.00    0.98400   0.97435   34.261
 4049.00    0.99057   0.98170   34.381
 4050.00    0.99585   0.98354   34.455
 4051.00    1.00173   0.98079   34.499
 4052.00    1.00938   0.97513   34.309
 4053.00    1.01710   0.96835   33.914
 4054.00    1.01897   0.96244   33.921
 4055.00    1.01150   0.95881   34.593
 4056.00    0.99896   0.95788   35.099
 4057.00    0.98681   0.95884   34.844
 4058.00    0.97608   0.95983   34.656
 4059.00    0.96606   0.95908   35.209
 4060.00    0.95665   0.95568   35.959
 4061.00    0.94817   0.94977   36.223
 4062.00    0.94148   0.94282   36.043
 4063.00    0.94104   0.93718   35.583
 4064.00    0.95438   0.93492   34.776
 4065.00    0.97834   0.93636   34.003
 4066.00    0.99532   0.93915   34.104
 4067.00    0.99637   0.94014   34.995
 4068.00    0.98966   0.93852   35.246
 4069.00    0.98097   0.93554   34.321
 4070.00    0.96669   0.93191   33.401
 4071.00    0.94625   0.92769   33.244
 4072.00    0.92596   0.92295   33.668
 4073.00    0.91205   0.91733   34.089
 4074.00    0.90708   0.91003   33.902
 4075.00    0.90812   0.90124   33.392
 4076.00    0.90920   0.89384   33.465
 4077.00    0.91144   0.89191   33.997
 4078.00    0.92146   0.89700   33.864
 4079.00    0.93662   0.90676   32.852
 4080.00    0.94555   0.91627   31.835
 4081.00    0.94181   0.92106   31.546
 4082.00    0.92715   0.91974   32.221
 4083.00    0.90964   0.91407   33.181
 4084.00    0.89932   0.90720   33.178
 4085.00    0.89950   0.90160   32.233
 4086.00    0.90684   0.89791   31.414
 4087.00    0.91565   0.89497   31.387
 4088.00    0.91958   0.89082   32.240
 4089.00    0.91308   0.88391   33.336
 4090.00    0.89423   0.87359   33.803
 4091.00    0.86865   0.85952   33.972
 4092.00    0.84392   0.84114    0.000
 4093.00    0.82010   0.81795    0.000
 4094.00    0.79527   0.78989    0.000
 4095.00    0.77506   0.75697    0.000
 4096.00    0.76819   0.71923    0.000
 4097.00    0.77863   0.67774    0.000
 4098.00    0.80362   0.63527    0.000
 4099.00    0.83301   0.59650    0.000
 4100.00    0.85507   0.56765    0.000
 4101.00    0.86300   0.55512    0.000
 4102.00    0.85500   0.56292    0.000
 4103.00    0.83377   0.58997    0.000
 4104.00    0.80695   0.62955    0.000
 4105.00    0.78649   0.67228    0.000
 4106.00    0.77972   0.71109    0.000
 4107.00    0.78306   0.74307    0.000
 4108.00    0.79186   0.76840    0.000
 4109.00    0.80716   0.78911    0.000
 4110.00    0.82785   0.80753    0.000
 4111.00    0.84651   0.82518    0.000
 4112.00    0.85922   0.84241    0.000
 4113.00    0.87035   0.85829   44.457
 4114.00    0.88231   0.87107   46.007
 4115.00    0.89110   0.87941   34.901
 4116.00    0.89547   0.88311   34.469
 4117.00    0.90010   0.88328   37.323
 4118.00    0.90700   0.88191   37.274
 4119.00    0.91290   0.88129   36.377
 4120.00    0.91607   0.88353   36.702
 4121.00    0.91859   0.88932   37.016
 4122.00    0.92288   0.89723   36.413
 4123.00    0.92961   0.90487   35.543
 4124.00    0.93523   0.91003   35.185
 4125.00    0.93378   0.91143   35.672
 4126.00    0.92518   0.90885   36.558
 4127.00    0.91532   0.90328   36.828
 4128.00    0.90784   0.89672   36.451
 4129.00    0.90263   0.89132   36.353
 4130.00    0.89853   0.88862   36.851
 4131.00    0.89527   0.88938   37.530
 4132.00    0.89622   0.89407   37.835
 4133.00    0.90615   0.90271   37.458
 4134.00    0.92472   0.91440   36.774
 4135.00    0.94650   0.92698   36.366
 4136.00    0.96416   0.93795   36.117
 4137.00    0.97200   0.94526   35.623
 4138.00    0.97115   0.94715   35.158
 4139.00    0.96687   0.94267   35.212
 4140.00    0.96257   0.93220   35.592
 4141.00    0.95894   0.91805   35.750
 4142.00    0.95459   0.90460   35.547
 4143.00    0.94911   0.89665   35.195
 4144.00    0.94687   0.89691   34.938
 4145.00    0.95061   0.90441   34.936
 4146.00    0.95323   0.91474   35.194
 4147.00    0.94716   0.92279   35.539
 4148.00    0.93601   0.92632   35.613
 4149.00    0.92699   0.92606   35.266
 4150.00    0.92159   0.92364   34.920
 4151.00    0.91843   0.92049   34.964
 4152.00    0.91704   0.91736   35.238
 4153.00    0.91769   0.91465   35.431
 4154.00    0.92086   0.91319   35.480
 4155.00    0.92630   0.91397   35.484
 4156.00    0.93266   0.91732   35.560
 4157.00    0.93936   0.92255   35.572
 4158.00    0.94754   0.92843   35.058
 4159.00    0.95602   0.93387   34.115
 4160.00    0.95964   0.93809   33.651
 4161.00    0.95644   0.94099   34.053
 4162.00    0.95127   0.94278   34.682
 4163.00    0.94974   0.94356   34.811
 4164.00    0.95397   0.94311   34.332
 4165.00    0.95903   0.94123   33.827
 4166.00    0.95465   0.93808   34.199
 4167.00    0.94120   0.93357   35.453
 4168.00    0.93202   0.92728   36.359
 4169.00    0.93042   0.91896   36.222
 4170.00    0.92509   0.90900   35.758
 4171.00    0.91193   0.89878   35.779
 4172.00    0.89923   0.89056   36.580
 4173.00    0.89477   0.88624   37.582
 4174.00    0.89999   0.88609   37.567
 4175.00    0.90695   0.88862   36.640
 4176.00    0.90337   0.89186   36.132
 4177.00    0.88982   0.89494   36.494
 4178.00    0.87899   0.89824   37.220
 4179.00    0.87968   0.90232   37.678
 4180.00    0.89219   0.90693   37.510
 4181.00    0.90803   0.91107   37.056
 4182.00    0.91580   0.91365   36.946
 4183.00    0.91388   0.91449   37.155
 4184.00    0.90843   0.91413   37.283
 4185.00    0.90374   0.91308   37.482
 4186.00    0.90181   0.91196   38.065
 4187.00    0.90548   0.91180   38.398
 4188.00    0.91638   0.91368   37.711
 4189.00    0.93076   0.91808   36.871
 4190.00    0.94217   0.92393   37.037
 4191.00    0.94654   0.92900   37.723
 4192.00    0.94367   0.93133   37.856
 4193.00    0.93773   0.92971   37.730
 4194.00    0.93153   0.92365   38.106
 4195.00    0.91976   0.91381   38.691
 4196.00    0.89860   0.90241   38.888
 4197.00    0.87705   0.89241   38.963
 4198.00    0.86583   0.88589   39.328
 4199.00    0.86480   0.88327   39.651
 4200.00    0.86951   0.88405   39.564
 4201.00    0.87872   0.88743   39.438
 4202.00    0.89253   0.89237   39.615
 4203.00    0.90998   0.89841   39.752
 4204.00    0.92820   0.90544   39.522
 4205.00    0.94247   0.91275   39.173
 4206.00    0.95014   0.91932   38.963
 4207.00    0.95300   0.92452   38.779
 4208.00    0.95299   0.92810   38.596
 4209.00    0.94945   0.93004   38.705
 4210.00    0.94155   0.93041   39.245
 4211.00    0.93027   0.92913   39.955
 4212.00    0.91991   0.92612   40.466
 4213.00    0.91748   0.92176   40.536
 4214.00    0.92540   0.91751   40.161
 4215.00    0.93868   0.91561   39.573
 4216.00    0.94981   0.91757   39.074
 4217.00    0.95261   0.92300   38.907
 4218.00    0.94807   0.92934   39.089
 4219.00    0.94381   0.93296   39.398
 4220.00    0.94254   0.93108   39.581
 4221.00    0.93956   0.92283   39.511
 4222.00    0.93025   0.90897   39.427
 4223.00    0.91361   0.89179   39.740
 4224.00    0.89425   0.87524   40.252
 4225.00    0.88024   0.86413   40.265
 4226.00    0.87520   0.86210   39.844
 4227.00    0.87778   0.86970   39.675
 4228.00    0.88698   0.88373   39.710
 4229.00    0.90198   0.89856   39.344
 4230.00    0.91839   0.90855   38.635
 4231.00    0.92912   0.91106   38.175
 4232.00    0.92833   0.90767   38.292
 4233.00    0.91449   0.90196   38.962
 4234.00    0.89442   0.89708   39.855
 4235.00    0.87920   0.89485   40.501
 4236.00    0.87513   0.89533   40.752
 4237.00    0.88210   0.89768   40.740
 4238.00    0.89389   0.90157   40.547
 4239.00    0.90310   0.90681   40.272
 4240.00    0.90835   0.91271   40.200
 4241.00    0.91162   0.91843   40.516
 4242.00    0.91298   0.92284   40.886
 4243.00    0.91203   0.92461   40.796
 4244.00    0.91032   0.92299   40.133
 4245.00    0.90884   0.91816   39.282
 4246.00    0.90513   0.91111   38.987
 4247.00    0.89750   0.90347   39.579
 4248.00    0.88941   0.89698   40.312
 4249.00    0.88515   0.89272   40.323
 4250.00    0.88537   0.89075   39.822
 4251.00    0.88834   0.89057   39.405
 4252.00    0.89167   0.89190   39.328
 4253.00    0.89411   0.89446   39.578
 4254.00    0.89671   0.89741   39.964
 4255.00    0.90029   0.89967   40.187
 4256.00    0.90374   0.90035   39.956
 4257.00    0.90560   0.89888   39.376
 4258.00    0.90538   0.89576   39.019
 4259.00    0.90421   0.89316   39.121
 4260.00    0.90474   0.89396   39.279
 4261.00    0.90844   0.89949   39.150
 4262.00    0.91408   0.90839   38.827
 4263.00    0.91799   0.91738   -2.000
 4264.00    0.91547   0.92289   -2.000
 4265.00    0.90657   0.92268   -2.000
 4266.00    0.89725   0.91667   -2.000
 4267.00    0.89300   0.90626   -2.000
 4268.00    0.89558   0.89328   -2.000
 4269.00    0.90173   0.87979   -2.000
 4270.00    0.90455   0.86792   -2.000
 4271.00    0.90000   0.85957   -2.000
 4272.00    0.88957   0.85622   -2.000
 4273.00    0.88082   0.85857   -2.000
 4274.00    0.88280   0.86595   -2.000
 4275.00    0.89254   0.87617   -2.000
 4276.00    0.89846   0.88663   -2.000
 4277.00    0.89936   0.89516   -2.000
 4278.00    0.90258   0.90012   -2.000
 4279.00    0.90750   0.90090   37.892
 4280.00    0.90737   0.89838   38.461
 4281.00    0.90223   0.89428   39.485
 4282.00    0.89681   0.89005   39.750
 4283.00    0.89093   0.88610   39.315
 4284.00    0.88163   0.88186   39.174
 4285.00    0.87039   0.87642   39.680
 4286.00    0.86108   0.86932   40.487
 4287.00    0.85458   0.86118   40.797
 4288.00    0.84907   0.85392   40.215
 4289.00    0.84212   0.84979   39.897
 4290.00    0.83376   0.85008   40.938
 4291.00    0.82996   0.85411   42.296
 4292.00    0.83594   0.85939   42.239
 4293.00    0.84766   0.86265   41.323
 4294.00    0.85552   0.86152   40.950
 4295.00    0.85048   0.85552   41.352
 4296.00    0.83097   0.84568   42.105
 4297.00    0.80818   0.83356   42.718
 4298.00    0.79376   0.82084   42.937
 4299.00    0.78797   0.80960   42.999
 4300.00    0.78587   0.80178   43.157
 4301.00    0.78404   0.79830   43.258
 4302.00    0.78328   0.79857   43.130
 4303.00    0.78899   0.80060   42.889
 4304.00    0.80073   0.80212   42.695
 4305.00    0.80687   0.80218   42.583
 4306.00    0.80160   0.80119   42.617
 4307.00    0.79410   0.80060   42.942
 4308.00    0.79281   0.80224   43.448
 4309.00    0.79681   0.80698   43.629
 4310.00    0.80364   0.81414   43.234
 4311.00    0.81349   0.82233   42.594
 4312.00    0.82636   0.83051   42.174
 4313.00    0.84094   0.83888   42.267
 4314.00    0.85649   0.84822   42.612
 4315.00    0.87304   0.85845   42.472
 4316.00    0.88871   0.86799   41.885
 4317.00    0.89911   0.87444   41.719
 4318.00    0.89984   0.87581   42.042
 4319.00    0.88852   0.87146   42.049
 4320.00    0.86846   0.86212   41.863
 4321.00    0.84786   0.84895   42.474
 4322.00    0.83310   0.83319   43.565
 4323.00    0.82639   0.81690   43.609
 4324.00    0.82518   0.80308   42.887
 4325.00    0.82383   0.79451   43.078
 4326.00    0.81812   0.79224   43.956
 4327.00    0.80681   0.79457   43.989
 4328.00    0.79226   0.79774   43.980
 4329.00    0.77824   0.79790   45.544
 4330.00    0.76504   0.79281    0.000
 4331.00    0.75185   0.78232    0.000
 4332.00    0.74324   0.76691    0.000
 4333.00    0.74586   0.74614    0.000
 4334.00    0.76032   0.71854    0.000
 4335.00    0.78691   0.68324    0.000
 4336.00    0.83630   0.64188    0.000
 4337.00    0.91504   0.59919    0.000
 4338.00    1.00212   0.56226    0.000
 4339.00    1.06407   0.53867    0.000
 4340.00    1.08049   0.53361    0.000
 4341.00    1.04735   0.54738    0.000
 4342.00    0.97653   0.57585    0.000
 4343.00    0.89023   0.61260    0.000
 4344.00    0.81379   0.65089    0.000
 4345.00    0.76538   0.68566    0.000
 4346.00    0.74660   0.71455    0.000
 4347.00    0.74819   0.73671    0.000
 4348.00    0.75720   0.75181    0.000
 4349.00    0.76413   0.76086    0.000
 4350.00    0.76813   0.76663    0.000
 4351.00    0.77232   0.77264   48.769
 4352.00    0.77962   0.78169   46.847
 4353.00    0.79123   0.79465   46.616
 4354.00    0.80613   0.81015   47.216
 4355.00    0.82271   0.82524   46.864
 4356.00    0.83993   0.83728   45.886
 4357.00    0.85653   0.84585   45.241
 4358.00    0.87076   0.85245   45.431
 4359.00    0.88143   0.85884   46.083
 4360.00    0.88833   0.86607   45.990
 4361.00    0.89098   0.87410   45.033
 4362.00    0.88880   0.88171   44.605
 4363.00    0.88419   0.88705   45.268
 4364.00    0.88229   0.88872   46.217
 4365.00    0.88389   0.88666   46.744
 4366.00    0.88440   0.88212   46.876
 4367.00    0.88096   0.87695   46.934
 4368.00    0.87462   0.87277   47.186
 4369.00    0.86797   0.87024   47.407
 4370.00    0.86324   0.86873   47.112
 4371.00    0.85915   0.86682   46.755
 4372.00    0.85272   0.86389   47.329
 4373.00    0.84684   0.86104   48.397
 4374.00    0.84867   0.86040   48.373
 4375.00    0.86015   0.86334   47.322
 4376.00    0.87641   0.86924   46.647
 4377.00    0.88852   0.87545   46.590
 4378.00    0.88799   0.87819   46.511
 4379.00    0.87468   0.87430   46.338
 4380.00    0.85503   0.86294   46.523
 4381.00    0.83515   0.84622   47.343
 4382.00    0.81943   0.82840   48.669
 4383.00    0.81053   0.81422   49.659
 4384.00    0.80972   0.80690   49.361
 4385.00    0.81729   0.80724   48.093
 4386.00    0.83092   0.81369   46.917
 4387.00    0.84355   0.82332   46.561
 4388.00    0.84893   0.83332   47.096
 4389.00    0.84924   0.84222   47.612
 4390.00    0.84952   0.84974   47.333
 4391.00    0.85000   0.85578   47.138
 4392.00    0.84982   0.86012   47.844
 4393.00    0.85185   0.86328   48.275
 4394.00    0.85764   0.86626   47.357
 4395.00    0.86226   0.86945   46.474
 4396.00    0.86186   0.87236   46.832
 4397.00    0.86044   0.87400   47.451
 4398.00    0.86219   0.87360   47.309
 4399.00    0.86493   0.87109   47.263
 4400.00    0.86421   0.86725   48.010
 4401.00    0.85728   0.86309   48.578
 4402.00    0.84529   0.85915   48.161
 4403.00    0.83391   0.85576   47.500
 4404.00    0.82850   0.85349   47.296
 4405.00    0.83073   0.85304   47.335
 4406.00    0.83821   0.85518   47.344
 4407.00    0.84556   0.86016   47.418
 4408.00    0.85125   0.86707   47.558
 4409.00    0.85916   0.87404   47.497
 4410.00    0.86804   0.87905   47.246
 4411.00    0.86925   0.88032   47.207
 4412.00    0.86084   0.87675   47.472
 4413.00    0.85117   0.86917   47.662
 4414.00    0.84669   0.86065   47.532
 4415.00    0.84761   0.85494   47.155
 4416.00    0.85151   0.85456   46.516
 4417.00    0.85557   0.85966   45.591
 4418.00    0.85927   0.86787   45.022
 4419.00    0.86397   0.87564   45.646
 4420.00    0.86893   0.88048   46.607
 4421.00    0.87128   0.88205   45.855
 4422.00    0.86965   0.88150   44.127
 4423.00    0.86536   0.88040   43.839
 4424.00    0.86259   0.87973   44.826
 4425.00    0.86560   0.87952   45.080
 4426.00    0.87239   0.87917   44.509
 4427.00    0.87691   0.87813   44.571
 4428.00    0.87696   0.87627   45.285
 4429.00    0.87341   0.87376   45.613
 4430.00    0.86552   0.87066   45.438
 4431.00    0.85329   0.86693   45.363
 4432.00    0.84299   0.86297   45.518
 4433.00    0.84247   0.86002   45.651
 4434.00    0.85212   0.85962   45.605
 4435.00    0.86584   0.86273   45.468
 4436.00    0.87495   0.86892   45.634
 4437.00    0.87501   0.87587   46.273
 4438.00    0.87323   0.88033   46.645
 4439.00    0.87610   0.87987   46.107
 4440.00    0.87436   0.87458   45.488
 4441.00    0.85988   0.86724   45.700
 4442.00    0.84505   0.86167   46.311
 4443.00    0.84498   0.86068   46.495
 4444.00    0.85800   0.86453   46.181
 4445.00    0.87360   0.87117   45.740
 4446.00    0.88225   0.87767   45.485
 4447.00    0.88050   0.88179   45.540
 4448.00    0.87379   0.88271   45.794
 4449.00    0.86981   0.88080   46.100
 4450.00    0.87263   0.87684   46.428
 4451.00    0.87860   0.87120   46.771
 4452.00    0.87612   0.86411   47.076
 4453.00    0.86108   0.85633   47.270
 4454.00    0.84423   0.84906   47.303
 4455.00    0.83443   0.84338   47.297
 4456.00    0.82984   0.83976   47.550
 4457.00    0.82690   0.83796   48.086
 4458.00    0.82501   0.83735   48.503
 4459.00    0.82435   0.83752   48.545
 4460.00    0.82516   0.83861   48.356
 4461.00    0.82959   0.84102    0.000
 4462.00    0.84061   0.84453    0.000
 4463.00    0.85406   0.84797    0.000
 4464.00    0.85953   0.84975    0.000
 4465.00    0.85552   0.84876    0.000
 4466.00    0.85030   0.84475    0.000
 4467.00    0.84558   0.83882    0.000
 4468.00    0.83644   0.83317    0.000
 4469.00    0.82819   0.83033    0.000
 4470.00    0.83382   0.83224    0.000
 4471.00    0.85214   0.83947    0.000
 4472.00    0.86927   0.85087    0.000
 4473.00    0.87784   0.86382    0.000
 4474.00    0.87948   0.87523    0.000
 4475.00    0.87887   0.88241    0.000
 4476.00    0.87918   0.88349    0.000
 4477.00    0.87607   0.87803    0.000
 4478.00    0.86318   0.86747    0.000
 4479.00    0.84457   0.85527    0.000
 4480.00    0.83056   0.84597    0.000
 4481.00    0.82602   0.84333    0.000
 4482.00    0.83019   0.84838   48.223
 4483.00    0.83976   0.85867   48.258
 4484.00    0.85112   0.86965   48.920
 4485.00    0.86280   0.87691   49.318
 4486.00    0.87292   0.87837   48.606
 4487.00    0.87592   0.87496   47.768
 4488.00    0.86877   0.86959   47.956
 4489.00    0.85847   0.86519   48.653
 4490.00    0.85380   0.86320   48.885
 4491.00    0.85537   0.86331   48.800
 4492.00    0.85951   0.86432   48.834
 4493.00    0.86339   0.86536   48.702
 4494.00    0.86565   0.86654   48.205
 4495.00    0.86651   0.86854   47.939
 4496.00    0.86630   0.87174   48.383
 4497.00    0.86448   0.87572   49.217
 4498.00    0.86133   0.87974   49.859
 4499.00    0.85906   0.88346   50.007
 4500.00    0.86025   0.88738   49.827
 4501.00    0.86634   0.89222   49.885
 4502.00    0.87585   0.89791   50.206
 4503.00    0.88415   0.90324   49.935
 4504.00    0.88922   0.90663   48.972
 4505.00    0.89351   0.90720   48.495
 4506.00    0.89597   0.90533   48.966
 4507.00    0.89042   0.90239   49.532
 4508.00    0.87924   0.89965   49.649
 4509.00    0.87507   0.89737   49.747
 4510.00    0.87889   0.89484   50.053
 4511.00    0.87675   0.89126   50.228
 4512.00    0.86715   0.88651   50.187
 4513.00    0.86484   0.88135   50.211
 4514.00    0.87347   0.87696   50.069
 4515.00    0.88093   0.87426   49.189
 4516.00    0.87848   0.87334   48.247
 4517.00    0.86679   0.87354   48.678
 4518.00    0.85377   0.87382   50.376
 4519.00    0.84952   0.87322   51.641
 4520.00    0.85472   0.87103   51.516
 4521.00    0.86106   0.86712   50.534
 4522.00    0.86042   0.86175   49.616
 4523.00    0.84958   0.85535   49.430
 4524.00    0.83509   0.84828   49.983
 4525.00    0.82751   0.84096   50.731
 4526.00    0.82747   0.83411   50.939
 4527.00    0.82883   0.82867   50.298
 4528.00    0.83015   0.82535   49.812
 4529.00    0.83277   0.82435   50.493
 4530.00    0.83388   0.82505   51.194
 4531.00    0.83100   0.82652   50.230
 4532.00    0.83038   0.82843   48.869
 4533.00    0.83893   0.83146   49.032
 4534.00    0.85124   0.83659   50.150
 4535.00    0.85836   0.84396   50.618
 4536.00    0.86130   0.85217   50.315
 4537.00    0.86477   0.85895   50.000
 4538.00    0.86780   0.86261   49.940
 4539.00    0.86776   0.86305   50.112
 4540.00    0.86572   0.86163   50.545
 4541.00    0.86357   0.85996   51.149
 4542.00    0.86082   0.85885   51.519
 4543.00    0.85702   0.85797   51.396
 4544.00    0.85395   0.85635   51.095
 4545.00    0.85243   0.85324   51.009
 4546.00    0.84990   0.84848   51.182
 4547.00    0.84368   0.84278   51.398
 4548.00    0.83382   0.83741   51.335
 4549.00    0.82359   0.83347   51.063
 4550.00    0.81866   0.83125    0.000
 4551.00    0.81958   0.83029    0.000
 4552.00    0.81924   0.83010    0.000
 4553.00    0.81609   0.83087    0.000
 4554.00    0.81887   0.83337    0.000
 4555.00    0.82985   0.83828    0.000
 4556.00    0.83932   0.84547    0.000
 4557.00    0.84331   0.85376    0.000
 4558.00    0.84861   0.86130    0.000
 4559.00    0.85614   0.86642    0.000
 4560.00    0.85741   0.86817    0.000
 4561.00    0.85110   0.86663    0.000
 4562.00    0.84603   0.86307    0.000
 4563.00    0.84731   0.85950    0.000
 4564.00    0.85266   0.85785    0.000
 4565.00    0.85778   0.85895    0.000
 4566.00    0.85971   0.86207    0.000
 4567.00    0.86098   0.86539    0.000
 4568.00    0.86701   0.86715    0.000
 4569.00    0.87560   0.86669    0.000
 4570.00    0.87894   0.86483    0.000
 4571.00    0.87570   0.86311    0.000
 4572.00    0.87062   0.86266    0.000
 4573.00    0.86660   0.86348    0.000
 4574.00    0.86369   0.86453    0.000
 4575.00    0.86108   0.86451    0.000
 4576.00    0.85745   0.86250    0.000
 4577.00    0.85081   0.85826    0.000
 4578.00    0.84025   0.85227    0.000
 4579.00    0.82867   0.84563    0.000
 4580.00    0.82069   0.83956    0.000
 4581.00    0.81849   0.83512    0.000
 4582.00    0.82149   0.83299    0.000
 4583.00    0.82688   0.83337    0.000
 4584.00    0.83143   0.83595    0.000
 4585.00    0.83377   0.83994    0.000
 4586.00    0.83429   0.84421    0.000
 4587.00    0.83443   0.84762    0.000
 4588.00    0.83518   0.84933    0.000
 4589.00    0.83561   0.84907    0.000
 4590.00    0.83525   0.84733    0.000
 4591.00    0.83618   0.84504    0.000
 4592.00    0.83896   0.84314    0.000
 4593.00    0.83950   0.84218    0.000
 4594.00    0.83543   0.84227    0.000
 4595.00    0.83092   0.84315    0.000
 4596.00    0.82964   0.84440    0.000
 4597.00    0.82977   0.84557    0.000
 4598.00    0.82872   0.84629    0.000
 4599.00    0.82661   0.84651    0.000
 4600.00    0.82572   0.84650    0.000
 4601.00    0.82916   0.84670    0.000
 4602.00    0.83610   0.84750    0.000
 4603.00    0.84079   0.84920    0.000
 4604.00    0.84231   0.85203    0.000
 4605.00    0.84731   0.85603    0.000
 4606.00    0.85822   0.86084    0.000
 4607.00    0.86912   0.86559    0.000
 4608.00    0.87319   0.86917    0.000
 4609.00    0.86720   0.87076    0.000
 4610.00    0.85568   0.87031    0.000
 4611.00    0.84905   0.86847    0.000
 4612.00    0.85163   0.86616    0.000
 4613.00    0.85908   0.86398    0.000
 4614.00    0.86490   0.86201    0.000
 4615.00    0.86425   0.86002    0.000
 4616.00    0.85840   0.85794    0.000
 4617.00    0.85315   0.85611    0.000
 4618.00    0.85106   0.85525    0.000
 4619.00    0.85132   0.85590    0.000
 4620.00    0.85467   0.85801    0.000
 4621.00    0.86155   0.86081    0.000
 4622.00    0.86541   0.86317    0.000
 4623.00    0.85861   0.86420    0.000
 4624.00    0.84742   0.86364    0.000
 4625.00    0.84498   0.86176    0.000
 4626.00    0.85275   0.85918    0.000
 4627.00    0.86280   0.85663    0.000
 4628.00    0.86781   0.85462    0.000
 4629.00    0.86456   0.85331    0.000
 4630.00    0.85617   0.85238    0.000
 4631.00    0.84802   0.85125    0.000
 4632.00    0.84164   0.84944    0.000
 4633.00    0.83749   0.84696    0.000
 4634.00    0.83941   0.84418    0.000
 4635.00    0.84858   0.84152    0.000
 4636.00    0.85653   0.83928    0.000
 4637.00    0.85554   0.83771    0.000
 4638.00    0.84990   0.83702    0.000
 4639.00    0.84673   0.83722    0.000
 4640.00    0.84618   0.83785    0.000
 4641.00    0.84535   0.83797    0.000
 4642.00    0.84265   0.83648    0.000
 4643.00    0.83691   0.83265    0.000
 4644.00    0.82689   0.82673    0.000
 4645.00    0.81506   0.82008    0.000
 4646.00    0.80915   0.81465    0.000
 4647.00    0.81254   0.81221    0.000
 4648.00    0.81902   0.81345    0.000
 4649.00    0.82241   0.81767    0.000
 4650.00    0.82241   0.82316    0.000
 4651.00    0.82156   0.82805    0.000
 4652.00    0.82288   0.83121    0.000
 4653.00    0.82777   0.83269    0.000
 4654.00    0.83520   0.83370    0.000
 4655.00    0.84328   0.83574    0.000
 4656.00    0.85004   0.83967    0.000
 4657.00    0.85337   0.84495    0.000
 4658.00    0.85163   0.84986    0.000
 4659.00    0.84600   0.85233    0.000
 4660.00    0.84011   0.85105    0.000
 4661.00    0.83545   0.84588    0.000
 4662.00    0.83049   0.83768    0.000
 4663.00    0.82367   0.82768    0.000
 4664.00    0.81467   0.81720    0.000
 4665.00    0.80552   0.80776    0.000
 4666.00    0.79978   0.80108    0.000
 4667.00    0.79967   0.79860    0.000
 4668.00    0.80512   0.80081    0.000
 4669.00    0.81337   0.80673    0.000
 4670.00    0.82056   0.81440    0.000
 4671.00    0.82533   0.82184    0.000
 4672.00    0.82863   0.82781    0.000
 4673.00    0.83177   0.83201    0.000
 4674.00    0.83520   0.83453    0.000
 4675.00    0.83730   0.83541    0.000
 4676.00    0.83602   0.83463    0.000
 4677.00    0.83195   0.83238    0.000
 4678.00    0.82729   0.82929    0.000
 4679.00    0.82335   0.82634    0.000
 4680.00    0.82049   0.82437    0.000
 4681.00    0.81840   0.82365    0.000
 4682.00    0.81683   0.82390    0.000
 4683.00    0.81643   0.82456    0.000
 4684.00    0.81856   0.82519    0.000
 4685.00    0.82491   0.82566    0.000
 4686.00    0.83520   0.82605    0.000
 4687.00    0.84520   0.82646    0.000
 4688.00    0.85085   0.82691    0.000
 4689.00    0.85218   0.82745    0.000
 4690.00    0.85041   0.82825    0.000
 4691.00    0.84522   0.82951    0.000
 4692.00    0.83703   0.83118    0.000
 4693.00    0.82882   0.83273    0.000
 4694.00    0.82336   0.83326    0.000
 4695.00    0.82118   0.83193    0.000
 4696.00    0.82101   0.82841    0.000
 4697.00    0.82053   0.82319    0.000
 4698.00    0.81798   0.81732    0.000
 4699.00    0.81325   0.81192    0.000
 4700.00    0.80772   0.80777    0.000
 4701.00    0.80392   0.80521    0.000
 4702.00    0.80391   0.80416    0.000
 4703.00    0.80799   0.80429    0.000
 4704.00    0.81264   0.80502    0.000
 4705.00    0.81150   0.80579    0.000
 4706.00    0.80372   0.80634    0.000
 4707.00    0.79572   0.80685    0.000
 4708.00    0.79422   0.80761    0.000
 4709.00    0.80206   0.80868    0.000
 4710.00    0.81376   0.80972    0.000
 4711.00    0.81846   0.81046    0.000
 4712.00    0.81406   0.81115    0.000
 4713.00    0.80820   0.81263    0.000
 4714.00    0.80724   0.81578    0.000
 4715.00    0.81285   0.82087    0.000
 4716.00    0.82163   0.82723    0.000
 4717.00    0.82792   0.83366    0.000
 4718.00    0.83023   0.83899    0.000
 4719.00    0.83094   0.84259    0.000
 4720.00    0.83174   0.84441    0.000
 4721.00    0.83276   0.84477    0.000
 4722.00    0.83290   0.84388    0.000
 4723.00    0.83101   0.84161    0.000
 4724.00    0.82794   0.83757    0.000
 4725.00    0.82518   0.83158    0.000
 4726.00    0.82204   0.82416    0.000
 4727.00    0.81727   0.81661    0.000
 4728.00    0.81205   0.81050    0.000
 4729.00    0.80894   0.80703    0.000
 4730.00    0.80971   0.80653    0.000
 4731.00    0.81446   0.80841    0.000
 4732.00    0.82105   0.81154    0.000
 4733.00    0.82628   0.81475    0.000
 4734.00    0.82764   0.81729    0.000
 4735.00    0.82564   0.81908    0.000
 4736.00    0.82539   0.82045    0.000
 4737.00    0.82936   0.82175    0.000
 4738.00    0.83134   0.82312    0.000
 4739.00    0.82716   0.82447    0.000
 4740.00    0.82356   0.82568    0.000
 4741.00    0.82701   0.82680    0.000
 4742.00    0.83484   0.82790    0.000
 4743.00    0.84165   0.82903    0.000
 4744.00    0.84469   0.83015    0.000
 4745.00    0.84481   0.83112    0.000
 4746.00    0.84588   0.83179    0.000
 4747.00    0.84818   0.83196    0.000
 4748.00    0.84606   0.83139    0.000
 4749.00    0.83769   0.82990    0.000
 4750.00    0.82884   0.82743    0.000
 4751.00    0.82350   0.82418    0.000
 4752.00    0.82012   0.82060    0.000
 4753.00    0.81765   0.81738    0.000
 4754.00    0.81743   0.81514    0.000
 4755.00    0.81887   0.81419    0.000
 4756.00    0.81874   0.81433    0.000
 4757.00    0.81566   0.81484    0.000
 4758.00    0.81128   0.81466    0.000
 4759.00    0.80783   0.81287    0.000
 4760.00    0.80662   0.80915    0.000
 4761.00    0.80610   0.80398   61.729
 4762.00    0.80299   0.79851   61.169
 4763.00    0.79711   0.79415   60.897
 4764.00    0.79176   0.79199   61.139
 4765.00    0.79090   0.79250   61.916
 4766.00    0.79684   0.79537   62.903
 4767.00    0.80666   0.79964   63.245
 4768.00    0.81412   0.80413   62.285
 4769.00    0.81560   0.80796   61.144
 4770.00    0.81192   0.81092   61.270
 4771.00    0.80898   0.81335   61.609
 4772.00    0.81275   0.81578   60.320
 4773.00    0.82023   0.81837   58.850
 4774.00    0.82404   0.82085   59.512
 4775.00    0.82266   0.82267   61.479
 4776.00    0.81924   0.82334   62.230
 4777.00    0.81710   0.82270   61.318
 4778.00    0.81737   0.82087   60.002
 4779.00    0.81701   0.81817   59.184
 4780.00    0.81345   0.81499   59.047
 4781.00    0.81015   0.81166   59.027
 4782.00    0.81003   0.80843   58.738
 4783.00    0.80772   0.80551   58.934
 4784.00    0.79817   0.80304   60.112
 4785.00    0.78602   0.80120   61.047
 4786.00    0.77912   0.80018   60.742
 4787.00    0.78111   0.80020   60.532
 4788.00    0.79060   0.80148   61.326
 4789.00    0.80154   0.80413   61.433
 4790.00    0.80835   0.80808   59.965
 4791.00    0.80993   0.81291   59.206
 4792.00    0.80865   0.81782   60.494
 4793.00    0.80880   0.82173   62.018
 4794.00    0.81183   0.82365   62.054
 4795.00    0.81424   0.82311   61.462
 4796.00    0.81381   0.82045   61.087
 4797.00    0.81266   0.81676   60.375
 4798.00    0.81277   0.81336   59.408
 4799.00    0.81339   0.81120   59.460
 4800.00    0.81163   0.81038   60.700
 4801.00    0.80426   0.81021   61.514
 4802.00    0.79396   0.80975   61.135
 4803.00    0.78910   0.80841   60.694
 4804.00    0.79041   0.80630   61.092
 4805.00    0.78942   0.80404   62.212
 4806.00    0.78416   0.80230   63.088
 4807.00    0.78173   0.80146   62.479
 4808.00    0.78554   0.80151   60.972
 4809.00    0.79253   0.80218   60.513
 4810.00    0.79884   0.80321   61.561
 4811.00    0.80223   0.80449   62.970
 4812.00    0.80329   0.80606   63.514
 4813.00    0.80410   0.80797   62.719
 4814.00    0.80412   0.81018   61.425
 4815.00    0.80144   0.81240   60.888
 4816.00    0.79848   0.81415   60.980
 4817.00    0.79968   0.81481   60.852
 4818.00    0.80345   0.81378   60.977
 4819.00    0.80436   0.81068   62.360
 4820.00    0.80084   0.80565   64.058
 4821.00    0.79518   0.79951   64.106
 4822.00    0.79074   0.79360   63.003
 4823.00    0.79004   0.78922   62.616
 4824.00    0.79257   0.78700   63.361
 4825.00    0.79521   0.78660   64.600
 4826.00    0.79363   0.78698   65.623
 4827.00    0.78584   0.78711   66.068
 4828.00    0.77640   0.78648   66.319
 4829.00    0.77163   0.78521   66.779
 4830.00    0.77294   0.78377   66.918
 4831.00    0.77744   0.78262   66.318
 4832.00    0.77981   0.78189   65.888
 4833.00    0.77723   0.78136   66.355
 4834.00    0.77359   0.78055   66.807
 4835.00    0.77262   0.77895   66.297
 4836.00    0.77154   0.77632   65.514
 4837.00    0.76654   0.77278   65.504
 4838.00    0.75790   0.76877   66.556
 4839.00    0.74895   0.76485   68.088
 4840.00    0.74422   0.76144   68.656
 4841.00    0.74474   0.75869   67.940
 4842.00    0.74572   0.75637   67.824
 4843.00    0.74368   0.75394   69.222
 4844.00    0.74056   0.75075   70.470
 4845.00    0.73886   0.74630   70.293
 4846.00    0.73838   0.74051   69.681
 4847.00    0.73564   0.73370   69.389
 4848.00    0.72522   0.72628    0.000
 4849.00    0.70705   0.71826    0.000
 4850.00    0.68835   0.70905    0.000
 4851.00    0.67493   0.69777    0.000
 4852.00    0.66816   0.68371    0.000
 4853.00    0.66991   0.66668    0.000
 4854.00    0.68735   0.64690    0.000
 4855.00    0.74281   0.62463    0.000
 4856.00    0.86768   0.60005    0.000
 4857.00    1.06899   0.57379    0.000
 4858.00    1.31819   0.54789    0.000
 4859.00    1.55389   0.52600    0.000
 4860.00    1.69957   0.51262    0.000
 4861.00    1.70995   0.51108    0.000
 4862.00    1.58428   0.52191    0.000
 4863.00    1.36442   0.54255    0.000
 4864.00    1.11893   0.56841    0.000
 4865.00    0.90744   0.59476    0.000
 4866.00    0.76602   0.61807    0.000
 4867.00    0.69529   0.63649    0.000
 4868.00    0.67096   0.64987    0.000
 4869.00    0.66930   0.65935    0.000
 4870.00    0.67379   0.66680    0.000
 4871.00    0.67766   0.67410    0.000
 4872.00    0.68144   0.68244    0.000
 4873.00    0.68821   0.69206    0.000
 4874.00    0.70004   0.70247    0.000
 4875.00    0.71410   0.71294   67.382
 4876.00    0.72605   0.72282   66.599
 4877.00    0.73536   0.73154   66.271
 4878.00    0.74277   0.73853   66.129
 4879.00    0.74658   0.74326   65.587
 4880.00    0.74522   0.74552   64.629
 4881.00    0.74044   0.74557   64.559
 4882.00    0.73539   0.74407   66.038
 4883.00    0.73223   0.74188   67.198
 4884.00    0.73101   0.73972   66.441
 4885.00    0.72939   0.73801   65.518
 4886.00    0.72659   0.73683   65.920
 4887.00    0.72620   0.73615   66.230
 4888.00    0.73035   0.73622   65.332
 4889.00    0.73565   0.73783   64.748
 4890.00    0.73961   0.74203   65.345
 4891.00    0.74478   0.74941   65.502
 4892.00    0.75402   0.75952   64.355
 4893.00    0.76707   0.77070   63.541
 4894.00    0.78061   0.78073   63.819
 4895.00    0.78922   0.78776   63.782
 4896.00    0.79054   0.79094   62.848
 4897.00    0.78723   0.79059   62.395
 4898.00    0.78264   0.78789   63.091
 4899.00    0.77864   0.78436   64.066
 4900.00    0.77603   0.78131   64.642
 4901.00    0.77472   0.77958   65.026
 4902.00    0.77360   0.77942   65.306
 4903.00    0.77112   0.78044   65.187
 4904.00    0.76774   0.78175   64.840
 4905.00    0.76558   0.78223   64.899
 4906.00    0.76407   0.78102   65.444
 4907.00    0.76033   0.77800   65.878
 4908.00    0.75492   0.77404   65.693
 4909.00    0.75174   0.77060   64.882
 4910.00    0.75263   0.76903   64.171
 4911.00    0.75651   0.76976   64.388
 4912.00    0.76120   0.77200   64.966
 4913.00    0.76448   0.77393   64.608
 4914.00    0.76514   0.77338   63.894
 4915.00    0.76284   0.76873   64.401
 4916.00    0.75727   0.75962   65.818
 4917.00    0.74836   0.74732   66.565
 4918.00    0.73702   0.73441   66.501
 4919.00    0.72576   0.72383   66.565
 4920.00    0.71951   0.71789   66.839
 4921.00    0.72166   0.71760   66.909
 4922.00    0.72801   0.72267   66.990
 4923.00    0.73228   0.73190   67.409
 4924.00    0.73553   0.74372   67.615
 4925.00    0.74234   0.75642   67.018
 4926.00    0.75369   0.76832   66.293
 4927.00    0.76660   0.77790   66.312
 4928.00    0.77516   0.78401   66.832
 4929.00    0.77543   0.78610   67.147
 4930.00    0.77033   0.78436   66.991
 4931.00    0.76463   0.77976   66.689
 4932.00    0.75953   0.77369   67.058
 4933.00    0.75503   0.76751   68.354
 4934.00    0.75226   0.76211   69.376
 4935.00    0.75084   0.75789   69.155
 4936.00    0.74701   0.75510   68.597
 4937.00    0.73969   0.75421   68.782
 4938.00    0.73440   0.75573   69.676
 4939.00    0.73576   0.75981   70.617
 4940.00    0.74248   0.76580    0.000
 4941.00    0.75127   0.77241    0.000
 4942.00    0.75970   0.77830    0.000
 4943.00    0.76661   0.78264    0.000
 4944.00    0.77216   0.78541    0.000
 4945.00    0.77654   0.78711    0.000
 4946.00    0.77947   0.78833    0.000
 4947.00    0.78103   0.78940    0.000
 4948.00    0.78189   0.79019    0.000
 4949.00    0.78241   0.79027    0.000
 4950.00    0.78255   0.78911    0.000
 4951.00    0.78303   0.78626    0.000
 4952.00    0.78594   0.78146    0.000
 4953.00    0.79492   0.77480    0.000
 4954.00    0.81395   0.76704    0.000
 4955.00    0.84305   0.75967    0.000
 4956.00    0.87734   0.75465    0.000
 4957.00    0.90897   0.75349    0.000
 4958.00    0.92910   0.75644    0.000
 4959.00    0.93190   0.76219    0.000
 4960.00    0.91590   0.76847    0.000
 4961.00    0.88463   0.77310    0.000
 4962.00    0.84550   0.77488    0.000
 4963.00    0.80695   0.77382    0.000
 4964.00    0.77636   0.77086    0.000
 4965.00    0.75721   0.76733    0.000
 4966.00    0.74869   0.76448    0.000
 4967.00    0.74625   0.76311    0.000
 4968.00    0.74484   0.76354    0.000
 4969.00    0.74412   0.76561    0.000
 4970.00    0.74603   0.76882    0.000
 4971.00    0.74957   0.77239    0.000
 4972.00    0.75218   0.77549    0.000
 4973.00    0.75305   0.77726    0.000
 4974.00    0.75286   0.77707    0.000
 4975.00    0.75259   0.77462    0.000
 4976.00    0.75222   0.76986    0.000
 4977.00    0.74947   0.76303    0.000
 4978.00    0.74282   0.75455    0.000
 4979.00    0.73466   0.74510    0.000
 4980.00    0.72775   0.73578    0.000
 4981.00    0.72156   0.72807    0.000
 4982.00    0.71616   0.72350    0.000
 4983.00    0.71560   0.72305    0.000
 4984.00    0.72279   0.72660    0.000
 4985.00    0.73525   0.73287    0.000
 4986.00    0.74785   0.73992    0.000
 4987.00    0.75551   0.74594    0.000
 4988.00    0.75576   0.74992    0.000
 4989.00    0.75019   0.75185    0.000
 4990.00    0.74256   0.75248    0.000
 4991.00    0.73705   0.75271    0.000
 4992.00    0.73536   0.75315    0.000
 4993.00    0.73576   0.75386    0.000
 4994.00    0.73648   0.75434    0.000
 4995.00    0.73724   0.75383    0.000
 4996.00    0.73745   0.75163    0.000
 4997.00    0.73598   0.74752    0.000
 4998.00    0.73419   0.74193    0.000
 4999.00    0.73772   0.73572    0.000
 5000.00    0.75749   0.72984    0.000
 5001.00    0.80766   0.72493    0.000
 5002.00    0.89672   0.72119    0.000
 5003.00    1.02103   0.71869    0.000
 5004.00    1.15508   0.71761    0.000
 5005.00    1.25734   0.71814    0.000
 5006.00    1.29752   0.72016    0.000
 5007.00    1.26589   0.72286    0.000
 5008.00    1.17473   0.72485    0.000
 5009.00    1.05298   0.72479    0.000
 5010.00    0.93179   0.72206    0.000
 5011.00    0.83609   0.71713    0.000
 5012.00    0.77401   0.71123    0.000
 5013.00    0.73934   0.70578    0.000
 5014.00    0.72170   0.70184    0.000
 5015.00    0.71143   0.69988    0.000
 5016.00    0.70437   0.69990    0.000
 5017.00    0.70046   0.70170    0.000
 5018.00    0.69961   0.70495    0.000
 5019.00    0.70093   0.70927    0.000
 5020.00    0.70291   0.71419    0.000
 5021.00    0.70436   0.71923    0.000
 5022.00    0.70566   0.72388    0.000
 5023.00    0.70827   0.72772    0.000
 5024.00    0.71359   0.73055    0.000
 5025.00    0.72165   0.73251    0.000
 5026.00    0.72991   0.73410    0.000
 5027.00    0.73531   0.73597    0.000
 5028.00    0.73687   0.73853    0.000
 5029.00    0.73550   0.74164   74.438
 5030.00    0.73348   0.74463   76.634
 5031.00    0.73293   0.74646   74.905
 5032.00    0.73451   0.74625   72.464
 5033.00    0.73711   0.74357   72.354
 5034.00    0.73794   0.73857   73.511
 5035.00    0.73421   0.73186   74.264
 5036.00    0.72471   0.72417   74.901
 5037.00    0.71111   0.71636   76.100
 5038.00    0.69833   0.70957   77.619
 5039.00    0.69088   0.70523   78.640
 5040.00    0.69055   0.70470   78.319
 5041.00    0.69645   0.70852   77.055
 5042.00    0.70562   0.71581   76.545
 5043.00    0.71525   0.72441   77.180
 5044.00    0.72364   0.73173   77.406
 5045.00    0.72954   0.73583   76.728
 5046.00    0.73188   0.73617   76.602
 5047.00    0.73066   0.73366   77.434
 5048.00    0.72718   0.73006   77.934
 5049.00    0.72333   0.72719   77.843
 5050.00    0.72111   0.72622   78.346
 5051.00    0.72170   0.72744   79.061
 5052.00    0.72521   0.73038   77.971
 5053.00    0.73060   0.73427   75.315
 5054.00    0.73611   0.73844   73.474
 5055.00    0.74038   0.74250   73.718
 5056.00    0.74294   0.74630   75.825
 5057.00    0.74457   0.74968   77.938
 5058.00    0.74644   0.75227   77.480
 5059.00    0.74781   0.75350   75.146
 5060.00    0.74654   0.75276   73.721
 5061.00    0.74166   0.74978   73.777
 5062.00    0.73414   0.74488   74.244
 5063.00    0.72698   0.73899   74.520
 5064.00    0.72316   0.73333   74.603
 5065.00    0.72189   0.72892   74.506
 5066.00    0.72064   0.72621   74.328
 5067.00    0.71992   0.72501   74.527
 5068.00    0.72164   0.72473   75.295
 5069.00    0.72539   0.72472   75.508
 5070.00    0.72936   0.72457   74.028
 5071.00    0.73254   0.72415   71.822
 5072.00    0.73442   0.72349   70.508
 5073.00    0.73437   0.72252   70.633
 5074.00    0.73167   0.72096   72.039
 5075.00    0.72573   0.71843   74.190
 5076.00    0.71739   0.71470   75.974
 5077.00    0.70988   0.71006   75.723
 5078.00    0.70579   0.70541   73.273
 5079.00    0.70406   0.70195   71.168
 5080.00    0.70351   0.70066   70.961
 5081.00    0.70581   0.70185   71.165
 5082.00    0.71230   0.70516   70.265
 5083.00    0.72134   0.70973   69.089
 5084.00    0.72961   0.71464   68.722
 5085.00    0.73366   0.71922   69.088
 5086.00    0.73248   0.72317   69.652
 5087.00    0.72874   0.72652   69.959
 5088.00    0.72579   0.72944   70.072
 5089.00    0.72555   0.73202   70.620
 5090.00    0.72742   0.73413   71.425
 5091.00    0.72838   0.73534   71.080
 5092.00    0.72644   0.73502   69.553
 5093.00    0.72208   0.73264   68.769
 5094.00    0.71624   0.72809   69.357
 5095.00    0.70964   0.72196   69.986
 5096.00    0.70423   0.71545   70.179
 5097.00    0.70295   0.71007   71.055
 5098.00    0.70615   0.70700   72.667
 5099.00    0.71104   0.70668   73.493
 5100.00    0.71505   0.70855   73.304
 5101.00    0.71699   0.71139   73.559
 5102.00    0.71671   0.71383   74.442
 5103.00    0.71471   0.71492   74.745
 5104.00    0.71167   0.71443   74.665
 5105.00    0.70819   0.71273   75.676
 5106.00    0.70472   0.71066   77.669
 5107.00    0.70166   0.70910   79.003
 5108.00    0.69976   0.70875   79.212
 5109.00    0.70000   0.70992   79.169
 5110.00    0.70286   0.71250   79.193
 5111.00    0.70803   0.71607   79.021
 5112.00    0.71425   0.72010   78.706
 5113.00    0.72002   0.72406   78.527
 5114.00    0.72501   0.72751   78.493
 5115.00    0.72957   0.73000   78.381
 5116.00    0.73325   0.73110   77.960
 5117.00    0.73491   0.73038   77.389
 5118.00    0.73329   0.72755   77.641
 5119.00    0.72809   0.72269   79.229
 5120.00    0.72119   0.71634   80.319
 5121.00    0.71489   0.70935   79.179
 5122.00    0.70934   0.70268   78.006
 5123.00    0.70396   0.69717   79.093
 5124.00    0.69944   0.69327   80.673
 5125.00    0.69700   0.69108   80.395
 5126.00    0.69743   0.69043   79.939
 5127.00    0.70014   0.69106   81.162
 5128.00    0.70264   0.69271   82.181
 5129.00    0.70283   0.69515   80.943
 5130.00    0.70103   0.69813   78.936
 5131.00    0.69885   0.70120   77.831
 5132.00    0.69803   0.70382   77.138
 5133.00    0.69938   0.70541   76.367
 5134.00    0.70222   0.70555   76.269
 5135.00    0.70616   0.70417   76.882
 5136.00    0.71177   0.70163   76.578
 5137.00    0.71753   0.69854   75.107
 5138.00    0.71868   0.69559   74.704
 5139.00    0.71307   0.69332   75.863
 5140.00    0.70362   0.69186   75.942
 5141.00    0.69425   0.69104   74.179
 5142.00    0.68757   0.69058   73.304
 5143.00    0.68510   0.69025   74.069
 5144.00    0.68701   0.68996   74.096
 5145.00    0.69042   0.68969   72.687
 5146.00    0.69031   0.68946   71.905
 5147.00    0.68622   0.68925   72.276
 5148.00    0.68290   0.68897   72.227
 5149.00    0.68296   0.68853   71.340
 5150.00    0.68525   0.68803   70.859
 5151.00    0.68799   0.68786   71.410
 5152.00    0.69032   0.68859   72.562
 5153.00    0.69333   0.69071   73.434
 5154.00    0.69886   0.69429   73.325
 5155.00    0.70566   0.69889   73.026
 5156.00    0.71045   0.70363   73.949
 5157.00    0.71300   0.70743   75.349
 5158.00    0.71561   0.70936   75.108
 5159.00    0.71901   0.70883   73.707
 5160.00    0.72122   0.70549   73.357
 5161.00    0.71754   0.69907   74.625
 5162.00    0.70435   0.68945   76.612
 5163.00    0.68599   0.67694   78.064
 5164.00    0.66964   0.66264   78.281
 5165.00    0.65501   0.64836   78.383
 5166.00    0.63888   0.63606   79.741
 5167.00    0.62471   0.62703   81.299
 5168.00    0.61841   0.62177   81.198
 5169.00    0.62049   0.62026   80.187
 5170.00    0.62776   0.62233   79.996
 5171.00    0.63702   0.62773   80.745
 5172.00    0.64641   0.63622   81.612
 5173.00    0.65620   0.64722   81.910
 5174.00    0.66679   0.65937   81.571
 5175.00    0.67650   0.67068   81.408
 5176.00    0.68277   0.67910   81.987
 5177.00    0.68362   0.68305   82.652
 5178.00    0.67908   0.68172   82.777
 5179.00    0.67186   0.67540   82.937
 5180.00    0.66468   0.66593   83.816
 5181.00    0.65815   0.65622   85.247
 5182.00    0.65221   0.64918   86.450
 5183.00    0.64744   0.64684   86.414
 5184.00    0.64526   0.64965   84.992
 5185.00    0.64760   0.65641   83.332
 5186.00    0.65398   0.66474   82.321
 5187.00    0.66056   0.67192   81.912
 5188.00    0.66478   0.67625   81.759
 5189.00    0.66749   0.67755   81.569
 5190.00    0.66927   0.67666    0.000
 5191.00    0.66917   0.67481    0.000
 5192.00    0.66803   0.67340    0.000
 5193.00    0.66941   0.67338    0.000
 5194.00    0.67662   0.67505    0.000
 5195.00    0.69085   0.67819    0.000
 5196.00    0.70902   0.68221    0.000
 5197.00    0.72450   0.68627    0.000
 5198.00    0.73235   0.68944    0.000
 5199.00    0.73119   0.69085    0.000
 5200.00    0.72279   0.68973    0.000
 5201.00    0.71111   0.68580    0.000
 5202.00    0.69983   0.67957    0.000
 5203.00    0.69086   0.67216    0.000
 5204.00    0.68238   0.66491    0.000
 5205.00    0.67107   0.65928    0.000
 5206.00    0.65874   0.65655    0.000
 5207.00    0.65104   0.65730    0.000
 5208.00    0.65097   0.66139    0.000
 5209.00    0.65779   0.66797    0.000
 5210.00    0.66787   0.67556    0.000
 5211.00    0.67659   0.68250   75.706
 5212.00    0.68156   0.68765   75.715
 5213.00    0.68307   0.69077   75.254
 5214.00    0.68360   0.69253   74.572
 5215.00    0.68611   0.69402   74.095
 5216.00    0.69135   0.69612   74.088
 5217.00    0.69828   0.69905   74.539
 5218.00    0.70516   0.70218   75.044
 5219.00    0.70982   0.70424   75.100
 5220.00    0.70994   0.70384   74.566
 5221.00    0.70416   0.70005   73.864
 5222.00    0.69331   0.69283   73.990
 5223.00    0.67995   0.68338   75.466
 5224.00    0.66769   0.67406   77.282
 5225.00    0.65975   0.66735   78.146
 5226.00    0.65764   0.66474   78.155
 5227.00    0.66096   0.66629   78.051
 5228.00    0.66750   0.67063   78.249
 5229.00    0.67475   0.67563   78.864
 5230.00    0.68124   0.67960   79.763
 5231.00    0.68631   0.68204   80.402
 5232.00    0.68984   0.68354   79.904
 5233.00    0.69194   0.68521   78.497
 5234.00    0.69275   0.68795   77.930
 5235.00    0.69244   0.69198   78.996
 5236.00    0.69145   0.69686   80.517
 5237.00    0.69117   0.70180   81.191
 5238.00    0.69379   0.70602   80.789
 5239.00    0.69908   0.70909   79.525
 5240.00    0.70359   0.71095   77.743
 5241.00    0.70477   0.71172   76.455
 5242.00    0.70258   0.71131   76.993
 5243.00    0.69820   0.70948   78.924
 5244.00    0.69309   0.70634   79.769
 5245.00    0.68776   0.70229   78.694
 5246.00    0.68181   0.69779   77.419
 5247.00    0.67557   0.69346   76.859
 5248.00    0.67058   0.69010   76.665
 5249.00    0.66917   0.68813   77.015
 5250.00    0.67307   0.68751   78.444
 5251.00    0.68019   0.68798   79.652
 5252.00    0.68583   0.68941   78.380
 5253.00    0.68856   0.69186   76.224
 5254.00    0.69045   0.69512   76.521
 5255.00    0.69356   0.69859   78.173
 5256.00    0.69826   0.70124   77.420
 5257.00    0.70164   0.70181   75.493
 5258.00    0.69957   0.69916   76.197
 5259.00    0.69157   0.69277   78.795
 5260.00    0.68014   0.68303   79.600
 5261.00    0.66771   0.67116   78.274
 5262.00    0.65608   0.65892   77.047
 5263.00    0.64645   0.64814   76.504
 5264.00    0.63966   0.64001   76.139
 5265.00    0.63644   0.63450   75.914
 5266.00    0.63716   0.63106   76.007
 5267.00    0.64145   0.62974   76.201
 5268.00    0.64783   0.63086   76.104
 5269.00    0.65358   0.63424   75.563
 5270.00    0.65655   0.63936   74.907
 5271.00    0.65719   0.64562   75.029
 5272.00    0.65730   0.65238   76.124
 5273.00    0.65838   0.65942   76.486
 5274.00    0.66122   0.66674   75.076
 5275.00    0.66561   0.67391   73.912
 5276.00    0.67066   0.68020   74.479
 5277.00    0.67517   0.68489   75.279
 5278.00    0.67768   0.68745   75.033
 5279.00    0.67683   0.68787   75.215
 5280.00    0.67353   0.68685   76.743
 5281.00    0.67181   0.68585   77.781
 5282.00    0.67389   0.68651   77.184
 5283.00    0.67749   0.68960   76.783
 5284.00    0.68117   0.69476   77.871
 5285.00    0.68683   0.70105   79.461
 5286.00    0.69477   0.70736   80.359
 5287.00    0.70177   0.71268   80.490
 5288.00    0.70591   0.71628   80.409
 5289.00    0.70834   0.71780   80.735
 5290.00    0.70993   0.71728   81.280
 5291.00    0.70991   0.71494   81.063
 5292.00    0.70724   0.71087   80.188
 5293.00    0.70138   0.70511   80.059
 5294.00    0.69271   0.69810   81.375
 5295.00    0.68252   0.69100   83.596
 5296.00    0.67292   0.68524   85.363
 5297.00    0.66627   0.68169   85.260
 5298.00    0.66400   0.68059   84.040
 5299.00    0.66631   0.68191   83.864
 5300.00    0.67289   0.68539   84.649
 5301.00    0.68262   0.69029   84.467
 5302.00    0.69263   0.69563   83.236
 5303.00    0.69930   0.70052   82.546
 5304.00    0.70124   0.70450   82.904
 5305.00    0.69967   0.70754   83.638
 5306.00    0.69766   0.70983   83.833
 5307.00    0.69839   0.71144   82.909
 5308.00    0.70231   0.71237   81.334
 5309.00    0.70721   0.71251   80.065
 5310.00    0.70957   0.71163   79.511
 5311.00    0.70665   0.70970   79.635
 5312.00    0.69953   0.70673   80.280
 5313.00    0.69165   0.70295   81.213
 5314.00    0.68595   0.69919   82.126
 5315.00    0.68359   0.69633   82.629
 5316.00    0.68303   0.69463   82.263
 5317.00    0.68217   0.69390   80.747
 5318.00    0.68128   0.69361   78.261
 5319.00    0.68146   0.69290   75.731
 5320.00    0.68263   0.69087   74.814
 5321.00    0.68331   0.68701   76.263
 5322.00    0.68089   0.68153   78.489
 5323.00    0.67441   0.67477   79.316
 5324.00    0.66672   0.66693   78.498
 5325.00    0.66073   0.65889   77.277
 5326.00    0.65629   0.65270   77.163
 5327.00    0.65265   0.65015   78.304
 5328.00    0.65055   0.65170   78.636
 5329.00    0.65144   0.65666   77.258
 5330.00    0.65649   0.66383   76.492
 5331.00    0.66549   0.67176   77.651
 5332.00    0.67628   0.67894   79.010
 5333.00    0.68603   0.68415   79.024
 5334.00    0.69230   0.68687   78.419
 5335.00    0.69414   0.68720   78.125
 5336.00    0.69246   0.68552   78.178
 5337.00    0.68880   0.68254   78.554
 5338.00    0.68452   0.67956   79.465
 5339.00    0.68028   0.67783   80.663
 5340.00    0.67592   0.67773   81.362
 5341.00    0.67126   0.67893   81.661
 5342.00    0.66675   0.68065   82.647
 5343.00    0.66431   0.68221   84.177
 5344.00    0.66645   0.68328   -2.000
 5345.00    0.67233   0.68377   -2.000
 5346.00    0.67769   0.68393   -2.000
 5347.00    0.67954   0.68454   -2.000
 5348.00    0.67784   0.68629   -2.000
 5349.00    0.67595   0.68931   -2.000
 5350.00    0.67858   0.69333   -2.000
 5351.00    0.68622   0.69807   -2.000
 5352.00    0.69557   0.70314   -2.000
 5353.00    0.70391   0.70794   -2.000
 5354.00    0.70971   0.71196   -2.000
 5355.00    0.71156   0.71480   -2.000
 5356.00    0.70877   0.71616   -2.000
 5357.00    0.70309   0.71581   -2.000
 5358.00    0.69752   0.71359   -2.000
 5359.00    0.69371   0.70966   83.554
 5360.00    0.69159   0.70455   83.899
 5361.00    0.68983   0.69893   83.683
 5362.00    0.68690   0.69333   82.964
 5363.00    0.68267   0.68816   82.227
 5364.00    0.67783   0.68351   81.845
 5365.00    0.67267   0.67918   81.455
 5366.00    0.66732   0.67483   80.754
 5367.00    0.66215   0.67035   80.441
 5368.00    0.65783   0.66638   81.020
 5369.00    0.65533   0.66425   81.485
 5370.00    0.65559   0.66504   80.697
 5371.00    0.65919   0.66883   79.050
 5372.00    0.66578   0.67477   77.650
 5373.00    0.67368   0.68155   77.338
 5374.00    0.68078   0.68781   78.114
 5375.00    0.68555   0.69260   78.757
 5376.00    0.68761   0.69546   78.165
 5377.00    0.68790   0.69628   76.628
 5378.00    0.68692   0.69548   75.548
 5379.00    0.68366   0.69375   76.762
 5380.00    0.67851   0.69178   80.309
 5381.00    0.67455   0.69024   82.888
 5382.00    0.67387   0.68953   82.248
 5383.00    0.67563   0.68952   80.647
 5384.00    0.67823   0.68969   80.031
 5385.00    0.68060   0.68947   79.924
 5386.00    0.68200   0.68841   79.665
 5387.00    0.68200   0.68629   79.366
 5388.00    0.68068   0.68329   79.357
 5389.00    0.67860   0.67979   79.881
 5390.00    0.67612   0.67612   80.906
 5391.00    0.67328   0.67255   82.098
 5392.00    0.67025   0.66917   83.117
 5393.00    0.66747   0.66586   83.777
 5394.00    0.66539   0.66267   84.190
 5395.00    0.66427   0.66030   84.645
 5396.00    0.66390   0.65935   85.089
 5397.00    0.66368   0.65958   85.249
 5398.00    0.66295   0.66028   85.497
 5399.00    0.66143   0.66077   86.538
 5400.00    0.65982   0.66019   87.953
 5401.00    0.65906   0.65783   88.578
 5402.00    0.65842   0.65386   88.659
 5403.00    0.65610   0.64939   89.194
 5404.00    0.65179   0.64579   89.263
 5405.00    0.64687   0.64380   87.355
 5406.00    0.64372   0.64335   85.005
 5407.00    0.64413   0.64420   84.531
 5408.00    0.64698   0.64643   85.169
 5409.00    0.64967   0.65017   85.015
 5410.00    0.65121   0.65498   84.918
 5411.00    0.65259   0.66016   86.253
 5412.00    0.65651   0.66527   86.789
 5413.00    0.66496   0.67023   84.083
 5414.00    0.67620   0.67485   80.928
 5415.00    0.68638   0.67863   80.478
 5416.00    0.69219   0.68110   81.766
 5417.00    0.69239   0.68217   82.424
 5418.00    0.68881   0.68206   81.952
 5419.00    0.68438   0.68113   81.089
 5420.00    0.68080   0.67963   80.485
 5421.00    0.67822   0.67764   80.247
 5422.00    0.67534   0.67571   79.771
 5423.00    0.67195   0.67450   78.672
 5424.00    0.67065   0.67387   77.472
 5425.00    0.67262   0.67296   76.896
 5426.00    0.67472   0.67092   77.328
 5427.00    0.67358   0.66782   78.507
 5428.00    0.66856   0.66463   79.372
 5429.00    0.66142   0.66186   79.243
 5430.00    0.65542   0.65936   78.582
 5431.00    0.65222   0.65740   77.850
 5432.00    0.65065   0.65657   77.013
 5433.00    0.64939   0.65743   76.714
 5434.00    0.64862   0.66029   78.412
 5435.00    0.64983   0.66503   81.889
 5436.00    0.65517   0.67106   84.235
 5437.00    0.66451   0.67740   84.200
 5438.00    0.67492   0.68296   84.094
 5439.00    0.68383   0.68680   84.868
 5440.00    0.69007   0.68827   84.991
 5441.00    0.69235   0.68703   84.182
 5442.00    0.68930   0.68315   84.065
 5443.00    0.68117   0.67737   85.359
 5444.00    0.67014   0.67122   87.335
 5445.00    0.65938   0.66662   88.798
 5446.00    0.65206   0.66476   88.898
 5447.00    0.64978   0.66536   88.515
 5448.00    0.65223   0.66729   89.193
 5449.00    0.65738   0.66931   89.669
 5450.00    0.66252   0.67030   87.235
 5451.00    0.66641   0.66958   83.224
 5452.00    0.66905   0.66721   80.956
 5453.00    0.67022   0.66424   81.134
 5454.00    0.66974   0.66239   -2.000
 5455.00    0.66881   0.66256   -2.000
 5456.00    0.66918   0.66426   -2.000
 5457.00    0.67142   0.66644   -2.000
 5458.00    0.67407   0.66812   -2.000
 5459.00    0.67321   0.66865   -2.000
 5460.00    0.66875   0.66793   -2.000
 5461.00    0.67273   0.66660   -2.000
 5462.00    0.69219   0.66568   -2.000
 5463.00    0.70671   0.66553   -2.000
 5464.00    0.69665   0.66601   -2.000
 5465.00    0.67908   0.66709   -2.000
 5466.00    0.67782   0.66837   -2.000
 5467.00    0.68707   0.66914   -2.000
 5468.00    0.69209   0.66893   -2.000
 5469.00    0.69328   0.66765   -2.000
 5470.00    0.69466   0.66520   -2.000
 5471.00    0.69183   0.66162   -2.000
 5472.00    0.68132   0.65740   -2.000
 5473.00    0.66842   0.65284   -2.000
 5474.00    0.65941   0.64835   -2.000
 5475.00    0.65514   0.64515   -2.000
 5476.00    0.65381   0.64420   -2.000
 5477.00    0.65338   0.64502   76.759
 5478.00    0.65295   0.64670   76.559
 5479.00    0.65326   0.64892   77.109
 5480.00    0.65476   0.65180   79.397
 5481.00    0.65682   0.65521   82.060
 5482.00    0.65937   0.65865   83.278
 5483.00    0.66337   0.66156   82.517
 5484.00    0.66841   0.66337   81.119
 5485.00    0.67211   0.66406   81.323
 5486.00    0.67308   0.66424   82.966
 5487.00    0.67192   0.66438   83.190
 5488.00    0.67006   0.66453   81.917
 5489.00    0.66902   0.66476   82.401
 5490.00    0.66942   0.66500   84.594
 5491.00    0.67072   0.66504   84.602
 5492.00    0.67138   0.66498   82.381
 5493.00    0.66968   0.66485   82.005
 5494.00    0.66618   0.66438   84.429
 5495.00    0.66351   0.66362   87.087
 5496.00    0.66378   0.66308   87.686
 5497.00    0.66759   0.66274   86.147
 5498.00    0.67347   0.66188   84.845
 5499.00    0.67862   0.66026   86.267
 5500.00    0.68088   0.65833   88.971
 5501.00    0.67927   0.65654   88.923
 5502.00    0.67404   0.65493   86.190
 5503.00    0.66681   0.65335   83.891
 5504.00    0.66060   0.65187   83.042
 5505.00    0.65797   0.65101   82.830
 5506.00    0.65767   0.65084   81.879
 5507.00    0.65672   0.65075   80.070
 5508.00    0.65466   0.65041   80.464
 5509.00    0.65292   0.64978   83.310
 5510.00    0.65297   0.64899   77.663
 5511.00    0.65519   0.64863   66.212
 5512.00    0.65777   0.64917   75.352
 5513.00    0.65883   0.65080  116.155
 5514.00    0.65893   0.65345   80.585
 5515.00    0.65945   0.65691   25.497
 5516.00    0.66050   0.66075   15.093
 5517.00    0.66187   0.66428   13.880
 5518.00    0.66404   0.66688   15.123
 5519.00    0.66715   0.66833   15.434
 5520.00    0.67004   0.66859   14.891
 5521.00    0.67116   0.66764   14.809
 5522.00    0.66957   0.66549   14.932
 5523.00    0.66577   0.66226   14.890
 5524.00    0.66199   0.65837   15.185
 5525.00    0.66013   0.65434   15.675
 5526.00    0.66042   0.65099   14.844
 5527.00    0.66186   0.64931   13.746
 5528.00    0.66295   0.64944   16.404
 5529.00    0.66330   0.65057   33.057
 5530.00    0.66413   0.65196  116.155
 5531.00    0.66559   0.65317  116.155
 5532.00    0.66596   0.65397   73.798
 5533.00    0.66468   0.65457   74.098
 5534.00    0.66342   0.65551   89.900
 5535.00    0.66405   0.65687   92.085
 5536.00    0.66741   0.65847   86.523
 5537.00    0.67228   0.66030   85.095
 5538.00    0.67575   0.66209   86.507
 5539.00    0.67619   0.66332   88.238
 5540.00    0.67398   0.66361   89.488
 5541.00    0.67001   0.66310   89.892
 5542.00    0.66538   0.66240   89.337
 5543.00    0.66195   0.66196   88.699
 5544.00    0.66168   0.66200   88.958
 5545.00    0.66443   0.66285   88.457
 5546.00    0.66825   0.66444   84.956
 5547.00    0.67152   0.66622   81.807
 5548.00    0.67374   0.66769   83.014
 5549.00    0.67587   0.66851   83.166
 5550.00    0.67923   0.66843   74.382
 5551.00    0.68303   0.66744   64.528
 5552.00    0.68535   0.66591   60.961
 5553.00    0.68582   0.66435   60.552
 5554.00    0.68518   0.66305   58.534
 5555.00    0.68358   0.66193   58.095
 5556.00    0.68069   0.66094   64.654
 5557.00    0.67638   0.66010   76.009
 5558.00    0.67104   0.65913   80.438
 5559.00    0.66581   0.65781   77.587
 5560.00    0.66185   0.65604   76.802
 5561.00    0.65922   0.65403   78.611
 5562.00    0.65755   0.65206   79.594
 5563.00    0.65679   0.65016   79.519
 5564.00    0.65705   0.64840   79.681
 5565.00    0.65823   0.64706   79.772
 5566.00    0.65999   0.64613   79.182
 5567.00    0.66171   0.64546   78.529
 5568.00    0.66239   0.64527   78.506
 5569.00    0.66066   0.64556   78.857
 5570.00    0.65663   0.64581   79.114
 5571.00    0.65299   0.64621   79.250
 5572.00    0.65231   0.64732   79.374
 5573.00    0.65496   0.64878   79.465
 5574.00    0.65917   0.65018   79.388
 5575.00    0.66181   0.65163   79.026
 5576.00    0.66171   0.65297   78.892
 5577.00    0.66114   0.65397   80.175
 5578.00    0.66152   0.65450   82.746
 5579.00    0.66141   0.65421   84.239
 5580.00    0.65905   0.65289   83.708
 5581.00    0.65391   0.65060   83.350
 5582.00    0.64719   0.64721   84.366
 5583.00    0.64140   0.64259   85.613
 5584.00    0.63770   0.63696   86.158
 5585.00    0.63524   0.63115   86.241
 5586.00    0.63306   0.62630   85.773
 5587.00    0.63086   0.62321   84.252
 5588.00    0.62883   0.62220   82.709
 5589.00    0.62744   0.62304   82.989
 5590.00    0.62716   0.62506   84.071
 5591.00    0.62829   0.62764   82.739
 5592.00    0.63102   0.63040   79.889
 5593.00    0.63522   0.63324   79.277
 5594.00    0.63998   0.63582   81.063
 5595.00    0.64382   0.63717   82.312
 5596.00    0.64573   0.63697   81.619
 5597.00    0.64524   0.63592   79.967
 5598.00    0.64207   0.63462   78.659
 5599.00    0.63663   0.63340   78.510
 5600.00    0.63088   0.63296   79.489
 5601.00    0.62749   0.63414   80.862
 5602.00    0.62774   0.63736   81.539
 5603.00    0.63118   0.64210   80.948
 5604.00    0.63578   0.64742   80.331
 5605.00    0.63943   0.65247   81.068
 5606.00    0.64218   0.65656   82.071
 5607.00    0.64480   0.65930   81.690
 5608.00    0.64636   0.66052   81.209
 5609.00    0.64559   0.66021   82.502
 5610.00    0.64303   0.65835   84.638
 5611.00    0.64008   0.65491   85.779
 5612.00    0.63758   0.64993   86.398
 5613.00    0.63552   0.64421   87.639
 5614.00    0.63316   0.63952   88.884
 5615.00    0.63014   0.63693   89.188
 5616.00    0.62758   0.63605   89.090
 5617.00    0.62708   0.63618   89.252
 5618.00    0.62964   0.63697   89.164
 5619.00    0.63488   0.63807   88.452
 5620.00    0.64061   0.63886   87.863
 5621.00    0.64440   0.63873   87.756
 5622.00    0.64491   0.63769   87.233
 5623.00    0.64240   0.63672   86.061
 5624.00    0.63884   0.63685   85.551
 5625.00    0.63634   0.63818   86.065
 5626.00    0.63606   0.64043   85.993
 5627.00    0.63766   0.64335   84.694
 5628.00    0.63940   0.64637   83.692
 5629.00    0.64012   0.64879   83.655
 5630.00    0.64007   0.65015   83.507
 5631.00    0.64012   0.65027   82.909
 5632.00    0.64107   0.64922   82.888
 5633.00    0.64261   0.64729   83.426
 5634.00    0.64335   0.64483   83.090
 5635.00    0.64242   0.64223   81.870
 5636.00    0.64004   0.63997   81.359
 5637.00    0.63710   0.63836   81.587
 5638.00    0.63478   0.63725   81.064
 5639.00    0.63404   0.63651   80.293
 5640.00    0.63535   0.63639   81.181
 5641.00    0.63827   0.63693   82.199
 5642.00    0.64161   0.63788   79.510
 5643.00    0.64387   0.63908   74.827
 5644.00    0.64403   0.64039   72.654
 5645.00    0.64305   0.64165   73.166
 5646.00    0.64300   0.64267   73.870
 5647.00    0.64426   0.64331   73.950
 5648.00    0.64581   0.64364   74.406
 5649.00    0.64705   0.64378   76.034
 5650.00    0.64783   0.64359   78.848
 5651.00    0.64762   0.64264   81.558
 5652.00    0.64569   0.64062   82.478
 5653.00    0.64158   0.63774   82.132
 5654.00    0.63533   0.63448   82.244
 5655.00    0.62782   0.63076   83.208
 5656.00    0.62071   0.62669   84.611
 5657.00    0.61643   0.62350   86.436
 5658.00    0.61654   0.62213   88.495
 5659.00    0.61986   0.62206   89.386
 5660.00    0.62402   0.62262   88.141
 5661.00    0.62757   0.62397   86.334
 5662.00    0.62993   0.62626   85.808
 5663.00    0.63111   0.62893   86.563
 5664.00    0.63130   0.63126   87.623
 5665.00    0.63058   0.63299   87.932
 5666.00    0.62929   0.63436   87.129
 5667.00    0.62845   0.63581   86.023
 5668.00    0.62943   0.63748   85.079
 5669.00    0.63355   0.63938   83.505
 5670.00    0.64028   0.64152   80.949
 5671.00    0.64644   0.64375   78.398
 5672.00    0.64934   0.64561   76.811
 5673.00    0.64898   0.64678   76.426
 5674.00    0.64704   0.64734   76.663
 5675.00    0.64578   0.64732   76.291
 5676.00    0.64585   0.64649   75.395
 5677.00    0.64554   0.64485   75.829
 5678.00    0.64378   0.64271   78.134
 5679.00    0.64126   0.64022   80.397
 5680.00    0.63854   0.63737   81.136
 5681.00    0.63536   0.63461   81.012
 5682.00    0.63205   0.63248   81.188
 5683.00    0.62970   0.63102   82.284
 5684.00    0.62870   0.62999   83.741
 5685.00    0.62846   0.62935   84.126
 5686.00    0.62864   0.62942   83.694
 5687.00    0.62963   0.63048   84.274
 5688.00    0.63276   0.63244   85.719
 5689.00    0.63933   0.63489   85.936
 5690.00    0.64764   0.63739   84.949
 5691.00    0.65385   0.63950   84.790
 5692.00    0.65655   0.64082   85.718
 5693.00    0.65708   0.64123   86.347
 5694.00    0.65687   0.64081   86.302
 5695.00    0.65650   0.63953   86.241
 5696.00    0.65508   0.63744   86.177
 5697.00    0.65138   0.63493   85.823
 5698.00    0.64641   0.63230   85.988
 5699.00    0.64243   0.62967   87.507
 5700.00    0.63995   0.62731   88.718
 5701.00    0.63795   0.62547   87.423
 5702.00    0.63511   0.62394   85.480
 5703.00    0.63073   0.62214   85.582
 5704.00    0.62572   0.61977   86.340
 5705.00    0.62177   0.61708   85.163
 5706.00    0.61987   0.61439   83.228
 5707.00    0.61998   0.61215   82.675
 5708.00    0.62106   0.61102   82.884
 5709.00    0.62232   0.61127   82.405
 5710.00    0.62469   0.61292   81.432
 5711.00    0.62905   0.61607   80.640
 5712.00    0.63433   0.62027   79.799
 5713.00    0.63880   0.62472   78.840
 5714.00    0.64167   0.62897   78.733
 5715.00    0.64298   0.63281   79.867
 5716.00    0.64348   0.63606   80.777
 5717.00    0.64405   0.63885   80.413
 5718.00    0.64533   0.64122   80.043
 5719.00    0.64797   0.64312   80.665
 5720.00    0.65258   0.64458   81.320
 5721.00    0.65832   0.64553   81.212
 5722.00    0.66243   0.64583   81.120
 5723.00    0.66346   0.64545   81.876
 5724.00    0.66287   0.64439   83.426
 5725.00    0.66221   0.64282   84.993
 5726.00    0.66157   0.64133   85.426
 5727.00    0.66041   0.64030   84.864
 5728.00    0.65806   0.63954   85.035
 5729.00    0.65464   0.63883   86.642
 5730.00    0.65120   0.63849   88.510
 5731.00    0.64911   0.63884   89.174
 5732.00    0.64935   0.63968   87.983
 5733.00    0.65116   0.64056   85.684
 5734.00    0.65207   0.64111   83.892
 5735.00    0.65026   0.64126   83.631
 5736.00    0.64568   0.64108   84.947
 5737.00    0.64072   0.64074   86.376
 5738.00    0.63904   0.64032   85.652
 5739.00    0.64139   0.63988   83.327
 5740.00    0.64551   0.63946    0.000
 5741.00    0.64919   0.63914    0.000
 5742.00    0.65123   0.63904    0.000
 5743.00    0.65160   0.63913    0.000
 5744.00    0.65102   0.63901    0.000
 5745.00    0.64983   0.63828    0.000
 5746.00    0.64802   0.63700    0.000
 5747.00    0.64584   0.63567    0.000
 5748.00    0.64357   0.63456    0.000
 5749.00    0.64098   0.63332    0.000
 5750.00    0.63777   0.63169    0.000
 5751.00    0.63430   0.62993    0.000
 5752.00    0.63168   0.62873    0.000
 5753.00    0.63150   0.62868    0.000
 5754.00    0.63451   0.62969    0.000
 5755.00    0.63915   0.63101    0.000
 5756.00    0.64298   0.63198    0.000
 5757.00    0.64483   0.63227    0.000
 5758.00    0.64457   0.63178    0.000
 5759.00    0.64236   0.63070    0.000
 5760.00    0.63871   0.62952    0.000
 5761.00    0.63459   0.62893    0.000
 5762.00    0.63132   0.62957    0.000
 5763.00    0.63042   0.63136    0.000
 5764.00    0.63208   0.63358    0.000
 5765.00    0.63419   0.63570   -2.000
 5766.00    0.63470   0.63740   -2.000
 5767.00    0.63353   0.63840   -2.000
 5768.00    0.63176   0.63861   -2.000
 5769.00    0.63089   0.63811   -2.000
 5770.00    0.63215   0.63706   -2.000
 5771.00    0.63581   0.63580   -2.000
 5772.00    0.64017   0.63455   -2.000
 5773.00    0.64155   0.63329   -2.000
 5774.00    0.63852   0.63201   -2.000
 5775.00    0.63353   0.63053   -2.000
 5776.00    0.62928   0.62845   -2.000
 5777.00    0.62661   0.62550   -2.000
 5778.00    0.62398   0.62167   -2.000
 5779.00    0.61848   0.61732   -2.000
 5780.00    0.61101   0.61335   -2.000
 5781.00    0.60659   0.61049   -2.000
 5782.00    0.60728   0.60876   -2.000
 5783.00    0.61066   0.60808   -2.000
 5784.00    0.61429   0.60870   -2.000
 5785.00    0.61732   0.61069    0.000
 5786.00    0.61989   0.61345    0.000
 5787.00    0.62271   0.61631    0.000
 5788.00    0.62630   0.61880    0.000
 5789.00    0.63049   0.62077    0.000
 5790.00    0.63384   0.62254    0.000
 5791.00    0.63456   0.62434    0.000
 5792.00    0.63312   0.62600    0.000
 5793.00    0.63156   0.62740    0.000
 5794.00    0.63058   0.62845    0.000
 5795.00    0.62976   0.62905    0.000
 5796.00    0.62931   0.62952    0.000
 5797.00    0.62979   0.63039    0.000
 5798.00    0.63116   0.63164    0.000
 5799.00    0.63263   0.63278    0.000
 5800.00    0.63305   0.63346    0.000
 5801.00    0.63191   0.63354    0.000
 5802.00    0.63084   0.63293    0.000
 5803.00    0.63175   0.63191    0.000
 5804.00    0.63408   0.63098    0.000
 5805.00    0.63580   0.63039    0.000
 5806.00    0.63534   0.63019    0.000
 5807.00    0.63297   0.63032    0.000
 5808.00    0.63185   0.63067    0.000
 5809.00    0.63401   0.63107    0.000
 5810.00    0.63630   0.63130    0.000
 5811.00    0.63514   0.63119    0.000
 5812.00    0.63117   0.63075    0.000
 5813.00    0.62723   0.63011    0.000
 5814.00    0.62589   0.62954    0.000
 5815.00    0.62774   0.62955    0.000
 5816.00    0.63044   0.63039    0.000
 5817.00    0.63217   0.63177    0.000
 5818.00    0.63385   0.63321    0.000
 5819.00    0.63629   0.63446    0.000
 5820.00    0.63849   0.63538    0.000
 5821.00    0.63936   0.63592    0.000
 5822.00    0.63868   0.63618    0.000
 5823.00    0.63695   0.63632    0.000
 5824.00    0.63505   0.63635    0.000
 5825.00    0.63374   0.63630    0.000
 5826.00    0.63333   0.63622    0.000
 5827.00    0.63375   0.63615    0.000
 5828.00    0.63459   0.63598    0.000
 5829.00    0.63486   0.63561    0.000
 5830.00    0.63344   0.63504    0.000
 5831.00    0.63088   0.63431    0.000
 5832.00    0.62924   0.63346    0.000
 5833.00    0.62932   0.63260    0.000
 5834.00    0.63013   0.63205    0.000
 5835.00    0.63080   0.63188    0.000
 5836.00    0.63124   0.63190    0.000
 5837.00    0.63235   0.63209    0.000
 5838.00    0.63534   0.63262    0.000
 5839.00    0.63969   0.63331    0.000
 5840.00    0.64341   0.63377    0.000
 5841.00    0.64485   0.63378    0.000
 5842.00    0.64323   0.63325    0.000
 5843.00    0.63909   0.63221    0.000
 5844.00    0.63370   0.63077    0.000
 5845.00    0.62800   0.62900    0.000
 5846.00    0.62266   0.62708    0.000
 5847.00    0.61865   0.62521    0.000
 5848.00    0.61648   0.62335    0.000
 5849.00    0.61490   0.62126    0.000
 5850.00    0.61226   0.61872    0.000
 5851.00    0.60873   0.61578    0.000
 5852.00    0.60568   0.61293    0.000
 5853.00    0.60434   0.61061    0.000
 5854.00    0.60533   0.60862    0.000
 5855.00    0.60841   0.60669    0.000
 5856.00    0.61270   0.60524    0.000
 5857.00    0.61707   0.60504    0.000
 5858.00    0.62077   0.60611    0.000
 5859.00    0.62398   0.60781    0.000
 5860.00    0.62705   0.60954    0.000
 5861.00    0.62969   0.61116    0.000
 5862.00    0.63116   0.61289    0.000
 5863.00    0.63056   0.61463    0.000
 5864.00    0.62726   0.61594    0.000
 5865.00    0.62136   0.61683    0.000
 5866.00    0.61459   0.61774    0.000
 5867.00    0.61064   0.61880    0.000
 5868.00    0.61308   0.61962    0.000
 5869.00    0.62382   0.61984    0.000
 5870.00    0.64313   0.61933    0.000
 5871.00    0.66953   0.61820    0.000
 5872.00    0.69925   0.61655    0.000
 5873.00    0.72627   0.61448    0.000
 5874.00    0.74408   0.61237    0.000
 5875.00    0.74737   0.61069    0.000
 5876.00    0.73528   0.60961    0.000
 5877.00    0.71215   0.60882    0.000
 5878.00    0.68454   0.60792    0.000
 5879.00    0.65908   0.60703    0.000
 5880.00    0.63947   0.60610    0.000
 5881.00    0.62594   0.60445    0.000
 5882.00    0.61741   0.60124    0.000
 5883.00    0.61217   0.59620    0.000
 5884.00    0.60766   0.58949    0.000
 5885.00    0.60127   0.58108    0.000
 5886.00    0.59286   0.57089    0.000
 5887.00    0.58464   0.55919    0.000
 5888.00    0.57889   0.54763    0.000
 5889.00    0.57689   0.53913    0.000
 5890.00    0.57783   0.53512    0.000
 5891.00    0.57974   0.53414    0.000
 5892.00    0.58182   0.53450    0.000
 5893.00    0.58437   0.53550    0.000
 5894.00    0.58741   0.53747    0.000
 5895.00    0.59062   0.54205    0.000
 5896.00    0.59378   0.54960    0.000
 5897.00    0.59700   0.55832    0.000
 5898.00    0.60106   0.56702    0.000
 5899.00    0.60647   0.57555    0.000
 5900.00    0.61222   0.58363    0.000
 5901.00    0.61655   0.59071   88.208
 5902.00    0.61839   0.59626   89.644
 5903.00    0.61777   0.60014   90.423
 5904.00    0.61607   0.60278   90.298
 5905.00    0.61472   0.60474   89.819
 5906.00    0.61373   0.60622   88.964
 5907.00    0.61267   0.60714   87.753
 5908.00    0.61180   0.60746   86.859
 5909.00    0.61146   0.60731   86.393
 5910.00    0.61149   0.60674   85.071
 5911.00    0.61151   0.60561   82.652
 5912.00    0.61129   0.60399   81.312
 5913.00    0.61094   0.60252   82.328
 5914.00    0.61102   0.60179   84.273
 5915.00    0.61173   0.60187   85.381
 5916.00    0.61238   0.60253   85.544
 5917.00    0.61224   0.60350   85.289
 5918.00    0.61108   0.60466   84.878
 5919.00    0.60899   0.60589   84.471
 5920.00    0.60626   0.60688   84.303
 5921.00    0.60381   0.60753   84.845
 5922.00    0.60304   0.60796   86.662
 5923.00    0.60436   0.60812   88.986
 5924.00    0.60670   0.60802   89.499
 5925.00    0.60854   0.60762   88.421
 5926.00    0.60871   0.60685   89.033
 5927.00    0.60751   0.60579   91.857
 5928.00    0.60647   0.60469   93.569
 5929.00    0.60607   0.60403   93.059
 5930.00    0.60542   0.60405   92.951
 5931.00    0.60439   0.60433   94.020
 5932.00    0.60384   0.60448   94.509
 5933.00    0.60446   0.60461   94.020
 5934.00    0.60634   0.60509   93.739
 5935.00    0.60925   0.60586   93.235
 5936.00    0.61247   0.60642   91.095
 5937.00    0.61441   0.60657   88.542
 5938.00    0.61349   0.60640   87.939
 5939.00    0.61018   0.60591   88.725
 5940.00    0.60674   0.60537   88.564
 5941.00    0.60548   0.60507   87.418
 5942.00    0.60747   0.60499   86.748
 5943.00    0.61087   0.60502   86.282
 5944.00    0.61269   0.60500   84.949
 5945.00    0.61250   0.60466   83.329
 5946.00    0.61169   0.60388   82.713
 5947.00    0.61130   0.60280   83.322
 5948.00    0.61139   0.60192   84.600
 5949.00    0.61082   0.60140   85.843
 5950.00    0.60866   0.60080   86.595
 5951.00    0.60610   0.59995   87.138
 5952.00    0.60492   0.59942   87.886
 5953.00    0.60550   0.59952   88.529
 5954.00    0.60697   0.59981   88.642
 5955.00    0.60771   0.59996   88.514
 5956.00    0.60689   0.60037   88.731
 5957.00    0.60570   0.60140   89.647
 5958.00    0.60562   0.60294   91.175
 5959.00    0.60682   0.60450   92.652
 5960.00    0.60853   0.60582   93.580
 5961.00    0.60973   0.60690   94.308
 5962.00    0.61002   0.60772   95.082
 5963.00    0.61015   0.60820   95.272
 5964.00    0.61047   0.60837   94.222
 5965.00    0.61003   0.60858   92.062
 5966.00    0.60814   0.60906   90.182
 5967.00    0.60530   0.60963   90.740
 5968.00    0.60294   0.61013   93.360
 5969.00    0.60283   0.61039   93.818
 5970.00    0.60539   0.61024   90.796
 5971.00    0.60906   0.60956   88.395
 5972.00    0.61181   0.60828   88.076
 5973.00    0.61222   0.60644   87.206
 5974.00    0.61039   0.60424   85.117
 5975.00    0.60784   0.60209   84.290
 5976.00    0.60537   0.60033   85.333
 5977.00    0.60255   0.59904   86.149
 5978.00    0.59957   0.59823   85.371
 5979.00    0.59746   0.59770   83.676
 5980.00    0.59644   0.59706   82.644
 5981.00    0.59589   0.59608   83.641
 5982.00    0.59553   0.59486   86.021
 5983.00    0.59564   0.59392   87.386
 5984.00    0.59633   0.59377   86.999
 5985.00    0.59732   0.59418   86.244
 5986.00    0.59795   0.59482   86.099
 5987.00    0.59769   0.59577   86.720
 5988.00    0.59710   0.59700   87.998
 5989.00    0.59731   0.59816   89.647
 5990.00    0.59853   0.59897   91.128
 5991.00    0.60007   0.59966   91.815
 5992.00    0.60116   0.60031   91.433
 5993.00    0.60128   0.60055   90.346
 5994.00    0.60062   0.60016   89.692
 5995.00    0.59970   0.59927   90.376
 5996.00    0.59870   0.59818   91.661
 5997.00    0.59740   0.59725   92.288
 5998.00    0.59540   0.59659   92.626
 5999.00    0.59264   0.59600   93.534
 6000.00    0.59009   0.59524   94.322
 6001.00    0.58866   0.59417   93.720
 6002.00    0.58778   0.59318   91.608
 6003.00    0.58658   0.59254   89.005
 6004.00    0.58518   0.59187   87.449
 6005.00    0.58422   0.59092   87.470
 6006.00    0.58410   0.58985   87.586
 6007.00    0.58479   0.58925   86.766
 6008.00    0.58567   0.58960   86.498
 6009.00    0.58629   0.59029   87.590
 6010.00    0.58679   0.59045   87.857
 6011.00    0.58725   0.59006   86.221
 6012.00    0.58731   0.58962   85.473
 6013.00    0.58716   0.58940   87.205
 6014.00    0.58797   0.58898   89.089
 6015.00    0.58984   0.58808   88.835
 6016.00    0.59079   0.58720   87.283
 6017.00    0.58927   0.58659   86.232
 6018.00    0.58556   0.58601   86.813
 6019.00    0.58081   0.58558   88.900
 6020.00    0.57647   0.58562   91.040
 6021.00    0.57375   0.58621   92.535
 6022.00    0.57337   0.58719   94.300
 6023.00    0.57549   0.58850   96.187
 6024.00    0.57968   0.59025   96.248
 6025.00    0.58493   0.59212   94.195
 6026.00    0.58999   0.59393   92.055
 6027.00    0.59458   0.59581   91.085
 6028.00    0.59935   0.59761   91.141
 6029.00    0.60419   0.59909   91.350
 6030.00    0.60795   0.60026   90.694
 6031.00    0.60941   0.60126   89.303
 6032.00    0.60797   0.60210   88.188
 6033.00    0.60462   0.60257   87.621
 6034.00    0.60153   0.60267   87.198
 6035.00    0.60039   0.60255   86.859
 6036.00    0.60176   0.60229   86.785
 6037.00    0.60477   0.60187   86.618
 6038.00    0.60767   0.60128   85.895
 6039.00    0.60922   0.60073   85.255
 6040.00    0.60931   0.60043   85.736
 6041.00    0.60929   0.60048   87.157
 6042.00    0.61085   0.60090   88.296
 6043.00    0.61388   0.60145   87.866
 6044.00    0.61677   0.60193   85.604
 6045.00    0.61749   0.60239   83.199
 6046.00    0.61486   0.60269   82.515
 6047.00    0.61002   0.60264   83.845
 6048.00    0.60514   0.60222   86.532
 6049.00    0.60141   0.60150   89.626
 6050.00    0.59885   0.60041   92.179
 6051.00    0.59643   0.59897   93.828
 6052.00    0.59341   0.59743   94.737
 6053.00    0.59067   0.59614   95.242
 6054.00    0.58974   0.59512   95.432
 6055.00    0.59165   0.59441   94.857
 6056.00    0.59556   0.59413   93.486
 6057.00    0.59811   0.59423   92.341
 6058.00    0.59714   0.59433   91.752
 6059.00    0.59452   0.59409   90.392
 6060.00    0.59284   0.59352   88.073
 6061.00    0.59283   0.59277   87.056
 6062.00    0.59355   0.59194   88.287
 6063.00    0.59314   0.59113   89.574
 6064.00    0.59091   0.59074   89.003
 6065.00    0.58845   0.59155   87.340
 6066.00    0.58752   0.59344   85.846
 6067.00    0.58880   0.59557   84.972
 6068.00    0.59184   0.59753   84.896
 6069.00    0.59529   0.59931   85.782
 6070.00    0.59838   0.60084   87.581
 6071.00    0.60124   0.60177   89.877
 6072.00    0.60342   0.60175   91.773
 6073.00    0.60369   0.60092   92.151
 6074.00    0.60177   0.59952   91.059
 6075.00    0.59880   0.59759   89.794
 6076.00    0.59604   0.59518   89.170
 6077.00    0.59424   0.59261   89.211
 6078.00    0.59324   0.59045   89.883
 6079.00    0.59233   0.58877   91.147
 6080.00    0.59156   0.58719   92.363
 6081.00    0.59156   0.58588   92.627
 6082.00    0.59217   0.58524   92.407
 6083.00    0.59244   0.58505   93.000
 6084.00    0.59189   0.58486   94.058
 6085.00    0.59079   0.58474   94.013
 6086.00    0.59003   0.58482   92.727
 6087.00    0.59060   0.58490   91.336
 6088.00    0.59239   0.58470   90.503
 6089.00    0.59448   0.58445   90.201
 6090.00    0.59596   0.58458   89.883
 6091.00    0.59624   0.58500   89.032
 6092.00    0.59520   0.58554   88.010
 6093.00    0.59302   0.58633   87.286
 6094.00    0.58987   0.58717   86.214
 6095.00    0.58640   0.58742   84.246
 6096.00    0.58423   0.58676   82.585
 6097.00    0.58461   0.58550   82.494
 6098.00    0.58649   0.58402   83.450
 6099.00    0.58771   0.58212   84.677
 6100.00    0.58675   0.57954   87.144
 6101.00    0.58374   0.57677   91.378
 6102.00    0.58110   0.57542   94.210
 6103.00    0.58121   0.57622   93.080
 6104.00    0.58400   0.57790   91.722
 6105.00    0.58781   0.57942   92.546
 6106.00    0.59050   0.58095   90.937
 6107.00    0.59105   0.58292   84.449
 6108.00    0.59052   0.58507   78.405
 6109.00    0.58999   0.58647   75.687
 6110.00    0.58914   0.58688   74.289
 6111.00    0.58774   0.58707   73.191
 6112.00    0.58667   0.58741   74.591
 6113.00    0.58681   0.58740   79.155
 6114.00    0.58813   0.58653   82.893
 6115.00    0.58929   0.58489   82.767
 6116.00    0.58786   0.58297   81.648
 6117.00    0.58299   0.58093   81.719
 6118.00    0.57629   0.57851   81.754
 6119.00    0.56934   0.57582   81.481
 6120.00    0.56282   0.57327   82.850
 6121.00    0.55824   0.57153   86.286
 6122.00    0.55806   0.57132   89.346
 6123.00    0.56307   0.57217   89.776
 6124.00    0.57164   0.57318   87.823
 6125.00    0.58099   0.57429   85.976
 6126.00    0.58825   0.57562   86.828
 6127.00    0.59269   0.57701   88.849
 6128.00    0.59552   0.57814   87.094
 6129.00    0.59716   0.57868   81.721
 6130.00    0.59671   0.57818   77.221
 6131.00    0.59255   0.57646   75.389
 6132.00    0.58390   0.57395   75.851
 6133.00    0.57387   0.57090   77.836
 6134.00    0.56760   0.56722   80.496
 6135.00    0.56636   0.56318   83.405
 6136.00    0.56750   0.56026   86.383
 6137.00    0.56752   0.56009   88.599
 6138.00    0.56408   0.56200   89.004
 6139.00    0.55875   0.56412   87.885
 6140.00    0.55521   0.56599   86.579
 6141.00    0.55554   0.56860   86.349
 6142.00    0.55960   0.57203   87.800
 6143.00    0.56526   0.57477   90.198
 6144.00    0.57003   0.57603   91.931
 6145.00    0.57314   0.57638   91.785
 6146.00    0.57434   0.57641   89.836
 6147.00    0.57206   0.57616   87.743
 6148.00    0.56543   0.57560   86.944
 6149.00    0.55679   0.57498   87.181
 6150.00    0.54966   0.57463   87.565
 6151.00    0.54612   0.57442   87.721
 6152.00    0.54617   0.57394   87.781
 6153.00    0.54748   0.57289   88.220
 6154.00    0.54802   0.57133   89.472
 6155.00    0.54813   0.56914   91.517
 6156.00    0.54884   0.56601   93.028
 6157.00    0.55034   0.56216   91.134
 6158.00    0.55183   0.55806   85.844
 6159.00    0.55166   0.55358   81.305
 6160.00    0.54846   0.54892   79.777
 6161.00    0.54209   0.54552   80.414
 6162.00    0.53462   0.54435   82.352
 6163.00    0.53012   0.54464   85.932
 6164.00    0.52993   0.54546   90.551
 6165.00    0.53092   0.54681   93.347
 6166.00    0.53061   0.54876   93.661
 6167.00    0.52979   0.55036   94.573
 6168.00    0.53121   0.55112   -2.000
 6169.00    0.53802   0.55226   -2.000
 6170.00    0.54962   0.55447   -2.000
 6171.00    0.56094   0.55680   -2.000
 6172.00    0.56689   0.55861   -2.000
 6173.00    0.56483   0.56050   -2.000
 6174.00    0.55665   0.56263   -2.000
 6175.00    0.54804   0.56452   -2.000
 6176.00    0.54367   0.56610   -2.000
 6177.00    0.54543   0.56762   -2.000
 6178.00    0.55196   0.56888   -2.000
 6179.00    0.55975   0.56974   -2.000
 6180.00    0.56616   0.57043   71.171
 6181.00    0.57007   0.57078   69.758
 6182.00    0.57122   0.57045   72.993
 6183.00    0.57018   0.56950   79.045
 6184.00    0.56841   0.56793   85.425
 6185.00    0.56732   0.56549   89.846
 6186.00    0.56636   0.56266   91.707
 6187.00    0.56402   0.56022   92.423
 6188.00    0.56040   0.55828   93.731
 6189.00    0.55711   0.55648   96.289
 6190.00    0.55603   0.55511   97.956
 6191.00    0.55841   0.55546   96.029
 6192.00    0.56383   0.55748   92.011
 6193.00    0.57043   0.55951   88.810
 6194.00    0.57558   0.56103   86.950
 6195.00    0.57734   0.56260   86.154
 6196.00    0.57615   0.56421   87.048
 6197.00    0.57377   0.56506   89.374
 6198.00    0.57175   0.56502   89.555
 6199.00    0.57111   0.56512   85.102
 6200.00    0.57206   0.56603   79.441
 6201.00    0.57395   0.56727   75.651
 6202.00    0.57526   0.56826   73.234
 6203.00    0.57470   0.56906   71.954
 6204.00    0.57231   0.56982   73.864
 6205.00    0.56941   0.57030   80.048
 6206.00    0.56818   0.57004   86.923
 6207.00    0.56933   0.56890   89.845
 6208.00    0.57059   0.56695   90.471
 6209.00    0.56927   0.56433   91.890
 6210.00    0.56413   0.56129   93.651
 6211.00    0.55610   0.55806   94.705
 6212.00    0.54824   0.55467   95.508
 6213.00    0.54322   0.55159   96.578
 6214.00    0.54182   0.54932   97.626
 6215.00    0.54306   0.54806   98.319
 6216.00    0.54470   0.54770   98.579
 6217.00    0.54557   0.54772   97.777
 6218.00    0.54629   0.54775   95.014
 6219.00    0.54776   0.54818   91.590
 6220.00    0.55028   0.54923   90.281
 6221.00    0.55302   0.55045   91.505
 6222.00    0.55441   0.55126   93.014
 6223.00    0.55436   0.55151   92.479
 6224.00    0.55431   0.55138   89.212
 6225.00    0.55452   0.55076   84.991
 6226.00    0.55396   0.54957   82.203
 6227.00    0.55215   0.54798   80.790
 6228.00    0.54966   0.54608   79.471
 6229.00    0.54752   0.54431   79.282
 6230.00    0.54703   0.54360   82.192
 6231.00    0.54950   0.54414   85.620
 6232.00    0.55535   0.54527   83.508
 6233.00    0.56236   0.54670   76.738
 6234.00    0.56693   0.54801   70.649
 6235.00    0.56723   0.54866   67.167
 6236.00    0.56368   0.54838   66.343
 6237.00    0.55839   0.54723   68.441
 6238.00    0.55374   0.54549   73.911
 6239.00    0.55023   0.54362   82.249
 6240.00    0.54711   0.54205   91.313
 6241.00    0.54381   0.54056   98.288
 6242.00    0.54036   0.53920  101.247
 6243.00    0.53743   0.53881  100.676
 6244.00    0.53595   0.53925   98.700
 6245.00    0.53652   0.53974   97.126
 6246.00    0.53890   0.54040   96.500
 6247.00    0.54151   0.54128   95.739
 6248.00    0.54238   0.54181   94.077
 6249.00    0.54029   0.54152   92.802
 6250.00    0.53590   0.54031   92.820
 6251.00    0.53236   0.53830   92.728
 6252.00    0.53177   0.53614   91.487
 6253.00    0.53247   0.53432   90.554
 6254.00    0.53259   0.53292   90.649
 6255.00    0.53301   0.53191   89.729
 6256.00    0.53493   0.53157   86.835
 6257.00    0.53804   0.53232   84.262
 6258.00    0.54107   0.53425   83.856
 6259.00    0.54251   0.53684   85.535
 6260.00    0.54184   0.53933   88.587
 6261.00    0.54019   0.54198   92.192
 6262.00    0.53887   0.54471   95.446
 6263.00    0.53854   0.54657   97.538
 6264.00    0.53926   0.54743   98.142
 6265.00    0.54053   0.54831   97.653
 6266.00    0.54155   0.54936   96.974
 6267.00    0.54147   0.54990   97.135
 6268.00    0.54020   0.55006   98.509
 6269.00    0.53861   0.55047  100.594
 6270.00    0.53813   0.55125  102.323
 6271.00    0.54004   0.55197  102.448
 6272.00    0.54391   0.55240  100.634
 6273.00    0.54771   0.55253   97.783
 6274.00    0.55013   0.55244   95.481
 6275.00    0.55102   0.55208   95.137
 6276.00    0.55064   0.55144   96.590
 6277.00    0.54938   0.55069   98.210
 6278.00    0.54766   0.54996   98.196
 6279.00    0.54575   0.54935   95.872
 6280.00    0.54321   0.54929    0.000
 6281.00    0.53961   0.54995    0.000
 6282.00    0.53628   0.55109    0.000
 6283.00    0.53538   0.55243    0.000
 6284.00    0.53719   0.55367    0.000
 6285.00    0.54036   0.55483    0.000
 6286.00    0.54324   0.55585    0.000
 6287.00    0.54475   0.55641    0.000
 6288.00    0.54522   0.55631    0.000
 6289.00    0.54574   0.55558    0.000
 6290.00    0.54685   0.55443    0.000
 6291.00    0.54866   0.55302    0.000
 6292.00    0.55135   0.55144    0.000
 6293.00    0.55570   0.54994    0.000
 6294.00    0.56367   0.54841    0.000
 6295.00    0.57700   0.54652    0.000
 6296.00    0.59562   0.54466    0.000
 6297.00    0.61687   0.54342    0.000
 6298.00    0.63522   0.54281    0.000
 6299.00    0.64511   0.54229    0.000
 6300.00    0.64372   0.54178    0.000
 6301.00    0.63195   0.54205    0.000
 6302.00    0.61463   0.54350    0.000
 6303.00    0.59757   0.54532    0.000
 6304.00    0.58491   0.54676    0.000
 6305.00    0.57769   0.54813    0.000
 6306.00    0.57334   0.54970    0.000
 6307.00    0.56910   0.55080    0.000
 6308.00    0.56411   0.55084    0.000
 6309.00    0.55840   0.54989    0.000
 6310.00    0.55224   0.54846    0.000
 6311.00    0.54666   0.54692    0.000
 6312.00    0.54341   0.54511    0.000
 6313.00    0.54320   0.54272    0.000
 6314.00    0.54495   0.54054    0.000
 6315.00    0.54645   0.53949    0.000
 6316.00    0.54533   0.53894    0.000
 6317.00    0.54181   0.53842    0.000
 6318.00    0.53887   0.53903    0.000
 6319.00    0.53863   0.54099    0.000
 6320.00    0.54112   0.54312    0.000
 6321.00    0.54501   0.54495   99.414
 6322.00    0.54845   0.54698   99.673
 6323.00    0.55053   0.54923  100.190
 6324.00    0.55141   0.55095   98.661
 6325.00    0.55120   0.55186   95.647
 6326.00    0.54997   0.55229   93.763
 6327.00    0.54844   0.55269   93.702
 6328.00    0.54781   0.55279   94.287
 6329.00    0.54879   0.55199   93.900
 6330.00    0.55113   0.55062   91.488
 6331.00    0.55328   0.54932   87.861
 6332.00    0.55342   0.54803   84.396
 6333.00    0.55153   0.54618   80.971
 6334.00    0.54867   0.54388   77.450
 6335.00    0.54508   0.54231   75.783
 6336.00    0.54068   0.54197   77.597
 6337.00    0.53669   0.54193   80.603
 6338.00    0.53469   0.54162   81.078
 6339.00    0.53502   0.54171   80.621
 6340.00    0.53677   0.54216   82.700
 6341.00    0.53823   0.54204   86.262
 6342.00    0.53818   0.54127   88.440
 6343.00    0.53733   0.54079   90.322
 6344.00    0.53751   0.54100   94.114
 6345.00    0.54046   0.54128   97.828
 6346.00    0.54677   0.54174   98.217
 6347.00    0.55491   0.54298   96.325
 6348.00    0.56231   0.54453   94.636
 6349.00    0.56650   0.54544   93.616
 6350.00    0.56594   0.54580   93.174
 6351.00    0.56064   0.54589   93.848
 6352.00    0.55214   0.54519   95.535
 6353.00    0.54326   0.54333   96.567
 6354.00    0.53619   0.54105   96.224
 6355.00    0.53132   0.53903   96.354
 6356.00    0.52841   0.53672   97.706
 6357.00    0.52746   0.53386   98.020
 6358.00    0.52889   0.53146   96.309
 6359.00    0.53341   0.53015   94.936
 6360.00    0.54130   0.52932   95.308
 6361.00    0.55178   0.52885   96.300
 6362.00    0.56266   0.52944   -1.000
 6363.00    0.57057   0.53116   -1.000
 6364.00    0.57354   0.53318   -1.000
 6365.00    0.57187   0.53511   -1.000
 6366.00    0.56693   0.53723   82.849
 6367.00    0.56049   0.53952   78.370
 6368.00    0.55424   0.54140   76.488
 6369.00    0.54954   0.54262   77.816
 6370.00    0.54711   0.54383   81.701
 6371.00    0.54703   0.54542   85.938
 6372.00    0.54857   0.54680   88.534
 6373.00    0.55049   0.54739   89.022
 6374.00    0.55177   0.54754   88.364
 6375.00    0.55187   0.54767   88.060
 6376.00    0.55074   0.54742   88.694
 6377.00    0.54864   0.54661   89.968
 6378.00    0.54578   0.54568   91.431
 6379.00    0.54238   0.54493   92.606
 6380.00    0.53913   0.54441   92.967
 6381.00    0.53681   0.54431   92.444
 6382.00    0.53549   0.54442   92.262
 6383.00    0.53473   0.54449   93.821
 6384.00    0.53434   0.54475   96.581
 6385.00    0.53452   0.54529   98.759
 6386.00    0.53585   0.54554   99.613
 6387.00    0.53842   0.54504   99.241
 6388.00    0.54061   0.54403   97.318
 6389.00    0.54035   0.54302   94.336
 6390.00    0.53707   0.54196   92.889
 6391.00    0.53191   0.54046   94.541
 6392.00    0.52747   0.53885   96.641
 6393.00    0.52641   0.53809   96.246
 6394.00    0.52973   0.53798   95.801
 6395.00    0.53616   0.53769   98.018
 6396.00    0.54197   0.53758  100.300
 6397.00    0.54384   0.53782   98.437
 6398.00    0.54156   0.53764   92.310
 6399.00    0.53708   0.53737   84.975
 6400.00    0.53331   0.53833   79.545
 6401.00    0.53187   0.53978   77.288
 6402.00    0.53178   0.54036   77.887
 6403.00    0.53176   0.54055   80.531
 6404.00    0.53190   0.54108   84.111
 6405.00    0.53236   0.54115   87.871
 6406.00    0.53257   0.54008   92.004
 6407.00    0.53177   0.53889   95.841
 6408.00    0.52942   0.53860   96.803
 6409.00    0.52592   0.53829   94.707
 6410.00    0.52273   0.53734   93.066
 6411.00    0.52121   0.53693   93.034
 6412.00    0.52188   0.53738   92.325
 6413.00    0.52399   0.53760   90.992
 6414.00    0.52569   0.53731   92.353
 6415.00    0.52585   0.53698   97.037
 6416.00    0.52469   0.53673  101.049
 6417.00    0.52325   0.53665  100.275
 6418.00    0.52288   0.53669   94.477
 6419.00    0.52429   0.53672   86.597
 6420.00    0.52723   0.53727   79.781
 6421.00    0.53057   0.53891   75.450
 6422.00    0.53288   0.54103   74.057
 6423.00    0.53364   0.54252   76.051
 6424.00    0.53348   0.54338   81.794
 6425.00    0.53377   0.54389   89.385
 6426.00    0.53576   0.54381   93.751
 6427.00    0.53901   0.54302   92.877
 6428.00    0.54166   0.54162   89.721
 6429.00    0.54184   0.53981   86.595
 6430.00    0.53866   0.53833   84.330
 6431.00    0.53355   0.53786   83.575
 6432.00    0.52938   0.53785   84.658
 6433.00    0.52846   0.53757   86.789
 6434.00    0.53135   0.53731   88.582
 6435.00    0.53551   0.53764   89.558
 6436.00    0.53727   0.53803   90.327
 6437.00    0.53500   0.53780   92.113
 6438.00    0.52981   0.53780   95.735
 6439.00    0.52575   0.53911  100.003
 6440.00    0.52670   0.54092  101.820
 6441.00    0.53263   0.54216   98.139
 6442.00    0.54073   0.54310   90.106
 6443.00    0.54736   0.54375   83.149
 6444.00    0.54969   0.54328   80.057
 6445.00    0.54718   0.54169   79.431
 6446.00    0.54121   0.53977   79.900
 6447.00    0.53431   0.53739   82.620
 6448.00    0.52868   0.53436   88.335
 6449.00    0.52500   0.53192   93.888
 6450.00    0.52293   0.53099   95.549
 6451.00    0.52174   0.53078   94.706
 6452.00    0.52075   0.53088   94.266
 6453.00    0.51972   0.53146   95.037
 6454.00    0.51890   0.53215   96.476
 6455.00    0.51891   0.53285   97.403
 6456.00    0.51991   0.53379   97.525
 6457.00    0.52130   0.53434   98.047
 6458.00    0.52276   0.53424   99.377
 6459.00    0.52465   0.53416  100.215
 6460.00    0.52703   0.53386   99.852
 6461.00    0.52938   0.53293   99.074
 6462.00    0.53154   0.53256   98.138
 6463.00    0.53382   0.53348   96.460
 6464.00    0.53550   0.53448   94.880
 6465.00    0.53503   0.53512   95.362
 6466.00    0.53275   0.53596   97.408
 6467.00    0.53106   0.53695   97.755
 6468.00    0.53158   0.53750   95.017
 6469.00    0.53421   0.53754   90.853
 6470.00    0.53777   0.53721   86.876
 6471.00    0.54066   0.53707   83.965
 6472.00    0.54219   0.53743   82.984
 6473.00    0.54264   0.53753   84.666
 6474.00    0.54254   0.53721   88.527
 6475.00    0.54225   0.53715   92.710
 6476.00    0.54138   0.53710   95.184
 6477.00    0.53914   0.53622   95.149
 6478.00    0.53537   0.53498   94.543
 6479.00    0.53085   0.53402   95.831
 6480.00    0.52743   0.53287   97.886
 6481.00    0.52667   0.53154   97.889
 6482.00    0.52748   0.53095   96.855
 6483.00    0.52759   0.53117   97.639
 6484.00    0.52662   0.53126  100.275
 6485.00    0.52570   0.53082  102.917
 6486.00    0.52609   0.53010  104.343
 6487.00    0.52807   0.52880  104.346
 6488.00    0.52967   0.52607  103.435
 6489.00    0.52820   0.52167  102.283
 6490.00    0.52232   0.51655  101.166
 6491.00    0.51258   0.51139  100.021
 6492.00    0.50163   0.50608   98.621
 6493.00    0.49265   0.50108   97.046
 6494.00    0.48758   0.49776   95.961
 6495.00    0.48725   0.49680   95.457
 6496.00    0.49148   0.49784   94.304
 6497.00    0.49885   0.50042   92.160
 6498.00    0.50680   0.50412   90.858
 6499.00    0.51354   0.50878   91.166
 6500.00    0.51938   0.51380   91.074
 6501.00    0.52465   0.51841   89.586
 6502.00    0.52849   0.52220   88.931
 6503.00    0.53072   0.52522   90.896
 6504.00    0.53294   0.52757   94.984
 6505.00    0.53648   0.52927   99.199
 6506.00    0.54121   0.53027  100.827
 6507.00    0.54557   0.53058   99.856
 6508.00    0.54705   0.53064   99.773
 6509.00    0.54476   0.53060  101.672
 6510.00    0.54020   0.53007  102.646
 6511.00    0.53504   0.52901  101.366
 6512.00    0.53023   0.52792  100.003
 6513.00    0.52623   0.52676   99.788
 6514.00    0.52317   0.52532   99.953
 6515.00    0.52125   0.52413   99.781
 6516.00    0.52074   0.52365   99.239
 6517.00    0.52183   0.52349   98.497
 6518.00    0.52459   0.52360   97.698
 6519.00    0.52874   0.52439   96.833
 6520.00    0.53358   0.52546   95.852
 6521.00    0.53764   0.52603   95.001
 6522.00    0.53921   0.52618   94.657
 6523.00    0.53779   0.52636   94.747
 6524.00    0.53425   0.52631   94.949
 6525.00    0.53015   0.52562   95.455
 6526.00    0.52708   0.52466   96.521
 6527.00    0.52540   0.52396   97.130
 6528.00    0.52451   0.52341    0.000
 6529.00    0.52374   0.52278    0.000
 6530.00    0.52276   0.52219    0.000
 6531.00    0.52206   0.52173    0.000
 6532.00    0.52231   0.52139    0.000
 6533.00    0.52337   0.52127    0.000
 6534.00    0.52469   0.52141    0.000
 6535.00    0.52626   0.52143    0.000
 6536.00    0.52798   0.52105    0.000
 6537.00    0.52884   0.52049    0.000
 6538.00    0.52832   0.51982    0.000
 6539.00    0.52821   0.51864    0.000
 6540.00    0.53314   0.51659    0.000
 6541.00    0.55055   0.51392    0.000
 6542.00    0.58760   0.51122    0.000
 6543.00    0.64755   0.50859    0.000
 6544.00    0.72542   0.50569    0.000
 6545.00    0.80498   0.50262    0.000
 6546.00    0.86527   0.50006    0.000
 6547.00    0.88735   0.49794    0.000
 6548.00    0.86276   0.49552    0.000
 6549.00    0.79903   0.49244    0.000
 6550.00    0.71471   0.48884    0.000
 6551.00    0.63384   0.48475    0.000
 6552.00    0.57512   0.47989    0.000
 6553.00    0.54719   0.47373    0.000
 6554.00    0.56172   0.46629    0.000
 6555.00    0.64504   0.45805    0.000
 6556.00    0.85768   0.44875    0.000
 6557.00    1.28779   0.43749    0.000
 6558.00    1.97084   0.42545    0.000
 6559.00    2.84470   0.41535    0.000
 6560.00    3.73106   0.40727    0.000
 6561.00    4.36604   0.40044    0.000
 6562.00    4.55089   0.39799    0.000
 6563.00    4.22376   0.40259    0.000
 6564.00    3.48954   0.41101    0.000
 6565.00    2.58721   0.42015    0.000
 6566.00    1.74861   0.43086    0.000
 6567.00    1.13190   0.44254    0.000
 6568.00    0.77131   0.45250    0.000
 6569.00    0.59670   0.46028    0.000
 6570.00    0.52836   0.46681    0.000
 6571.00    0.50743   0.47212    0.000
 6572.00    0.50269   0.47638    0.000
 6573.00    0.50558   0.48026    0.000
 6574.00    0.51513   0.48410    0.000
 6575.00    0.53594   0.48788    0.000
 6576.00    0.58109   0.49136    0.000
 6577.00    0.67052   0.49447    0.000
 6578.00    0.82609   0.49725    0.000
 6579.00    1.05466   0.49958    0.000
 6580.00    1.32153   0.50138    0.000
 6581.00    1.56129   0.50291    0.000
 6582.00    1.70383   0.50437    0.000
 6583.00    1.69985   0.50563    0.000
 6584.00    1.55132   0.50658    0.000
 6585.00    1.30482   0.50723    0.000
 6586.00    1.03469   0.50778    0.000
 6587.00    0.81018   0.50786    0.000
 6588.00    0.65911   0.50708    0.000
 6589.00    0.57625   0.50604    0.000
 6590.00    0.53856   0.50514    0.000
 6591.00    0.52147   0.50391    0.000
 6592.00    0.51311   0.50262    0.000
 6593.00    0.50936   0.50251    0.000
 6594.00    0.50800   0.50347    0.000
 6595.00    0.50739   0.50461    0.000
 6596.00    0.50611   0.50595    0.000
 6597.00    0.50435   0.50772    0.000
 6598.00    0.50458   0.50961    0.000
 6599.00    0.50846   0.51118    0.000
 6600.00    0.51487   0.51219    0.000
 6601.00    0.52106   0.51259    0.000
 6602.00    0.52406   0.51254    0.000
 6603.00    0.52296   0.51204    0.000
 6604.00    0.51981   0.51111    0.000
 6605.00    0.51697   0.51024    0.000
 6606.00    0.51565   0.50976    0.000
 6607.00    0.51573   0.50944    0.000
 6608.00    0.51613   0.50930    0.000
 6609.00    0.51667   0.50995   94.340
 6610.00    0.51841   0.51137   95.225
 6611.00    0.52164   0.51272   93.689
 6612.00    0.52544   0.51373   93.212
 6613.00    0.52899   0.51493   94.467
 6614.00    0.53185   0.51640   94.656
 6615.00    0.53309   0.51740   94.051
 6616.00    0.53157   0.51780   96.076
 6617.00    0.52739   0.51803  100.718
 6618.00    0.52207   0.51817  103.899
 6619.00    0.51751   0.51781  103.977
 6620.00    0.51531   0.51698  103.157
 6621.00    0.51563   0.51606  102.673
 6622.00    0.51721   0.51508  102.274
 6623.00    0.51802   0.51384  102.011
 6624.00    0.51637   0.51269  102.112
 6625.00    0.51292   0.51194  101.923
 6626.00    0.50993   0.51118  100.485
 6627.00    0.50917   0.51023   98.015
 6628.00    0.51090   0.50925   95.716
 6629.00    0.51301   0.50829   95.009
 6630.00    0.51298   0.50741   96.337
 6631.00    0.51116   0.50671   97.417
 6632.00    0.50934   0.50612   95.918
 6633.00    0.50805   0.50596   94.078
 6634.00    0.50725   0.50646   94.820
 6635.00    0.50752   0.50719   97.032
 6636.00    0.50948   0.50794   98.174
 6637.00    0.51275   0.50868   98.336
 6638.00    0.51622   0.50903   98.730
 6639.00    0.51848   0.50900   99.247
 6640.00    0.51899   0.50916   99.529
 6641.00    0.51899   0.50917  100.213
 6642.00    0.51956   0.50859  101.668
 6643.00    0.52000   0.50829  102.807
 6644.00    0.51923   0.50882  102.535
 6645.00    0.51707   0.50936  101.206
 6646.00    0.51419   0.50953   99.880
 6647.00    0.51192   0.50993   99.413
 6648.00    0.51133   0.51062   99.060
 6649.00    0.51249   0.51102   96.361
 6650.00    0.51421   0.51108   92.031
 6651.00    0.51425   0.51108   90.478
 6652.00    0.51218   0.51101   92.600
 6653.00    0.51037   0.51079   93.925
 6654.00    0.51044   0.51044   92.291
 6655.00    0.51172   0.50982   91.335
 6656.00    0.51311   0.50905   92.885
 6657.00    0.51408   0.50820   94.811
 6658.00    0.51481   0.50697   95.788
 6659.00    0.51589   0.50547   97.030
 6660.00    0.51686   0.50422   98.824
 6661.00    0.51626   0.50309   99.737
 6662.00    0.51380   0.50184   99.915
 6663.00    0.51084   0.50122  101.283
 6664.00    0.50892   0.50145  103.564
 6665.00    0.50901   0.50189  104.077
 6666.00    0.51039   0.50248  102.298
 6667.00    0.51127   0.50351  100.215
 6668.00    0.51124   0.50472   98.760
 6669.00    0.51140   0.50556   97.645
 6670.00    0.51305   0.50591   96.822
 6671.00    0.51706   0.50579   96.322
 6672.00    0.52300   0.50493   95.275
 6673.00    0.52936   0.50328   92.942
 6674.00    0.53421   0.50146   -1.000
 6675.00    0.53593   0.49983   -1.000
 6676.00    0.53432   0.49796   -1.000
 6677.00    0.53028   0.49648   -1.000
 6678.00    0.52507   0.49656   93.497
 6679.00    0.51965   0.49774   93.608
 6680.00    0.51408   0.49890   94.690
 6681.00    0.50849   0.50035   96.812
 6682.00    0.50466   0.50237   99.251
 6683.00    0.50429   0.50420  100.927
 6684.00    0.50669   0.50542  101.268
 6685.00    0.51011   0.50634  100.039
 6686.00    0.51374   0.50699   96.855
 6687.00    0.51774   0.50723   90.840
 6688.00    0.52279   0.50726   81.237
 6689.00    0.52796   0.50713   70.766
 6690.00    0.52923   0.50669   63.928
 6691.00    0.52459   0.50594   61.578
 6692.00    0.51830   0.50512   61.187
 6693.00    0.51468   0.50432   60.613
 6694.00    0.51313   0.50341   60.136
 6695.00    0.51092   0.50253   60.517
 6696.00    0.50587   0.50206    0.000
 6697.00    0.49833   0.50194    0.000
 6698.00    0.49182   0.50190    0.000
 6699.00    0.48939   0.50194    0.000
 6700.00    0.49139   0.50209    0.000
 6701.00    0.49644   0.50219    0.000
 6702.00    0.50217   0.50209    0.000
 6703.00    0.50617   0.50186    0.000
 6704.00    0.50683   0.50176    0.000
 6705.00    0.50514   0.50165    0.000
 6706.00    0.50481   0.50133    0.000
 6707.00    0.50911   0.50095    0.000
 6708.00    0.52092   0.50049    0.000
 6709.00    0.54852   0.49964    0.000
 6710.00    0.60585   0.49858    0.000
 6711.00    0.70501   0.49741    0.000
 6712.00    0.84856   0.49590    0.000
 6713.00    1.01409   0.49429    0.000
 6714.00    1.15762   0.49312    0.000
 6715.00    1.23829   0.49232    0.000
 6716.00    1.23065   0.49167    0.000
 6717.00    1.13658   0.49163    0.000
 6718.00    0.98421   0.49252    0.000
 6719.00    0.81698   0.49368    0.000
 6720.00    0.67942   0.49463    0.000
 6721.00    0.59241   0.49562    0.000
 6722.00    0.55353   0.49683    0.000
 6723.00    0.54973   0.49781    0.000
 6724.00    0.56651   0.49830    0.000
 6725.00    0.59967   0.49861    0.000
 6726.00    0.65188   0.49908    0.000
 6727.00    0.72308   0.49951    0.000
 6728.00    0.80719   0.49968    0.000
 6729.00    0.88977   0.49980    0.000
 6730.00    0.94865   0.49993    0.000
 6731.00    0.95656   0.49988    0.000
 6732.00    0.89937   0.49959    0.000
 6733.00    0.79768   0.49919    0.000
 6734.00    0.68925   0.49866    0.000
 6735.00    0.60436   0.49804    0.000
 6736.00    0.55643   0.49735    0.000
 6737.00    0.53625   0.49653    0.000
 6738.00    0.52752   0.49565    0.000
 6739.00    0.52234   0.49499    0.000
 6740.00    0.51863   0.49452    0.000
 6741.00    0.51631   0.49387    0.000
 6742.00    0.51586   0.49314    0.000
 6743.00    0.51711   0.49279    0.000
 6744.00    0.51732   0.49247    0.000
 6745.00    0.51101   0.49185    0.000
 6746.00    0.49920   0.49134    0.000
 6747.00    0.49313   0.49109    0.000
 6748.00    0.49796   0.49077    0.000
 6749.00    0.50501   0.49053    0.000
 6750.00    0.50680   0.49085    0.000
 6751.00    0.50468   0.49134    0.000
 6752.00    0.50212   0.49184    0.000
 6753.00    0.50093   0.49285   78.317
 6754.00    0.50067   0.49411   81.266
 6755.00    0.49935   0.49521   83.145
 6756.00    0.49678   0.49631   82.793
 6757.00    0.49552   0.49738   82.472
 6758.00    0.49866   0.49809   81.924
 6759.00    0.50767   0.49845   78.271
 6760.00    0.51798   0.49848   73.113
 6761.00    0.52149   0.49807   70.694
 6762.00    0.51923   0.49732   71.385
 6763.00    0.51962   0.49632   72.827
 6764.00    0.52158   0.49526   74.687
 6765.00    0.51643   0.49417   78.875
 6766.00    0.50625   0.49309   85.073
 6767.00    0.50116   0.49237   89.675
 6768.00    0.50065   0.49230   90.684
 6769.00    0.49668   0.49252   89.213
 6770.00    0.49049   0.49289   85.543
 6771.00    0.48961   0.49380   79.930
 6772.00    0.49460   0.49508   75.138
 6773.00    0.50040   0.49623   73.497
 6774.00    0.50382   0.49721   74.137
 6775.00    0.50408   0.49804   75.231
 6776.00    0.50115   0.49839   77.567
 6777.00    0.49630   0.49825   82.848
 6778.00    0.49299   0.49769   88.940
 6779.00    0.49443   0.49661   90.000
 6780.00    0.50001   0.49518   83.311
 6781.00    0.50730   0.49369   72.969
 6782.00    0.51498   0.49220   64.975
 6783.00    0.52125   0.49098   61.412
 6784.00    0.52192   0.49032   61.052
 6785.00    0.51482   0.48999   62.782
 6786.00    0.50427   0.48999   67.393
 6787.00    0.49636   0.49039   75.871
 6788.00    0.49392   0.49076   85.808
 6789.00    0.49632   0.49092   92.174
 6790.00    0.50009   0.49113   94.265
 6791.00    0.50201   0.49125   94.757
 6792.00    0.50155   0.49104   94.862
 6793.00    0.49969   0.49086   94.702
 6794.00    0.49783   0.49091   94.069
 6795.00    0.49677   0.49095   91.728
 6796.00    0.49632   0.49108   85.954
 6797.00    0.49584   0.49138   78.381
 6798.00    0.49491   0.49167   72.859
 6799.00    0.49462   0.49185   70.290
 6800.00    0.49731   0.49204   69.097
 6801.00    0.50167   0.49216   69.096
 6802.00    0.50205   0.49199   72.209
 6803.00    0.49756   0.49169   78.690
 6804.00    0.49419   0.49157   84.286
 6805.00    0.49575   0.49126   83.394
 6806.00    0.50070   0.49074   75.721
 6807.00    0.50547   0.49052   66.981
 6808.00    0.50658   0.49035   61.966
 6809.00    0.50302   0.48998   60.942
 6810.00    0.49646   0.48974   62.417
 6811.00    0.48893   0.48970   66.306
 6812.00    0.48224   0.48968   74.038
 6813.00    0.47831   0.48965   84.854
 6814.00    0.47872   0.48968   92.690
 6815.00    0.48326   0.48991   93.546
 6816.00    0.48979   0.49024   91.140
 6817.00    0.49475   0.49053   89.565
 6818.00    0.49547   0.49082   90.266
 6819.00    0.49445   0.49115   91.791
 6820.00    0.49664   0.49152   91.322
 6821.00    0.50229   0.49184   88.697
 6822.00    0.50809   0.49200   86.024
 6823.00    0.51211   0.49191   85.164
 6824.00    0.51386   0.49164   86.559
 6825.00    0.51300   0.49134   87.688
 6826.00    0.50994   0.49096   85.620
 6827.00    0.50704   0.49044   82.076
 6828.00    0.50623   0.49006   79.934
 6829.00    0.50565   0.48996   79.031
 6830.00    0.50214   0.48993   78.809
 6831.00    0.49503   0.48972   81.209
 6832.00    0.48727   0.48937   87.359
 6833.00    0.48555   0.48893   91.670
 6834.00    0.49292   0.48818   87.227
 6835.00    0.50186   0.48694   78.165
 6836.00    0.50410   0.48543   70.875
 6837.00    0.50021   0.48388   67.235
 6838.00    0.49442   0.48234   66.920
 6839.00    0.48925   0.48111   68.503
 6840.00    0.48572   0.48037   71.019
 6841.00    0.48393   0.48019   75.224
 6842.00    0.48424   0.48060   81.348
 6843.00    0.48765   0.48155   86.386
 6844.00    0.49278   0.48276   87.626
 6845.00    0.49480   0.48397   87.194
 6846.00    0.49150   0.48504   87.818
 6847.00    0.48614   0.48586   89.875
 6848.00    0.48204   0.48633   92.523
 6849.00    0.47973   0.48639   94.478
 6850.00    0.47806   0.48591   95.495
 6851.00    0.47541   0.48513   96.790
 6852.00    0.47172   0.48436   98.285
 6853.00    0.46883   0.48325   97.994
 6854.00    0.46790   0.48195   95.994
 6855.00    0.46870   0.48120   94.802
 6856.00    0.47112   0.48070   94.844
 6857.00    0.47545   0.48007   94.062
 6858.00    0.48096   0.47994   91.496
 6859.00    0.48608   0.48029   87.930
 6860.00    0.49041   0.48047   83.858
 6861.00    0.49451   0.48069   79.578
 6862.00    0.49739   0.48126   76.561
 6863.00    0.49697   0.48162   76.455
 6864.00    0.49324   0.48156   78.903
 6865.00    0.48832   0.48153   81.821
 6866.00    0.48472   0.48143   83.477
 6867.00    0.48398   0.48100   83.087
 6868.00    0.48486   0.48065   80.317
 6869.00    0.48464   0.48065   76.023
 6870.00    0.48239   0.48059   73.007
 6871.00    0.47872   0.48044   73.539
 6872.00    0.47427   0.48070   76.794
 6873.00    0.46987   0.48122   80.430
 6874.00    0.46744   0.48148   84.445
 6875.00    0.46838   0.48167   90.098
 6876.00    0.47123   0.48200   95.217
 6877.00    0.47356   0.48209   95.954
 6878.00    0.47491   0.48174   93.585
 6879.00    0.47521   0.48141   91.617
 6880.00    0.47260   0.48123   90.614
 6881.00    0.46608   0.48092   89.813
 6882.00    0.45876   0.48076   89.080
 6883.00    0.45518   0.48123   88.563
 6884.00    0.45802   0.48199   88.218
 6885.00    0.46645   0.48261   88.259
 6886.00    0.47540   0.48357   89.488
 6887.00    0.48090   0.48478   91.903
 6888.00    0.48434   0.48556   93.462
 6889.00    0.48802   0.48609   92.873
 6890.00    0.49151   0.48666   92.002
 6891.00    0.49328   0.48680   92.501
 6892.00    0.49226   0.48659   93.726
 6893.00    0.48909   0.48649   94.721
 6894.00    0.48636   0.48632   95.462
 6895.00    0.48523   0.48593   95.536
 6896.00    0.48400   0.48573   93.645
 6897.00    0.48132   0.48580   89.798
 6898.00    0.47794   0.48581   85.797
 6899.00    0.47553   0.48577   83.232
 6900.00    0.47567   0.48595   82.774
 6901.00    0.47785   0.48625   83.564
 6902.00    0.47951   0.48644   83.345
 6903.00    0.48001   0.48661   81.278
 6904.00    0.48149   0.48678   78.632
 6905.00    0.48556   0.48689   76.404
 6906.00    0.49162   0.48684   74.896
 6907.00    0.49594   0.48653   74.763
 6908.00    0.49375   0.48608   76.886
 6909.00    0.48665   0.48540   80.712
 6910.00    0.48145   0.48442   84.043
 6911.00    0.48010   0.48356   85.865
 6912.00    0.47933   0.48278   87.271
 6913.00    0.47728   0.48192   89.465
 6914.00    0.47477   0.48158   92.654
 6915.00    0.47375   0.48167   94.781
 6916.00    0.47561   0.48172   93.201
 6917.00    0.47842   0.48204   89.907
 6918.00    0.47878   0.48256   88.481
 6919.00    0.47663   0.48280   88.208
 6920.00    0.47404   0.48272   86.615
 6921.00    0.47158   0.48256   84.692
 6922.00    0.46893   0.48224   84.528
 6923.00    0.46690   0.48174   85.027
 6924.00    0.46686   0.48133   84.186
 6925.00    0.46923   0.48111   83.263
 6926.00    0.47325   0.48111   84.291
 6927.00    0.47710   0.48128   86.415
 6928.00    0.47901   0.48146   87.744
 6929.00    0.47868   0.48160   88.602
 6930.00    0.47692   0.48187   90.121
 6931.00    0.47480   0.48212   91.853
 6932.00    0.47277   0.48214   92.639
 6933.00    0.46997   0.48229   92.055
 6934.00    0.46671   0.48263   90.487
 6935.00    0.46638   0.48283   88.760
 6936.00    0.47120   0.48291   87.269
 6937.00    0.47861   0.48301   85.588
 6938.00    0.48384   0.48293   83.720
 6939.00    0.48276   0.48256   82.699
 6940.00    0.47593   0.48197   83.003
 6941.00    0.47019   0.48118   83.737
 6942.00    0.47035   0.48044   83.838
 6943.00    0.47441   0.47974   82.997
 6944.00    0.47862   0.47903   81.711
 6945.00    0.48080   0.47873   81.005
 6946.00    0.48044   0.47867   81.574
 6947.00    0.47865   0.47845   83.447
 6948.00    0.47755   0.47842   85.806
 6949.00    0.47925   0.47853   87.151
 6950.00    0.48265   0.47834   87.550
 6951.00    0.48342   0.47825   88.992
 6952.00    0.47974   0.47849   91.521
 6953.00    0.47387   0.47869   92.413
 6954.00    0.46894   0.47895   90.979
 6955.00    0.46700   0.47955   89.580
 6956.00    0.46675   0.48017   89.363
 6957.00    0.46490   0.48067   89.587
 6958.00    0.46244   0.48119   89.227
 6959.00    0.46364   0.48161   87.759
 6960.00    0.46772   0.48197   85.848
 6961.00    0.46967   0.48217   84.708
 6962.00    0.46865   0.48221   84.544
 6963.00    0.46771   0.48237   84.810
 6964.00    0.46808   0.48248   85.347
 6965.00    0.46897   0.48238   86.254
 6966.00    0.47020   0.48234   87.011
 6967.00    0.47189   0.48223   86.988
 6968.00    0.47284   0.48188   86.866
 6969.00    0.47171   0.48136   87.717
 6970.00    0.46951   0.48037   88.972
 6971.00    0.46814   0.47899   89.323
 6972.00    0.46746   0.47749   88.997
 6973.00    0.46597   0.47561   88.968
 6974.00    0.46276   0.47330   89.195
 6975.00    0.45821   0.47138   89.114
 6976.00    0.45449   0.47019   88.648
 6977.00    0.45370   0.46926   87.939
 6978.00    0.45552   0.46902   86.904
 6979.00    0.45841   0.47006   85.629
 6980.00    0.46132   0.47162   84.719
 6981.00    0.46408   0.47318   84.176
 6982.00    0.46751   0.47504   82.603
 6983.00    0.47167   0.47684   79.925
 6984.00    0.47449   0.47808   78.946
 6985.00    0.47443   0.47888   80.974
 6986.00    0.47264   0.47946   83.042
 6987.00    0.47123   0.47980   82.648
 6988.00    0.47163   0.47987   82.188
 6989.00    0.47342   0.47987   83.719
 6990.00    0.47402   0.47989   85.613
 6991.00    0.47169   0.47985   86.279
 6992.00    0.46731   0.47968   86.772
 6993.00    0.46342   0.47935   87.658
 6994.00    0.46291   0.47890   87.418
 6995.00    0.46546   0.47824   85.618
 6996.00    0.46687   0.47737   83.994
 6997.00    0.46520   0.47657   83.182
 6998.00    0.46283   0.47577   81.979
 6999.00    0.46172   0.47487   79.885
 7000.00    0.46158   0.47415   77.784
 7001.00    0.46101   0.47376   -2.000
 7002.00    0.45871   0.47342   -2.000
 7003.00    0.45558   0.47314   -2.000
 7004.00    0.45439   0.47317   -2.000
 7005.00    0.45584   0.47339   -2.000
 7006.00    0.45821   0.47357   -2.000
 7007.00    0.46032   0.47371   -2.000
 7008.00    0.46230   0.47382   -2.000
 7009.00    0.46472   0.47375   -2.000
 7010.00    0.46785   0.47338   -2.000
 7011.00    0.47041   0.47271   -2.000
 7012.00    0.47045   0.47179   -2.000
 7013.00    0.46819   0.47101   -2.000
 7014.00    0.46553   0.47052   -2.000
 7015.00    0.46354   0.46997   -2.000
 7016.00    0.46228   0.46978   -2.000
 7017.00    0.46160   0.47026   -2.000
 7018.00    0.46118   0.47069   -2.000
 7019.00    0.46050   0.47086   -2.000
 7020.00    0.45949   0.47115   -2.000
 7021.00    0.45941   0.47145   -2.000
 7022.00    0.46047   0.47146   -2.000
 7023.00    0.45854   0.47141   -2.000
 7024.00    0.45099   0.47166   -2.000
 7025.00    0.44455   0.47213   -2.000
 7026.00    0.44681   0.47265   -2.000
 7027.00    0.45507   0.47328   -2.000
 7028.00    0.46254   0.47396   -2.000
 7029.00    0.46664   0.47459   -2.000
 7030.00    0.46877   0.47496   -2.000
 7031.00    0.47260   0.47509   -2.000
 7032.00    0.47874   0.47532   -2.000
 7033.00    0.48086   0.47540   -2.000
 7034.00    0.47521   0.47515   -2.000
 7035.00    0.46779   0.47541   -2.000
 7036.00    0.46438   0.47616   -2.000
 7037.00    0.46324   0.47670   -2.000
 7038.00    0.46152   0.47761   -2.000
 7039.00    0.45992   0.47916   -2.000
 7040.00    0.46026   0.48049   -2.000
 7041.00    0.46362   0.48150   -2.000
 7042.00    0.46944   0.48267   -2.000
 7043.00    0.47537   0.48358   -2.000
 7044.00    0.47914   0.48389   -2.000
 7045.00    0.47953   0.48396   -2.000
 7046.00    0.47594   0.48377   -2.000
 7047.00    0.46858   0.48313   -2.000
 7048.00    0.46035   0.48197   -2.000
 7049.00    0.45644   0.48047   -2.000
 7050.00    0.45967   0.47889   -2.000
 7051.00    0.46828   0.47708   -2.000
 7052.00    0.47511   0.47523   -2.000
 7053.00    0.47141   0.47374   -2.000
 7054.00    0.46002   0.47255   -2.000
 7055.00    0.45350   0.47147   -2.000
 7056.00    0.45496   0.47061   -2.000
 7057.00    0.45700   0.47014   -2.000
 7058.00    0.45525   0.46970   -2.000
 7059.00    0.45115   0.46913   -2.000
 7060.00    0.44880   0.46886   -2.000
 7061.00    0.45254   0.46865   -2.000
 7062.00    0.46321   0.46812   -2.000
 7063.00    0.47746   0.46774   -2.000
 7064.00    0.48835   0.46740   -2.000
 7065.00    0.48947   0.46694   -2.000
 7066.00    0.48224   0.46685   -2.000
 7067.00    0.47320   0.46696   -2.000
 7068.00    0.46662   0.46720   -2.000
 7069.00    0.46317   0.46794   -2.000
 7070.00    0.45988   0.46892   -2.000
 7071.00    0.45451   0.46977   -2.000
 7072.00    0.45136   0.47064   -2.000
 7073.00    0.45465   0.47148   -2.000
 7074.00    0.45922   0.47197   -2.000
 7075.00    0.45848   0.47207   -2.000
 7076.00    0.45489   0.47195   -2.000
 7077.00    0.45324   0.47146   -2.000
 7078.00    0.45232   0.47044   -2.000
 7079.00    0.44967   0.46903   -2.000
 7080.00    0.44699   0.46714   -2.000
 7081.00    0.44629   0.46493   -2.000
 7082.00    0.44608   0.46274   -2.000
 7083.00    0.44375   0.46032   -2.000
 7084.00    0.43797   0.45799   -2.000
 7085.00    0.42983   0.45628   -2.000
 7086.00    0.42301   0.45470   -2.000
 7087.00    0.42031   0.45341   -2.000
 7088.00    0.42121   0.45276   -2.000
 7089.00    0.42333   0.45223   -2.000
 7090.00    0.42448   0.45194   -2.000
 7091.00    0.42878   0.45206   -2.000
 7092.00    0.44620   0.45228   -2.000
 7093.00    0.47118   0.45269   -2.000
 7094.00    0.47971   0.45334   -2.000
 7095.00    0.47063   0.45417   -2.000
 7096.00    0.47362   0.45502   -2.000
 7097.00    0.49416   0.45587   -2.000
 7098.00    0.50277   0.45676   -2.000
 7099.00    0.49128   0.45747   -2.000
 7100.00    0.48219   0.45801   -2.000
 7101.00    0.47779   0.45846   -2.000
 7102.00    0.45610   0.45861   -2.000
 7103.00    0.42043   0.45847   -2.000
 7104.00    0.40110   0.45828   -2.000
 7105.00    0.40940   0.45793   -2.000
 7106.00    0.43105   0.45728   -2.000
 7107.00    0.44797   0.45658   -2.000
 7108.00    0.44891   0.45604   -2.000
 7109.00    0.43974   0.45557   -2.000
 7110.00    0.43506   0.45516   -2.000
 7111.00    0.43384   0.45500   -2.000
 7112.00    0.42607   0.45516   -2.000
 7113.00    0.41781   0.45537   -2.000
 7114.00    0.42235   0.45558   -2.000
 7115.00    0.43430   0.45583   -2.000
 7116.00    0.43824   0.45603   -2.000
 7117.00    0.43208   0.45607   -2.000
 7118.00    0.42428   0.45581   -2.000
 7119.00    0.42284   0.45555   -2.000
 7120.00    0.43004   0.45535   -2.000
 7121.00    0.43793   0.45478   -2.000
 7122.00    0.43697   0.45415   -2.000
 7123.00    0.42798   0.45365   -2.000
 7124.00    0.41683   0.45297   -2.000
 7125.00    0.40664   0.45217   -2.000
 7126.00    0.40182   0.45137   -2.000
 7127.00    0.41242   0.45073   -2.000
 7128.00    0.44178   0.45035   -2.000
 7129.00    0.47529   0.45009   -2.000
 7130.00    0.49564   0.45025   -2.000
 7131.00    0.49749   0.45089   -2.000
 7132.00    0.48389   0.45162   -2.000
 7133.00    0.46271   0.45261   -2.000
 7134.00    0.45076   0.45372   -2.000
 7135.00    0.47214   0.45446   -2.000
 7136.00    0.52314   0.45517   -2.000
 7137.00    0.55712   0.45582   -2.000
 7138.00    0.54515   0.45591   -2.000
 7139.00    0.50790   0.45586   -2.000
 7140.00    0.46972   0.45583   -2.000
 7141.00    0.43447   0.45532   -2.000
 7142.00    0.40674   0.45473   -2.000
 7143.00    0.39927   0.45415   -2.000
 7144.00    0.41171   0.45315   -2.000
 7145.00    0.42606   0.45245   -2.000
 7146.00    0.43300   0.45214   -2.000
 7147.00    0.43883   0.45167   -2.000
 7148.00    0.44600   0.45179   -2.000
 7149.00    0.44821   0.45264   -2.000
 7150.00    0.44171   0.45348   -2.000
 7151.00    0.42909   0.45442   -2.000
 7152.00    0.41716   0.45570   -2.000
 7153.00    0.41320   0.45686   -2.000
 7154.00    0.41616   0.45753   -2.000
 7155.00    0.41882   0.45798   -2.000
 7156.00    0.42075   0.45826   -2.000
 7157.00    0.42628   0.45796   -2.000
 7158.00    0.43072   0.45732   -2.000
 7159.00    0.42522   0.45659   -2.000
 7160.00    0.41506   0.45554   -2.000
 7161.00    0.41239   0.45449   -2.000
 7162.00    0.41349   0.45379   -2.000
 7163.00    0.40603   0.45330   -2.000
 7164.00    0.39157   0.45322   -2.000
 7165.00    0.38303   0.45378   -2.000
 7166.00    0.39277   0.45474   -2.000
 7167.00    0.42609   0.45592   -2.000
 7168.00    0.47454   0.45729   -2.000
 7169.00    0.51715   0.45850   -2.000
 7170.00    0.52528   0.45946   -2.000
 7171.00    0.48580   0.46016   -2.000
 7172.00    0.42811   0.46027   -2.000
 7173.00    0.39266   0.46001   -2.000
 7174.00    0.39004   0.45955   -2.000
 7175.00    0.40731   0.45866   -2.000
 7176.00    0.42176   0.45759   -2.000
 7177.00    0.41927   0.45659   -2.000
 7178.00    0.40953   0.45556   -2.000
 7179.00    0.40834   0.45468   -2.000
 7180.00    0.42015   0.45383   -2.000
 7181.00    0.43849   0.45310   -2.000
 7182.00    0.44907   0.45261   -2.000
 7183.00    0.44224   0.45186   -2.000
 7184.00    0.42209   0.45108   -2.000
 7185.00    0.40395   0.45052   -2.000
 7186.00    0.40690   0.44975   -2.000
 7187.00    0.42005   0.44919   -2.000
 7188.00    0.39702   0.44909   -2.000
 7189.00    0.34610   0.44902   -2.000
 7190.00    0.35449   0.44931   -2.000
 7191.00    0.43925   0.45004   -2.000
 7192.00    0.50317   0.45067   -2.000
 7193.00    0.50443   0.45129   -2.000
 7194.00    0.50514   0.45213   -2.000
 7195.00    0.52022   0.45278   -2.000
 7196.00    0.48606   0.45314   -2.000
 7197.00    0.40345   0.45354   -2.000
 7198.00    0.35668   0.45377   -2.000
 7199.00    0.37425   0.45374   -2.000
 7200.00    0.40673   0.45355   -2.000
 7201.00    0.42292   0.45321   -2.000
 7202.00    0.42977   0.45268   -2.000
 7203.00    0.43426   0.45190   -2.000
 7204.00    0.43376   0.45120   -2.000
 7205.00    0.42230   0.45062   -2.000
 7206.00    0.39890   0.44997   -2.000
 7207.00    0.38257   0.44985   -2.000
 7208.00    0.39704   0.45014   -2.000
 7209.00    0.42941   0.45040   -2.000
 7210.00    0.44654   0.45107   -2.000
 7211.00    0.44667   0.45194   -2.000
 7212.00    0.44663   0.45254   -2.000
 7213.00    0.43947   0.45319   -2.000
 7214.00    0.41050   0.45388   -2.000
 7215.00    0.37676   0.45429   -2.000
 7216.00    0.36482   0.45462   -2.000
 7217.00    0.36752   0.45499   -2.000
 7218.00    0.36990   0.45522   -2.000
