###################################################################
## OUTPUT of StarlightChains_v04.for    [Cid@UFSC - 01/Apr/2007] ##
###################################################################

## Some input info
2013he.txt                               [arq_obs]
Base.CB07.vall.4m                        [arq_base]
Masks.EmLines.NEW.gm                     [arq_masks]
StCv04.C11.config                        [arq_config]
   66                                    [N_base]
    0                                    [N_YAV_components = # of components with extra extinction!]
    0                                    [i_FitPowerLaw (1/0 = Yes/No)]
-9.99                                    [alpha_PowerLaw]
CCM                                      [red_law_option]
 1.458241                                [q_norm = A(l_norm)/A(V)]

## (Re)Sampling Parameters
 3741.00                                 [l_ini (A)]
 7218.00                                 [l_fin (A)]
    1.00                                 [dl    (A)]     (OBS: dl_cushion =    50.00 A)

## Normalization info
 4020.00                                 [l_norm (A) - for base]
 4010.00                                 [llow_norm (A) - window for f_obs]
 4060.00                                 [lupp_norm (A) - window for f_obs]
4.281217E-16                             [fobs_norm (in input units)]

## S/N
 3691.00                                 [llow_SN (A) - window for S/N]
 7268.00                                 [lupp_SN (A) - window for S/N]
   6.214                                 [S/N in S/N window]
   8.136                                 [S/N in norm. window]
  10.000                                 [S/N_err in S/N window]
  13.093                                 [S/N_err in norm. window]
  1.0000                                 [fscale_chi2]

## etc...
    -2007412                             [idum_orig]
  2337                                   [NOl_eff]
  2337                                   [Nl_eff]
     0    NSIGMA                         [Ntot_cliped & clip_method]
  1546090                                [Nglobal_steps]
   7                                     [N_chains]
  28                                     [NEX0s_base = N_base in EX0s-fits]
 0   0   1       13   2.0   1.763E+01    [Clip-Bug, RC-Crash & Burn-In warning-flags, n_censored_weights, wei_nsig_threshold & wei_limit]
    15     15.041     14.546      0.495  [idt_all, wdt_TotTime, wdt_UsrTime & wdt_SysTime (sec)]

## Synthesis Results - Best model ##

 1.15721E-01                             [chi2/Nl_eff]
     2.24439                             [adev (%)]

   104.11699                             [sum-of-x (%)]
 7.52806E-16                             [Flux_tot (units of input spectrum!)]
 3.10129E-12                             [Mini_tot (???)]
 1.70821E-12                             [Mcor_tot (???)]

  24.23                                  [v0_min  (km/s)]
 281.64                                  [vd_min  (km/s)]
 0.3902                                  [AV_min  (mag)]
 0.0000                                  [YAV_min (mag)]

# j     x_j(%)      Mini_j(%)     Mcor_j(%)     age_j(yr)     Z_j      (L/M)_j    YAV?  Mstars   component_j        a/Fe...       SSP_chi2r SSP_adev(%)   SSP_AV   SSP_x(%)
  1      0.0000     0.0000E+00    0.0000E+00    1.000000E+06  0.00400  1.094E-02    0   1.0000   age020_m42            0.0000     5.4270E-01     5.3479   2.3917    87.7383
  2      0.0000     0.0000E+00    0.0000E+00    3.160000E+06  0.00400  4.007E-02    0   0.9999   age045_m42            0.0000     2.7820E-01     4.0357   1.6210    95.7789
  3      0.0000     0.0000E+00    0.0000E+00    5.010000E+06  0.00400  2.539E-02    0   0.9488   age055_m42            0.0000     3.4340E-01     4.4442   1.9577    92.6982
  4      0.0000     0.0000E+00    0.0000E+00    6.610000E+06  0.00400  2.620E-02    0   0.9220   age061_m42            0.0000     2.4785E-01     3.7467   1.5425    96.2229
  5      0.0038     6.7146E-05    1.0803E-04    1.000000E+07  0.00400  1.322E-02    0   0.8862   age070_m42            0.0000     1.8712E-01     2.9218   1.2734    97.7129
  6      0.0079     2.3298E-04    3.6254E-04    1.445000E+07  0.00400  7.883E-03    0   0.8571   age078_m42            0.0000     2.4444E-01     3.3462   1.6105    94.7737
  7      0.0000     0.0000E+00    0.0000E+00    2.512000E+07  0.00400  5.251E-03    0   0.8174   age090_m42            0.0000     1.7617E-01     2.7865   1.1419    98.3344
  8      0.0000     0.0000E+00    0.0000E+00    4.000000E+07  0.00400  3.649E-03    0   0.7851   age104_m42            0.0000     1.5253E-01     2.6079   0.9062    99.5549
  9      0.0000     0.0000E+00    0.0000E+00    5.500000E+07  0.00400  3.098E-03    0   0.7629   age110_m42            0.0000     1.7144E-01     2.7988   1.0473   100.1393
 10      0.0004     4.0219E-05    5.2625E-05    1.015200E+08  0.00400  2.228E-03    0   0.7207   age116_m42            0.0000     2.1454E-01     3.1092   1.0578   100.7925
 11      0.0000     0.0000E+00    0.0000E+00    2.861200E+08  0.00400  1.093E-03    0   0.6648   age125_m42            0.0000     2.1054E-01     2.9250   0.4841   104.1436
 12      0.0000     0.0000E+00    0.0000E+00    5.088000E+08  0.00400  6.597E-04    0   0.6365   age130_m42            0.0000     3.0916E-01     3.5290   0.4624   105.5883
 13      0.9734     1.0645E+00    1.1205E+00    1.434000E+09  0.00400  2.132E-04    0   0.5798   age139_m42            0.0000     3.3536E-01     3.8787  -0.5116   107.8898
 14      0.0000     0.0000E+00    0.0000E+00    4.250000E+09  0.00400  5.895E-05    0   0.5377   age158_m42            0.0000     4.5198E-01     4.7410  -0.9373   103.0167
 15      8.5738     5.6949E+01    5.3888E+01    7.500000E+09  0.00400  3.510E-05    0   0.5212   age171_m42            0.0000     6.4854E-01     5.5066  -1.0000    97.8194
 16      0.0000     0.0000E+00    0.0000E+00    1.300000E+10  0.00400  2.005E-05    0   0.5034   age193_m42            0.0000     1.0564E+00     6.9893  -1.0000    91.4026
 17      0.5584     8.5371E+00    7.6985E+00    1.800000E+10  0.00400  1.525E-05    0   0.4967   age213_m42            0.0000     1.0816E+00     7.1405  -1.0000    90.1794
 18      0.0000     0.0000E+00    0.0000E+00    1.000000E+06  0.00800  1.238E-02    0   1.0000   age020_m52            0.0000     5.4201E-01     5.3510   2.3880    87.9115
 19      0.0036     2.7635E-05    5.0000E-05    3.160000E+06  0.00800  3.074E-02    0   0.9966   age045_m52            0.0000     5.0571E-01     5.2571   2.3053    88.9410
 20      0.0000     0.0000E+00    0.0000E+00    5.010000E+06  0.00800  2.668E-02    0   0.9443   age055_m52            0.0000     3.6909E-01     4.5551   2.0459    91.6276
 21      0.0000     0.0000E+00    0.0000E+00    6.610000E+06  0.00800  2.136E-02    0   0.9177   age061_m52            0.0000     2.1230E-01     3.0311   0.7828    98.4184
 22      1.5560     2.9857E-02    4.7847E-02    1.000000E+07  0.00800  1.215E-02    0   0.8827   age070_m52            0.0000     2.1831E-01     3.0674   1.4634    97.0283
 23      3.6579     9.7833E-02    1.5190E-01    1.445000E+07  0.00800  8.717E-03    0   0.8552   age078_m52            0.0000     2.1880E-01     3.1594   1.5727    96.2495
 24      4.8589     2.0258E-01    3.0019E-01    2.512000E+07  0.00800  5.592E-03    0   0.8162   age090_m52            0.0000     1.6506E-01     2.6897   1.2049    99.5843
 25     13.7988     8.2573E-01    1.1755E+00    4.000000E+07  0.00800  3.896E-03    0   0.7841   age104_m52            0.0000     1.4503E-01     2.5333   1.1066   100.8640
 26     26.5414     2.8808E+00    3.7793E+00    1.015200E+08  0.00800  2.148E-03    0   0.7226   age116_m52            0.0000     1.6472E-01     2.7124   1.0304   101.3860
 27      0.0000     0.0000E+00    0.0000E+00    2.861200E+08  0.00800  9.925E-04    0   0.6683   age125_m52            0.0000     3.1135E-01     3.4395   0.5265   106.6127
 28      0.0000     0.0000E+00    0.0000E+00    9.047900E+08  0.00800  3.141E-04    0   0.6138   age135_m52            0.0000     4.9518E-01     4.6068  -0.2806   111.5782
 29      0.0000     0.0000E+00    0.0000E+00    1.434000E+09  0.00800  1.719E-04    0   0.5853   age139_m52            0.0000     4.3903E-01     4.6248  -0.8464   108.6787
 30      0.0000     0.0000E+00    0.0000E+00    2.500000E+09  0.00800  7.872E-05    0   0.5600   age150_m52            0.0000     6.9831E-01     5.7522  -1.0000   101.4255
 31      0.0295     1.5864E-01    1.5627E-01    4.250000E+09  0.00800  4.336E-05    0   0.5426   age158_m52            0.0000     7.4246E-01     5.8635  -1.0000    99.8642
 32      1.3734     1.0136E+01    9.7880E+00    6.250000E+09  0.00800  3.159E-05    0   0.5319   age166_m52            0.0000     1.3266E+00     7.7958  -1.0000    92.4963
 33      0.0000     0.0000E+00    0.0000E+00    1.300000E+10  0.00800  1.361E-05    0   0.5073   age193_m52            0.0000     3.4837E+00    13.2091  -1.0000    75.5598
 34      0.0000     0.0000E+00    0.0000E+00    1.800000E+10  0.00800  9.886E-06    0   0.4990   age213_m52            0.0000     4.2884E+00    14.5894  -1.0000    71.6849
 35      0.0000     0.0000E+00    0.0000E+00    1.000000E+06  0.02000  1.544E-02    0   1.0000   age020_m62            0.0000     5.4813E-01     5.3854   2.3843    88.1014
 36      0.0000     0.0000E+00    0.0000E+00    3.160000E+06  0.02000  3.762E-02    0   0.9858   age045_m62            0.0000     5.3114E-01     5.3630   2.3200    89.0260
 37      0.0000     0.0000E+00    0.0000E+00    5.010000E+06  0.02000  3.296E-02    0   0.9342   age055_m62            0.0000     3.0836E-01     4.2854   1.9047    94.4141
 38     13.7875     2.7855E-01    4.4811E-01    8.710000E+06  0.02000  1.154E-02    0   0.8861   age067_m62            0.0000     6.1777E-01     5.7445   0.9527    97.9538
 39      0.0000     0.0000E+00    0.0000E+00    1.445000E+07  0.02000  7.663E-03    0   0.8472   age078_m62            0.0000     2.6855E-01     3.3949   1.1204    98.8218
 40      0.0000     0.0000E+00    0.0000E+00    2.512000E+07  0.02000  4.532E-03    0   0.8099   age090_m62            0.0000     2.6299E-01     3.4860   1.1086    98.7646
 41      0.0319     2.7210E-03    3.7519E-03    5.500000E+07  0.02000  2.733E-03    0   0.7595   age110_m62            0.0000     1.5059E-01     2.5446   1.0920   100.0221
 42      0.0090     1.5347E-03    1.9462E-03    1.609000E+08  0.02000  1.369E-03    0   0.6985   age120_m62            0.0000     2.3835E-01     3.0076   0.9002   104.2551
 43      0.0000     0.0000E+00    0.0000E+00    2.861200E+08  0.02000  9.013E-04    0   0.6714   age125_m62            0.0000     3.9462E-01     3.7569   0.6326   108.1088
 44      0.0000     0.0000E+00    0.0000E+00    5.088000E+08  0.02000  5.028E-04    0   0.6449   age130_m62            0.0000     5.8696E-01     4.9257   0.2435   111.5977
 45      0.0000     0.0000E+00    0.0000E+00    9.047900E+08  0.02000  2.428E-04    0   0.6179   age135_m62            0.0000     5.5352E-01     5.0872  -0.3351   110.6304
 46      0.0000     0.0000E+00    0.0000E+00    1.434000E+09  0.02000  1.263E-04    0   0.5908   age139_m62            0.0000     6.0765E-01     5.3748  -0.7697   108.5566
 47      0.0000     0.0000E+00    0.0000E+00    2.500000E+09  0.02000  5.985E-05    0   0.5673   age150_m62            0.0000     9.2760E-01     6.6128  -1.0000   101.9394
 48      0.0000     0.0000E+00    0.0000E+00    4.250000E+09  0.02000  3.271E-05    0   0.5468   age158_m62            0.0000     1.9442E+00     9.4834  -1.0000    89.8349
 49      0.0000     0.0000E+00    0.0000E+00    1.000000E+10  0.02000  1.360E-05    0   0.5167   age181_m62            0.0000     3.8432E+00    13.4570  -1.0000    77.2463
 50      0.0000     0.0000E+00    0.0000E+00    1.800000E+10  0.02000  7.124E-06    0   0.5013   age213_m62            0.0000     5.2856E+00    15.8316  -1.0000    69.7936
 51      0.0000     0.0000E+00    0.0000E+00    1.000000E+06  0.05000  2.592E-02    0   0.9998   age020_m72            0.0000     5.7750E-01     5.4803   2.3807    87.9301
 52      0.0000     0.0000E+00    0.0000E+00    3.160000E+06  0.05000  4.845E-02    0   0.9577   age045_m72            0.0000     4.3326E-01     5.0059   2.1861    90.9254
 53      0.0000     0.0000E+00    0.0000E+00    5.010000E+06  0.05000  3.072E-02    0   0.9147   age055_m72            0.0000     3.2483E-01     3.8512   1.7161    94.7269
 54      0.0000     0.0000E+00    0.0000E+00    6.610000E+06  0.05000  1.455E-02    0   0.8877   age061_m72            0.0000     1.0718E+00     8.0923   1.0239    98.1052
 55      0.0000     0.0000E+00    0.0000E+00    1.000000E+07  0.05000  9.074E-03    0   0.8524   age070_m72            0.0000     3.9193E-01     4.5147   1.9098    94.3044
 56      0.0000     0.0000E+00    0.0000E+00    2.512000E+07  0.05000  4.250E-03    0   0.7902   age090_m72            0.0000     2.4458E-01     3.5535   1.5795    97.2254
 57      0.0000     0.0000E+00    0.0000E+00    4.000000E+07  0.05000  3.087E-03    0   0.7618   age104_m72            0.0000     2.2749E-01     3.4300   1.3420    99.3014
 58      8.6522     1.1866E+00    1.5287E+00    1.015200E+08  0.05000  1.700E-03    0   0.7096   age116_m72            0.0000     2.0854E-01     2.8332   1.0493   103.5413
 59      0.0032     9.9884E-04    1.2028E-03    2.861200E+08  0.05000  7.384E-04    0   0.6633   age125_m72            0.0000     5.0009E-01     4.3243   0.4932   109.9723
 60     13.1811     8.0467E+00    9.3089E+00    5.088000E+08  0.05000  3.819E-04    0   0.6372   age130_m72            0.0000     5.6621E-01     5.1453  -0.0039   112.0114
 61      6.0833     8.4622E+00    9.3870E+00    9.047900E+08  0.05000  1.676E-04    0   0.6110   age135_m72            0.0000     7.9124E-01     6.4006  -0.6905   109.6184
 62      0.4316     1.1387E+00    1.2144E+00    1.434000E+09  0.05000  8.837E-05    0   0.5874   age139_m72            0.0000     1.0126E+00     6.8851  -1.0000   103.4772
 63      0.0000     0.0000E+00    0.0000E+00    2.500000E+09  0.05000  4.233E-05    0   0.5598   age150_m72            0.0000     2.0776E+00     9.7567  -1.0000    90.6096
 64      0.0000     0.0000E+00    0.0000E+00    6.250000E+09  0.05000  1.435E-05    0   0.5249   age166_m72            0.0000     4.4152E+00    14.5514  -1.0000    73.7404
 65      0.0000     0.0000E+00    0.0000E+00    1.300000E+10  0.05000  6.513E-06    0   0.5036   age193_m72            0.0000     6.4186E+00    17.6761  -1.0000    65.5262
 66      0.0000     0.0000E+00    0.0000E+00    1.800000E+10  0.05000  4.527E-06    0   0.4945   age213_m72            0.0000     7.6352E+00    19.4168  -1.0000    60.6414


## Synthesis Results - Average & Chains ##

# j      x_j: min, <> & last-chain-values for 1 ...  7 chains
  1      0.0000      0.3224      0.0000      0.9770      0.0000      0.0000      0.4279      0.0000      0.0000
  2      0.0000      0.8195      0.3156      0.0000      0.0000      0.0000      0.0000      0.0000      0.0000
  3      0.0000      0.6442      0.0000      0.0000      0.3933      1.8713      0.0000      0.0000      0.0795
  4      0.0000      0.7740      0.0000      0.0000      3.5640      0.9518      0.0000      1.9886      1.4879
  5      0.0038      1.3441      3.4970      1.5461      0.0000      0.0000      0.0000      3.0825      3.4215
  6      0.0079      0.6612      1.7285      0.0000      0.0831      2.3635      0.0000      3.1512      3.3780
  7      0.0000      3.0892      0.6054      0.0000      0.0000     10.4441      3.8486      4.3795      7.1809
  8      0.0000      3.3326      0.5065      3.2514      2.0646      0.0000      0.0000      0.0000      2.8011
  9      0.0000      1.2948      0.0000      0.0000      0.0000      0.0000      0.3966      3.1759      0.0000
 10      0.0004      0.9435      0.0000      2.7268      0.0000      0.0000      0.0000      0.0000      3.0767
 11      0.0000      3.2299      2.2196      0.1289      1.0604      0.0000      0.3676      0.0000      0.0000
 12      0.0000      2.9317      0.0000      2.4209      0.0000      0.0000      0.0000      0.6770      0.0000
 13      0.9734      0.6171      0.0000      1.4499      0.1567      0.4358      2.1560      0.0000      1.1625
 14      0.0000      0.5739      1.1629      0.0000      2.5189      1.2927      0.0000      0.0000      0.0000
 15      8.5738      1.1761      1.2573      3.7200      3.1729      3.4126      0.0000      1.9852      1.6143
 16      0.0000      0.1722      0.9479      0.0000      0.9596      1.5906      0.2571      0.8909      0.0000
 17      0.5584      0.0597      0.0000      0.7539      0.0000      0.0942      0.3869      0.0000      0.8893
 18      0.0000      0.3349      1.1847      0.0000      0.6050      0.0000      0.0232      0.0000      0.4249
 19      0.0036      0.4516      0.0000      0.0000      0.4119      0.0000      0.3303      0.0000      0.8686
 20      0.0000      0.9228      0.0000      6.4169      0.0000      1.0049      0.0000      0.0000      0.0000
 21      0.0000      6.0452      0.0000      0.0000      0.0000      0.0000      4.0618      4.4207      1.0529
 22      1.5560      0.8933      0.0000      0.0000      0.7552      5.4315      0.0000      0.6402      1.3616
 23      3.6579      2.4267      2.9202      1.5932      6.3683      3.9465     11.0569      5.6866      2.3623
 24      4.8589      1.3949      4.1834      8.3190      2.2551      2.6682      0.0000      0.0000      1.4518
 25     13.7988      2.8732      0.0000      3.0041      9.6615      8.0559      5.2985      2.3159      4.8083
 26     26.5414      6.2921     15.0066      9.1962     10.4881      4.3846      9.0499      9.9875      7.0944
 27      0.0000      3.0061      5.4583      4.4572      4.9987      0.8005      0.0000      0.0000      0.0000
 28      0.0000      4.6669      3.2582      6.3114      3.4041      6.8804      4.8881      5.7698      3.8690
 29      0.0000      0.3122      2.0713      0.0000      0.0000      0.0000      0.0000      0.0000      0.0000
 30      0.0000      0.2005      0.0000      0.0000      0.0000      0.8661      1.0014      0.0000      0.0000
 31      0.0295      0.2519      0.0000      0.0000      0.2926      0.0000      0.0000      0.0000      0.8153
 32      1.3734      0.7551      1.7194      0.0000      1.2339      0.0305      0.6412      0.8733      1.6483
 33      0.0000      0.0346      0.0000      0.0000      0.0000      0.0000      0.0000      0.0000      0.0000
 34      0.0000      0.0904      0.9657      0.0000      0.8055      0.1192      0.0000      0.4960      0.0000
 35      0.0000      0.2611      0.0000      0.0000      0.0000      0.0000      0.0000      0.9821      0.0000
 36      0.0000      0.2971      0.0000      0.0000      1.3790      2.3389      0.0000      0.0000      0.1502
 37      0.0000      0.4558      0.0000      0.0000      0.0000      0.0000      0.0000      0.0000      0.3293
 38     13.7875      9.0270      7.9396      8.9340      6.0167      3.4134     13.9553     11.0366     14.6643
 39      0.0000      1.7026      3.2425      0.0000      4.4985      0.0000      2.3227      2.8978      0.0351
 40      0.0000      2.0142      0.0000      6.3393      4.4742      5.2428      0.0000      1.5092      0.0000
 41      0.0319      2.5732      6.1642      4.4846      4.9390      0.0000      4.9445      3.7141      2.9019
 42      0.0090      1.2875      0.2882      1.5552      0.0000      0.0000      1.2383      1.4957      1.5369
 43      0.0000      3.5790      2.4898      0.0000      2.8662      3.8954      0.0000      6.6874      0.0000
 44      0.0000      2.8404      3.4558      1.7801      0.0000      0.0000      9.1307      0.0000      0.0000
 45      0.0000      2.6730      4.0086      2.6954      3.6712      0.0000      0.0000      5.1133      0.0000
 46      0.0000      0.4799      0.0000      0.3753      0.0000      1.9607      0.0000      0.7418      0.0000
 47      0.0000      0.1056      0.0000      0.0000      1.2122      0.0000      1.2851      0.0000      0.0000
 48      0.0000      0.2566      0.0000      0.0000      0.0000      0.0000      0.9740      0.0000      0.0000
 49      0.0000      0.0753      0.0000      0.3370      0.0000      0.0000      0.0000      0.0000      0.0000
 50      0.0000      0.0483      0.0000      0.0000      0.0000      0.0000      0.0000      0.0000      0.0000
 51      0.0000      0.4774      0.0000      0.0000      0.0000      0.0000      0.0000      0.0000      0.0000
 52      0.0000      0.4906      6.3111      0.0000      0.0000      0.4381      0.0000      0.0000      0.3153
 53      0.0000      0.8313      0.0000      0.0000      2.7384      4.0509      0.0000      0.0000      0.0000
 54      0.0000      1.5817      1.9371      1.3775      0.7274      0.6563      0.0000      0.0000      0.4033
 55      0.0000      0.5331      0.3644      0.0000      0.0000      0.0000      0.5992      0.0000      0.0000
 56      0.0000      0.7796      2.9496      2.0639      0.0000      0.0000      0.7809      1.4373      0.7171
 57      0.0000      1.7896      0.1943      0.0000      0.8371      2.5847      1.8955      0.4572      0.3063
 58      8.6522      2.2215      1.3739      3.7286      0.8628      0.0000      9.4276      1.3912      4.2484
 59      0.0032      3.1235      1.8387      3.0919      7.7466     12.1284      0.7296      6.1818      5.3800
 60     13.1811      8.5594      8.3474      6.7544      4.6781     10.0821      9.1254      8.2442     18.4201
 61      6.0833      2.3094      3.1809      2.7266      1.5845      0.0000      3.1195      2.1254      3.2117
 62      0.4316      0.1593      0.0000      1.3646      0.0000      0.0000      0.0000      0.0000      0.5502
 63      0.0000      0.0937      0.7429      0.0000      0.0000      0.0000      0.0000      0.0000      0.0000
 64      0.0000      0.0385      0.0000      0.0000      0.0000      0.0000      0.0000      0.4027      0.0000
 65      0.0000      0.1768      0.0000      0.0000      0.0000      0.7816      0.0000      0.0000      0.0000
 66      0.0000      0.0496      0.0000      0.0000      0.0000      0.0000      0.0000      0.0000      0.0000

# j      m_j: min, <> & last-chain-values for 1 ...  7 chains
  1  0.0000E+00  1.8893E-02  0.0000E+00  5.2165E-02  0.0000E+00  0.0000E+00  2.9169E-02  0.0000E+00  0.0000E+00
  2  0.0000E+00  1.3110E-02  3.6862E-03  0.0000E+00  0.0000E+00  0.0000E+00  0.0000E+00  0.0000E+00  0.0000E+00
  3  0.0000E+00  1.5432E-02  0.0000E+00  0.0000E+00  6.5361E-03  2.8907E-02  0.0000E+00  0.0000E+00  1.8038E-03
  4  0.0000E+00  1.7461E-02  0.0000E+00  0.0000E+00  5.5774E-02  1.3846E-02  0.0000E+00  3.9376E-02  3.1798E-02
  5  1.0803E-04  5.7764E-02  1.0972E-01  6.0539E-02  0.0000E+00  0.0000E+00  0.0000E+00  1.1626E-01  1.3929E-01
  6  3.6254E-04  4.6092E-02  8.7963E-02  0.0000E+00  4.0164E-03  1.0622E-01  0.0000E+00  1.9278E-01  2.2305E-01
  7  0.0000E+00  3.0829E-01  4.4110E-02  0.0000E+00  0.0000E+00  6.7204E-01  4.4675E-01  3.8359E-01  6.7884E-01
  8  0.0000E+00  4.5967E-01  5.1005E-02  4.0862E-01  1.9754E-01  0.0000E+00  0.0000E+00  0.0000E+00  3.6600E-01
  9  0.0000E+00  2.0441E-01  0.0000E+00  0.0000E+00  0.0000E+00  0.0000E+00  7.2834E-02  4.4005E-01  0.0000E+00
 10  5.2625E-05  1.9566E-01  0.0000E+00  5.1523E-01  0.0000E+00  0.0000E+00  0.0000E+00  0.0000E+00  6.0439E-01
 11  0.0000E+00  1.2594E+00  6.3190E-01  4.5811E-02  2.8683E-01  0.0000E+00  1.6674E-01  0.0000E+00  0.0000E+00
 12  0.0000E+00  1.8134E+00  0.0000E+00  1.3644E+00  0.0000E+00  0.0000E+00  0.0000E+00  3.6750E-01  0.0000E+00
 13  1.1205E+00  1.0759E+00  0.0000E+00  2.3032E+00  1.8952E-01  4.8992E-01  4.3722E+00  0.0000E+00  1.9199E+00
 14  0.0000E+00  3.3557E+00  4.9645E+00  0.0000E+00  1.0217E+01  4.8741E+00  0.0000E+00  0.0000E+00  0.0000E+00
 15  5.3888E+01  1.1196E+01  8.7384E+00  3.2266E+01  2.0951E+01  2.0947E+01  0.0000E+00  1.6586E+01  1.4557E+01
 16  0.0000E+00  2.7713E+00  1.1139E+01  0.0000E+00  1.0714E+01  1.6508E+01  4.8137E+00  1.2586E+01  0.0000E+00
 17  7.6985E+00  1.2470E+00  0.0000E+00  1.4343E+01  0.0000E+00  1.2682E+00  9.3970E+00  0.0000E+00  1.7591E+01
 18  0.0000E+00  1.7343E-02  4.4789E-02  0.0000E+00  2.1733E-02  0.0000E+00  1.3989E-03  0.0000E+00  2.0841E-02
 19  5.0000E-05  9.3868E-03  0.0000E+00  0.0000E+00  5.9378E-03  0.0000E+00  7.9852E-03  0.0000E+00  1.7101E-02
 20  0.0000E+00  2.0938E-02  0.0000E+00  1.3266E-01  0.0000E+00  1.4703E-02  0.0000E+00  0.0000E+00  0.0000E+00
 21  0.0000E+00  1.6650E-01  0.0000E+00  0.0000E+00  0.0000E+00  0.0000E+00  1.3013E-01  1.0687E-01  2.7471E-02
 22  4.7847E-02  4.1606E-02  0.0000E+00  0.0000E+00  2.4397E-02  1.6311E-01  0.0000E+00  2.6169E-02  6.0074E-02
 23  1.5190E-01  1.5263E-01  1.3409E-01  9.1304E-02  2.7784E-01  1.6005E-01  8.0890E-01  3.1391E-01  1.4074E-01
 24  3.0019E-01  1.3052E-01  2.8580E-01  7.0926E-01  1.4637E-01  1.6099E-01  0.0000E+00  0.0000E+00  1.2868E-01
 25  1.1755E+00  3.7071E-01  0.0000E+00  3.5316E-01  8.6469E-01  6.7019E-01  7.9518E-01  2.6225E-01  5.8767E-01
 26  3.7793E+00  1.3570E+00  2.3629E+00  1.8071E+00  1.5690E+00  6.0971E-01  2.2702E+00  1.8905E+00  1.4494E+00
 27  0.0000E+00  1.2977E+00  1.7203E+00  1.7531E+00  1.4968E+00  2.2281E-01  0.0000E+00  0.0000E+00  0.0000E+00
 28  0.0000E+00  5.8466E+00  2.9801E+00  7.2042E+00  2.9582E+00  5.5578E+00  7.1230E+00  6.3440E+00  4.5914E+00
 29  0.0000E+00  6.8143E-01  3.3010E+00  0.0000E+00  0.0000E+00  0.0000E+00  0.0000E+00  0.0000E+00  0.0000E+00
 30  0.0000E+00  9.1430E-01  0.0000E+00  0.0000E+00  0.0000E+00  2.5468E+00  5.3122E+00  0.0000E+00  0.0000E+00
 31  1.5627E-01  2.0212E+00  0.0000E+00  0.0000E+00  1.6283E+00  0.0000E+00  0.0000E+00  0.0000E+00  6.1958E+00
 32  9.7880E+00  8.1508E+00  1.3550E+01  0.0000E+00  9.2388E+00  2.1205E-01  8.0514E+00  8.2734E+00  1.6854E+01
 33  0.0000E+00  8.2574E-01  0.0000E+00  0.0000E+00  0.0000E+00  0.0000E+00  0.0000E+00  0.0000E+00  0.0000E+00
 34  0.0000E+00  2.9248E+00  2.2814E+01  0.0000E+00  1.8080E+01  2.4879E+00  0.0000E+00  1.4087E+01  0.0000E+00
 35  0.0000E+00  1.0841E-02  0.0000E+00  0.0000E+00  0.0000E+00  0.0000E+00  0.0000E+00  3.5790E-02  0.0000E+00
 36  0.0000E+00  4.9913E-03  0.0000E+00  0.0000E+00  1.6069E-02  2.5335E-02  0.0000E+00  0.0000E+00  2.3909E-03
 37  0.0000E+00  8.2823E-03  0.0000E+00  0.0000E+00  0.0000E+00  0.0000E+00  0.0000E+00  0.0000E+00  5.6685E-03
 38  4.4811E-01  4.4436E-01  2.8534E-01  4.0071E-01  2.0544E-01  1.0834E-01  7.9906E-01  4.7683E-01  6.8381E-01
 39  0.0000E+00  1.2067E-01  1.6779E-01  0.0000E+00  2.2117E-01  0.0000E+00  1.9149E-01  1.8026E-01  2.3578E-03
 40  0.0000E+00  2.3076E-01  0.0000E+00  6.6174E-01  3.5557E-01  3.8729E-01  0.0000E+00  1.5175E-01  0.0000E+00
 41  3.7519E-03  4.5844E-01  8.0178E-01  7.2798E-01  6.1037E-01  0.0000E+00  1.0246E+00  5.8075E-01  4.8974E-01
 42  1.9462E-03  4.2115E-01  6.8818E-02  4.6352E-01  0.0000E+00  0.0000E+00  4.7114E-01  4.2941E-01  4.7623E-01
 43  0.0000E+00  1.7092E+00  8.6809E-01  0.0000E+00  9.4948E-01  1.1995E+00  0.0000E+00  2.8030E+00  0.0000E+00
 44  0.0000E+00  2.3356E+00  2.0746E+00  1.3337E+00  0.0000E+00  0.0000E+00  8.7330E+00  0.0000E+00  0.0000E+00
 45  0.0000E+00  4.3610E+00  4.7748E+00  4.0068E+00  4.1548E+00  0.0000E+00  0.0000E+00  7.3218E+00  0.0000E+00
 46  0.0000E+00  1.4391E+00  0.0000E+00  1.0255E+00  0.0000E+00  3.7912E+00  0.0000E+00  1.9525E+00  0.0000E+00
 47  0.0000E+00  6.4162E-01  0.0000E+00  0.0000E+00  5.1097E+00  0.0000E+00  9.0837E+00  0.0000E+00  0.0000E+00
 48  0.0000E+00  2.7500E+00  0.0000E+00  0.0000E+00  0.0000E+00  0.0000E+00  1.2142E+01  0.0000E+00  0.0000E+00
 49  0.0000E+00  1.8335E+00  0.0000E+00  7.4787E+00  0.0000E+00  0.0000E+00  0.0000E+00  0.0000E+00  0.0000E+00
 50  0.0000E+00  2.1798E+00  0.0000E+00  0.0000E+00  0.0000E+00  0.0000E+00  0.0000E+00  0.0000E+00  0.0000E+00
 51  0.0000E+00  1.1806E-02  0.0000E+00  0.0000E+00  0.0000E+00  0.0000E+00  0.0000E+00  0.0000E+00  0.0000E+00
 52  0.0000E+00  6.2175E-03  5.8389E-02  0.0000E+00  0.0000E+00  3.5801E-03  0.0000E+00  0.0000E+00  3.7854E-03
 53  0.0000E+00  1.5869E-02  0.0000E+00  0.0000E+00  3.6259E-02  4.9859E-02  0.0000E+00  0.0000E+00  0.0000E+00
 54  0.0000E+00  6.1866E-02  5.5315E-02  4.9092E-02  1.9735E-02  1.6551E-02  0.0000E+00  0.0000E+00  1.4943E-02
 55  0.0000E+00  3.2106E-02  1.6023E-02  0.0000E+00  0.0000E+00  0.0000E+00  4.1975E-02  0.0000E+00  0.0000E+00
 56  0.0000E+00  9.2925E-02  2.5668E-01  2.2415E-01  0.0000E+00  0.0000E+00  1.0827E-01  1.5036E-01  8.0967E-02
 57  0.0000E+00  2.8313E-01  2.2441E-02  0.0000E+00  9.1869E-02  2.6366E-01  3.4881E-01  6.3488E-02  4.5902E-02
 58  1.5287E+00  5.9448E-01  2.6841E-01  9.0912E-01  1.6015E-01  0.0000E+00  2.9345E+00  3.2674E-01  1.0769E+00
 59  1.2028E-03  1.7988E+00  7.7307E-01  1.6224E+00  3.0945E+00  4.5036E+00  4.8872E-01  3.1245E+00  2.9349E+00
 60  9.3089E+00  9.1556E+00  6.5189E+00  6.5829E+00  3.4710E+00  6.9536E+00  1.1354E+01  7.7396E+00  1.8664E+01
 61  9.3870E+00  5.3974E+00  5.4277E+00  5.8063E+00  2.5688E+00  0.0000E+00  8.4804E+00  4.3596E+00  7.1104E+00
 62  1.2144E+00  6.7868E-01  0.0000E+00  5.2982E+00  0.0000E+00  0.0000E+00  0.0000E+00  0.0000E+00  2.2211E+00
 63  0.0000E+00  7.9432E-01  4.5985E+00  0.0000E+00  0.0000E+00  0.0000E+00  0.0000E+00  0.0000E+00  0.0000E+00
 64  0.0000E+00  9.0320E-01  0.0000E+00  0.0000E+00  0.0000E+00  0.0000E+00  0.0000E+00  8.2880E+00  0.0000E+00
 65  0.0000E+00  8.7655E+00  0.0000E+00  0.0000E+00  0.0000E+00  2.4983E+01  0.0000E+00  0.0000E+00  0.0000E+00
 66  0.0000E+00  3.4740E+00  0.0000E+00  0.0000E+00  0.0000E+00  0.0000E+00  0.0000E+00  0.0000E+00  0.0000E+00

# AV, chi2 & Mass for <> & i_chain = 1 ...  7 solutions
AV       0.3902      0.5319      0.4641      0.5109      0.4823      0.5005      0.5553      0.5150      0.5072
chi2 1.1572E-01  1.2233E-01  1.2024E-01  1.2054E-01  1.2027E-01  1.2081E-01  1.2115E-01  1.2071E-01  1.1975E-01
Mass 1.7082E-12  1.3643E-12  1.7061E-12  1.4556E-12  1.8400E-12  2.0284E-12  1.2103E-12  1.5195E-12  1.3932E-12
  24.23                                  [v0_min (km/s) before EX0s...]
 281.64                                  [vd_min (km/s) before EX0s...]


## Synthetic spectrum (Best Model) ##l_obs f_obs f_syn wei
 3478    [Nl_obs]
 3741.00    0.67212   0.70896    0.000
 3742.00    0.63357   0.71496    0.000
 3743.00    0.58562   0.71288    0.000
 3744.00    0.54828   0.70256    0.000
 3745.00    0.54263   0.68519   17.630
 3746.00    0.57404   0.66483   17.420
 3747.00    0.61205   0.64448   16.339
 3748.00    0.62073   0.62618   16.110
 3749.00    0.60055   0.61415   16.651
 3750.00    0.57444   0.61200   17.408
 3751.00    0.56479   0.61900   17.630
 3752.00    0.58192   0.63368   17.185
 3753.00    0.61632   0.65536   16.225
 3754.00    0.65207   0.68148   15.336
 3755.00    0.67956   0.70809   14.715
 3756.00    0.69545   0.73213   14.379
 3757.00    0.70142   0.75241   14.257
 3758.00    0.70216   0.76852   14.242
 3759.00    0.70357   0.77939   14.213
 3760.00    0.71015   0.78449   14.082
 3761.00    0.72161   0.78488   13.858
 3762.00    0.72349   0.78020   13.822
 3763.00    0.69231   0.76981   14.444
 3764.00    0.64444   0.75491   15.517
 3765.00    0.63865   0.73547   15.658
 3766.00    0.68558   0.71194   14.586
 3767.00    0.73067   0.68841   13.686
 3768.00    0.73869   0.66750   13.537
 3769.00    0.71586   0.64973   13.969
 3770.00    0.67327   0.63937   14.853
 3771.00    0.61938   0.63985   16.145
 3772.00    0.57492   0.64942   17.394
 3773.00    0.56627   0.66693   17.630
 3774.00    0.59735   0.69249   16.741
 3775.00    0.64944   0.72346   15.398
 3776.00    0.69832   0.75614   14.320
 3777.00    0.72758   0.78824   13.744
 3778.00    0.74657   0.81834   13.395
 3779.00    0.77768   0.84510   12.859
 3780.00    0.82785   0.86710   12.079
 3781.00    0.88697   0.88323   11.274
 3782.00    0.93430   0.89384   10.703
 3783.00    0.95347   0.89973   10.488
 3784.00    0.95084   0.90016   10.517
 3785.00    0.94267   0.89491   10.608
 3786.00    0.93660   0.88582   10.677
 3787.00    0.93272   0.87337   10.721
 3788.00    0.92748   0.85654   10.782
 3789.00    0.91651   0.83580   10.911
 3790.00    0.89691   0.81216   11.149
 3791.00    0.86669   0.78521   11.538
 3792.00    0.82446   0.75488   12.129
 3793.00    0.77080   0.72243   12.974
 3794.00    0.70977   0.69036   14.089
 3795.00    0.65124   0.66150   15.355
 3796.00    0.61102   0.63765   16.366
 3797.00    0.60293   0.62155   16.586
 3798.00    0.63188   0.61674   15.826
 3799.00    0.68277   0.62356   14.646
 3800.00    0.72288   0.64001   13.834
 3801.00    0.73810   0.66517   13.548
 3802.00    0.74408   0.69699   13.439
 3803.00    0.76330   0.73155   13.101
 3804.00    0.80968   0.76603   12.351
 3805.00    0.86989   0.79870   11.496
 3806.00    0.91183   0.82834   10.967
 3807.00    0.93048   0.85431   10.747
 3808.00    0.94698   0.87573   10.560
 3809.00    0.96617   0.89236   10.350
 3810.00    0.97536   0.90519   10.253
 3811.00    0.97042   0.91370   10.305
 3812.00    0.95649   0.91732   10.455
 3813.00    0.93545   0.91786   10.690
 3814.00    0.90667   0.91570   11.029
 3815.00    0.87339   0.91001   11.450
 3816.00    0.84178   0.90318   11.880
 3817.00    0.81740   0.89686   12.234
 3818.00    0.80584   0.88942   12.409
 3819.00    0.81426   0.88157   12.281
 3820.00    0.84323   0.87528   11.859
 3821.00    0.87694   0.86927   11.403
 3822.00    0.89655   0.86199   11.154
 3823.00    0.89638   0.85360   11.156
 3824.00    0.87799   0.84359   11.390
 3825.00    0.84272   0.83041   11.866
 3826.00    0.79716   0.81331   12.544
 3827.00    0.75715   0.79216   13.207
 3828.00    0.73437   0.76694   13.617
 3829.00    0.72593   0.73840   13.775
 3830.00    0.71940   0.70699   13.900
 3831.00    0.69943   0.67393   14.297
 3832.00    0.66386   0.64293   15.063
 3833.00    0.62930   0.61619   15.891
 3834.00    0.60706   0.59497   16.473
 3835.00    0.59277   0.58321   16.870
 3836.00    0.58351   0.58268   17.138
 3837.00    0.58376   0.59206   17.130
 3838.00    0.59324   0.61146   16.857
 3839.00    0.60589   0.63958   16.505
 3840.00    0.62588   0.67292   15.978
 3841.00    0.66714   0.70907   14.989
 3842.00    0.73084   0.74585   13.683
 3843.00    0.80168   0.78097   12.474
 3844.00    0.85972   0.81314   11.632
 3845.00    0.89065   0.84119   11.228
 3846.00    0.90215   0.86497   11.085
 3847.00    0.91446   0.88541    0.000
 3848.00    0.92995   0.90191    0.000
 3849.00    0.93657   0.91449    0.000
 3850.00    0.92936   0.92540    0.000
 3851.00    0.91606   0.93408    0.000
 3852.00    0.91804   0.93942    0.000
 3853.00    0.94883   0.94419    0.000
 3854.00    0.98224   0.94815    0.000
 3855.00    0.98343   0.94934    0.000
 3856.00    0.95758   0.95073    0.000
 3857.00    0.92860   0.95309    0.000
 3858.00    0.90553   0.95383    0.000
 3859.00    0.89096   0.95490    0.000
 3860.00    0.89359   0.95787    0.000
 3861.00    0.91662   0.96004    0.000
 3862.00    0.94706   0.96147    0.000
 3863.00    0.97065   0.96356    0.000
 3864.00    0.98519   0.96489    0.000
 3865.00    0.99690   0.96467    0.000
 3866.00    1.01494   0.96346    0.000
 3867.00    1.03864   0.96115    0.000
 3868.00    1.05263   0.95736    0.000
 3869.00    1.04809   0.95246    0.000
 3870.00    1.03248   0.94667    0.000
 3871.00    1.01309   0.93977    0.000
 3872.00    0.98965   0.93252    0.000
 3873.00    0.96200   0.92515    0.000
 3874.00    0.93360   0.91642    0.000
 3875.00    0.91003   0.90691    0.000
 3876.00    0.89651   0.89704    0.000
 3877.00    0.89168   0.88449    0.000
 3878.00    0.88743   0.86922    0.000
 3879.00    0.87557   0.85245    0.000
 3880.00    0.85207   0.83213    0.000
 3881.00    0.82226   0.80725   12.162
 3882.00    0.79843   0.77980   12.525
 3883.00    0.79019   0.75014   12.655
 3884.00    0.80012   0.71749   12.498
 3885.00    0.82002   0.68455   12.195
 3886.00    0.83651   0.65541   11.954
 3887.00    0.84308   0.63112   11.861
 3888.00    0.83965   0.61336   11.910
 3889.00    0.82785   0.60628   12.080
 3890.00    0.81090   0.61022   12.332
 3891.00    0.79447   0.62295   12.587
 3892.00    0.78439   0.64432   12.749
 3893.00    0.78336   0.67258   12.766
 3894.00    0.79031   0.70362   12.653
 3895.00    0.80048   0.73529   12.493
 3896.00    0.81053   0.76651   12.338
 3897.00    0.82312   0.79551   12.149
 3898.00    0.83919   0.82103   11.916
 3899.00    0.85209   0.84330   11.736
 3900.00    0.85993   0.86327   11.629
 3901.00    0.87395   0.88021   11.442
 3902.00    0.90283   0.89398   11.076
 3903.00    0.94139   0.90693   10.623
 3904.00    0.97425   0.91873   10.264
 3905.00    0.98262   0.92845   10.177
 3906.00    0.96586   0.93819   10.353
 3907.00    0.94652   0.94803   10.565
 3908.00    0.93528   0.95652   10.692
 3909.00    0.92015   0.96404   10.868
 3910.00    0.89630   0.97074   11.157
 3911.00    0.87576   0.97576   11.419
 3912.00    0.87258   0.97841   11.460
 3913.00    0.89266   0.97912   11.203
 3914.00    0.92011   0.97855   10.868
 3915.00    0.92602   0.97608   10.799
 3916.00    0.90707   0.97217   11.025
 3917.00    0.88678   0.96824   11.277
 3918.00    0.88823   0.96397   11.258
 3919.00    0.91995   0.95917   10.870
 3920.00    0.96191   0.95496   10.396
 3921.00    0.98078   0.95097   10.196
 3922.00    0.96698   0.94583   10.342
 3923.00    0.93350   0.93998   10.712
 3924.00    0.89967   0.93301   11.115
 3925.00    0.88003   0.92314   11.363
 3926.00    0.87197   0.91082   11.468
 3927.00    0.86470   0.89662   11.565
 3928.00    0.85409   0.87994   11.708
 3929.00    0.84023   0.86168   11.901
 3930.00    0.82203   0.84397   12.165
 3931.00    0.80029   0.82821   12.496
 3932.00    0.78144   0.81514   12.797
 3933.00    0.77347   0.80711   12.929
 3934.00    0.78079   0.80580   12.808
 3935.00    0.79757   0.81021   12.538
 3936.00    0.80580   0.82018   12.410
 3937.00    0.80307   0.83493   12.452
 3938.00    0.81755   0.85215   12.232
 3939.00    0.86357   0.87021   11.580
 3940.00    0.91658   0.88708   10.910
 3941.00    0.94984   0.90192   10.528
 3942.00    0.95713   0.91487   10.448
 3943.00    0.95004   0.92453   10.526
 3944.00    0.94974   0.93161   10.529
 3945.00    0.95926   0.93767   10.425
 3946.00    0.95977   0.94161   10.419
 3947.00    0.94810   0.94379   10.547
 3948.00    0.94320   0.94540   10.602
 3949.00    0.95281   0.94573   10.495
 3950.00    0.96750   0.94469   10.336
 3951.00    0.98111   0.94249   10.193
 3952.00    0.99295   0.93879   10.071
 3953.00    0.99531   0.93391   10.047
 3954.00    0.97647   0.92724   10.241
 3955.00    0.93687   0.91816   10.674
 3956.00    0.88974   0.90718   11.239
 3957.00    0.85336   0.89347   11.718
 3958.00    0.83999   0.87613   11.905
 3959.00    0.83912   0.85547   11.917
 3960.00    0.82977   0.83057    0.000
 3961.00    0.80625   0.80121    0.000
 3962.00    0.77308   0.76832    0.000
 3963.00    0.73118   0.73154    0.000
 3964.00    0.68146   0.69222    0.000
 3965.00    0.63213   0.65305    0.000
 3966.00    0.59574   0.61531    0.000
 3967.00    0.58412   0.58190    0.000
 3968.00    0.60174   0.55635    0.000
 3969.00    0.63990   0.54022    0.000
 3970.00    0.68123   0.53544    0.000
 3971.00    0.70614   0.54302    0.000
 3972.00    0.70644   0.56137    0.000
 3973.00    0.69393   0.58905    0.000
 3974.00    0.68418   0.62402    0.000
 3975.00    0.68471   0.66252    0.000
 3976.00    0.69765   0.70203    0.000
 3977.00    0.72240   0.74080    0.000
 3978.00    0.75763   0.77650    0.000
 3979.00    0.80143   0.80828    0.000
 3980.00    0.84642   0.83617    0.000
 3981.00    0.88073   0.85987   11.354
 3982.00    0.90252   0.87993   11.080
 3983.00    0.92202   0.89713   10.846
 3984.00    0.94455   0.91199   10.587
 3985.00    0.96572   0.92488   10.355
 3986.00    0.97835   0.93618   10.221
 3987.00    0.97720   0.94653   10.233
 3988.00    0.96526   0.95548   10.360
 3989.00    0.95330   0.96297   10.490
 3990.00    0.95345   0.96958   10.488
 3991.00    0.97202   0.97476   10.288
 3992.00    0.99757   0.97863   10.024
 3993.00    1.00865   0.98151    9.914
 3994.00    0.99520   0.98327   10.048
 3995.00    0.96268   0.98473   10.388
 3996.00    0.93087   0.98593   10.743
 3997.00    0.92127   0.98668   10.855
 3998.00    0.93766   0.98790   10.665
 3999.00    0.96891   0.98933   10.321
 4000.00    0.99758   0.99013   10.024
 4001.00    1.00770   0.99048    9.924
 4002.00    0.99304   0.99053   10.070
 4003.00    0.96100   0.98985   10.406
 4004.00    0.93388   0.98825   10.708
 4005.00    0.92905   0.98671   10.764
 4006.00    0.94101   0.98603   10.627
 4007.00    0.95794   0.98569   10.439
 4008.00    0.97655   0.98607   10.240
 4009.00    0.99379   0.98829   10.062
 4010.00    1.00159   0.99155    9.984
 4011.00    1.00083   0.99486    9.992
 4012.00    1.00689   0.99918    9.932
 4013.00    1.02366   1.00383    9.769
 4014.00    1.03292   1.00746    9.681
 4015.00    1.02380   1.01106    9.768
 4016.00    1.00516   1.01386    9.949
 4017.00    0.98801   1.01492   10.121
 4018.00    0.97726   1.01515   10.233
 4019.00    0.97405   1.01369   10.266
 4020.00    0.97654   1.01008   10.240
 4021.00    0.97929   1.00536   10.211
 4022.00    0.97624   0.99948   10.243
 4023.00    0.97082   0.99268   10.301
 4024.00    0.97352   0.98612   10.272
 4025.00    0.98609   0.98048   10.141
 4026.00    1.00000   0.97609   10.000
 4027.00    1.00396   0.97317    9.961
 4028.00    0.98961   0.97201   10.105
 4029.00    0.95940   0.97233   10.423
 4030.00    0.92617   0.97384   10.797
 4031.00    0.90863   0.97673   11.006
 4032.00    0.91956   0.98054   10.875
 4033.00    0.94834   0.98538   10.545
 4034.00    0.97395   0.99124   10.267
 4035.00    0.98892   0.99731   10.112
 4036.00    0.99757   1.00348   10.024
 4037.00    1.00814   1.00887    9.919
 4038.00    1.02271   1.01286    9.778
 4039.00    1.02845   1.01520    9.723
 4040.00    1.01996   1.01526    9.804
 4041.00    1.02026   1.01369    9.801
 4042.00    1.04443   1.01071    9.575
 4043.00    1.06851   1.00688    9.359
 4044.00    1.06855   1.00340    9.359
 4045.00    1.05212   1.00034    9.505
 4046.00    1.03630   0.99881    9.650
 4047.00    1.02970   0.99866    9.712
 4048.00    1.03204   0.99888    9.690
 4049.00    1.03588   1.00046    9.654
 4050.00    1.03374   1.00202    9.674
 4051.00    1.02246   1.00216    9.780
 4052.00    1.00435   1.00236    9.957
 4053.00    0.98648   1.00177   10.137
 4054.00    0.97555   0.99966   10.251
 4055.00    0.97476   0.99784   10.259
 4056.00    0.98072   0.99586   10.197
 4057.00    0.98582   0.99326   10.144
 4058.00    0.98999   0.99139   10.101
 4059.00    0.99914   0.98940   10.009
 4060.00    1.00839   0.98681    9.917
 4061.00    1.00489   0.98488    9.951
 4062.00    0.98880   0.98274   10.113
 4063.00    0.97371   0.98025   10.270
 4064.00    0.97420   0.97885   10.265
 4065.00    0.99613   0.97746   10.039
 4066.00    1.02378   0.97595    9.768
 4067.00    1.03473   0.97546    9.664
 4068.00    1.03096   0.97442    9.700
 4069.00    1.02774   0.97258    9.730
 4070.00    1.02717   0.97072    9.735
 4071.00    1.02236   0.96783    9.781
 4072.00    1.00962   0.96425    9.905
 4073.00    0.99139   0.96022   10.087
 4074.00    0.97693   0.95578   10.236
 4075.00    0.97300   0.95215   10.278
 4076.00    0.97419   0.94887   10.265
 4077.00    0.97100   0.94630   10.299
 4078.00    0.95915   0.94553   10.426
 4079.00    0.94143   0.94542   10.622
 4080.00    0.92742   0.94584   10.783
 4081.00    0.92431   0.94690   10.819
 4082.00    0.93050   0.94734   10.747
 4083.00    0.94066   0.94704   10.631
 4084.00    0.95016   0.94596   10.525
 4085.00    0.95831   0.94347   10.435
 4086.00    0.96832   0.93968   10.327
 4087.00    0.97724   0.93459   10.233
 4088.00    0.97464   0.92756   10.260
 4089.00    0.96209   0.91828   10.394
 4090.00    0.95516   0.90666   10.469
 4091.00    0.95366   0.89172   10.486
 4092.00    0.93765   0.87309    0.000
 4093.00    0.89935   0.85138    0.000
 4094.00    0.85053   0.82570    0.000
 4095.00    0.80755   0.79660    0.000
 4096.00    0.78496   0.76613    0.000
 4097.00    0.79197   0.73437    0.000
 4098.00    0.83036   0.70328    0.000
 4099.00    0.89178   0.67640    0.000
 4100.00    0.95947   0.65450    0.000
 4101.00    1.01371   0.63977    0.000
 4102.00    1.03735   0.63487    0.000
 4103.00    1.02422   0.63849    0.000
 4104.00    0.98033   0.65061    0.000
 4105.00    0.92265   0.67102    0.000
 4106.00    0.87114   0.69574    0.000
 4107.00    0.83729   0.72323    0.000
 4108.00    0.82379   0.75247    0.000
 4109.00    0.82693   0.78035    0.000
 4110.00    0.83969   0.80630    0.000
 4111.00    0.85518   0.83008    0.000
 4112.00    0.86878   0.85069    0.000
 4113.00    0.87984   0.86861   11.366
 4114.00    0.88993   0.88368   11.237
 4115.00    0.90088   0.89577   11.100
 4116.00    0.91324   0.90561   10.950
 4117.00    0.92526   0.91297   10.808
 4118.00    0.93378   0.91846   10.709
 4119.00    0.93612   0.92307   10.682
 4120.00    0.93712   0.92640   10.671
 4121.00    0.95034   0.92926   10.523
 4122.00    0.97825   0.93222   10.222
 4123.00    1.00461   0.93455    9.954
 4124.00    1.01422   0.93623    9.860
 4125.00    1.00338   0.93739    9.966
 4126.00    0.97989   0.93779   10.205
 4127.00    0.95884   0.93725   10.429
 4128.00    0.94709   0.93639   10.559
 4129.00    0.94041   0.93566   10.634
 4130.00    0.93503   0.93518   10.695
 4131.00    0.93110   0.93604   10.740
 4132.00    0.93050   0.93836   10.747
 4133.00    0.93543   0.94143   10.690
 4134.00    0.94653   0.94576   10.565
 4135.00    0.96254   0.95110   10.389
 4136.00    0.98095   0.95546   10.194
 4137.00    0.99778   0.95867   10.022
 4138.00    1.00718   0.96113    9.929
 4139.00    1.00385   0.96104    9.962
 4140.00    0.98767   0.95896   10.125
 4141.00    0.96440   0.95639   10.369
 4142.00    0.94523   0.95258   10.579
 4143.00    0.94082   0.94896   10.629
 4144.00    0.95313   0.94724   10.492
 4145.00    0.97564   0.94607   10.250
 4146.00    0.99603   0.94635   10.040
 4147.00    1.00564   0.94888    9.944
 4148.00    1.00880   0.95095    9.913
 4149.00    1.01181   0.95300    9.883
 4150.00    1.01176   0.95584    9.884
 4151.00    1.00470   0.95733    9.953
 4152.00    0.99352   0.95811   10.065
 4153.00    0.98574   0.95911   10.145
 4154.00    0.98965   0.95972   10.105
 4155.00    1.00270   0.96053    9.973
 4156.00    1.00736   0.96196    9.927
 4157.00    0.99464   0.96394   10.054
 4158.00    0.97581   0.96611   10.248
 4159.00    0.96608   0.96848   10.351
 4160.00    0.97368   0.97100   10.270
 4161.00    0.99241   0.97303   10.077
 4162.00    1.00393   0.97462    9.961
 4163.00    1.00071   0.97526    9.993
 4164.00    0.99156   0.97507   10.085
 4165.00    0.98576   0.97411   10.144
 4166.00    0.98610   0.97151   10.141
 4167.00    0.98682   0.96826   10.134
 4168.00    0.97794   0.96444   10.226
 4169.00    0.95930   0.95938   10.424
 4170.00    0.93965   0.95420   10.642
 4171.00    0.92419   0.94931   10.820
 4172.00    0.91385   0.94464   10.943
 4173.00    0.91093   0.94085   10.978
 4174.00    0.91787   0.93825   10.895
 4175.00    0.93245   0.93681   10.724
 4176.00    0.94961   0.93676   10.531
 4177.00    0.96627   0.93786   10.349
 4178.00    0.98029   0.93951   10.201
 4179.00    0.98797   0.94197   10.122
 4180.00    0.98823   0.94466   10.119
 4181.00    0.98831   0.94682   10.118
 4182.00    0.99558   0.94953   10.044
 4183.00    1.00729   0.95158    9.928
 4184.00    1.01407   0.95261    9.861
 4185.00    1.00589   0.95436    9.941
 4186.00    0.98101   0.95547   10.194
 4187.00    0.95239   0.95649   10.500
 4188.00    0.93567   0.95811   10.688
 4189.00    0.93836   0.95885   10.657
 4190.00    0.95868   0.96011   10.431
 4191.00    0.98634   0.96161   10.139
 4192.00    1.00987   0.96158    9.902
 4193.00    1.02182   0.96085    9.786
 4194.00    1.02052   0.95963    9.799
 4195.00    1.00990   0.95718    9.902
 4196.00    0.99360   0.95389   10.064
 4197.00    0.97298   0.95020   10.278
 4198.00    0.95182   0.94658   10.506
 4199.00    0.93677   0.94401   10.675
 4200.00    0.93102   0.94201   10.741
 4201.00    0.93297   0.94087   10.718
 4202.00    0.94100   0.94200   10.627
 4203.00    0.95436   0.94375   10.478
 4204.00    0.97071   0.94568   10.302
 4205.00    0.98702   0.94946   10.131
 4206.00    1.00410   0.95310    9.959
 4207.00    1.02358   0.95596    9.770
 4208.00    1.03822   0.95929    9.632
 4209.00    1.03802   0.96153    9.634
 4210.00    1.02725   0.96293    9.735
 4211.00    1.01768   0.96406    9.826
 4212.00    1.00969   0.96379    9.904
 4213.00    0.99808   0.96333   10.019
 4214.00    0.98684   0.96294   10.133
 4215.00    0.98271   0.96198   10.176
 4216.00    0.98289   0.96135   10.174
 4217.00    0.98023   0.96039   10.202
 4218.00    0.97213   0.95905   10.287
 4219.00    0.96105   0.95772   10.405
 4220.00    0.95333   0.95497   10.490
 4221.00    0.95408   0.95064   10.481
 4222.00    0.96222   0.94594   10.393
 4223.00    0.97053   0.94054   10.304
 4224.00    0.96753   0.93437   10.336
 4225.00    0.94894   0.92958   10.538
 4226.00    0.92516   0.92610   10.809
 4227.00    0.91133   0.92406   10.973
 4228.00    0.91859   0.92441   10.886
 4229.00    0.94676   0.92569   10.562
 4230.00    0.98203   0.92837   10.183
 4231.00    1.00846   0.93198    9.916
 4232.00    1.01566   0.93408    9.846
 4233.00    1.00489   0.93612   -2.000
 4234.00    0.98935   0.93809   -2.000
 4235.00    0.98385   0.93846   -2.000
 4236.00    0.99712   0.93960   -2.000
 4237.00    1.02040   0.94132   -2.000
 4238.00    1.03122   0.94244   -2.000
 4239.00    1.01901   0.94458   -2.000
 4240.00    0.99134   0.94711   -2.000
 4241.00    0.96644   0.94902   -2.000
 4242.00    0.96182   0.95089   -2.000
 4243.00    0.97208   0.95244   -2.000
 4244.00    0.97669   0.95226   -2.000
 4245.00    0.96989   0.95126   -2.000
 4246.00    0.95909   0.95022   -2.000
 4247.00    0.94830   0.94762   -2.000
 4248.00    0.93836   0.94450   -2.000
 4249.00    0.93312   0.94185   10.717
 4250.00    0.93647   0.93951   10.678
 4251.00    0.94635   0.93799   10.567
 4252.00    0.95676   0.93633   10.452
 4253.00    0.96198   0.93558   10.395
 4254.00    0.96094   0.93625   10.406
 4255.00    0.96104   0.93630   10.405
 4256.00    0.96906   0.93645   10.319
 4257.00    0.98141   0.93709   10.189
 4258.00    0.98892   0.93794   10.112
 4259.00    0.98319   0.93924   10.171
 4260.00    0.96470   0.94010   10.366
 4261.00    0.94703   0.94117   10.559
 4262.00    0.94009   0.94271   10.637
 4263.00    0.93916   0.94356   10.648
 4264.00    0.93723   0.94394   10.670
 4265.00    0.93318   0.94346   10.716
 4266.00    0.92930   0.94127   10.761
 4267.00    0.92872   0.93827   10.767
 4268.00    0.93178   0.93391   10.732
 4269.00    0.93473   0.92832   10.698
 4270.00    0.93270   0.92383   10.722
 4271.00    0.92317   0.91987   10.832
 4272.00    0.91382   0.91676   10.943
 4273.00    0.91948   0.91521   10.876
 4274.00    0.94069   0.91514   10.630
 4275.00    0.96283   0.91759   10.386
 4276.00    0.97674   0.92028   10.238
 4277.00    0.98252   0.92273   10.178
 4278.00    0.98159   0.92629   10.188
 4279.00    0.97477   0.92866   10.259
 4280.00    0.96289   0.92981   10.385
 4281.00    0.94733   0.93019   10.556
 4282.00    0.93070   0.92859   10.745
 4283.00    0.91637   0.92644   10.913
 4284.00    0.90722   0.92346   11.023
 4285.00    0.90546   0.91956   11.044
 4286.00    0.91242   0.91575   10.960
 4287.00    0.92570   0.91142   10.803
 4288.00    0.93566   0.90749   10.688
 4289.00    0.93313   0.90465   10.717
 4290.00    0.91956   0.90214   10.875
 4291.00    0.90281   0.89941   11.077
 4292.00    0.89051   0.89727   11.230
 4293.00    0.88708   0.89554   11.273
 4294.00    0.89159   0.89340   11.216
 4295.00    0.89967   0.89052   11.115
 4296.00    0.90590   0.88542   11.039
 4297.00    0.90779   0.88013   11.016
 4298.00    0.90788   0.87510   11.015
 4299.00    0.90777   0.86876   11.016
 4300.00    0.90436   0.86316   11.058
 4301.00    0.89464   0.85807   11.178
 4302.00    0.87865   0.85348   11.381
 4303.00    0.85891   0.85132   11.643
 4304.00    0.83977   0.84949   11.908
 4305.00    0.82630   0.84802   12.102
 4306.00    0.82277   0.84885   12.154
 4307.00    0.82860   0.85013   12.069
 4308.00    0.83842   0.85230   11.927
 4309.00    0.84872   0.85566   11.782
 4310.00    0.85873   0.85955   11.645
 4311.00    0.86522   0.86470   11.558
 4312.00    0.86470   0.87099   11.565
 4313.00    0.86434   0.87801   11.570
 4314.00    0.87634   0.88465   11.411
 4315.00    0.89581   0.89077   11.163
 4316.00    0.90668   0.89600   11.029
 4317.00    0.90762   0.89963   11.018
 4318.00    0.90794   0.90196   11.014
 4319.00    0.90795   0.90180   11.014
 4320.00    0.90239   0.89870   11.082
 4321.00    0.89335   0.89389   11.194
 4322.00    0.88648   0.88707   11.281
 4323.00    0.88174   0.87899   11.341
 4324.00    0.87746   0.87148   11.397
 4325.00    0.87731   0.86364   11.398
 4326.00    0.88512   0.85585   11.298
 4327.00    0.89750   0.84802   11.142
 4328.00    0.90532   0.84017   11.046
 4329.00    0.89738   0.83275   11.144
 4330.00    0.87173   0.82337    0.000
 4331.00    0.84415   0.81099    0.000
 4332.00    0.82896   0.79547    0.000
 4333.00    0.82388   0.77663    0.000
 4334.00    0.82446   0.75469    0.000
 4335.00    0.83560   0.73026    0.000
 4336.00    0.87007   0.70471    0.000
 4337.00    0.94313   0.67943    0.000
 4338.00    1.04928   0.65740    0.000
 4339.00    1.15409   0.64012    0.000
 4340.00    1.22267   0.62913    0.000
 4341.00    1.23505   0.62619    0.000
 4342.00    1.18585   0.63020    0.000
 4343.00    1.08516   0.64188    0.000
 4344.00    0.96239   0.66051    0.000
 4345.00    0.85891   0.68216    0.000
 4346.00    0.79734   0.70533    0.000
 4347.00    0.77508   0.72919    0.000
 4348.00    0.77880   0.75126    0.000
 4349.00    0.79250   0.77126    0.000
 4350.00    0.80592   0.78981    0.000
 4351.00    0.81561   0.80617   12.261
 4352.00    0.82187   0.82057   12.167
 4353.00    0.82679   0.83313   12.095
 4354.00    0.83189   0.84490   12.021
 4355.00    0.83781   0.85700   11.936
 4356.00    0.84483   0.86815   11.837
 4357.00    0.85384   0.87814   11.712
 4358.00    0.86787   0.88781   11.522
 4359.00    0.88898   0.89665   11.249
 4360.00    0.91379   0.90412   10.943
 4361.00    0.93650   0.91051   10.678
 4362.00    0.95371   0.91620   10.485
 4363.00    0.96410   0.92083   10.372
 4364.00    0.96740   0.92374   10.337
 4365.00    0.96372   0.92517   10.376
 4366.00    0.95315   0.92585   10.491
 4367.00    0.93659   0.92564   10.677
 4368.00    0.91665   0.92444   10.909
 4369.00    0.89877   0.92246   11.126
 4370.00    0.89079   0.92036   11.226
 4371.00    0.89489   0.91853   11.175
 4372.00    0.90342   0.91671   11.069
 4373.00    0.90919   0.91555   10.999
 4374.00    0.91171   0.91504   10.968
 4375.00    0.91429   0.91447   10.937
 4376.00    0.92090   0.91324   10.859
 4377.00    0.93008   0.91165   10.752
 4378.00    0.93402   0.91027   10.706
 4379.00    0.92736   0.90779   10.783
 4380.00    0.91090   0.90310   10.978
 4381.00    0.89085   0.89712   11.225
 4382.00    0.87603   0.89094   11.415
 4383.00    0.87030   0.88577   11.490
 4384.00    0.87143   0.88071   11.475
 4385.00    0.87541   0.87586   11.423
 4386.00    0.87903   0.87375   11.376
 4387.00    0.88261   0.87422   11.330
 4388.00    0.88847   0.87713   11.255
 4389.00    0.89566   0.88106   11.165
 4390.00    0.90062   0.88520   11.103
 4391.00    0.90081   0.89074   11.101
 4392.00    0.89594   0.89590   11.161
 4393.00    0.88879   0.90104   11.251
 4394.00    0.88349   0.90638   11.319
 4395.00    0.88266   0.91012   11.329
 4396.00    0.88743   0.91262   11.268
 4397.00    0.89791   0.91371   11.137
 4398.00    0.91104   0.91493   10.977
 4399.00    0.91853   0.91632   10.887
 4400.00    0.91515   0.91578   10.927
 4401.00    0.90708   0.91395   11.024
 4402.00    0.90260   0.91194   11.079
 4403.00    0.90275   0.91102   11.077
 4404.00    0.90453   0.91107   11.055
 4405.00    0.90470   0.91065   11.053
 4406.00    0.90192   0.91003   11.087
 4407.00    0.89800   0.91068   11.136
 4408.00    0.89688   0.91275   11.150
 4409.00    0.90292   0.91483   11.075
 4410.00    0.91607   0.91621   10.916
 4411.00    0.92995   0.91688   10.753
 4412.00    0.93684   0.91738   10.674
 4413.00    0.93053   0.91779   10.747
 4414.00    0.90675   0.91754   11.028
 4415.00    0.86580   0.91740   11.550
 4416.00    0.82218   0.91725   12.163
 4417.00    0.80020   0.91709   12.497
 4418.00    0.80518   0.91824   12.420
 4419.00    0.82118   0.91945   12.178
 4420.00    0.83657   0.92108   11.954
 4421.00    0.84898   0.92339   11.779
 4422.00    0.85606   0.92466   11.681
 4423.00    0.85662   0.92564   11.674
 4424.00    0.85940   0.92579   11.636
 4425.00    0.87594   0.92574   11.416
 4426.00    0.90131   0.92596   11.095
 4427.00    0.92087   0.92469   10.859
 4428.00    0.93053   0.92338   10.747
 4429.00    0.93450   0.92203   10.701
 4430.00    0.93480   0.92040   10.697
 4431.00    0.93149   0.91917   10.735
 4432.00    0.92538   0.91714   10.806
 4433.00    0.91824   0.91611   10.890
 4434.00    0.91249   0.91626   10.959
 4435.00    0.91093   0.91626   10.978
 4436.00    0.91616   0.91685   10.915
 4437.00    0.92591   0.91735   10.800
 4438.00    0.92966   0.91812   10.757
 4439.00    0.92021   0.91915   10.867
 4440.00    0.90349   0.91958   11.068
 4441.00    0.88913   0.92013   11.247
 4442.00    0.88218   0.92066   11.336
 4443.00    0.88403   0.92088   11.312
 4444.00    0.89345   0.92091   11.193
 4445.00    0.90615   0.92140   11.036
 4446.00    0.91543   0.92238   10.924
 4447.00    0.91662   0.92314   10.910
 4448.00    0.91001   0.92362   10.989
 4449.00    0.90246   0.92292   11.081
 4450.00    0.90448   0.92163   11.056
 4451.00    0.91533   0.91952   10.925
 4452.00    0.92159   0.91592   10.851
 4453.00    0.91641   0.91259   10.912
 4454.00    0.90456   0.90908   11.055
 4455.00    0.89392   0.90536   11.187
 4456.00    0.89038   0.90165   11.231
 4457.00    0.89222   0.89835   11.208
 4458.00    0.89258   0.89624   11.204
 4459.00    0.88987   0.89491   11.238
 4460.00    0.88776   0.89460   11.264
 4461.00    0.88861   0.89418    0.000
 4462.00    0.89196   0.89406    0.000
 4463.00    0.89467   0.89403    0.000
 4464.00    0.89378   0.89367    0.000
 4465.00    0.89125   0.89377    0.000
 4466.00    0.89136   0.89299    0.000
 4467.00    0.89538   0.89200    0.000
 4468.00    0.90221   0.89113    0.000
 4469.00    0.91055   0.89108    0.000
 4470.00    0.91879   0.89259    0.000
 4471.00    0.92468   0.89448    0.000
 4472.00    0.92749   0.89717    0.000
 4473.00    0.92991   0.90033    0.000
 4474.00    0.93436   0.90446    0.000
 4475.00    0.93930   0.90881    0.000
 4476.00    0.94135   0.91166    0.000
 4477.00    0.93748   0.91275    0.000
 4478.00    0.92582   0.91254    0.000
 4479.00    0.90666   0.91262    0.000
 4480.00    0.88627   0.91294    0.000
 4481.00    0.87721   0.91259    0.000
 4482.00    0.88521   0.91227   11.297
 4483.00    0.90323   0.91249   11.071
 4484.00    0.92165   0.91403   10.850
 4485.00    0.93422   0.91637   10.704
 4486.00    0.93913   0.91802   10.648
 4487.00    0.93875   0.91956   10.652
 4488.00    0.93680   0.92070   10.675
 4489.00    0.93630   0.92146   10.680
 4490.00    0.93672   0.92172   10.676
 4491.00    0.93519   0.92112   10.693
 4492.00    0.93350   0.92114   10.712
 4493.00    0.93681   0.92168   10.675
 4494.00    0.94400   0.92273   10.593
 4495.00    0.94843   0.92445   10.544
 4496.00    0.94629   0.92594   10.568
 4497.00    0.93805   0.92817   10.660
 4498.00    0.92717   0.93068   10.786
 4499.00    0.91867   0.93391   10.885
 4500.00    0.91699   0.93800   10.905
 4501.00    0.92287   0.94149   10.836
 4502.00    0.92935   0.94472   10.760
 4503.00    0.92930   0.94726   10.761
 4504.00    0.92725   0.94952   10.785
 4505.00    0.93150   0.95173   10.735
 4506.00    0.94182   0.95292   10.618
 4507.00    0.95223   0.95336   10.502
 4508.00    0.95641   0.95280   10.456
 4509.00    0.95239   0.95126   10.500
 4510.00    0.94583   0.94939   10.573
 4511.00    0.94204   0.94719   10.615
 4512.00    0.93904   0.94474   10.649
 4513.00    0.93383   0.94231   10.709
 4514.00    0.92776   0.93946   10.779
 4515.00    0.92474   0.93655   10.814
 4516.00    0.92876   0.93412   10.767
 4517.00    0.93824   0.93145   10.658
 4518.00    0.94437   0.92943   10.589
 4519.00    0.94168   0.92678   10.619
 4520.00    0.93310   0.92351   10.717
 4521.00    0.92472   0.92079   10.814
 4522.00    0.92189   0.91703   10.847
 4523.00    0.92467   0.91328   10.815
 4524.00    0.92764   0.90886   10.780
 4525.00    0.92682   0.90398   10.790
 4526.00    0.92163   0.89994   10.850
 4527.00    0.91215   0.89614   10.963
 4528.00    0.89922   0.89293   11.121
 4529.00    0.88769   0.89085   11.265
 4530.00    0.88408   0.88911   11.311
 4531.00    0.88813   0.88841   11.260
 4532.00    0.89352   0.88943   11.192
 4533.00    0.89488   0.89138   11.175
 4534.00    0.89080   0.89493   11.226
 4535.00    0.88624   0.89827   11.284
 4536.00    0.88814   0.90157   11.260
 4537.00    0.89655   0.90537   11.154
 4538.00    0.90689   0.90892   11.027
 4539.00    0.91587   0.91263   10.919
 4540.00    0.92212   0.91523   10.845
 4541.00    0.92555   0.91623   10.804
 4542.00    0.92635   0.91627   10.795
 4543.00    0.92396   0.91553   10.823
 4544.00    0.91891   0.91420   10.882
 4545.00    0.91467   0.91227   10.933
 4546.00    0.91390   0.90910   10.942
 4547.00    0.91485   0.90589   10.931
 4548.00    0.91405   0.90350   10.940
 4549.00    0.90915   0.90069   10.999
 4550.00    0.90085   0.89843    0.000
 4551.00    0.89359   0.89640    0.000
 4552.00    0.89113   0.89547    0.000
 4553.00    0.89371   0.89635    0.000
 4554.00    0.89878   0.89773    0.000
 4555.00    0.90269   0.89983    0.000
 4556.00    0.90605   0.90241    0.000
 4557.00    0.91435   0.90544    0.000
 4558.00    0.92826   0.90885    0.000
 4559.00    0.94102   0.91240    0.000
 4560.00    0.94754   0.91497    0.000
 4561.00    0.94755   0.91691    0.000
 4562.00    0.94328   0.91855    0.000
 4563.00    0.93789   0.91962    0.000
 4564.00    0.93324   0.92070    0.000
 4565.00    0.93007   0.92099    0.000
 4566.00    0.93045   0.92111    0.000
 4567.00    0.93653   0.92146    0.000
 4568.00    0.94593   0.92144    0.000
 4569.00    0.95313   0.92172    0.000
 4570.00    0.95508   0.92220    0.000
 4571.00    0.95146   0.92213    0.000
 4572.00    0.94265   0.92178    0.000
 4573.00    0.93030   0.92083    0.000
 4574.00    0.91868   0.91973    0.000
 4575.00    0.91216   0.91887    0.000
 4576.00    0.91101   0.91712    0.000
 4577.00    0.91197   0.91490    0.000
 4578.00    0.91011   0.91249    0.000
 4579.00    0.90236   0.90991    0.000
 4580.00    0.89114   0.90731    0.000
 4581.00    0.88143   0.90476    0.000
 4582.00    0.87694   0.90297    0.000
 4583.00    0.87741   0.90169    0.000
 4584.00    0.87728   0.90121    0.000
 4585.00    0.87351   0.90122    0.000
 4586.00    0.87101   0.90173    0.000
 4587.00    0.87536   0.90272    0.000
 4588.00    0.88702   0.90349    0.000
 4589.00    0.90132   0.90440    0.000
 4590.00    0.91003   0.90512    0.000
 4591.00    0.90953   0.90571    0.000
 4592.00    0.90404   0.90588    0.000
 4593.00    0.89866   0.90587    0.000
 4594.00    0.89611   0.90593    0.000
 4595.00    0.89834   0.90596    0.000
 4596.00    0.90640   0.90630    0.000
 4597.00    0.91715   0.90641    0.000
 4598.00    0.92435   0.90677    0.000
 4599.00    0.92660   0.90748    0.000
 4600.00    0.92755   0.90810    0.000
 4601.00    0.92852   0.90922    0.000
 4602.00    0.92762   0.91023    0.000
 4603.00    0.92339   0.91163    0.000
 4604.00    0.91676   0.91358    0.000
 4605.00    0.91298   0.91558    0.000
 4606.00    0.91824   0.91793    0.000
 4607.00    0.93198   0.91996    0.000
 4608.00    0.94772   0.92179    0.000
 4609.00    0.95764   0.92346    0.000
 4610.00    0.95676   0.92466    0.000
 4611.00    0.94796   0.92545    0.000
 4612.00    0.93834   0.92577    0.000
 4613.00    0.93267   0.92520    0.000
 4614.00    0.93187   0.92454    0.000
 4615.00    0.93254   0.92357    0.000
 4616.00    0.93122   0.92255    0.000
 4617.00    0.92898   0.92198    0.000
 4618.00    0.92830   0.92137    0.000
 4619.00    0.92968   0.92113    0.000
 4620.00    0.93261   0.92095    0.000
 4621.00    0.93659   0.92084    0.000
 4622.00    0.93969   0.92100    0.000
 4623.00    0.93800   0.92118    0.000
 4624.00    0.93024   0.92114    0.000
 4625.00    0.92007   0.92099    0.000
 4626.00    0.91059   0.92038    0.000
 4627.00    0.90187   0.91950    0.000
 4628.00    0.89597   0.91854    0.000
 4629.00    0.89782   0.91732    0.000
 4630.00    0.90636   0.91583    0.000
 4631.00    0.91308   0.91416    0.000
 4632.00    0.91331   0.91256    0.000
 4633.00    0.90955   0.91110    0.000
 4634.00    0.90588   0.90944    0.000
 4635.00    0.90541   0.90767    0.000
 4636.00    0.90879   0.90614    0.000
 4637.00    0.91431   0.90458    0.000
 4638.00    0.91916   0.90334    0.000
 4639.00    0.92055   0.90218    0.000
 4640.00    0.91767   0.90092    0.000
 4641.00    0.91130   0.89960    0.000
 4642.00    0.90199   0.89805    0.000
 4643.00    0.89074   0.89647    0.000
 4644.00    0.88094   0.89491    0.000
 4645.00    0.87652   0.89342    0.000
 4646.00    0.87830   0.89214    0.000
 4647.00    0.88452   0.89122    0.000
 4648.00    0.89268   0.89064    0.000
 4649.00    0.89996   0.89059    0.000
 4650.00    0.90368   0.89131    0.000
 4651.00    0.90362   0.89236    0.000
 4652.00    0.90425   0.89403    0.000
 4653.00    0.90913   0.89607    0.000
 4654.00    0.91525   0.89812    0.000
 4655.00    0.91871   0.90052    0.000
 4656.00    0.92012   0.90224    0.000
 4657.00    0.92197   0.90385    0.000
 4658.00    0.92578   0.90475    0.000
 4659.00    0.93035   0.90496    0.000
 4660.00    0.93142   0.90467    0.000
 4661.00    0.92763   0.90317    0.000
 4662.00    0.92307   0.90078    0.000
 4663.00    0.92022   0.89734    0.000
 4664.00    0.91675   0.89329    0.000
 4665.00    0.91050   0.88936    0.000
 4666.00    0.90195   0.88599    0.000
 4667.00    0.89347   0.88344    0.000
 4668.00    0.88794   0.88180    0.000
 4669.00    0.88531   0.88117    0.000
 4670.00    0.88270   0.88169    0.000
 4671.00    0.87947   0.88328    0.000
 4672.00    0.87807   0.88557    0.000
 4673.00    0.88113   0.88829    0.000
 4674.00    0.88963   0.89070    0.000
 4675.00    0.90052   0.89261    0.000
 4676.00    0.90856   0.89405    0.000
 4677.00    0.91187   0.89492    0.000
 4678.00    0.91217   0.89558    0.000
 4679.00    0.91219   0.89579    0.000
 4680.00    0.91415   0.89582    0.000
 4681.00    0.91789   0.89575    0.000
 4682.00    0.92172   0.89560    0.000
 4683.00    0.92426   0.89567    0.000
 4684.00    0.92516   0.89590    0.000
 4685.00    0.92546   0.89634    0.000
 4686.00    0.92559   0.89672    0.000
 4687.00    0.92295   0.89712    0.000
 4688.00    0.91569   0.89747    0.000
 4689.00    0.90689   0.89767    0.000
 4690.00    0.90146   0.89791    0.000
 4691.00    0.90252   0.89800    0.000
 4692.00    0.90914   0.89798    0.000
 4693.00    0.91549   0.89749    0.000
 4694.00    0.91681   0.89680    0.000
 4695.00    0.91380   0.89563    0.000
 4696.00    0.90944   0.89408    0.000
 4697.00    0.90655   0.89224    0.000
 4698.00    0.90656   0.88988    0.000
 4699.00    0.90899   0.88745    0.000
 4700.00    0.91172   0.88482    0.000
 4701.00    0.91185   0.88238    0.000
 4702.00    0.90855   0.88023    0.000
 4703.00    0.90364   0.87838    0.000
 4704.00    0.89829   0.87712    0.000
 4705.00    0.89197   0.87616    0.000
 4706.00    0.88361   0.87587    0.000
 4707.00    0.87294   0.87572    0.000
 4708.00    0.86309   0.87608    0.000
 4709.00    0.85956   0.87657    0.000
 4710.00    0.86496   0.87735    0.000
 4711.00    0.87726   0.87853    0.000
 4712.00    0.88935   0.88013    0.000
 4713.00    0.89324   0.88236    0.000
 4714.00    0.88919   0.88476    0.000
 4715.00    0.88362   0.88765    0.000
 4716.00    0.88092   0.89052    0.000
 4717.00    0.88256   0.89348    0.000
 4718.00    0.88840   0.89637    0.000
 4719.00    0.89759   0.89916    0.000
 4720.00    0.90963   0.90129    0.000
 4721.00    0.92288   0.90275    0.000
 4722.00    0.93274   0.90299    0.000
 4723.00    0.93412   0.90239    0.000
 4724.00    0.92492   0.90085    0.000
 4725.00    0.90773   0.89862    0.000
 4726.00    0.89041   0.89592    0.000
 4727.00    0.87937   0.89303    0.000
 4728.00    0.87371   0.89031    0.000
 4729.00    0.87070   0.88768    0.000
 4730.00    0.87038   0.88571    0.000
 4731.00    0.87369   0.88411    0.000
 4732.00    0.88060   0.88335    0.000
 4733.00    0.88968   0.88349    0.000
 4734.00    0.89795   0.88412    0.000
 4735.00    0.90234   0.88516    0.000
 4736.00    0.90084   0.88634    0.000
 4737.00    0.89457   0.88782    0.000
 4738.00    0.88812   0.88912    0.000
 4739.00    0.88669   0.89045    0.000
 4740.00    0.89353   0.89174    0.000
 4741.00    0.90561   0.89290    0.000
 4742.00    0.91483   0.89418    0.000
 4743.00    0.91774   0.89525    0.000
 4744.00    0.91703   0.89606    0.000
 4745.00    0.91565   0.89676    0.000
 4746.00    0.91486   0.89726    0.000
 4747.00    0.91409   0.89737    0.000
 4748.00    0.91214   0.89722    0.000
 4749.00    0.90985   0.89653    0.000
 4750.00    0.90878   0.89562    0.000
 4751.00    0.90740   0.89437    0.000
 4752.00    0.90297   0.89279    0.000
 4753.00    0.89657   0.89110    0.000
 4754.00    0.89161   0.88929    0.000
 4755.00    0.88993   0.88750    0.000
 4756.00    0.89087   0.88543    0.000
 4757.00    0.89108   0.88335    0.000
 4758.00    0.88767   0.88125    0.000
 4759.00    0.88205   0.87909    0.000
 4760.00    0.87687   0.87692    0.000
 4761.00    0.87221   0.87471   11.465
 4762.00    0.86757   0.87280   11.526
 4763.00    0.86404   0.87106   11.574
 4764.00    0.86309   0.86978   11.586
 4765.00    0.86520   0.86908   11.558
 4766.00    0.86985   0.86871   11.496
 4767.00    0.87565   0.86925   11.420
 4768.00    0.88054   0.87043   11.357
 4769.00    0.88235   0.87225   11.333
 4770.00    0.88103   0.87426   11.350
 4771.00    0.87959   0.87644   11.369
 4772.00    0.88155   0.87873   11.344
 4773.00    0.88894   0.88063   11.249
 4774.00    0.89987   0.88227   11.113
 4775.00    0.90865   0.88328   11.005
 4776.00    0.91145   0.88399   10.971
 4777.00    0.90818   0.88425   11.011
 4778.00    0.90057   0.88391   11.104
 4779.00    0.89101   0.88313   11.223
 4780.00    0.88111   0.88189   11.349
 4781.00    0.87168   0.88025   11.472
 4782.00    0.86377   0.87862   11.577
 4783.00    0.85859   0.87693   11.647
 4784.00    0.85641   0.87533   11.677
 4785.00    0.85649   0.87425   11.676
 4786.00    0.85770   0.87354   11.659
 4787.00    0.85965   0.87331   11.633
 4788.00    0.86426   0.87367   11.571
 4789.00    0.87314   0.87483   11.453
 4790.00    0.88260   0.87616   11.330
 4791.00    0.88719   0.87773   11.272
 4792.00    0.88641   0.87970   11.281
 4793.00    0.88342   0.88129   11.320
 4794.00    0.88173   0.88270   11.341
 4795.00    0.88292   0.88385   11.326
 4796.00    0.88448   0.88444   11.306
 4797.00    0.88296   0.88468   11.325
 4798.00    0.87747   0.88439   11.396
 4799.00    0.86944   0.88369   11.502
 4800.00    0.86193   0.88248   11.602
 4801.00    0.85784   0.88133   11.657
 4802.00    0.85845   0.88004   11.649
 4803.00    0.86309   0.87879   11.586
 4804.00    0.86939   0.87774   11.502
 4805.00    0.87543   0.87682   11.423
 4806.00    0.88101   0.87612   11.351
 4807.00    0.88648   0.87541   11.281
 4808.00    0.89163   0.87499   11.215
 4809.00    0.89434   0.87468   11.181
 4810.00    0.89106   0.87491   11.223
 4811.00    0.88204   0.87539   11.337
 4812.00    0.87244   0.87602   11.462
 4813.00    0.86721   0.87681   11.531
 4814.00    0.86868   0.87762   11.512
 4815.00    0.87580   0.87819   11.418
 4816.00    0.88471   0.87848   11.303
 4817.00    0.89118   0.87842   11.221
 4818.00    0.89174   0.87770   11.214
 4819.00    0.88454   0.87661   11.305
 4820.00    0.87056   0.87504   11.487
 4821.00    0.85590   0.87318   11.684
 4822.00    0.84790   0.87090   11.794
 4823.00    0.84628   0.86849   11.816
 4824.00    0.84544   0.86611   11.828
 4825.00    0.84239   0.86388   11.871
 4826.00    0.83794   0.86195   11.934
 4827.00    0.83617   0.86001   11.959
 4828.00    0.83968   0.85854   11.909
 4829.00    0.84352   0.85751   11.855
 4830.00    0.84189   0.85659   11.878
 4831.00    0.83741   0.85542   11.942
 4832.00    0.83660   0.85428   11.953
 4833.00    0.84313   0.85295   11.861
 4834.00    0.85522   0.85155   11.693
 4835.00    0.86462   0.84992   11.566
 4836.00    0.86524   0.84790   11.558
 4837.00    0.86015   0.84588   11.626
 4838.00    0.85460   0.84347   11.701
 4839.00    0.85026   0.84084   11.761
 4840.00    0.84688   0.83784   11.808
 4841.00    0.84373   0.83462   11.852
 4842.00    0.83966   0.83107   11.910
 4843.00    0.83338   0.82700   11.999
 4844.00    0.82473   0.82257   12.125
 4845.00    0.81510   0.81765   12.268
 4846.00    0.80563   0.81197   12.413
 4847.00    0.79644   0.80520   12.556
 4848.00    0.78694   0.79735    0.000
 4849.00    0.77665   0.78829    0.000
 4850.00    0.76738   0.77760    0.000
 4851.00    0.76226   0.76534    0.000
 4852.00    0.75980   0.75141    0.000
 4853.00    0.75557   0.73580    0.000
 4854.00    0.75280   0.71889    0.000
 4855.00    0.76775   0.70086    0.000
 4856.00    0.83472   0.68240    0.000
 4857.00    0.99269   0.66462    0.000
 4858.00    1.25269   0.64835    0.000
 4859.00    1.58457   0.63437    0.000
 4860.00    1.90777   0.62401    0.000
 4861.00    2.12204   0.61791    0.000
 4862.00    2.16402   0.61633    0.000
 4863.00    2.02220   0.61924    0.000
 4864.00    1.74251   0.62628    0.000
 4865.00    1.40763   0.63691    0.000
 4866.00    1.10581   0.65042    0.000
 4867.00    0.89769   0.66602    0.000
 4868.00    0.78370   0.68186    0.000
 4869.00    0.73255   0.69764    0.000
 4870.00    0.71616   0.71258    0.000
 4871.00    0.71531   0.72642    0.000
 4872.00    0.72126   0.73928    0.000
 4873.00    0.73113   0.75095    0.000
 4874.00    0.74368   0.76173    0.000
 4875.00    0.75821   0.77136   13.189
 4876.00    0.77377   0.78025   12.924
 4877.00    0.78831   0.78831   12.685
 4878.00    0.79865   0.79531   12.521
 4879.00    0.80426   0.80121   12.434
 4880.00    0.80840   0.80594   12.370
 4881.00    0.81312   0.80967   12.298
 4882.00    0.81717   0.81233   12.237
 4883.00    0.81856   0.81424   12.217
 4884.00    0.81601   0.81542   12.255
 4885.00    0.80983   0.81625   12.348
 4886.00    0.80195   0.81698   12.470
 4887.00    0.79478   0.81816   12.582
 4888.00    0.79038   0.81969   12.652
 4889.00    0.78918   0.82196   12.671
 4890.00    0.79047   0.82497   12.651
 4891.00    0.79494   0.82872   12.580
 4892.00    0.80408   0.83314   12.437
 4893.00    0.81699   0.83772   12.240
 4894.00    0.83092   0.84261   12.035
 4895.00    0.84395   0.84691   11.849
 4896.00    0.85469   0.85103   11.700
 4897.00    0.86076   0.85432   11.618
 4898.00    0.86001   0.85679   11.628
 4899.00    0.85319   0.85846   11.721
 4900.00    0.84412   0.85919   11.847
 4901.00    0.83904   0.85936   11.918
 4902.00    0.84191   0.85898   11.878
 4903.00    0.84895   0.85835   11.779
 4904.00    0.85378   0.85745   11.713
 4905.00    0.85404   0.85665   11.709
 4906.00    0.85082   0.85568   11.753
 4907.00    0.84701   0.85464   11.806
 4908.00    0.84384   0.85357   11.851
 4909.00    0.83856   0.85234   11.925
 4910.00    0.83056   0.85097   12.040
 4911.00    0.82533   0.84924   12.116
 4912.00    0.82745   0.84711   12.085
 4913.00    0.83569   0.84452   11.966
 4914.00    0.84518   0.84126   11.832
 4915.00    0.84986   0.83772   11.767
 4916.00    0.84666   0.83349   11.811
 4917.00    0.83728   0.82911   11.943
 4918.00    0.82527   0.82455   12.117
 4919.00    0.81400   0.82068   12.285
 4920.00    0.80462   0.81744   12.428
 4921.00    0.79636   0.81554   12.557
 4922.00    0.79069   0.81525   12.647
 4923.00    0.79120   0.81641   12.639
 4924.00    0.79805   0.81945   12.531
 4925.00    0.80748   0.82336   12.384
 4926.00    0.81598   0.82849   12.255
 4927.00    0.82210   0.83339   12.164
 4928.00    0.82784   0.83844   12.080
 4929.00    0.83647   0.84230   11.955
 4930.00    0.84707   0.84531   11.805
 4931.00    0.85576   0.84682   11.686
 4932.00    0.86059   0.84738   11.620
 4933.00    0.86159   0.84694   11.606
 4934.00    0.85897   0.84586   11.642
 4935.00    0.85295   0.84454   11.724
 4936.00    0.84386   0.84336   11.850
 4937.00    0.83352   0.84257   11.997
 4938.00    0.82670   0.84244   12.096
 4939.00    0.82720   0.84311   12.089
 4940.00    0.83309   0.84452    0.000
 4941.00    0.83990   0.84671    0.000
 4942.00    0.84480   0.84926    0.000
 4943.00    0.84756   0.85203    0.000
 4944.00    0.85073   0.85477    0.000
 4945.00    0.85563   0.85740    0.000
 4946.00    0.85965   0.85955    0.000
 4947.00    0.86072   0.86122    0.000
 4948.00    0.86048   0.86195    0.000
 4949.00    0.86159   0.86196    0.000
 4950.00    0.86538   0.86103    0.000
 4951.00    0.87056   0.85946    0.000
 4952.00    0.87372   0.85718    0.000
 4953.00    0.87556   0.85454    0.000
 4954.00    0.88277   0.85160    0.000
 4955.00    0.90104   0.84860    0.000
 4956.00    0.93129   0.84596    0.000
 4957.00    0.96767   0.84370    0.000
 4958.00    0.99909   0.84218    0.000
 4959.00    1.01707   0.84114    0.000
 4960.00    1.01805   0.84089    0.000
 4961.00    1.00166   0.84094    0.000
 4962.00    0.97065   0.84134    0.000
 4963.00    0.93211   0.84173    0.000
 4964.00    0.89520   0.84215    0.000
 4965.00    0.86495   0.84277    0.000
 4966.00    0.84200   0.84309    0.000
 4967.00    0.82531   0.84334    0.000
 4968.00    0.81351   0.84353    0.000
 4969.00    0.80615   0.84392    0.000
 4970.00    0.80329   0.84431    0.000
 4971.00    0.80432   0.84467    0.000
 4972.00    0.80804   0.84482    0.000
 4973.00    0.81316   0.84469    0.000
 4974.00    0.81854   0.84394    0.000
 4975.00    0.82342   0.84245    0.000
 4976.00    0.82713   0.84022    0.000
 4977.00    0.82879   0.83719    0.000
 4978.00    0.82815   0.83365    0.000
 4979.00    0.82637   0.82967    0.000
 4980.00    0.82420   0.82568    0.000
 4981.00    0.82054   0.82198    0.000
 4982.00    0.81510   0.81883    0.000
 4983.00    0.81017   0.81660    0.000
 4984.00    0.80751   0.81530    0.000
 4985.00    0.80646   0.81504    0.000
 4986.00    0.80629   0.81569    0.000
 4987.00    0.80745   0.81702    0.000
 4988.00    0.81006   0.81873    0.000
 4989.00    0.81331   0.82066    0.000
 4990.00    0.81720   0.82257    0.000
 4991.00    0.82275   0.82416    0.000
 4992.00    0.82933   0.82531    0.000
 4993.00    0.83434   0.82588    0.000
 4994.00    0.83630   0.82585    0.000
 4995.00    0.83567   0.82509    0.000
 4996.00    0.83347   0.82376    0.000
 4997.00    0.83080   0.82177    0.000
 4998.00    0.82892   0.81941    0.000
 4999.00    0.82986   0.81666    0.000
 5000.00    0.83797   0.81366    0.000
 5001.00    0.86045   0.81066    0.000
 5002.00    0.90750   0.80778    0.000
 5003.00    0.98804   0.80512    0.000
 5004.00    1.10106   0.80282    0.000
 5005.00    1.23160   0.80086    0.000
 5006.00    1.34768   0.79917    0.000
 5007.00    1.41173   0.79781    0.000
 5008.00    1.39981   0.79643    0.000
 5009.00    1.31043   0.79511    0.000
 5010.00    1.17133   0.79355    0.000
 5011.00    1.02459   0.79189    0.000
 5012.00    0.90622   0.79004    0.000
 5013.00    0.83444   0.78831    0.000
 5014.00    0.80112   0.78676    0.000
 5015.00    0.78810   0.78564    0.000
 5016.00    0.78383   0.78500    0.000
 5017.00    0.78189   0.78506    0.000
 5018.00    0.77857   0.78582    0.000
 5019.00    0.77350   0.78729    0.000
 5020.00    0.76974   0.78946    0.000
 5021.00    0.77015   0.79203    0.000
 5022.00    0.77508   0.79506    0.000
 5023.00    0.78335   0.79811    0.000
 5024.00    0.79315   0.80127    0.000
 5025.00    0.80260   0.80419    0.000
 5026.00    0.81013   0.80703    0.000
 5027.00    0.81447   0.80939    0.000
 5028.00    0.81473   0.81152    0.000
 5029.00    0.81083   0.81301   12.333
 5030.00    0.80367   0.81404   12.443
 5031.00    0.79542   0.81429   12.572
 5032.00    0.78905   0.81387   12.673
 5033.00    0.78666   0.81264   12.712
 5034.00    0.78862   0.81067   12.680
 5035.00    0.79266   0.80817   12.616
 5036.00    0.79489   0.80522   12.580
 5037.00    0.79279   0.80225   12.614
 5038.00    0.78679   0.79941   12.710
 5039.00    0.78186   0.79717   12.790
 5040.00    0.78334   0.79560   12.766
 5041.00    0.78870   0.79502   12.679
 5042.00    0.79139   0.79523   12.636
 5043.00    0.78975   0.79637   12.662
 5044.00    0.78631   0.79791   12.718
 5045.00    0.78446   0.79996   12.748
 5046.00    0.78621   0.80187   12.719
 5047.00    0.79009   0.80380   12.657
 5048.00    0.79324   0.80532   12.607
 5049.00    0.79413   0.80681   12.592
 5050.00    0.79240   0.80801   12.620
 5051.00    0.78834   0.80935   12.685
 5052.00    0.78435   0.81062   12.749
 5053.00    0.78552   0.81207   12.730
 5054.00    0.79391   0.81375   12.596
 5055.00    0.80474   0.81549   12.426
 5056.00    0.81232   0.81736   12.310
 5057.00    0.81480   0.81896   12.273
 5058.00    0.81503   0.82045   12.269
 5059.00    0.81956   0.82124   12.202
 5060.00    0.83022   0.82163   12.045
 5061.00    0.84112   0.82116   11.889
 5062.00    0.84652   0.82026   11.813
 5063.00    0.84487   0.81859   11.836
 5064.00    0.83830   0.81668   11.929
 5065.00    0.83100   0.81441   12.034
 5066.00    0.82433   0.81222   12.131
 5067.00    0.81647   0.80999   12.248
 5068.00    0.80771   0.80798   12.381
 5069.00    0.80069   0.80616   12.489
 5070.00    0.79570   0.80455   12.568
 5071.00    0.79058   0.80305   12.649
 5072.00    0.78443   0.80158   12.748
 5073.00    0.77827   0.80009   12.849
 5074.00    0.77433   0.79853   12.914
 5075.00    0.77408   0.79685   12.919
 5076.00    0.77477   0.79507   12.907
 5077.00    0.77230   0.79328   12.948
 5078.00    0.76749   0.79171   13.029
 5079.00    0.76471   0.79033   13.077
 5080.00    0.76772   0.78953   13.026
 5081.00    0.77719   0.78918   12.867
 5082.00    0.78828   0.78966   12.686
 5083.00    0.79542   0.79062   12.572
 5084.00    0.79818   0.79233   12.528
 5085.00    0.79846   0.79439   12.524
 5086.00    0.79670   0.79682   12.552
 5087.00    0.79369   0.79926   12.599
 5088.00    0.79243   0.80162   12.619
 5089.00    0.79576   0.80367   12.567
 5090.00    0.80404   0.80521   12.437
 5091.00    0.81437   0.80616   12.279
 5092.00    0.82083   0.80638   12.183
 5093.00    0.82021   0.80596   12.192
 5094.00    0.81502   0.80486   12.270
 5095.00    0.80889   0.80328   12.363
 5096.00    0.80371   0.80135   12.442
 5097.00    0.80015   0.79927   12.498
 5098.00    0.79800   0.79725   12.531
 5099.00    0.79633   0.79539   12.558
 5100.00    0.79391   0.79390   12.596
 5101.00    0.79081   0.79268   12.645
 5102.00    0.78864   0.79188   12.680
 5103.00    0.78916   0.79130   12.672
 5104.00    0.79298   0.79103   12.611
 5105.00    0.79757   0.79090   12.538
 5106.00    0.79850   0.79102   12.524
 5107.00    0.79477   0.79131   12.582
 5108.00    0.78902   0.79186   12.674
 5109.00    0.78421   0.79269   12.752
 5110.00    0.78203   0.79378   12.787
 5111.00    0.78149   0.79517   12.796
 5112.00    0.78093   0.79667   12.805
 5113.00    0.78222   0.79825   12.784
 5114.00    0.78814   0.79963   12.688
 5115.00    0.79672   0.80073   12.551
 5116.00    0.80327   0.80126   12.449
 5117.00    0.80482   0.80116   12.425
 5118.00    0.80124   0.80028   12.481
 5119.00    0.79565   0.79867   12.568
 5120.00    0.79137   0.79638   12.636
 5121.00    0.78855   0.79356   12.681
 5122.00    0.78555   0.79046   12.730
 5123.00    0.78088   0.78726   12.806
 5124.00    0.77402   0.78429   12.920
 5125.00    0.76600   0.78167   13.055
 5126.00    0.75925   0.77965   13.171
 5127.00    0.75706   0.77825   13.209
 5128.00    0.76097   0.77752   13.141
 5129.00    0.76913   0.77737   13.002
 5130.00    0.77866   0.77767   12.843
 5131.00    0.78716   0.77830   12.704
 5132.00    0.79313   0.77900   12.608
 5133.00    0.79611   0.77969   12.561
 5134.00    0.79619   0.78009   12.560
 5135.00    0.79384   0.78025   12.597
 5136.00    0.79032   0.77996   12.653
 5137.00    0.78751   0.77937   12.698
 5138.00    0.78629   0.77843   12.718
 5139.00    0.78601   0.77729   12.722
 5140.00    0.78474   0.77604   12.743
 5141.00    0.78049   0.77474   12.812
 5142.00    0.77444   0.77354   12.913
 5143.00    0.77013   0.77244   12.985
 5144.00    0.76868   0.77153   13.009
 5145.00    0.76877   0.77078   13.008
 5146.00    0.76948   0.77024   12.996
 5147.00    0.77045   0.76990   12.980
 5148.00    0.77086   0.76977   12.972
 5149.00    0.76971   0.76990   12.992
 5150.00    0.76649   0.77028   13.047
 5151.00    0.76175   0.77100   13.128
 5152.00    0.75762   0.77197   13.199
 5153.00    0.75601   0.77327   13.227
 5154.00    0.75626   0.77468   13.223
 5155.00    0.75766   0.77616   13.199
 5156.00    0.76265   0.77739   13.112
 5157.00    0.77266   0.77816   12.942
 5158.00    0.78361   0.77815   12.762
 5159.00    0.79086   0.77709   12.644
 5160.00    0.79418   0.77479   12.592
 5161.00    0.79348   0.77108   12.603
 5162.00    0.78538   0.76606   12.733
 5163.00    0.76821   0.75980   13.017
 5164.00    0.74566   0.75272   13.411
 5165.00    0.72351   0.74513   13.822
 5166.00    0.70684   0.73768   14.147
 5167.00    0.69810   0.73076   14.325
 5168.00    0.69635   0.72501   14.361
 5169.00    0.69960   0.72070   14.294
 5170.00    0.70594   0.71819   14.166
 5171.00    0.71276   0.71745   14.030
 5172.00    0.71733   0.71842   13.941
 5173.00    0.72060   0.72078   13.877
 5174.00    0.72707   0.72411   13.754
 5175.00    0.73891   0.72792   13.533
 5176.00    0.75418   0.73167   13.259
 5177.00    0.76834   0.73495   13.015
 5178.00    0.77595   0.73744   12.887
 5179.00    0.77379   0.73903   12.923
 5180.00    0.76192   0.73976   13.125
 5181.00    0.74413   0.73986   13.439
 5182.00    0.72668   0.73962   13.761
 5183.00    0.71555   0.73940   13.975
 5184.00    0.71396   0.73950   14.006
 5185.00    0.71906   0.74011   13.907
 5186.00    0.72513   0.74128   13.791
 5187.00    0.73000   0.74299   13.699
 5188.00    0.73441   0.74504   13.616
 5189.00    0.73930   0.74731   13.526
 5190.00    0.74401   0.74957    0.000
 5191.00    0.74497   0.75174    0.000
 5192.00    0.74059   0.75373    0.000
 5193.00    0.73694   0.75552    0.000
 5194.00    0.74176   0.75714    0.000
 5195.00    0.75770   0.75856    0.000
 5196.00    0.78213   0.75978    0.000
 5197.00    0.80817   0.76069    0.000
 5198.00    0.82850   0.76123    0.000
 5199.00    0.83853   0.76129    0.000
 5200.00    0.83699   0.76075    0.000
 5201.00    0.82594   0.75969    0.000
 5202.00    0.80917   0.75805    0.000
 5203.00    0.79087   0.75614    0.000
 5204.00    0.77406   0.75403    0.000
 5205.00    0.75993   0.75221    0.000
 5206.00    0.74919   0.75075    0.000
 5207.00    0.74274   0.75010    0.000
 5208.00    0.74190   0.75024    0.000
 5209.00    0.74775   0.75138    0.000
 5210.00    0.75835   0.75336    0.000
 5211.00    0.76878   0.75611   13.008
 5212.00    0.77476   0.75936   12.907
 5213.00    0.77429   0.76289   12.915
 5214.00    0.76846   0.76642   13.013
 5215.00    0.76084   0.76971   13.143
 5216.00    0.75525   0.77257   13.241
 5217.00    0.75468   0.77480   13.251
 5218.00    0.76030   0.77629   13.153
 5219.00    0.77094   0.77695   12.971
 5220.00    0.78253   0.77676   12.779
 5221.00    0.78973   0.77578   12.663
 5222.00    0.78880   0.77410   12.678
 5223.00    0.77922   0.77194   12.833
 5224.00    0.76504   0.76955   13.071
 5225.00    0.75213   0.76721   13.296
 5226.00    0.74401   0.76521   13.441
 5227.00    0.74173   0.76377   13.482
 5228.00    0.74457   0.76306   13.431
 5229.00    0.75022   0.76313   13.329
 5230.00    0.75520   0.76398   13.241
 5231.00    0.75723   0.76550   13.206
 5232.00    0.75732   0.76759   13.204
 5233.00    0.75743   0.77008   13.202
 5234.00    0.75835   0.77286   13.186
 5235.00    0.76094   0.77576   13.142
 5236.00    0.76685   0.77868   13.040
 5237.00    0.77596   0.78147   12.887
 5238.00    0.78509   0.78402   12.737
 5239.00    0.79111   0.78618   12.640
 5240.00    0.79298   0.78787   12.611
 5241.00    0.79172   0.78897   12.631
 5242.00    0.78971   0.78943   12.663
 5243.00    0.78754   0.78926   12.698
 5244.00    0.78364   0.78848   12.761
 5245.00    0.77891   0.78722   12.838
 5246.00    0.77679   0.78560   12.874
 5247.00    0.77641   0.78382   12.880
 5248.00    0.77259   0.78206   12.943
 5249.00    0.76376   0.78049   13.093
 5250.00    0.75352   0.77923   13.271
 5251.00    0.74756   0.77834   13.377
 5252.00    0.75030   0.77781   13.328
 5253.00    0.75938   0.77752   13.169
 5254.00    0.76792   0.77734   13.022
 5255.00    0.77266   0.77699   12.942
 5256.00    0.77409   0.77625   12.918
 5257.00    0.77311   0.77485   12.935
 5258.00    0.77083   0.77265   12.973
 5259.00    0.76920   0.76948   13.000
 5260.00    0.76926   0.76540   12.999
 5261.00    0.76835   0.76050   13.015
 5262.00    0.76246   0.75507   13.115
 5263.00    0.74989   0.74939   13.335
 5264.00    0.73240   0.74388   13.654
 5265.00    0.71563   0.73889   13.974
 5266.00    0.70505   0.73477   14.183
 5267.00    0.70178   0.73180   14.249
 5268.00    0.70489   0.73014   14.187
 5269.00    0.71359   0.72987   14.014
 5270.00    0.72513   0.73095   13.791
 5271.00    0.73370   0.73325   13.630
 5272.00    0.73624   0.73658   13.583
 5273.00    0.73596   0.74069   13.588
 5274.00    0.73695   0.74529   13.569
 5275.00    0.74044   0.75011   13.506
 5276.00    0.74486   0.75492   13.425
 5277.00    0.74703   0.75952   13.386
 5278.00    0.74719   0.76378   13.384
 5279.00    0.74979   0.76765   13.337
 5280.00    0.75576   0.77114   13.232
 5281.00    0.76073   0.77433   13.145
 5282.00    0.76206   0.77730   13.122
 5283.00    0.76093   0.78014   13.142
 5284.00    0.75991   0.78291   13.160
 5285.00    0.76137   0.78561   13.134
 5286.00    0.76562   0.78817   13.061
 5287.00    0.77141   0.79046   12.963
 5288.00    0.77877   0.79235   12.841
 5289.00    0.78847   0.79363   12.683
 5290.00    0.79898   0.79424   12.516
 5291.00    0.80649   0.79404   12.399
 5292.00    0.80667   0.79310   12.397
 5293.00    0.79712   0.79147   12.545
 5294.00    0.78117   0.78937   12.801
 5295.00    0.76522   0.78701   13.068
 5296.00    0.75339   0.78468   13.273
 5297.00    0.74715   0.78264   13.384
 5298.00    0.74614   0.78113   13.402
 5299.00    0.74884   0.78032   13.354
 5300.00    0.75342   0.78030   13.273
 5301.00    0.75902   0.78104   13.175
 5302.00    0.76675   0.78245   13.042
 5303.00    0.77719   0.78437   12.867
 5304.00    0.78803   0.78659   12.690
 5305.00    0.79608   0.78890   12.562
 5306.00    0.79942   0.79109   -2.000
 5307.00    0.79791   0.79296   -2.000
 5308.00    0.79335   0.79440   -2.000
 5309.00    0.78838   0.79530   -2.000
 5310.00    0.78551   0.79564   -2.000
 5311.00    0.78612   0.79542   -2.000
 5312.00    0.78976   0.79469   -2.000
 5313.00    0.79377   0.79350   -2.000
 5314.00    0.79413   0.79195   -2.000
 5315.00    0.79017   0.79009   -2.000
 5316.00    0.78557   0.78798   -2.000
 5317.00    0.78286   0.78567   -2.000
 5318.00    0.78155   0.78311   -2.000
 5319.00    0.77996   0.78037   -2.000
 5320.00    0.77630   0.77735   -2.000
 5321.00    0.76968   0.77414   12.992
 5322.00    0.76066   0.77068   13.147
 5323.00    0.75167   0.76718   13.304
 5324.00    0.74586   0.76370   13.407
 5325.00    0.74383   0.76053   13.444
 5326.00    0.74344   0.75781   13.451
 5327.00    0.74144   0.75581   13.487
 5328.00    0.73591   0.75465   13.589
 5329.00    0.73014   0.75441   13.696
 5330.00    0.72947   0.75507   13.709
 5331.00    0.73474   0.75646   13.610
 5332.00    0.74372   0.75842   13.446
 5333.00    0.75508   0.76064   13.244
 5334.00    0.76735   0.76290   13.032
 5335.00    0.77696   0.76495   12.871
 5336.00    0.78096   0.76667   12.805
 5337.00    0.78031   0.76795   12.815
 5338.00    0.77697   0.76886   12.870
 5339.00    0.77074   0.76941   12.975
 5340.00    0.76155   0.76978   13.131
 5341.00    0.75192   0.77004   13.299
 5342.00    0.74568   0.77039   13.411
 5343.00    0.74627   0.77085   13.400
 5344.00    0.75408   0.77157   13.261
 5345.00    0.76509   0.77255   13.070
 5346.00    0.77497   0.77387   12.904
 5347.00    0.78187   0.77551   12.790
 5348.00    0.78609   0.77750   12.721
 5349.00    0.78944   0.77980   12.667
 5350.00    0.79360   0.78235   12.601
 5351.00    0.79897   0.78509   12.516
 5352.00    0.80417   0.78786   12.435
 5353.00    0.80642   0.79056   12.400
 5354.00    0.80439   0.79296   12.432
 5355.00    0.79917   0.79496   12.513
 5356.00    0.79388   0.79631   12.596
 5357.00    0.79223   0.79698   12.623
 5358.00    0.79482   0.79681   12.581
 5359.00    0.79887   0.79585   12.518
 5360.00    0.80072   0.79409   12.489
 5361.00    0.79748   0.79165   12.539
 5362.00    0.78941   0.78867   12.668
 5363.00    0.77935   0.78531   12.831
 5364.00    0.77040   0.78178   12.980
 5365.00    0.76489   0.77829   13.074
 5366.00    0.76323   0.77504   13.102
 5367.00    0.76410   0.77223   13.087
 5368.00    0.76513   0.77002   13.070
 5369.00    0.76435   0.76855   13.083
 5370.00    0.76190   0.76785   13.125
 5371.00    0.75930   0.76800   13.170
 5372.00    0.75805   0.76886   13.192
 5373.00    0.75940   0.77035   13.168
 5374.00    0.76421   0.77227   13.085
 5375.00    0.77167   0.77439   12.959
 5376.00    0.77844   0.77654   12.846
 5377.00    0.78196   0.77846   12.788
 5378.00    0.78324   0.78008   12.767
 5379.00    0.78448   0.78122   12.747
 5380.00    0.78691   0.78193   12.708
 5381.00    0.78963   0.78217   12.664
 5382.00    0.78954   0.78198   12.666
 5383.00    0.78461   0.78143   12.745
 5384.00    0.77590   0.78053   12.888
 5385.00    0.76712   0.77937   13.036
 5386.00    0.76328   0.77789   13.101
 5387.00    0.76567   0.77619   13.060
 5388.00    0.77059   0.77421   12.977
 5389.00    0.77360   0.77204   12.927
 5390.00    0.77190   0.76968   12.955
 5391.00    0.76585   0.76719   13.057
 5392.00    0.75814   0.76469   13.190
 5393.00    0.74933   0.76218   13.345
 5394.00    0.73834   0.75982   13.544
 5395.00    0.72787   0.75755   13.739
 5396.00    0.72309   0.75553   13.830
 5397.00    0.72439   0.75365   13.805
 5398.00    0.72808   0.75197   13.735
 5399.00    0.73177   0.75041   13.665
 5400.00    0.73515   0.74895   13.603
 5401.00    0.73871   0.74760   13.537
 5402.00    0.74279   0.74632   13.463
 5403.00    0.74632   0.74524   13.399
 5404.00    0.74756   0.74433   13.377
 5405.00    0.74556   0.74384   13.413
 5406.00    0.74024   0.74372   13.509
 5407.00    0.73219   0.74421   13.658
 5408.00    0.72333   0.74523   13.825
 5409.00    0.71734   0.74690   13.940
 5410.00    0.71675   0.74906   13.952
 5411.00    0.72003   0.75168   13.888
 5412.00    0.72449   0.75458   13.803
 5413.00    0.72931   0.75761   13.712
 5414.00    0.73460   0.76058   13.613
 5415.00    0.74033   0.76332   -2.000
 5416.00    0.74554   0.76570   -2.000
 5417.00    0.74811   0.76763   -2.000
 5418.00    0.74698   0.76900   -2.000
 5419.00    0.74264   0.76986   -2.000
 5420.00    0.73200   0.77014   -2.000
 5421.00    0.70684   0.76996   -2.000
 5422.00    0.66160   0.76928   -2.000
 5423.00    0.60078   0.76826   -2.000
 5424.00    0.55242   0.76689   -2.000
 5425.00    0.55395   0.76530   -2.000
 5426.00    0.57450   0.76354   -2.000
 5427.00    0.53208   0.76175   -2.000
 5428.00    0.45802   0.75997   -2.000
 5429.00    0.48194   0.75839   -2.000
 5430.00    0.60946   0.75708   -2.000
 5431.00    0.72163   0.75620   -2.000
 5432.00    0.76126   0.75583   -2.000
 5433.00    0.75454   0.75604   -2.000
 5434.00    0.73702   0.75685   -2.000
 5435.00    0.73063   0.75816   -2.000
 5436.00    0.73492   0.75992   -2.000
 5437.00    0.73811   0.76187   -2.000
 5438.00    0.74030   0.76387   -2.000
 5439.00    0.74810   0.76564   13.367
 5440.00    0.75903   0.76704   13.175
 5441.00    0.76589   0.76787   13.057
 5442.00    0.76680   0.76813   13.041
 5443.00    0.76330   0.76775   13.101
 5444.00    0.75624   0.76692   13.223
 5445.00    0.74696   0.76562   13.388
 5446.00    0.73890   0.76419   13.534
 5447.00    0.73513   0.76257   13.603
 5448.00    0.73578   0.76112   13.591
 5449.00    0.74029   0.75969   13.508
 5450.00    0.74916   0.75854   13.348
 5451.00    0.76026   0.75751   13.153
 5452.00    0.76664   0.75674   13.044
 5453.00    0.76385   0.75612   13.092
 5454.00    0.75454   0.75569   13.253
 5455.00    0.74508   0.75543   13.421
 5456.00    0.74229   0.75530   13.472
 5457.00    0.74859   0.75535   13.359
 5458.00    0.76022   0.75547   13.154
 5459.00    0.77192   0.75571   12.955
 5460.00    0.77938   0.75596   12.831
 5461.00    0.77989   0.75625   12.822
 5462.00    0.77324   0.75648   12.933
 5463.00    0.76402   0.75667   13.089
 5464.00    0.75986   0.75674   13.160
 5465.00    0.76295   0.75669   13.107
 5466.00    0.76928   0.75644   12.999
 5467.00    0.77454   0.75599   12.911
 5468.00    0.77649   0.75528   12.879
 5469.00    0.77624   0.75430   12.883
 5470.00    0.77641   0.75306   12.880
 5471.00    0.77640   0.75158   12.880
 5472.00    0.77360   0.74996   12.927
 5473.00    0.76801   0.74826   13.021
 5474.00    0.76138   0.74666   13.134
 5475.00    0.75421   0.74522   13.259
 5476.00    0.74633   0.74415   13.399
 5477.00    0.73883   0.74342   13.535
 5478.00    0.73353   0.74323   13.633
 5479.00    0.73199   0.74344   13.661
 5480.00    0.73453   0.74415   13.614
 5481.00    0.73937   0.74518   13.525
 5482.00    0.74385   0.74649   13.444
 5483.00    0.74603   0.74796   13.404
 5484.00    0.74596   0.74943   13.405
 5485.00    0.74652   0.75091   13.396
 5486.00    0.74999   0.75219   13.333
 5487.00    0.75560   0.75335   13.235
 5488.00    0.76202   0.75426   13.123
 5489.00    0.76916   0.75498   13.001
 5490.00    0.77555   0.75549   12.894
 5491.00    0.77731   0.75580   12.865
 5492.00    0.77258   0.75593   12.944
 5493.00    0.76366   0.75588   13.095
 5494.00    0.75420   0.75566   13.259
 5495.00    0.74749   0.75531   13.378
 5496.00    0.74532   0.75477   13.417
 5497.00    0.74767   0.75413   13.375
 5498.00    0.75313   0.75330   13.278
 5499.00    0.75943   0.75240   13.168
 5500.00    0.76462   0.75136   13.078
 5501.00    0.76720   0.75026   13.034
 5502.00    0.76520   0.74914   13.069
 5503.00    0.75740   0.74798   13.203
 5504.00    0.74734   0.74692   13.381
 5505.00    0.74137   0.74588   13.489
 5506.00    0.74168   0.74503   13.483
 5507.00    0.74603   0.74428   13.404
 5508.00    0.75102   0.74378   13.315
 5509.00    0.75374   0.74348   13.267
 5510.00    0.75362   0.74347   13.269
 5511.00    0.75206   0.74375   13.297
 5512.00    0.75134   0.74435   13.310
 5513.00    0.75360   0.74524   13.270
 5514.00    0.75948   0.74642   13.167
 5515.00    0.76765   0.74779   13.027
 5516.00    0.77450   0.74929   12.912
 5517.00    0.77684   0.75079   12.873
 5518.00    0.77486   0.75217   12.906
 5519.00    0.77056   0.75332   12.978
 5520.00    0.76574   0.75410   13.059
 5521.00    0.76168   0.75451   13.129
 5522.00    0.75892   0.75444   13.177
 5523.00    0.75673   0.75401   13.215
 5524.00    0.75306   0.75320   13.279
 5525.00    0.74704   0.75222   13.386
 5526.00    0.74047   0.75111   13.505
 5527.00    0.73580   0.75006   13.591
 5528.00    0.73465   0.74914   13.612
 5529.00    0.73729   0.74847   13.563
 5530.00    0.74250   0.74811   13.468
 5531.00    0.74850   0.74805   13.360
 5532.00    0.75372   0.74832   13.268
 5533.00    0.75832   0.74883   13.187
 5534.00    0.76406   0.74958   13.088
 5535.00    0.77124   0.75047   12.966
 5536.00    0.77801   0.75146   12.853
 5537.00    0.78189   0.75249   12.789
 5538.00    0.78094   0.75352   12.805
 5539.00    0.77541   0.75449   12.896
 5540.00    0.76783   0.75539   13.024
 5541.00    0.76167   0.75620   13.129
 5542.00    0.75983   0.75694   13.161
 5543.00    0.76212   0.75759   13.121
 5544.00    0.76631   0.75819   13.050
 5545.00    0.77121   0.75871   12.967
 5546.00    0.77666   0.75920   12.876
 5547.00    0.78214   0.75959   12.785
 5548.00    0.78634   0.75992   12.717
 5549.00    0.78687   0.76013   12.709
 5550.00    0.78201   0.76019   12.788
 5551.00    0.77290   0.76009   12.938
 5552.00    0.76295   0.75979   13.107
 5553.00    0.75646   0.75931   13.219
 5554.00    0.75550   0.75864   13.236
 5555.00    0.75721   0.75781   13.206
 5556.00    0.75855   0.75682   13.183
 5557.00    0.76080   0.75571   13.144
 5558.00    0.76595   0.75450   13.056
 5559.00    0.77331   0.75318   12.931
 5560.00    0.77953   0.75183   12.828
 5561.00    0.77956   0.75045   12.828
 5562.00    0.77213   0.74905   12.951
 5563.00    0.76237   0.74770   13.117
 5564.00    0.75539   0.74641   13.238
 5565.00    0.75256   0.74527   13.288
 5566.00    0.75234   0.74423   13.292
 5567.00    0.75146   0.74347   13.307
 5568.00    0.74812   0.74282   13.367
 5569.00    0.74303   0.74250   13.458
 5570.00    0.73772   0.74234   13.555
 5571.00    0.73370   0.74243   13.630
 5572.00    0.73169   0.74268   13.667
 5573.00    0.73170   0.74307   13.667
 5574.00    0.73386   0.74352   13.627
 5575.00    0.73820   0.74394   13.546
 5576.00    0.74347   0.74427   13.450
 5577.00    0.74779   0.74437   13.373
 5578.00    0.75093   0.74421   13.317
 5579.00    0.75375   0.74365   13.267
 5580.00    0.75585   0.74273   13.230
 5581.00    0.75612   0.74136   13.225
 5582.00    0.75462   0.73965   13.252
 5583.00    0.75185   0.73758   13.300
 5584.00    0.74695   0.73532   13.388
 5585.00    0.73894   0.73298   13.533
 5586.00    0.72903   0.73070   13.717
 5587.00    0.72005   0.72867   13.888
 5588.00    0.71510   0.72696   13.984
 5589.00    0.71575   0.72570   13.971
 5590.00    0.72028   0.72484   13.883
 5591.00    0.72602   0.72449   13.774
 5592.00    0.73179   0.72451   13.665
 5593.00    0.73725   0.72485   13.564
 5594.00    0.74208   0.72544   13.476
 5595.00    0.74584   0.72611   13.408
 5596.00    0.74800   0.72700   13.369
 5597.00    0.74823   0.72781   13.365
 5598.00    0.74653   0.72886   13.395
 5599.00    0.74263   0.72983   13.466
 5600.00    0.73612   0.73113   13.585
 5601.00    0.72946   0.73247   13.709
 5602.00    0.72813   0.73415   13.734
 5603.00    0.73352   0.73594   13.633
 5604.00    0.74087   0.73790   13.498
 5605.00    0.74586   0.73990   13.407
 5606.00    0.74735   0.74174   13.381
 5607.00    0.74614   0.74335   13.402
 5608.00    0.74409   0.74456   13.439
 5609.00    0.74271   0.74536   13.464
 5610.00    0.74269   0.74557   13.465
 5611.00    0.74418   0.74526   13.438
 5612.00    0.74653   0.74443   13.395
 5613.00    0.74759   0.74326   13.376
 5614.00    0.74482   0.74179   13.426
 5615.00    0.73832   0.74026   13.544
 5616.00    0.73078   0.73861   13.684
 5617.00    0.72608   0.73720   13.773
 5618.00    0.72661   0.73594   13.763
 5619.00    0.72935   0.73504   13.711
 5620.00    0.72968   0.73434   13.705
 5621.00    0.72818   0.73404   13.733
 5622.00    0.72819   0.73396   13.733
 5623.00    0.73078   0.73418   13.684
 5624.00    0.73489   0.73461   13.607
 5625.00    0.73844   0.73521   13.542
 5626.00    0.73952   0.73595   13.522
 5627.00    0.73769   0.73678   13.556
 5628.00    0.73430   0.73764   13.618
 5629.00    0.73257   0.73838   13.651
 5630.00    0.73520   0.73901   13.602
 5631.00    0.74227   0.73940   13.472
 5632.00    0.75045   0.73959   13.325
 5633.00    0.75347   0.73941   13.272
 5634.00    0.74747   0.73909   13.379
 5635.00    0.73443   0.73842   13.616
 5636.00    0.72047   0.73773   13.880
 5637.00    0.71348   0.73686   14.016
 5638.00    0.71711   0.73608   13.945
 5639.00    0.72815   0.73533   13.734
 5640.00    0.73952   0.73475   13.522
 5641.00    0.74342   0.73439   13.451
 5642.00    0.73811   0.73417   13.548
 5643.00    0.72908   0.73426   13.716
 5644.00    0.72321   0.73441   13.827
 5645.00    0.72513   0.73480   13.791
 5646.00    0.73270   0.73509   13.648
 5647.00    0.73885   0.73545   13.535
 5648.00    0.74012   0.73563   13.511
 5649.00    0.73778   0.73562   13.554
 5650.00    0.73437   0.73532   13.617
 5651.00    0.73189   0.73473   13.663
 5652.00    0.72989   0.73385   13.701
 5653.00    0.72686   0.73266   13.758
 5654.00    0.72341   0.73131   13.823
 5655.00    0.72094   0.72974   13.871
 5656.00    0.71858   0.72818   13.916
 5657.00    0.71479   0.72665   13.990
 5658.00    0.71044   0.72536   14.076
 5659.00    0.70787   0.72430   14.127
 5660.00    0.70894   0.72362   14.106
 5661.00    0.71411   0.72328   14.004
 5662.00    0.72158   0.72338   13.859
 5663.00    0.72854   0.72384   13.726
 5664.00    0.73254   0.72467   13.651
 5665.00    0.73283   0.72579   13.646
 5666.00    0.73118   0.72715   13.676
 5667.00    0.73006   0.72862   13.698
 5668.00    0.73099   0.73022   13.680
 5669.00    0.73428   0.73184   13.619
 5670.00    0.73898   0.73342   13.532
 5671.00    0.74419   0.73484   13.437
 5672.00    0.74951   0.73611   13.342
 5673.00    0.75339   0.73718   13.273
 5674.00    0.75314   0.73794   13.278
 5675.00    0.74962   0.73843   13.340
 5676.00    0.74797   0.73848   13.370
 5677.00    0.75025   0.73830   13.329
 5678.00    0.75355   0.73776   13.270
 5679.00    0.75486   0.73703   13.247
 5680.00    0.75268   0.73602   13.286
 5681.00    0.74571   0.73491   13.410
 5682.00    0.73372   0.73381   13.629
 5683.00    0.72131   0.73272   13.864
 5684.00    0.71568   0.73191   13.973
 5685.00    0.71807   0.73118   13.926
 5686.00    0.72408   0.73089   13.811
 5687.00    0.72980   0.73071   13.702
 5688.00    0.73341   0.73086   13.635
 5689.00    0.73551   0.73117   13.596
 5690.00    0.73784   0.73161   13.553
 5691.00    0.74088   0.73212   13.497
 5692.00    0.74448   0.73240   13.432
 5693.00    0.74941   0.73275   13.344
 5694.00    0.75607   0.73265   13.226
 5695.00    0.76251   0.73239   13.115
 5696.00    0.76562   0.73167   13.061
 5697.00    0.76327   0.73079   13.102
 5698.00    0.75523   0.72957   13.241
 5699.00    0.74398   0.72809   13.441
 5700.00    0.73288   0.72639   13.645
 5701.00    0.72443   0.72451   13.804
 5702.00    0.71974   0.72265   13.894
 5703.00    0.71843   0.72066   13.919
 5704.00    0.71906   0.71898   13.907
 5705.00    0.71972   0.71735   13.894
 5706.00    0.71945   0.71605   13.900
 5707.00    0.71889   0.71517   13.910
 5708.00    0.71796   0.71464   13.928
 5709.00    0.71521   0.71466   13.982
 5710.00    0.71155   0.71509   14.054
 5711.00    0.71100   0.71613   14.065
 5712.00    0.71495   0.71753   13.987
 5713.00    0.72059   0.71946   13.878
 5714.00    0.72552   0.72160   13.783
 5715.00    0.72933   0.72401   13.711
 5716.00    0.73166   0.72652   13.668
 5717.00    0.73199   0.72901   13.661
 5718.00    0.73113   0.73138   13.678
 5719.00    0.73120   0.73346   13.676
 5720.00    0.73436   0.73531   13.617
 5721.00    0.74140   0.73665   13.488
 5722.00    0.74930   0.73778   13.346
 5723.00    0.75304   0.73851   13.280
 5724.00    0.75064   0.73893   13.322
 5725.00    0.74429   0.73896   -2.000
 5726.00    0.74014   0.73889   -2.000
 5727.00    0.74541   0.73870   -2.000
 5728.00    0.76345   0.73841   -2.000
 5729.00    0.79106   0.73817   -2.000
 5730.00    0.81616   0.73783   -2.000
 5731.00    0.82509   0.73765   -2.000
 5732.00    0.81282   0.73745   -2.000
 5733.00    0.78535   0.73738   -2.000
 5734.00    0.75975   0.73731   -2.000
 5735.00    0.75021   0.73732   -2.000
 5736.00    0.75432   0.73737   -2.000
 5737.00    0.76151   0.73729   -2.000
 5738.00    0.76252   0.73734   -2.000
 5739.00    0.75467   0.73721   -2.000
 5740.00    0.74421   0.73720   -2.000
 5741.00    0.73757   0.73692   -2.000
 5742.00    0.73528   0.73664   -2.000
 5743.00    0.73518   0.73632   -2.000
 5744.00    0.73489   0.73590    0.000
 5745.00    0.73346   0.73549    0.000
 5746.00    0.73177   0.73485    0.000
 5747.00    0.73108   0.73425    0.000
 5748.00    0.73195   0.73348    0.000
 5749.00    0.73363   0.73288    0.000
 5750.00    0.73410   0.73221    0.000
 5751.00    0.73183   0.73166    0.000
 5752.00    0.72700   0.73119    0.000
 5753.00    0.72331   0.73072    0.000
 5754.00    0.72619   0.73039    0.000
 5755.00    0.73600   0.73002    0.000
 5756.00    0.74777   0.72987    0.000
 5757.00    0.75609   0.72972    0.000
 5758.00    0.75739   0.72984    0.000
 5759.00    0.75214   0.72988    0.000
 5760.00    0.74367   0.73013    0.000
 5761.00    0.73487   0.73040    0.000
 5762.00    0.72790   0.73083    0.000
 5763.00    0.72492   0.73132    0.000
 5764.00    0.72713   0.73178    0.000
 5765.00    0.73316   0.73230    0.000
 5766.00    0.74038   0.73265    0.000
 5767.00    0.74720   0.73307    0.000
 5768.00    0.75256   0.73319    0.000
 5769.00    0.75515   0.73330    0.000
 5770.00    0.75414   0.73309    0.000
 5771.00    0.75009   0.73276    0.000
 5772.00    0.74492   0.73210    0.000
 5773.00    0.74137   0.73106    0.000
 5774.00    0.74028   0.72973    0.000
 5775.00    0.73877   0.72803    0.000
 5776.00    0.73419   0.72622    0.000
 5777.00    0.72714   0.72417    0.000
 5778.00    0.71990   0.72216    0.000
 5779.00    0.71507   0.72003    0.000
 5780.00    0.71418   0.71814    0.000
 5781.00    0.71728   0.71644    0.000
 5782.00    0.72428   0.71499    0.000
 5783.00    0.73502   0.71410    0.000
 5784.00    0.74603   0.71341    0.000
 5785.00    0.75088   0.71329    0.000
 5786.00    0.74754   0.71350    0.000
 5787.00    0.74001   0.71415    0.000
 5788.00    0.73267   0.71516    0.000
 5789.00    0.72826   0.71649    0.000
 5790.00    0.72812   0.71811    0.000
 5791.00    0.73196   0.71964    0.000
 5792.00    0.73713   0.72126    0.000
 5793.00    0.73988   0.72282    0.000
 5794.00    0.73899   0.72443    0.000
 5795.00    0.73599   0.72589    0.000
 5796.00    0.73350   0.72721    0.000
 5797.00    0.73339   0.72840    0.000
 5798.00    0.73404   0.72929    0.000
 5799.00    0.73265   0.73021    0.000
 5800.00    0.72976   0.73085    0.000
 5801.00    0.72770   0.73142    0.000
 5802.00    0.72710   0.73179    0.000
 5803.00    0.72744   0.73205    0.000
 5804.00    0.72847   0.73215    0.000
 5805.00    0.72983   0.73220    0.000
 5806.00    0.73045   0.73226    0.000
 5807.00    0.72938   0.73225    0.000
 5808.00    0.72668   0.73214    0.000
 5809.00    0.72391   0.73197    0.000
 5810.00    0.72413   0.73183    0.000
 5811.00    0.72851   0.73166    0.000
 5812.00    0.73410   0.73162    0.000
 5813.00    0.73714   0.73169    0.000
 5814.00    0.73584   0.73186    0.000
 5815.00    0.73135   0.73207    0.000
 5816.00    0.72773   0.73234    0.000
 5817.00    0.72854   0.73268    0.000
 5818.00    0.73483   0.73306    0.000
 5819.00    0.74508   0.73351    0.000
 5820.00    0.75561   0.73394    0.000
 5821.00    0.76230   0.73445    0.000
 5822.00    0.76209   0.73488    0.000
 5823.00    0.75586   0.73532    0.000
 5824.00    0.74802   0.73569    0.000
 5825.00    0.74166   0.73600    0.000
 5826.00    0.73743   0.73622    0.000
 5827.00    0.73565   0.73621    0.000
 5828.00    0.73634   0.73624    0.000
 5829.00    0.73785   0.73604    0.000
 5830.00    0.73768   0.73593    0.000
 5831.00    0.73538   0.73563    0.000
 5832.00    0.73222   0.73545    0.000
 5833.00    0.72925   0.73518    0.000
 5834.00    0.72659   0.73488    0.000
 5835.00    0.72312   0.73466    0.000
 5836.00    0.71798   0.73440    0.000
 5837.00    0.71299   0.73425    0.000
 5838.00    0.71118   0.73395    0.000
 5839.00    0.71406   0.73372    0.000
 5840.00    0.72172   0.73331    0.000
 5841.00    0.73343   0.73286    0.000
 5842.00    0.74675   0.73224    0.000
 5843.00    0.75673   0.73145    0.000
 5844.00    0.75932   0.73052    0.000
 5845.00    0.75471   0.72934    0.000
 5846.00    0.74609   0.72798    0.000
 5847.00    0.73804   0.72637    0.000
 5848.00    0.73272   0.72462    0.000
 5849.00    0.72788   0.72263    0.000
 5850.00    0.72153   0.72069    0.000
 5851.00    0.71485   0.71868    0.000
 5852.00    0.70927   0.71673    0.000
 5853.00    0.70477   0.71480    0.000
 5854.00    0.70107   0.71311    0.000
 5855.00    0.69813   0.71182    0.000
 5856.00    0.69549   0.71066    0.000
 5857.00    0.69233   0.70997    0.000
 5858.00    0.68936   0.70934    0.000
 5859.00    0.68906   0.70924    0.000
 5860.00    0.69360   0.70934    0.000
 5861.00    0.70346   0.70976    0.000
 5862.00    0.71568   0.71031    0.000
 5863.00    0.72497   0.71091    0.000
 5864.00    0.72853   0.71179    0.000
 5865.00    0.72726   0.71254    0.000
 5866.00    0.72526   0.71337    0.000
 5867.00    0.72739   0.71393    0.000
 5868.00    0.73438   0.71426    0.000
 5869.00    0.74378   0.71443    0.000
 5870.00    0.75402   0.71428    0.000
 5871.00    0.76615   0.71390    0.000
 5872.00    0.78514   0.71334    0.000
 5873.00    0.81477   0.71246    0.000
 5874.00    0.84989   0.71161    0.000
 5875.00    0.87895   0.71017    0.000
 5876.00    0.88948   0.70881    0.000
 5877.00    0.87526   0.70688    0.000
 5878.00    0.84330   0.70493    0.000
 5879.00    0.80595   0.70245    0.000
 5880.00    0.77169   0.69952    0.000
 5881.00    0.74463   0.69632    0.000
 5882.00    0.72521   0.69237    0.000
 5883.00    0.71262   0.68805    0.000
 5884.00    0.70650   0.68275    0.000
 5885.00    0.70456   0.67702    0.000
 5886.00    0.70151   0.67076    0.000
 5887.00    0.69380   0.66518    0.000
 5888.00    0.68225   0.65977    0.000
 5889.00    0.66889   0.65445    0.000
 5890.00    0.65537   0.64996    0.000
 5891.00    0.64428   0.64585    0.000
 5892.00    0.63914   0.64293    0.000
 5893.00    0.64101   0.64165    0.000
 5894.00    0.64783   0.64165    0.000
 5895.00    0.65778   0.64276    0.000
 5896.00    0.67005   0.64545    0.000
 5897.00    0.68263   0.64937    0.000
 5898.00    0.69275   0.65386    0.000
 5899.00    0.70047   0.65905    0.000
 5900.00    0.70817   0.66422    0.000
 5901.00    0.71620   0.66938   13.963
 5902.00    0.72248   0.67488   13.841
 5903.00    0.72436   0.68005   13.805
 5904.00    0.72067   0.68481   13.876
 5905.00    0.71481   0.68891   13.990
 5906.00    0.71180   0.69232   14.049
 5907.00    0.71210   0.69510   14.043
 5908.00    0.71324   0.69719   14.020
 5909.00    0.71449   0.69877   13.996
 5910.00    0.71564   0.69959   13.974
 5911.00    0.71452   0.70039   13.995
 5912.00    0.70951   0.70067   14.094
 5913.00    0.70304   0.70105   14.224
 5914.00    0.69898   0.70113   14.307
 5915.00    0.69928   0.70115   14.300
 5916.00    0.70357   0.70131   14.213
 5917.00    0.70937   0.70132   14.097
 5918.00    0.71396   0.70149   14.006
 5919.00    0.71609   0.70156   13.965
 5920.00    0.71580   0.70198   13.970
 5921.00    0.71410   0.70224   14.004
 5922.00    0.71252   0.70271   14.035
 5923.00    0.71255   0.70300   14.034
 5924.00    0.71412   0.70319   14.003
 5925.00    0.71513   0.70333   13.983
 5926.00    0.71363   0.70328   14.013
 5927.00    0.70915   0.70335   14.101
 5928.00    0.70333   0.70336   14.218
 5929.00    0.69955   0.70333   14.295
 5930.00    0.70014   0.70314   14.283
 5931.00    0.70519   0.70300   14.181
 5932.00    0.71246   0.70302   14.036
 5933.00    0.71816   0.70293   13.925
 5934.00    0.71950   0.70293   13.899
 5935.00    0.71574   0.70289   13.972
 5936.00    0.70879   0.70293   14.109
 5937.00    0.70218   0.70288   14.241
 5938.00    0.69819   0.70288   14.323
 5939.00    0.69763   0.70285   14.334
 5940.00    0.70109   0.70274   14.264
 5941.00    0.70822   0.70279   14.120
 5942.00    0.71586   0.70271   13.969
 5943.00    0.72001   0.70254   13.889
 5944.00    0.71974   0.70220   13.894
 5945.00    0.71678   0.70179   13.951
 5946.00    0.71364   0.70142   14.013
 5947.00    0.71236   0.70117   14.038
 5948.00    0.71305   0.70075   14.024
 5949.00    0.71437   0.70029   13.998
 5950.00    0.71443   0.70006   13.997
 5951.00    0.71224   0.69984   14.040
 5952.00    0.70908   0.69948   14.103
 5953.00    0.70640   0.69921   14.156
 5954.00    0.70392   0.69916   14.206
 5955.00    0.70081   0.69939   14.269
 5956.00    0.69688   0.69988   14.350
 5957.00    0.69286   0.70026   14.433
 5958.00    0.69031   0.70086   14.486
 5959.00    0.69042   0.70154   14.484
 5960.00    0.69307   0.70242   14.429
 5961.00    0.69647   0.70308   14.358
 5962.00    0.69755   0.70374   14.336
 5963.00    0.69524   0.70464   14.383
 5964.00    0.69167   0.70534   14.458
 5965.00    0.68997   0.70610   14.493
 5966.00    0.69253   0.70656   14.440
 5967.00    0.69848   0.70697   14.317
 5968.00    0.70374   0.70710   14.210
 5969.00    0.70467   0.70710   14.191
 5970.00    0.70009   0.70689   14.284
 5971.00    0.69306   0.70633   14.429
 5972.00    0.68914   0.70574   14.511
 5973.00    0.69023   0.70498   14.488
 5974.00    0.69428   0.70401   14.403
 5975.00    0.69873   0.70305   14.312
 5976.00    0.70135   0.70207   14.258
 5977.00    0.70061   0.70101   14.273
 5978.00    0.69615   0.69993   14.365
 5979.00    0.68962   0.69884   14.501
 5980.00    0.68389   0.69769   14.622
 5981.00    0.68152   0.69688   14.673
 5982.00    0.68334   0.69637   14.634
 5983.00    0.68699   0.69594   14.556
 5984.00    0.68910   0.69577   14.512
 5985.00    0.68830   0.69579   14.529
 5986.00    0.68562   0.69596   14.585
 5987.00    0.68419   0.69600   14.616
 5988.00    0.68635   0.69625   14.570
 5989.00    0.69103   0.69657   14.471
 5990.00    0.69566   0.69709   14.375
 5991.00    0.69823   0.69767   14.322
 5992.00    0.69819   0.69798   14.323
 5993.00    0.69684   0.69817   14.350
 5994.00    0.69575   0.69825   14.373
 5995.00    0.69563   0.69826   14.375
 5996.00    0.69686   0.69804   14.350
 5997.00    0.69965   0.69779   14.293
 5998.00    0.70307   0.69741   14.223
 5999.00    0.70494   0.69685   14.186
 6000.00    0.70352   0.69631   14.214
 6001.00    0.69836   0.69558   14.319
 6002.00    0.69011   0.69481   14.490
 6003.00    0.68060   0.69403   14.693
 6004.00    0.67329   0.69322   14.852
 6005.00    0.67194   0.69268   14.882
 6006.00    0.67599   0.69222   14.793
 6007.00    0.68090   0.69172   14.687
 6008.00    0.68338   0.69113   14.633
 6009.00    0.68264   0.69068   14.649
 6010.00    0.67936   0.69041   14.720
 6011.00    0.67502   0.69000   14.814
 6012.00    0.67120   0.68964   14.899
 6013.00    0.66920   0.68923   14.943
 6014.00    0.66982   0.68913   14.929
 6015.00    0.67327   0.68912   14.853
 6016.00    0.67918   0.68884   14.724
 6017.00    0.68592   0.68867   14.579
 6018.00    0.68979   0.68852   14.497
 6019.00    0.68770   0.68872   14.541
 6020.00    0.68085   0.68896   14.687
 6021.00    0.67324   0.68944   14.854
 6022.00    0.66885   0.68997   14.951
 6023.00    0.66932   0.69073   14.940
 6024.00    0.67200   0.69176   14.881
 6025.00    0.67443   0.69267   14.827
 6026.00    0.67816   0.69392   14.746
 6027.00    0.68397   0.69509   14.621
 6028.00    0.68828   0.69645   14.529
 6029.00    0.68872   0.69764   14.520
 6030.00    0.68798   0.69887   14.535
 6031.00    0.68983   0.70004   14.496
 6032.00    0.69596   0.70092   14.369
 6033.00    0.70394   0.70181   14.206
 6034.00    0.70756   0.70257   14.133
 6035.00    0.70418   0.70309   14.201
 6036.00    0.69744   0.70343   14.338
 6037.00    0.69238   0.70383   14.443
 6038.00    0.69235   0.70398   14.444
 6039.00    0.69645   0.70428   14.359
 6040.00    0.70013   0.70435   14.283
 6041.00    0.70089   0.70453   14.268
 6042.00    0.69946   0.70459   14.297
 6043.00    0.69704   0.70466   14.346
 6044.00    0.69454   0.70473   14.398
 6045.00    0.69290   0.70456   14.432
 6046.00    0.69271   0.70467   14.436
 6047.00    0.69321   0.70445   14.426
 6048.00    0.69300   0.70433   14.430
 6049.00    0.69218   0.70398   14.447
 6050.00    0.69192   0.70353   14.453
 6051.00    0.69275   0.70299   14.435
 6052.00    0.69433   0.70226   14.402
 6053.00    0.69569   0.70167   14.374
 6054.00    0.69582   0.70078   14.371
 6055.00    0.69462   0.70023   14.396
 6056.00    0.69258   0.69950   14.439
 6057.00    0.69044   0.69888   14.483
 6058.00    0.68961   0.69823   14.501
 6059.00    0.69255   0.69760   14.439
 6060.00    0.69990   0.69726   14.288
 6061.00    0.70797   0.69660   14.125
 6062.00    0.71233   0.69658   14.038
 6063.00    0.71139   0.69661   14.057
 6064.00    0.70661   0.69689   14.152
 6065.00    0.70183   0.69729   14.248
 6066.00    0.69880   0.69765   14.310
 6067.00    0.69490   0.69822   14.391
 6068.00    0.68888   0.69863   14.516
 6069.00    0.68384   0.69930   14.623
 6070.00    0.68307   0.69974   14.640
 6071.00    0.68747   0.70021   14.546
 6072.00    0.69468   0.70063   14.395
 6073.00    0.69988   0.70065   14.288
 6074.00    0.70033   0.70026   14.279
 6075.00    0.69684   0.69967   14.350
 6076.00    0.69164   0.69898   14.458
 6077.00    0.68698   0.69800   14.556
 6078.00    0.68352   0.69693   14.630
 6079.00    0.68051   0.69572   14.695
 6080.00    0.67806   0.69458   14.748
 6081.00    0.67737   0.69330   14.763
 6082.00    0.67948   0.69225   14.717
 6083.00    0.68454   0.69127   14.608
 6084.00    0.69080   0.69049   14.476
 6085.00    0.69545   0.68991   14.379
 6086.00    0.69674   0.68928   14.353
 6087.00    0.69442   0.68887   14.401
 6088.00    0.68966   0.68857   14.500
 6089.00    0.68480   0.68848   14.603
 6090.00    0.68271   0.68843   14.647
 6091.00    0.68438   0.68839   14.612
 6092.00    0.68591   0.68837   14.579
 6093.00    0.68355   0.68831   14.630
 6094.00    0.67988   0.68817   14.708
 6095.00    0.67950   0.68795   14.717
 6096.00    0.68361   0.68769   14.628
 6097.00    0.69036   0.68748   14.485
 6098.00    0.69597   0.68677   14.368
 6099.00    0.69716   0.68612   14.344
 6100.00    0.69312   0.68572   14.427
 6101.00    0.68517   0.68515   14.595
 6102.00    0.67602   0.68496   14.792
 6103.00    0.66783   0.68473   14.974
 6104.00    0.66104   0.68468   15.128
 6105.00    0.65523   0.68468   15.262
 6106.00    0.64988   0.68479   15.387
 6107.00    0.64560   0.68513   15.490
 6108.00    0.64426   0.68546   15.522
 6109.00    0.64659   0.68625   15.466
 6110.00    0.65133   0.68684   15.353
 6111.00    0.65648   0.68712   15.233
 6112.00    0.66036   0.68726   15.143
 6113.00    0.66358   0.68721   15.070
 6114.00    0.66842   0.68702   14.961
 6115.00    0.67498   0.68653   14.815
 6116.00    0.68081   0.68587   14.688
 6117.00    0.68331   0.68496   14.635
 6118.00    0.68090   0.68376   14.686
 6119.00    0.67423   0.68280   14.832
 6120.00    0.66598   0.68177   15.015
 6121.00    0.65994   0.68090   15.153
 6122.00    0.65936   0.68022   15.166
 6123.00    0.66446   0.67950   15.050
 6124.00    0.67377   0.67892   14.842
 6125.00    0.68715   0.67820   -2.000
 6126.00    0.70557   0.67792   -2.000
 6127.00    0.72977   0.67770   -2.000
 6128.00    0.75625   0.67751   -2.000
 6129.00    0.77296   0.67754   -2.000
 6130.00    0.76761   0.67693   -2.000
 6131.00    0.73823   0.67619   -2.000
 6132.00    0.69571   0.67517   -2.000
 6133.00    0.66321   0.67394   -2.000
 6134.00    0.65584   0.67307   -2.000
 6135.00    0.66448   0.67226   -2.000
 6136.00    0.67344   0.67185   14.849
 6137.00    0.67543   0.67123   14.805
 6138.00    0.66979   0.67073   14.930
 6139.00    0.66005   0.67054   15.150
 6140.00    0.65188   0.67045   15.340
 6141.00    0.65105   0.67110   15.360
 6142.00    0.65899   0.67195   15.175
 6143.00    0.67121   0.67300   14.898
 6144.00    0.68169   0.67397   14.669
 6145.00    0.68571   0.67472   14.583
 6146.00    0.68268   0.67522   14.648
 6147.00    0.67626   0.67574   14.787
 6148.00    0.67029   0.67616   14.919
 6149.00    0.66713   0.67642   14.990
 6150.00    0.66718   0.67608   14.989
 6151.00    0.66921   0.67535   14.943
 6152.00    0.67159   0.67435   14.890
 6153.00    0.67280   0.67277   14.863
 6154.00    0.67181   0.67133   14.885
 6155.00    0.66818   0.66947   14.966
 6156.00    0.66194   0.66755   15.107
 6157.00    0.65408   0.66501   15.289
 6158.00    0.64732   0.66226   15.448
 6159.00    0.64437   0.65960   15.519
 6160.00    0.64451   0.65693   15.516
 6161.00    0.64533   0.65497   15.496
 6162.00    0.64621   0.65311   15.475
 6163.00    0.64798   0.65175   15.433
 6164.00    0.65135   0.65038   15.353
 6165.00    0.65533   0.64926   15.259
 6166.00    0.65582   0.64877   15.248
 6167.00    0.64988   0.64875   15.387
 6168.00    0.64026   0.64953   15.619
 6169.00    0.63230   0.65060   15.815
 6170.00    0.63011   0.65199   15.870
 6171.00    0.63397   0.65325   15.774
 6172.00    0.63905   0.65450   15.648
 6173.00    0.64139   0.65598   15.591
 6174.00    0.64196   0.65761   15.577
 6175.00    0.64295   0.65925   15.553
 6176.00    0.64517   0.66086   15.500
 6177.00    0.64829   0.66238   15.425
 6178.00    0.65138   0.66338   15.352
 6179.00    0.65468   0.66426   15.275
 6180.00    0.65966   0.66484   15.159
 6181.00    0.66527   0.66526   15.031
 6182.00    0.66774   0.66520   14.976
 6183.00    0.66636   0.66496   15.007
 6184.00    0.66451   0.66453   15.049
 6185.00    0.66458   0.66374   15.047
 6186.00    0.66665   0.66299   15.000
 6187.00    0.67016   0.66182   14.922
 6188.00    0.67429   0.66094   14.831
 6189.00    0.67773   0.65991   14.755
 6190.00    0.67865   0.65914   14.735
 6191.00    0.67477   0.65887   14.820
 6192.00    0.66505   0.65856   15.036
 6193.00    0.65293   0.65871   15.316
 6194.00    0.64393   0.65871   15.530
 6195.00    0.63993   0.65903   15.627
 6196.00    0.63950   0.65964   15.637
 6197.00    0.64030   0.66025   15.618
 6198.00    0.64093   0.66124   15.602
 6199.00    0.64271   0.66214   15.559
 6200.00    0.64719   0.66296   15.451
 6201.00    0.65255   0.66362   15.324
 6202.00    0.65614   0.66400   15.241
 6203.00    0.65769   0.66433   15.205
 6204.00    0.65809   0.66446   15.195
 6205.00    0.65781   0.66445   15.202
 6206.00    0.65727   0.66418   15.214
 6207.00    0.65719   0.66357   15.216
 6208.00    0.65785   0.66270   15.201
 6209.00    0.65845   0.66133   15.187
 6210.00    0.65716   0.65990   15.217
 6211.00    0.65171   0.65817   15.344
 6212.00    0.64262   0.65644   15.561
 6213.00    0.63445   0.65484   15.762
 6214.00    0.63095   0.65316   15.849
 6215.00    0.63255   0.65165   15.809
 6216.00    0.63785   0.65010   15.678
 6217.00    0.64456   0.64873   15.514
 6218.00    0.65086   0.64769   15.364
 6219.00    0.65568   0.64689   15.251
 6220.00    0.65799   0.64639   15.198
 6221.00    0.65681   0.64600   15.225
 6222.00    0.65238   0.64547   15.329
 6223.00    0.64651   0.64518   15.468
 6224.00    0.64243   0.64490   15.566
 6225.00    0.64343   0.64468   15.542
 6226.00    0.64955   0.64441   15.395
 6227.00    0.65742   0.64398   15.211
 6228.00    0.66203   0.64358   15.105
 6229.00    0.65970   0.64307   15.158
 6230.00    0.65295   0.64300   15.315
 6231.00    0.64716   0.64276   15.452
 6232.00    0.64315   0.64268   15.549
 6233.00    0.63904   0.64236   15.648
 6234.00    0.63551   0.64185   15.735
 6235.00    0.63471   0.64166   15.755
 6236.00    0.63775   0.64113   15.680
 6237.00    0.64316   0.64112   15.548
 6238.00    0.64596   0.64079   15.481
 6239.00    0.64259   0.64038   15.562
 6240.00    0.63605   0.64003   15.722
 6241.00    0.63077   0.63915   15.854
 6242.00    0.62738   0.63866   15.939
 6243.00    0.62496   0.63804   16.001
 6244.00    0.62333   0.63768   16.043
 6245.00    0.62230   0.63744   16.069
 6246.00    0.62117   0.63700   16.099
 6247.00    0.62055   0.63672   16.115
 6248.00    0.62300   0.63611   16.051
 6249.00    0.62932   0.63553   15.890
 6250.00    0.63695   0.63493   15.700
 6251.00    0.64328   0.63467   15.545
 6252.00    0.64712   0.63425   15.453
 6253.00    0.64741   0.63389   15.446
 6254.00    0.64296   0.63349   15.553
 6255.00    0.63440   0.63296   15.763
 6256.00    0.62453   0.63290   16.012
 6257.00    0.61675   0.63292   16.214
 6258.00    0.61406   0.63381   16.285
 6259.00    0.61749   0.63449   16.195
 6260.00    0.62582   0.63537   15.979
 6261.00    0.63595   0.63646   15.724
 6262.00    0.64385   0.63753   15.532
 6263.00    0.64653   0.63906   15.467
 6264.00    0.64348   0.64039   15.541
 6265.00    0.63839   0.64203   15.664
 6266.00    0.63644   0.64344   15.712
 6267.00    0.63846   0.64453   15.663
 6268.00    0.64183   0.64553   15.580
 6269.00    0.64397   0.64650   15.529
 6270.00    0.64366   0.64746   15.536
 6271.00    0.64213   0.64811   15.573
 6272.00    0.64149   0.64859   15.589
 6273.00    0.64243   0.64906   15.566
 6274.00    0.64440   0.64938   15.518
 6275.00    0.64621   0.64962   15.475
 6276.00    0.64644   0.64972   15.469
 6277.00    0.64391   0.64989   15.530
 6278.00    0.63875   0.64991   15.656
 6279.00    0.63304   0.65005   15.797
 6280.00    0.62949   0.65040    0.000
 6281.00    0.63004   0.65055    0.000
 6282.00    0.63440   0.65098    0.000
 6283.00    0.63955   0.65108    0.000
 6284.00    0.64275   0.65144    0.000
 6285.00    0.64344   0.65202    0.000
 6286.00    0.64317   0.65230    0.000
 6287.00    0.64476   0.65273    0.000
 6288.00    0.64918   0.65260    0.000
 6289.00    0.65462   0.65251    0.000
 6290.00    0.65924   0.65245    0.000
 6291.00    0.66232   0.65204    0.000
 6292.00    0.66408   0.65166    0.000
 6293.00    0.66566   0.65090    0.000
 6294.00    0.66970   0.64999    0.000
 6295.00    0.68042   0.64919    0.000
 6296.00    0.70312   0.64832    0.000
 6297.00    0.74126   0.64775    0.000
 6298.00    0.78950   0.64721    0.000
 6299.00    0.83513   0.64652    0.000
 6300.00    0.86568   0.64613    0.000
 6301.00    0.87236   0.64595    0.000
 6302.00    0.85322   0.64615    0.000
 6303.00    0.81369   0.64636    0.000
 6304.00    0.76608   0.64657    0.000
 6305.00    0.72388   0.64699    0.000
 6306.00    0.69305   0.64727    0.000
 6307.00    0.67281   0.64766    0.000
 6308.00    0.65905   0.64781    0.000
 6309.00    0.64819   0.64780    0.000
 6310.00    0.64118   0.64785    0.000
 6311.00    0.63972   0.64770    0.000
 6312.00    0.64189   0.64746    0.000
 6313.00    0.64402   0.64689    0.000
 6314.00    0.64316   0.64647    0.000
 6315.00    0.63855   0.64618    0.000
 6316.00    0.63235   0.64574    0.000
 6317.00    0.62730   0.64576    0.000
 6318.00    0.62495   0.64572    0.000
 6319.00    0.62731   0.64608    0.000
 6320.00    0.63702   0.64653    0.000
 6321.00    0.65197   0.64672   15.338
 6322.00    0.66360   0.64769   15.069
 6323.00    0.66583   0.64848   15.019
 6324.00    0.65929   0.64948   15.168
 6325.00    0.64896   0.65017   15.409
 6326.00    0.64154   0.65064   15.587
 6327.00    0.64026   0.65144   15.619
 6328.00    0.64344   0.65148   15.541
 6329.00    0.64729   0.65187   15.449
 6330.00    0.64788   0.65188   15.435
 6331.00    0.64414   0.65168   15.525
 6332.00    0.63816   0.65139   15.670
 6333.00    0.63369   0.65046   15.781
 6334.00    0.63380   0.64987   15.778
 6335.00    0.63665   0.64925   15.707
 6336.00    0.63745   0.64890   15.688
 6337.00    0.63507   0.64816   15.746
 6338.00    0.63159   0.64738   15.833
 6339.00    0.62852   0.64681   15.910
 6340.00    0.62631   0.64634   15.967
 6341.00    0.62464   0.64615   16.009
 6342.00    0.62360   0.64566   16.036
 6343.00    0.62507   0.64580   15.998
 6344.00    0.63047   0.64564   15.861
 6345.00    0.63754   0.64543   15.685
 6346.00    0.64216   0.64536   15.572
 6347.00    0.64134   0.64537   15.592
 6348.00    0.63546   0.64558   15.737
 6349.00    0.62990   0.64529   15.875
 6350.00    0.62949   0.64509   15.886
 6351.00    0.63350   0.64475   15.785
 6352.00    0.63845   0.64435   15.663
 6353.00    0.64089   0.64360   15.603
 6354.00    0.63933   0.64286   15.641
 6355.00    0.63517   0.64212   15.744
 6356.00    0.63099   0.64097   15.848
 6357.00    0.62924   0.63985   15.892
 6358.00    0.63153   0.63887   15.835
 6359.00    0.63843   0.63827   15.663
 6360.00    0.65059   0.63763   15.371
 6361.00    0.66834   0.63702   14.962
 6362.00    0.68796   0.63686   14.536
 6363.00    0.70174   0.63709   14.250
 6364.00    0.70504   0.63759   14.184
 6365.00    0.69875   0.63822   14.311
 6366.00    0.68860   0.63917   14.522
 6367.00    0.68201   0.64035   14.663
 6368.00    0.68002   0.64141   14.705
 6369.00    0.67783   0.64263   14.753
 6370.00    0.67242   0.64402   14.872
 6371.00    0.66417   0.64538   15.056
 6372.00    0.65563   0.64651   15.253
 6373.00    0.64981   0.64724   15.389
 6374.00    0.64755   0.64805   15.443
 6375.00    0.64815   0.64880   15.429
 6376.00    0.65175   0.64933   15.343
 6377.00    0.65842   0.64966   15.188
 6378.00    0.66616   0.64984   15.011
 6379.00    0.67172   0.64991   14.887
 6380.00    0.67228   0.64995   14.875
 6381.00    0.66730   0.64983   14.986
 6382.00    0.66032   0.64963   15.144
 6383.00    0.65575   0.64950   15.250
 6384.00    0.65498   0.64918   15.268
 6385.00    0.65641   0.64900   15.234
 6386.00    0.65637   0.64865   15.235
 6387.00    0.65344   0.64827   15.304
 6388.00    0.65128   0.64794   15.354
 6389.00    0.65189   0.64748   15.340
 6390.00    0.65122   0.64701   15.356
 6391.00    0.64653   0.64607   15.467
 6392.00    0.64077   0.64564   15.606
 6393.00    0.63732   0.64546   15.691
 6394.00    0.63672   0.64519   15.705
 6395.00    0.63738   0.64494   15.689
 6396.00    0.63678   0.64421   15.704
 6397.00    0.63461   0.64396   15.758
 6398.00    0.63343   0.64373   15.787
 6399.00    0.63488   0.64404   15.751
 6400.00    0.63817   0.64465   15.670
 6401.00    0.64036   0.64464   15.616
 6402.00    0.63818   0.64470   15.670
 6403.00    0.63364   0.64432   15.782
 6404.00    0.63256   0.64460   15.809
 6405.00    0.63569   0.64514   15.731
 6406.00    0.63893   0.64501   15.651
 6407.00    0.64000   0.64526   15.625
 6408.00    0.63943   0.64515   15.639
 6409.00    0.63867   0.64473   15.658
 6410.00    0.63881   0.64448   15.654
 6411.00    0.63909   0.64419   15.647
 6412.00    0.63775   0.64429   15.680
 6413.00    0.63420   0.64425   15.768
 6414.00    0.62946   0.64388   15.887
 6415.00    0.62638   0.64372   15.965
 6416.00    0.62688   0.64377   15.952
 6417.00    0.62874   0.64379   15.905
 6418.00    0.62854   0.64381   15.910
 6419.00    0.62575   0.64401   15.981
 6420.00    0.62226   0.64443   16.070
 6421.00    0.62123   0.64497   16.097
 6422.00    0.62480   0.64517   16.005
 6423.00    0.63224   0.64524   15.817
 6424.00    0.64115   0.64543   15.597
 6425.00    0.64862   0.64595   15.417
 6426.00    0.65200   0.64646   15.337
 6427.00    0.64969   0.64649   15.392
 6428.00    0.64282   0.64621   15.556
 6429.00    0.63568   0.64585   15.731
 6430.00    0.63195   0.64595   15.824
 6431.00    0.63255   0.64599   15.809
 6432.00    0.63555   0.64585   15.734
 6433.00    0.63720   0.64565   15.694
 6434.00    0.63620   0.64528   15.718
 6435.00    0.63452   0.64539   15.760
 6436.00    0.63318   0.64536   15.793
 6437.00    0.63135   0.64529   15.839
 6438.00    0.62918   0.64580   15.894
 6439.00    0.62815   0.64621   15.920
 6440.00    0.62910   0.64632   15.896
 6441.00    0.63192   0.64614   15.825
 6442.00    0.63622   0.64578   15.718
 6443.00    0.64146   0.64595   15.589
 6444.00    0.64673   0.64628   15.462
 6445.00    0.65059   0.64590   15.371
 6446.00    0.65108   0.64528   15.359
 6447.00    0.64642   0.64420   15.470
 6448.00    0.63649   0.64307   15.711
 6449.00    0.62330   0.64289   16.044
 6450.00    0.61109   0.64248   16.364
 6451.00    0.60392   0.64197   16.559
 6452.00    0.60228   0.64107   16.604
 6453.00    0.60485   0.63977   16.533
 6454.00    0.61118   0.63971   16.362
 6455.00    0.62040   0.63983   16.119
 6456.00    0.62944   0.64009   15.887
 6457.00    0.63479   0.64034   15.753
 6458.00    0.63442   0.63989   15.762
 6459.00    0.62877   0.63990   15.904
 6460.00    0.62117   0.63985   16.099
 6461.00    0.61559   0.64024   16.245
 6462.00    0.61463   0.64107   16.270
 6463.00    0.61842   0.64129   16.170
 6464.00    0.62428   0.64153   16.019
 6465.00    0.62879   0.64126   15.904
 6466.00    0.62953   0.64148   15.885
 6467.00    0.62739   0.64213   15.939
 6468.00    0.62648   0.64243   15.962
 6469.00    0.62873   0.64261   15.905
 6470.00    0.63192   0.64254   15.825
 6471.00    0.63320   0.64278   15.793
 6472.00    0.63100   0.64267   15.848
 6473.00    0.62656   0.64244   15.960
 6474.00    0.62320   0.64213   16.046
 6475.00    0.62208   0.64183   16.075
 6476.00    0.62181   0.64171   16.082
 6477.00    0.62136   0.64113   16.094
 6478.00    0.62052   0.64045   16.116
 6479.00    0.61920   0.63959   16.150
 6480.00    0.61751   0.63873   16.194
 6481.00    0.61645   0.63795   16.222
 6482.00    0.61730   0.63703   16.200
 6483.00    0.62011   0.63602   16.126
 6484.00    0.62374   0.63452   16.032
 6485.00    0.62651   0.63275   15.961
 6486.00    0.62759   0.63113   15.934
 6487.00    0.62883   0.62924   15.903
 6488.00    0.63162   0.62723   15.832
 6489.00    0.63270   0.62496   15.805
 6490.00    0.62832   0.62251   15.915
 6491.00    0.61971   0.62034   16.137
 6492.00    0.61060   0.61758   16.377
 6493.00    0.60388   0.61548   16.560
 6494.00    0.60029   0.61400   16.659
 6495.00    0.59792   0.61269   16.725
 6496.00    0.59502   0.61234   16.806
 6497.00    0.59232   0.61139   16.883
 6498.00    0.59174   0.61172   16.899
 6499.00    0.59510   0.61299   16.804
 6500.00    0.60253   0.61426   16.597
 6501.00    0.61188   0.61646   16.343
 6502.00    0.62135   0.61804   16.094
 6503.00    0.63051   0.62027   15.860
 6504.00    0.63776   0.62269   15.680
 6505.00    0.64003   0.62463   15.624
 6506.00    0.63724   0.62665   15.693
 6507.00    0.63304   0.62811   15.797
 6508.00    0.63003   0.62957   15.872
 6509.00    0.62843   0.63071   15.913
 6510.00    0.62825   0.63139   15.917
 6511.00    0.62986   0.63179   15.876
 6512.00    0.63334   0.63196   15.789
 6513.00    0.63831   0.63212   15.666
 6514.00    0.64407   0.63198   15.526
 6515.00    0.64965   0.63185   15.393
 6516.00    0.65407   0.63158   15.289
 6517.00    0.65653   0.63133   15.232
 6518.00    0.65682   0.63132   15.225
 6519.00    0.65552   0.63103   15.255
 6520.00    0.65401   0.63097   15.290
 6521.00    0.65308   0.63083   15.312
 6522.00    0.65062   0.63074   15.370
 6523.00    0.64420   0.63102   15.523
 6524.00    0.63517   0.63078   15.744
 6525.00    0.62709   0.63054   15.947
 6526.00    0.62289   0.63039   16.054
 6527.00    0.62353   0.63029   16.038
 6528.00    0.62695   0.63034    0.000
 6529.00    0.62972   0.62982    0.000
 6530.00    0.62905   0.62918    0.000
 6531.00    0.62518   0.62879    0.000
 6532.00    0.62272   0.62852    0.000
 6533.00    0.62437   0.62825    0.000
 6534.00    0.62682   0.62752    0.000
 6535.00    0.62700   0.62650    0.000
 6536.00    0.62597   0.62559    0.000
 6537.00    0.62524   0.62483    0.000
 6538.00    0.62467   0.62390    0.000
 6539.00    0.62461   0.62240    0.000
 6540.00    0.62700   0.62061    0.000
 6541.00    0.63452   0.61873    0.000
 6542.00    0.65143   0.61687    0.000
 6543.00    0.68863   0.61466    0.000
 6544.00    0.76132   0.61171    0.000
 6545.00    0.87295   0.60879    0.000
 6546.00    1.00910   0.60575    0.000
 6547.00    1.13805   0.60238    0.000
 6548.00    1.21999   0.59852    0.000
 6549.00    1.23188   0.59383    0.000
 6550.00    1.17344   0.58918    0.000
 6551.00    1.06334   0.58439    0.000
 6552.00    0.93300   0.57897    0.000
 6553.00    0.81549   0.57297    0.000
 6554.00    0.73813   0.56639    0.000
 6555.00    0.71433   0.55946    0.000
 6556.00    0.76461   0.55275    0.000
 6557.00    0.95474   0.54664    0.000
 6558.00    1.38599   0.54058    0.000
 6559.00    2.16476   0.53471    0.000
 6560.00    3.30576   0.52871    0.000
 6561.00    4.61249   0.52409    0.000
 6562.00    5.75707   0.52266    0.000
 6563.00    6.40628   0.52235    0.000
 6564.00    6.34810   0.52240    0.000
 6565.00    5.60893   0.52251    0.000
 6566.00    4.41692   0.52424    0.000
 6567.00    3.13345   0.52951    0.000
 6568.00    2.07031   0.53568    0.000
 6569.00    1.34744   0.54130    0.000
 6570.00    0.94246   0.54668    0.000
 6571.00    0.74912   0.55231    0.000
 6572.00    0.66140   0.55877    0.000
 6573.00    0.62332   0.56535    0.000
 6574.00    0.60956   0.57138    0.000
 6575.00    0.61134   0.57664    0.000
 6576.00    0.62970   0.58144    0.000
 6577.00    0.67443   0.58578    0.000
 6578.00    0.77325   0.58995    0.000
 6579.00    0.96672   0.59364    0.000
 6580.00    1.27289   0.59694    0.000
 6581.00    1.66989   0.59990    0.000
 6582.00    2.08603   0.60210    0.000
 6583.00    2.41304   0.60429    0.000
 6584.00    2.55657   0.60576    0.000
 6585.00    2.46574   0.60718    0.000
 6586.00    2.16832   0.60850    0.000
 6587.00    1.75906   0.60924    0.000
 6588.00    1.34774   0.61021    0.000
 6589.00    1.02433   0.61041    0.000
 6590.00    0.81479   0.61058    0.000
 6591.00    0.69538   0.61068    0.000
 6592.00    0.63713   0.61090    0.000
 6593.00    0.61582   0.61173    0.000
 6594.00    0.61426   0.61191    0.000
 6595.00    0.62067   0.61197    0.000
 6596.00    0.62614   0.61185    0.000
 6597.00    0.62565   0.61229    0.000
 6598.00    0.61975   0.61351    0.000
 6599.00    0.61231   0.61412    0.000
 6600.00    0.60756   0.61444    0.000
 6601.00    0.60781   0.61453    0.000
 6602.00    0.61175   0.61476    0.000
 6603.00    0.61649   0.61567    0.000
 6604.00    0.61959   0.61628    0.000
 6605.00    0.61980   0.61649    0.000
 6606.00    0.61736   0.61654    0.000
 6607.00    0.61424   0.61643    0.000
 6608.00    0.61353   0.61709    0.000
 6609.00    0.61610   0.61784   16.231
 6610.00    0.61935   0.61817   16.146
 6611.00    0.62225   0.61839   16.071
 6612.00    0.62692   0.61846   15.951
 6613.00    0.63278   0.61935   15.803
 6614.00    0.63532   0.62029   15.740
 6615.00    0.63284   0.62065   15.802
 6616.00    0.62823   0.62083   15.918
 6617.00    0.62449   0.62082   16.013
 6618.00    0.62301   0.62129   16.051
 6619.00    0.62362   0.62174   16.035
 6620.00    0.62512   0.62151   15.997
 6621.00    0.62676   0.62109   15.955
 6622.00    0.62839   0.62052   15.914
 6623.00    0.62968   0.62008   15.881
 6624.00    0.63005   0.61990   15.872
 6625.00    0.62903   0.61921   15.897
 6626.00    0.62681   0.61832   15.954
 6627.00    0.62505   0.61746   15.999
 6628.00    0.62528   0.61674   15.993
 6629.00    0.62582   0.61651   15.979
 6630.00    0.62337   0.61599   16.042
 6631.00    0.61624   0.61521   16.227
 6632.00    0.60607   0.61460   16.500
 6633.00    0.59904   0.61436   16.693
 6634.00    0.60037   0.61452   16.656
 6635.00    0.60779   0.61447   16.453
 6636.00    0.61568   0.61402   16.242
 6637.00    0.62032   0.61380   16.121
 6638.00    0.61988   0.61406   16.132
 6639.00    0.61401   0.61452   16.286
 6640.00    0.60470   0.61469   16.537
 6641.00    0.59661   0.61434   16.761
 6642.00    0.59418   0.61427   16.830
 6643.00    0.59916   0.61473   16.690
 6644.00    0.60943   0.61510   16.409
 6645.00    0.61923   0.61520   16.149
 6646.00    0.62504   0.61489   15.999
 6647.00    0.62798   0.61487   15.924
 6648.00    0.62865   0.61530   15.907
 6649.00    0.62554   0.61538   15.986
 6650.00    0.62040   0.61524   16.119
 6651.00    0.61864   0.61498   16.164
 6652.00    0.62085   0.61481   16.107
 6653.00    0.62188   0.61487   16.080
 6654.00    0.61923   0.61452   16.149
 6655.00    0.61481   0.61401   16.265
 6656.00    0.61080   0.61347   16.372
 6657.00    0.60828   0.61299   16.440
 6658.00    0.60738   0.61265   16.464
 6659.00    0.60743   0.61199   16.463
 6660.00    0.60742   0.61134   16.463
 6661.00    0.60639   0.61056   16.491
 6662.00    0.60422   0.61015   16.550
 6663.00    0.60158   0.61003   16.623
 6664.00    0.59982   0.60957   16.672
 6665.00    0.60071   0.60917   16.647
 6666.00    0.60623   0.60864   16.495
 6667.00    0.61652   0.60860   16.220
 6668.00    0.62730   0.60889   15.941
 6669.00    0.63338   0.60875   15.788
 6670.00    0.63357   0.60821   15.784
 6671.00    0.62918   0.60768   15.894
 6672.00    0.62169   0.60766   16.085
 6673.00    0.61419   0.60780   16.281
 6674.00    0.61261   0.60757   16.324
 6675.00    0.62069   0.60661   16.111
 6676.00    0.63578   0.60585   15.729
 6677.00    0.65117   0.60595   15.357
 6678.00    0.65922   0.60623   15.169
 6679.00    0.65727   0.60619   15.214
 6680.00    0.65076   0.60568   15.367
 6681.00    0.64690   0.60549   15.458
 6682.00    0.65024   0.60617   15.379
 6683.00    0.66092   0.60696   15.130
 6684.00    0.67483   0.60735   14.818
 6685.00    0.68870   0.60753   14.520
 6686.00    0.70157   0.60782   14.254
 6687.00    0.71078   0.60853   14.069
 6688.00    0.71182   0.60911   14.049
 6689.00    0.70436   0.60923   14.197
 6690.00    0.69285   0.60931   14.433
 6691.00    0.68052   0.60931   14.695
 6692.00    0.66790   0.60942   14.972
 6693.00    0.65442   0.60945   15.281
 6694.00    0.63999   0.60905   15.625
 6695.00    0.62740   0.60884   15.939
 6696.00    0.62014   0.60859    0.000
 6697.00    0.61613   0.60831    0.000
 6698.00    0.61159   0.60821    0.000
 6699.00    0.61119   0.60782    0.000
 6700.00    0.62136   0.60757    0.000
 6701.00    0.63550   0.60732    0.000
 6702.00    0.64145   0.60696    0.000
 6703.00    0.63711   0.60678    0.000
 6704.00    0.62890   0.60651    0.000
 6705.00    0.62590   0.60612    0.000
 6706.00    0.63363   0.60560    0.000
 6707.00    0.64782   0.60513    0.000
 6708.00    0.66076   0.60452    0.000
 6709.00    0.66999   0.60399    0.000
 6710.00    0.68868   0.60327    0.000
 6711.00    0.75155   0.60233    0.000
 6712.00    0.88499   0.60184    0.000
 6713.00    1.08349   0.60106    0.000
 6714.00    1.32697   0.60031    0.000
 6715.00    1.59064   0.59958    0.000
 6716.00    1.81514   0.59889    0.000
 6717.00    1.90240   0.59897    0.000
 6718.00    1.81099   0.59874    0.000
 6719.00    1.59752   0.59838    0.000
 6720.00    1.33733   0.59832    0.000
 6721.00    1.08365   0.59848    0.000
 6722.00    0.87700   0.59919    0.000
 6723.00    0.74626   0.59957    0.000
 6724.00    0.69322   0.59967    0.000
 6725.00    0.69658   0.60013    0.000
 6726.00    0.74801   0.60065    0.000
 6727.00    0.85521   0.60122    0.000
 6728.00    1.01065   0.60160    0.000
 6729.00    1.18574   0.60172    0.000
 6730.00    1.34283   0.60192    0.000
 6731.00    1.44154   0.60200    0.000
 6732.00    1.44576   0.60196    0.000
 6733.00    1.34182   0.60190    0.000
 6734.00    1.17100   0.60178    0.000
 6735.00    1.00146   0.60141    0.000
 6736.00    0.86382   0.60083    0.000
 6737.00    0.75808   0.60035    0.000
 6738.00    0.68541   0.59991    0.000
 6739.00    0.64630   0.59960    0.000
 6740.00    0.63043   0.59890    0.000
 6741.00    0.62381   0.59800    0.000
 6742.00    0.61976   0.59757    0.000
 6743.00    0.61674   0.59710    0.000
 6744.00    0.61407   0.59679    0.000
 6745.00    0.61152   0.59630    0.000
 6746.00    0.60921   0.59562    0.000
 6747.00    0.60645   0.59561    0.000
 6748.00    0.60129   0.59540    0.000
 6749.00    0.59590   0.59552    0.000
 6750.00    0.59927   0.59564    0.000
 6751.00    0.61492   0.59545    0.000
 6752.00    0.63399   0.59609    0.000
 6753.00    0.64754   0.59646   15.443
 6754.00    0.65380   0.59694   15.295
 6755.00    0.65392   0.59752   15.292
 6756.00    0.64935   0.59781   15.400
 6757.00    0.64251   0.59859   15.564
 6758.00    0.63678   0.59913   15.704
 6759.00    0.63545   0.59945   15.737
 6760.00    0.64040   0.59965   15.615
 6761.00    0.64903   0.59986   15.407
 6762.00    0.65473   0.60023   15.274
 6763.00    0.65190   0.60029   15.340
 6764.00    0.63910   0.60012   15.647
 6765.00    0.62249   0.59976   16.065
 6766.00    0.61222   0.59974   16.334
 6767.00    0.61075   0.59997   16.373
 6768.00    0.61363   0.59982   16.296
 6769.00    0.61825   0.59959   16.175
 6770.00    0.62416   0.59947   16.022
 6771.00    0.62985   0.59965   15.877
 6772.00    0.63314   0.60004   15.794
 6773.00    0.63320   0.60012   15.793
 6774.00    0.63073   0.60012   15.855
 6775.00    0.62777   0.60019   15.929
 6776.00    0.62613   0.60024   15.971
 6777.00    0.62545   0.60037   15.989
 6778.00    0.62416   0.60023   16.022
 6779.00    0.62108   0.59993   16.101
 6780.00    0.61581   0.59961   16.239
 6781.00    0.60899   0.59909   16.421
 6782.00    0.60229   0.59860   16.603
 6783.00    0.59816   0.59811   16.718
 6784.00    0.59818   0.59756   16.717
 6785.00    0.60169   0.59713   16.620
 6786.00    0.60651   0.59663   16.488
 6787.00    0.60991   0.59614   16.396
 6788.00    0.61115   0.59581   16.363
 6789.00    0.61254   0.59560   16.325
 6790.00    0.61541   0.59560   16.249
 6791.00    0.61801   0.59542   16.181
 6792.00    0.61755   0.59529   16.193
 6793.00    0.61204   0.59543   16.339
 6794.00    0.60388   0.59548   16.560
 6795.00    0.59953   0.59579   16.680
 6796.00    0.60176   0.59583   16.618
 6797.00    0.60787   0.59581   16.451
 6798.00    0.61482   0.59620   16.265
 6799.00    0.62088   0.59624   16.106
 6800.00    0.62493   0.59640   16.002
 6801.00    0.62628   0.59657   15.967
 6802.00    0.62456   0.59636   16.011
 6803.00    0.62002   0.59661   16.129
 6804.00    0.61427   0.59660   16.279
 6805.00    0.60990   0.59634   16.396
 6806.00    0.60922   0.59658   16.415
 6807.00    0.61273   0.59630   16.320
 6808.00    0.61686   0.59607   16.211
 6809.00    0.61737   0.59618   16.198
 6810.00    0.61561   0.59591   16.244
 6811.00    0.61535   0.59606   16.251
 6812.00    0.61669   0.59594   16.216
 6813.00    0.61729   0.59550   16.200
 6814.00    0.61537   0.59584   16.250
 6815.00    0.61086   0.59598   16.370
 6816.00    0.60616   0.59604   16.497
 6817.00    0.60345   0.59610   16.571
 6818.00    0.60220   0.59586   16.606
 6819.00    0.60211   0.59624   16.608
 6820.00    0.60561   0.59657   16.512
 6821.00    0.61423   0.59650   16.280
 6822.00    0.62572   0.59658   15.982
 6823.00    0.63594   0.59652   15.725
 6824.00    0.64084   0.59673   15.605
 6825.00    0.63905   0.59675   15.648
 6826.00    0.63293   0.59632   15.800
 6827.00    0.62497   0.59624   16.001
 6828.00    0.61611   0.59619   16.231
 6829.00    0.60731   0.59605   16.466
 6830.00    0.59993   0.59565   16.669
 6831.00    0.59397   0.59496   16.836
 6832.00    0.58829   0.59465   16.998
 6833.00    0.58400   0.59440   17.123
 6834.00    0.58441   0.59379   17.111
 6835.00    0.59031   0.59314   16.940
 6836.00    0.59912   0.59248   16.691
 6837.00    0.60747   0.59195   16.462
 6838.00    0.61243   0.59156   16.328
 6839.00    0.61286   0.59084   16.317
 6840.00    0.60963   0.59027   16.404
 6841.00    0.60549   0.59005   16.516
 6842.00    0.60356   0.58979   16.568
 6843.00    0.60442   0.58972   16.545
 6844.00    0.60615   0.58944   16.498
 6845.00    0.60564   0.58922   16.511
 6846.00    0.60153   0.58948   16.624
 6847.00    0.59808   0.58944   16.720
 6848.00    0.60024   0.58939   16.660
 6849.00    0.60605   0.58941   16.500
 6850.00    0.61039   0.58924   16.383
 6851.00    0.61080   0.58936   16.372
 6852.00    0.60810   0.58912   16.445
 6853.00    0.60583   0.58854   16.506
 6854.00    0.60615   0.58842   16.497
 6855.00    0.60645   0.58819   16.489
 6856.00    0.60425   0.58786   16.550
 6857.00    0.60125   0.58767   16.632
 6858.00    0.59941   0.58718   16.683
 6859.00    0.59814   0.58682   16.718
 6860.00    0.59727   0.58668   16.743
 6861.00    0.59852   0.58653   16.708
 6862.00    0.60145   0.58663   16.626
 6863.00    0.60213   0.58660   16.608
 6864.00    0.59913   0.58635   16.691
 6865.00    0.59546   0.58628   16.794
 6866.00    0.59267   0.58630   16.873
 6867.00    0.58923   0.58648   16.971
 6868.00    0.58543   0.58672   17.082
 6869.00    0.58402   0.58671   17.123
 6870.00    0.58516   0.58662   17.089
 6871.00    0.58625   0.58680   17.057
 6872.00    0.58745   0.58706   17.023
 6873.00    0.59119   0.58722   16.915
 6874.00    0.59629   0.58736   16.770
 6875.00    0.59881   0.58752   16.700
 6876.00    0.59802   0.58781   16.722
 6877.00    0.59617   0.58810   16.774
 6878.00    0.59453   0.58829   16.820
 6879.00    0.59299   0.58843   16.864
 6880.00    0.59104   0.58865   16.919
 6881.00    0.58867   0.58897   16.987
 6882.00    0.58757   0.58938   17.019
 6883.00    0.58771   0.58978   17.015
 6884.00    0.58272   0.58995   17.161
 6885.00    0.56957   0.59025   17.557
 6886.00    0.56103   0.59079   17.630
 6887.00    0.56855   0.59125   17.589
 6888.00    0.58204   0.59164   17.181
 6889.00    0.58785   0.59202   17.011
 6890.00    0.58847   0.59234   16.993
 6891.00    0.59065   0.59277   16.930
 6892.00    0.59348   0.59316   16.850
 6893.00    0.59455   0.59325   16.819
 6894.00    0.59540   0.59349   16.795
 6895.00    0.59758   0.59372   16.734
 6896.00    0.59985   0.59387   16.671
 6897.00    0.60008   0.59410   16.664
 6898.00    0.59693   0.59392   16.753
 6899.00    0.59149   0.59395   16.907
 6900.00    0.58739   0.59429   17.025
 6901.00    0.58661   0.59424   17.047
 6902.00    0.58789   0.59430   17.010
 6903.00    0.58911   0.59418   16.975
 6904.00    0.58895   0.59404   16.979
 6905.00    0.58906   0.59437   16.976
 6906.00    0.59293   0.59413   16.865
 6907.00    0.59934   0.59385   16.685
 6908.00    0.60271   0.59387   16.592
 6909.00    0.60081   0.59342   16.644
 6910.00    0.59560   0.59334   16.790
 6911.00    0.58925   0.59308   16.971
 6912.00    0.58328   0.59236   17.144
 6913.00    0.57894   0.59242   17.273
 6914.00    0.57698   0.59209   17.332
 6915.00    0.57707   0.59154   17.329
 6916.00    0.57846   0.59153   17.287
 6917.00    0.58122   0.59102   17.205
 6918.00    0.58541   0.59092   17.082
 6919.00    0.58934   0.59093   16.968
 6920.00    0.59139   0.59053   16.909
 6921.00    0.59257   0.59061   16.876
 6922.00    0.59189   0.59041   16.895
 6923.00    0.58151   0.59012   17.197
 6924.00    0.56305   0.59024   17.630
 6925.00    0.56200   0.59027   17.630
 6926.00    0.58238   0.59026   17.171
 6927.00    0.57096   0.59024   17.514
 6928.00    0.51052   0.59016   17.630
 6929.00    0.48617   0.59028   17.630
 6930.00    0.54544   0.59045   17.630
 6931.00    0.60697   0.59029   16.475
 6932.00    0.60593   0.59043   16.503
 6933.00    0.58140   0.59073   17.200
 6934.00    0.57613   0.59072   17.357
 6935.00    0.58133   0.59070   17.202
 6936.00    0.58319   0.59062   17.147
 6937.00    0.58531   0.59068   17.085
 6938.00    0.58993   0.59079   16.951
 6939.00    0.59164   0.59068   16.902
 6940.00    0.59003   0.59049   16.948
 6941.00    0.59114   0.59036   16.917
 6942.00    0.59328   0.59024   16.856
 6943.00    0.58735   0.58981   17.026
 6944.00    0.57428   0.58969   17.413
 6945.00    0.56502   0.58969   17.630
 6946.00    0.56471   0.58942   17.630
 6947.00    0.56990   0.58939   17.547
 6948.00    0.57341   0.58916   17.440
 6949.00    0.56971   0.58897   17.553
 6950.00    0.56348   0.58918   17.630
 6951.00    0.56432   0.58917   17.630
 6952.00    0.57325   0.58923   17.444
 6953.00    0.58536   0.58950   17.083
 6954.00    0.59862   0.58973   16.705
 6955.00    0.61232   0.59000   16.331
 6956.00    0.62267   0.59024   16.060
 6957.00    0.62504   0.59056   15.999
 6958.00    0.61799   0.59092   16.182
 6959.00    0.60637   0.59139   16.492
 6960.00    0.60294   0.59169   16.585
 6961.00    0.61298   0.59183   16.314
 6962.00    0.62031   0.59225   16.121
 6963.00    0.61137   0.59239   16.357
 6964.00    0.59623   0.59229   16.772
 6965.00    0.58725   0.59239   17.028
 6966.00    0.58189   0.59227   17.185
 6967.00    0.57682   0.59214   17.336
 6968.00    0.57744   0.59173   17.318
 6969.00    0.58748   0.59088   -2.000
 6970.00    0.60257   0.59056   -2.000
 6971.00    0.61474   0.59009   -2.000
 6972.00    0.61673   0.58917   -2.000
 6973.00    0.60948   0.58838   -2.000
 6974.00    0.60314   0.58755   -2.000
 6975.00    0.60551   0.58706   -2.000
 6976.00    0.61594   0.58629   -2.000
 6977.00    0.62258   0.58539   -2.000
 6978.00    0.61312   0.58543   -2.000
 6979.00    0.61329   0.58536   -2.000
 6980.00    0.66140   0.58524   -2.000
 6981.00    0.69630   0.58535   -2.000
 6982.00    0.61175   0.58541   -2.000
 6983.00    0.48337   0.58608   -2.000
 6984.00    0.49102   0.58654   -2.000
 6985.00    0.60264   0.58686   -2.000
 6986.00    0.64634   0.58764   -2.000
 6987.00    0.60746   0.58807   -2.000
 6988.00    0.58551   0.58848   -2.000
 6989.00    0.60455   0.58886   -2.000
 6990.00    0.62893   0.58907   -2.000
 6991.00    0.64381   0.58943   -2.000
 6992.00    0.65254   0.58939   -2.000
 6993.00    0.65481   0.58929   -2.000
 6994.00    0.64902   0.58927   -2.000
 6995.00    0.63888   0.58902   -2.000
 6996.00    0.62953   0.58883   -2.000
 6997.00    0.62260   0.58837   -2.000
 6998.00    0.61845   0.58786   -2.000
 6999.00    0.61865   0.58767   -2.000
 7000.00    0.62390   0.58736   -2.000
 7001.00    0.63199   0.58690   -2.000
 7002.00    0.63887   0.58640   -2.000
 7003.00    0.64015   0.58601   -2.000
 7004.00    0.63500   0.58586   -2.000
 7005.00    0.62779   0.58559   -2.000
 7006.00    0.62293   0.58503   -2.000
 7007.00    0.62137   0.58486   -2.000
 7008.00    0.62036   0.58490   -2.000
 7009.00    0.61505   0.58452   -2.000
 7010.00    0.60604   0.58422   -2.000
 7011.00    0.60068   0.58402   -2.000
 7012.00    0.60324   0.58397   -2.000
 7013.00    0.61123   0.58393   -2.000
 7014.00    0.61703   0.58323   -2.000
 7015.00    0.61176   0.58311   -2.000
 7016.00    0.59471   0.58359   -2.000
 7017.00    0.57332   0.58341   -2.000
 7018.00    0.55422   0.58330   -2.000
 7019.00    0.54072   0.58332   -2.000
 7020.00    0.53303   0.58347   -2.000
 7021.00    0.53016   0.58385   -2.000
 7022.00    0.53363   0.58368   -2.000
 7023.00    0.54520   0.58389   -2.000
 7024.00    0.56102   0.58465   -2.000
 7025.00    0.57326   0.58491   -2.000
 7026.00    0.57517   0.58519   -2.000
 7027.00    0.56475   0.58551   -2.000
 7028.00    0.54875   0.58580   -2.000
 7029.00    0.53747   0.58643   -2.000
 7030.00    0.53696   0.58680   -2.000
 7031.00    0.54711   0.58724   -2.000
 7032.00    0.56104   0.58788   -2.000
 7033.00    0.57082   0.58824   -2.000
 7034.00    0.57367   0.58891   -2.000
 7035.00    0.57177   0.58954   -2.000
 7036.00    0.57121   0.58978   -2.000
 7037.00    0.57847   0.59051   -2.000
 7038.00    0.59676   0.59144   -2.000
 7039.00    0.62028   0.59212   -2.000
 7040.00    0.63367   0.59273   -2.000
 7041.00    0.63397   0.59325   -2.000
 7042.00    0.63891   0.59374   -2.000
 7043.00    0.65209   0.59422   -2.000
 7044.00    0.65138   0.59440   -2.000
 7045.00    0.63201   0.59447   -2.000
 7046.00    0.61858   0.59469   -2.000
 7047.00    0.61955   0.59443   -2.000
 7048.00    0.61688   0.59375   -2.000
 7049.00    0.60661   0.59320   -2.000
 7050.00    0.60435   0.59215   -2.000
 7051.00    0.60810   0.59103   -2.000
 7052.00    0.59760   0.59006   -2.000
 7053.00    0.57101   0.58870   -2.000
 7054.00    0.54680   0.58761   -2.000
 7055.00    0.53819   0.58631   -2.000
 7056.00    0.54698   0.58484   -2.000
 7057.00    0.56600   0.58380   -2.000
 7058.00    0.58348   0.58233   -2.000
 7059.00    0.59090   0.58132   -2.000
 7060.00    0.58656   0.58073   -2.000
 7061.00    0.57875   0.57966   -2.000
 7062.00    0.57775   0.57920   -2.000
 7063.00    0.58262   0.57869   -2.000
 7064.00    0.58735   0.57806   -2.000
 7065.00    0.59240   0.57809   -2.000
 7066.00    0.60009   0.57762   -2.000
 7067.00    0.60681   0.57754   -2.000
 7068.00    0.60238   0.57809   -2.000
 7069.00    0.57253   0.57801   -2.000
 7070.00    0.52114   0.57822   -2.000
 7071.00    0.48726   0.57853   -2.000
 7072.00    0.49970   0.57854   -2.000
 7073.00    0.53922   0.57891   -2.000
 7074.00    0.56828   0.57879   -2.000
 7075.00    0.56078   0.57857   -2.000
 7076.00    0.52964   0.57874   -2.000
 7077.00    0.53135   0.57820   -2.000
 7078.00    0.58457   0.57752   -2.000
 7079.00    0.63750   0.57679   -2.000
 7080.00    0.66229   0.57560   -2.000
 7081.00    0.68855   0.57464   -2.000
 7082.00    0.71427   0.57306   -2.000
 7083.00    0.68783   0.57132   -2.000
 7084.00    0.61394   0.57033   -2.000
 7085.00    0.56735   0.56853   -2.000
 7086.00    0.57746   0.56686   -2.000
 7087.00    0.60754   0.56565   -2.000
 7088.00    0.62907   0.56391   -2.000
 7089.00    0.63814   0.56304   -2.000
 7090.00    0.63079   0.56202   -2.000
 7091.00    0.60308   0.56079   -2.000
 7092.00    0.56896   0.56067   -2.000
 7093.00    0.55032   0.56004   -2.000
 7094.00    0.54579   0.55978   -2.000
 7095.00    0.54003   0.56002   -2.000
 7096.00    0.53499   0.55972   -2.000
 7097.00    0.54046   0.56026   -2.000
 7098.00    0.54828   0.56061   -2.000
 7099.00    0.54610   0.56079   -2.000
 7100.00    0.54383   0.56142   -2.000
 7101.00    0.55404   0.56152   -2.000
 7102.00    0.56199   0.56203   -2.000
 7103.00    0.55155   0.56263   -2.000
 7104.00    0.53843   0.56269   -2.000
 7105.00    0.54313   0.56298   -2.000
 7106.00    0.56004   0.56314   -2.000
 7107.00    0.57534   0.56332   -2.000
 7108.00    0.58549   0.56350   -2.000
 7109.00    0.58607   0.56326   -2.000
 7110.00    0.56506   0.56327   -2.000
 7111.00    0.53225   0.56359   -2.000
 7112.00    0.53070   0.56346   -2.000
 7113.00    0.56671   0.56326   -2.000
 7114.00    0.58113   0.56330   -2.000
 7115.00    0.55220   0.56321   -2.000
 7116.00    0.53536   0.56319   -2.000
 7117.00    0.55791   0.56281   -2.000
 7118.00    0.58266   0.56254   -2.000
 7119.00    0.59228   0.56270   -2.000
 7120.00    0.60981   0.56203   -2.000
 7121.00    0.62627   0.56156   -2.000
 7122.00    0.59945   0.56148   -2.000
 7123.00    0.54930   0.56078   -2.000
 7124.00    0.54274   0.56033   -2.000
 7125.00    0.54825   0.55969   -2.000
 7126.00    0.47105   0.55912   -2.000
 7127.00    0.36411   0.55913   -2.000
 7128.00    0.37251   0.55831   -2.000
 7129.00    0.47146   0.55780   -2.000
 7130.00    0.52041   0.55807   -2.000
 7131.00    0.50489   0.55777   -2.000
 7132.00    0.50321   0.55777   -2.000
 7133.00    0.53216   0.55789   -2.000
 7134.00    0.56142   0.55782   -2.000
 7135.00    0.58287   0.55836   -2.000
 7136.00    0.60104   0.55863   -2.000
 7137.00    0.60423   0.55854   -2.000
 7138.00    0.58224   0.55901   -2.000
 7139.00    0.55220   0.55952   -2.000
 7140.00    0.53495   0.55967   -2.000
 7141.00    0.52662   0.55996   -2.000
 7142.00    0.51993   0.56012   -2.000
 7143.00    0.52566   0.56008   -2.000
 7144.00    0.54541   0.56063   -2.000
 7145.00    0.55088   0.56067   -2.000
 7146.00    0.52613   0.56030   -2.000
 7147.00    0.49625   0.56102   -2.000
 7148.00    0.48480   0.56137   -2.000
 7149.00    0.48606   0.56139   -2.000
 7150.00    0.48762   0.56186   -2.000
 7151.00    0.48535   0.56202   -2.000
 7152.00    0.48298   0.56266   -2.000
 7153.00    0.48815   0.56304   -2.000
 7154.00    0.49709   0.56287   -2.000
 7155.00    0.49462   0.56355   -2.000
 7156.00    0.48476   0.56403   -2.000
 7157.00    0.49233   0.56408   -2.000
 7158.00    0.52097   0.56423   -2.000
 7159.00    0.54744   0.56425   -2.000
 7160.00    0.55511   0.56452   -2.000
 7161.00    0.54372   0.56448   -2.000
 7162.00    0.52449   0.56421   -2.000
 7163.00    0.51159   0.56435   -2.000
 7164.00    0.50477   0.56447   -2.000
 7165.00    0.49294   0.56459   -2.000
 7166.00    0.47209   0.56468   -2.000
 7167.00    0.44952   0.56473   -2.000
 7168.00    0.44338   0.56503   -2.000
 7169.00    0.46735   0.56532   -2.000
 7170.00    0.50565   0.56546   -2.000
 7171.00    0.53276   0.56548   -2.000
 7172.00    0.54917   0.56574   -2.000
 7173.00    0.56352   0.56614   -2.000
 7174.00    0.56289   0.56595   -2.000
 7175.00    0.53639   0.56579   -2.000
 7176.00    0.50572   0.56580   -2.000
 7177.00    0.49480   0.56544   -2.000
 7178.00    0.49587   0.56523   -2.000
 7179.00    0.49182   0.56467   -2.000
 7180.00    0.48012   0.56408   -2.000
 7181.00    0.46883   0.56408   -2.000
 7182.00    0.46958   0.56326   -2.000
 7183.00    0.48449   0.56257   -2.000
 7184.00    0.49970   0.56250   -2.000
 7185.00    0.50623   0.56173   -2.000
 7186.00    0.51040   0.56140   -2.000
 7187.00    0.51314   0.56108   -2.000
 7188.00    0.50286   0.56054   -2.000
 7189.00    0.48332   0.56091   -2.000
 7190.00    0.47873   0.56082   -2.000
 7191.00    0.49231   0.56047   -2.000
 7192.00    0.49959   0.56070   -2.000
 7193.00    0.49705   0.56077   -2.000
 7194.00    0.50578   0.56082   -2.000
 7195.00    0.51619   0.56097   -2.000
 7196.00    0.49761   0.56115   -2.000
 7197.00    0.48573   0.56137   -2.000
 7198.00    0.53494   0.56171   -2.000
 7199.00    0.52335   0.56167   -2.000
 7200.00    0.28350   0.56145   -2.000
 7201.00    0.02584   0.56189   -2.000
 7202.00    0.12068   0.56175   -2.000
 7203.00    0.44289   0.56154   -2.000
 7204.00    0.58860   0.56179   -2.000
 7205.00    0.52586   0.56136   -2.000
 7206.00    0.46777   0.56166   -2.000
 7207.00    0.46962   0.56184   -2.000
 7208.00    0.47272   0.56138   -2.000
 7209.00    0.46332   0.56202   -2.000
 7210.00    0.45887   0.56223   -2.000
 7211.00    0.46170   0.56225   -2.000
 7212.00    0.46565   0.56292   -2.000
 7213.00    0.46989   0.56294   -2.000
 7214.00    0.47617   0.56343   -2.000
 7215.00    0.48443   0.56423   -2.000
 7216.00    0.49264   0.56457   -2.000
 7217.00    0.49724   0.56544   -2.000
 7218.00    0.49564   0.56601   -2.000
