###################################################################
## OUTPUT of StarlightChains_v04.for    [Cid@UFSC - 01/Apr/2007] ##
###################################################################

## Some input info
2013ha.txt                               [arq_obs]
Base.CB07.vall.4m                        [arq_base]
Masks.EmLines.NEW.gm                     [arq_masks]
StCv04.C11.config                        [arq_config]
   66                                    [N_base]
    0                                    [N_YAV_components = # of components with extra extinction!]
    0                                    [i_FitPowerLaw (1/0 = Yes/No)]
-9.99                                    [alpha_PowerLaw]
CCM                                      [red_law_option]
 1.458241                                [q_norm = A(l_norm)/A(V)]

## (Re)Sampling Parameters
 3741.00                                 [l_ini (A)]
 7218.00                                 [l_fin (A)]
    1.00                                 [dl    (A)]     (OBS: dl_cushion =    50.00 A)

## Normalization info
 4020.00                                 [l_norm (A) - for base]
 4010.00                                 [llow_norm (A) - window for f_obs]
 4060.00                                 [lupp_norm (A) - window for f_obs]
3.552482E-16                             [fobs_norm (in input units)]

## S/N
 3691.00                                 [llow_SN (A) - window for S/N]
 7268.00                                 [lupp_SN (A) - window for S/N]
  11.692                                 [S/N in S/N window]
  13.312                                 [S/N in norm. window]
  15.525                                 [S/N_err in S/N window]
  17.675                                 [S/N_err in norm. window]
  1.0000                                 [fscale_chi2]

## etc...
    -2007411                             [idum_orig]
  2383                                   [NOl_eff]
  2381                                   [Nl_eff]
     2    NSIGMA                         [Ntot_cliped & clip_method]
  1933260                                [Nglobal_steps]
   7                                     [N_chains]
  30                                     [NEX0s_base = N_base in EX0s-fits]
 0   0   1        3   2.0   4.310E+01    [Clip-Bug, RC-Crash & Burn-In warning-flags, n_censored_weights, wei_nsig_threshold & wei_limit]
    19     17.966     17.410      0.557  [idt_all, wdt_TotTime, wdt_UsrTime & wdt_SysTime (sec)]

## Synthesis Results - Best model ##

 3.92693E-01                             [chi2/Nl_eff]
     3.02084                             [adev (%)]

    98.04457                             [sum-of-x (%)]
 9.40823E-16                             [Flux_tot (units of input spectrum!)]
 1.17568E-11                             [Mini_tot (???)]
 6.03153E-12                             [Mcor_tot (???)]

   2.53                                  [v0_min  (km/s)]
 212.57                                  [vd_min  (km/s)]
 0.7399                                  [AV_min  (mag)]
 0.0000                                  [YAV_min (mag)]

# j     x_j(%)      Mini_j(%)     Mcor_j(%)     age_j(yr)     Z_j      (L/M)_j    YAV?  Mstars   component_j        a/Fe...       SSP_chi2r SSP_adev(%)   SSP_AV   SSP_x(%)
  1      0.0000     0.0000E+00    0.0000E+00    1.000000E+06  0.00400  1.094E-02    0   1.0000   age020_m42            0.0000     1.3772E+00     6.4981   3.1677    75.9903
  2      0.0000     0.0000E+00    0.0000E+00    3.160000E+06  0.00400  4.007E-02    0   0.9999   age045_m42            0.0000     1.0499E+00     5.3537   2.3835    83.7254
  3      0.0000     0.0000E+00    0.0000E+00    5.010000E+06  0.00400  2.539E-02    0   0.9488   age055_m42            0.0000     1.1228E+00     5.6759   2.7228    80.8206
  4      0.0000     0.0000E+00    0.0000E+00    6.610000E+06  0.00400  2.620E-02    0   0.9220   age061_m42            0.0000     9.5002E-01     5.0522   2.2920    84.6228
  5      3.5524     2.1932E-02    3.7886E-02    1.000000E+07  0.00400  1.322E-02    0   0.8862   age070_m42            0.0000     5.8159E-01     3.8644   1.9326    89.3935
  6      0.0000     0.0000E+00    0.0000E+00    1.445000E+07  0.00400  7.883E-03    0   0.8571   age078_m42            0.0000     7.0279E-01     4.3303   2.2830    86.1383
  7      4.8362     7.5172E-02    1.1977E-01    2.512000E+07  0.00400  5.251E-03    0   0.8174   age090_m42            0.0000     5.3099E-01     3.6383   1.7841    90.6520
  8      7.5989     1.6997E-01    2.6011E-01    4.000000E+07  0.00400  3.649E-03    0   0.7851   age104_m42            0.0000     5.0075E-01     3.5220   1.5552    91.5462
  9      1.9488     5.1344E-02    7.6351E-02    5.500000E+07  0.00400  3.098E-03    0   0.7629   age110_m42            0.0000     6.0537E-01     3.8943   1.7311    90.7619
 10      3.4044     1.2472E-01    1.7520E-01    1.015200E+08  0.00400  2.228E-03    0   0.7207   age116_m42            0.0000     7.1413E-01     4.2331   1.7644    90.4873
 11      0.0000     0.0000E+00    0.0000E+00    2.861200E+08  0.00400  1.093E-03    0   0.6648   age125_m42            0.0000     6.3199E-01     3.8548   1.1391    95.7520
 12      0.0000     0.0000E+00    0.0000E+00    5.088000E+08  0.00400  6.597E-04    0   0.6365   age130_m42            0.0000     7.8855E-01     4.3965   1.1597    95.3202
 13      8.1291     3.1121E+00    3.5172E+00    1.434000E+09  0.00400  2.132E-04    0   0.5798   age139_m42            0.0000     7.9651E-01     4.4871   0.2073    96.4168
 14      0.9098     1.2596E+00    1.3202E+00    4.250000E+09  0.00400  5.895E-05    0   0.5377   age158_m42            0.0000     1.1577E+00     5.5691  -0.1470    89.0915
 15      0.3557     8.2711E-01    8.4030E-01    7.500000E+09  0.00400  3.510E-05    0   0.5212   age171_m42            0.0000     1.3566E+00     6.0760  -0.3097    87.5371
 16      0.0000     0.0000E+00    0.0000E+00    1.300000E+10  0.00400  2.005E-05    0   0.5034   age193_m42            0.0000     1.5568E+00     6.5584  -0.4523    86.2258
 17      0.0000     0.0000E+00    0.0000E+00    1.800000E+10  0.00400  1.525E-05    0   0.4967   age213_m42            0.0000     1.5306E+00     6.4728  -0.4788    85.9541
 18      0.0000     0.0000E+00    0.0000E+00    1.000000E+06  0.00800  1.238E-02    0   1.0000   age020_m52            0.0000     1.3774E+00     6.5017   3.1663    76.0557
 19      0.0000     0.0000E+00    0.0000E+00    3.160000E+06  0.00800  3.074E-02    0   0.9966   age045_m52            0.0000     1.3571E+00     6.4247   3.0883    76.8064
 20      0.0000     0.0000E+00    0.0000E+00    5.010000E+06  0.00800  2.668E-02    0   0.9443   age055_m52            0.0000     1.1381E+00     5.7360   2.8092    79.9128
 21      0.4583     1.7511E-03    3.1324E-03    6.610000E+06  0.00800  2.136E-02    0   0.9177   age061_m52            0.0000     5.9312E-01     3.9650   1.4575    89.3306
 22      0.4096     2.7517E-03    4.7345E-03    1.000000E+07  0.00800  1.215E-02    0   0.8827   age070_m52            0.0000     5.9677E-01     3.8785   2.0961    89.7544
 23      0.0000     0.0000E+00    0.0000E+00    1.445000E+07  0.00800  8.717E-03    0   0.8552   age078_m52            0.0000     6.4145E-01     4.1125   2.2395    87.7061
 24      4.2019     6.1330E-02    9.7573E-02    2.512000E+07  0.00800  5.592E-03    0   0.8162   age090_m52            0.0000     5.0238E-01     3.5037   1.8367    92.2195
 25      3.7238     7.8011E-02    1.1923E-01    4.000000E+07  0.00800  3.896E-03    0   0.7841   age104_m52            0.0000     4.9978E-01     3.4905   1.7494    93.0446
 26      2.7289     1.0369E-01    1.4605E-01    1.015200E+08  0.00800  2.148E-03    0   0.7226   age116_m52            0.0000     5.9517E-01     3.8293   1.7119    92.0250
 27      0.0000     0.0000E+00    0.0000E+00    2.861200E+08  0.00800  9.925E-04    0   0.6683   age125_m52            0.0000     7.6530E-01     4.3103   1.2187    96.4484
 28      0.0000     0.0000E+00    0.0000E+00    9.047900E+08  0.00800  3.141E-04    0   0.6138   age135_m52            0.0000     1.0601E+00     5.2151   0.4530    99.1864
 29      0.0000     0.0000E+00    0.0000E+00    1.434000E+09  0.00800  1.719E-04    0   0.5853   age139_m52            0.0000     1.1021E+00     5.3249  -0.1039    96.0838
 30      0.0000     0.0000E+00    0.0000E+00    2.500000E+09  0.00800  7.872E-05    0   0.5600   age150_m52            0.0000     1.4842E+00     6.4017  -0.2933    90.2275
 31      0.0000     0.0000E+00    0.0000E+00    4.250000E+09  0.00800  4.336E-05    0   0.5426   age158_m52            0.0000     1.5125E+00     6.4502  -0.2994    88.9946
 32      0.0000     0.0000E+00    0.0000E+00    6.250000E+09  0.00800  3.159E-05    0   0.5319   age166_m52            0.0000     1.8655E+00     7.2334  -0.4698    87.7860
 33      4.7970     2.8768E+01    2.8447E+01    1.300000E+10  0.00800  1.361E-05    0   0.5073   age193_m52            0.0000     2.4020E+00     8.3321  -0.8948    85.5740
 34      1.0990     9.0737E+00    8.8257E+00    1.800000E+10  0.00800  9.886E-06    0   0.4990   age213_m52            0.0000     2.8533E+00     9.1604  -0.9644    83.7425
 35      0.0000     0.0000E+00    0.0000E+00    1.000000E+06  0.02000  1.544E-02    0   1.0000   age020_m62            0.0000     1.3846E+00     6.5236   3.1628    76.2168
 36      0.0000     0.0000E+00    0.0000E+00    3.160000E+06  0.02000  3.762E-02    0   0.9858   age045_m62            0.0000     1.3877E+00     6.5066   3.1018    76.9042
 37      0.0000     0.0000E+00    0.0000E+00    5.010000E+06  0.02000  3.296E-02    0   0.9342   age055_m62            0.0000     1.1108E+00     5.5949   2.6799    82.0065
 38     17.7250     1.2536E-01    2.1653E-01    8.710000E+06  0.02000  1.154E-02    0   0.8861   age067_m62            0.0000     1.3344E+00     5.2290   1.4411    96.2903
 39      0.0000     0.0000E+00    0.0000E+00    1.445000E+07  0.02000  7.663E-03    0   0.8472   age078_m62            0.0000     6.9155E-01     3.8654   1.6978    93.6087
 40      0.0000     0.0000E+00    0.0000E+00    2.512000E+07  0.02000  4.532E-03    0   0.8099   age090_m62            0.0000     7.3386E-01     3.8998   1.6726    94.1312
 41      0.0000     0.0000E+00    0.0000E+00    5.500000E+07  0.02000  2.733E-03    0   0.7595   age110_m62            0.0000     5.0554E-01     3.5193   1.7370    92.1350
 42      3.4009     2.0276E-01    2.7606E-01    1.609000E+08  0.02000  1.369E-03    0   0.6985   age120_m62            0.0000     6.5468E-01     3.9930   1.5845    94.5765
 43     13.3248     1.2067E+00    1.5792E+00    2.861200E+08  0.02000  9.013E-04    0   0.6714   age125_m62            0.0000     8.2705E-01     4.4486   1.3361    97.3373
 44      0.0000     0.0000E+00    0.0000E+00    5.088000E+08  0.02000  5.028E-04    0   0.6449   age130_m62            0.0000     1.1853E+00     5.4418   1.0016    98.1679
 45      0.0000     0.0000E+00    0.0000E+00    9.047900E+08  0.02000  2.428E-04    0   0.6179   age135_m62            0.0000     1.2661E+00     5.7902   0.4520    96.0212
 46      0.0000     0.0000E+00    0.0000E+00    1.434000E+09  0.02000  1.263E-04    0   0.5908   age139_m62            0.0000     1.3997E+00     6.1475   0.0389    93.2441
 47      0.0000     0.0000E+00    0.0000E+00    2.500000E+09  0.02000  5.985E-05    0   0.5673   age150_m62            0.0000     1.8592E+00     7.2510  -0.2680    89.5592
 48      0.0000     0.0000E+00    0.0000E+00    4.250000E+09  0.02000  3.271E-05    0   0.5468   age158_m62            0.0000     2.4770E+00     8.5196  -0.5178    86.6663
 49      0.0000     0.0000E+00    0.0000E+00    1.000000E+10  0.02000  1.360E-05    0   0.5167   age181_m62            0.0000     3.2602E+00     9.8773  -0.8115    84.2976
 50      4.6358     5.3113E+01    5.1899E+01    1.800000E+10  0.02000  7.124E-06    0   0.5013   age213_m62            0.0000     3.9222E+00    10.9188  -0.9713    81.8112
 51      0.0000     0.0000E+00    0.0000E+00    1.000000E+06  0.05000  2.592E-02    0   0.9998   age020_m72            0.0000     1.4033E+00     6.5909   3.1562    76.1403
 52      0.0000     0.0000E+00    0.0000E+00    3.160000E+06  0.05000  4.845E-02    0   0.9577   age045_m72            0.0000     1.3150E+00     6.2281   2.9735    78.4339
 53      0.0000     0.0000E+00    0.0000E+00    5.010000E+06  0.05000  3.072E-02    0   0.9147   age055_m72            0.0000     9.6968E-01     4.8021   2.3474    87.5920
 54      0.0000     0.0000E+00    0.0000E+00    6.610000E+06  0.05000  1.455E-02    0   0.8877   age061_m72            0.0000     4.0806E+00     7.6785   1.4228   100.1665
 55      0.0000     0.0000E+00    0.0000E+00    1.000000E+07  0.05000  9.074E-03    0   0.8524   age070_m72            0.0000     1.7919E+00     5.6551   2.5145    88.1869
 56      0.0000     0.0000E+00    0.0000E+00    2.512000E+07  0.05000  4.250E-03    0   0.7902   age090_m72            0.0000     1.0759E+00     4.5770   2.1870    90.9860
 57      0.0000     0.0000E+00    0.0000E+00    4.000000E+07  0.05000  3.087E-03    0   0.7618   age104_m72            0.0000     1.0558E+00     4.3900   1.9326    93.6640
 58      1.9055     9.1486E-02    1.2654E-01    1.015200E+08  0.05000  1.700E-03    0   0.7096   age116_m72            0.0000     6.1913E-01     3.7855   1.7023    95.1973
 59      5.7979     6.4087E-01    8.2860E-01    2.861200E+08  0.05000  7.384E-04    0   0.6633   age125_m72            0.0000     9.8914E-01     4.9016   1.2209    98.0186
 60      2.2718     4.8552E-01    6.0305E-01    5.088000E+08  0.05000  3.819E-04    0   0.6372   age130_m72            0.0000     1.2697E+00     5.8074   0.7837    97.2178
 61      0.8291     4.0374E-01    4.8085E-01    9.047900E+08  0.05000  1.676E-04    0   0.6110   age135_m72            0.0000     1.8659E+00     7.2848   0.1819    91.5471
 62      0.0000     0.0000E+00    0.0000E+00    1.434000E+09  0.05000  8.837E-05    0   0.5874   age139_m72            0.0000     2.0155E+00     7.5277  -0.2681    90.8750
 63      0.0000     0.0000E+00    0.0000E+00    2.500000E+09  0.05000  4.233E-05    0   0.5598   age150_m72            0.0000     2.7332E+00     8.9552  -0.5018    86.7681
 64      0.0000     0.0000E+00    0.0000E+00    6.250000E+09  0.05000  1.435E-05    0   0.5249   age166_m72            0.0000     3.5403E+00    10.3405  -0.8885    83.1974
 65      0.0000     0.0000E+00    0.0000E+00    1.300000E+10  0.05000  6.513E-06    0   0.5036   age193_m72            0.0000     4.4744E+00    11.7581  -1.0000    77.4830
 66      0.0000     0.0000E+00    0.0000E+00    1.800000E+10  0.05000  4.527E-06    0   0.4945   age213_m72            0.0000     5.2642E+00    12.7682  -1.0000    71.4576


## Synthesis Results - Average & Chains ##

# j      x_j: min, <> & last-chain-values for 1 ...  7 chains
  1      0.0000      0.5598      0.3577      0.8043      0.5617      0.3637      0.0000      0.0000      0.0000
  2      0.0000      0.9123      0.4462      0.0000      1.2334      0.0027      0.8434      0.9403      1.2239
  3      0.0000      0.2465      0.2084      0.7612      0.0000      0.0000      0.1380      0.2545      0.0000
  4      0.0000      0.2455      0.0607      0.0924      0.0000      0.0000      0.6840      0.0000      1.0226
  5      3.5524      3.6747      4.3051      3.2004      2.8043      4.6534      4.0361      4.3988      5.0887
  6      0.0000      0.4336      0.4519      0.0000      0.6342      0.0000      0.0000      0.3153      0.4705
  7      4.8362      2.8813      3.3203      2.7196      2.7681      2.7953      3.0466      3.2986      2.2501
  8      7.5989      3.8925      4.7307      5.4613      4.2573      3.8258      4.2276      4.9432      4.0819
  9      1.9488      2.0557      2.7229      3.8458      3.2246      1.3004      2.5269      1.4375      2.2598
 10      3.4044      3.4655      4.1749      1.9395      3.8288      3.4802      3.6913      4.0096      4.4203
 11      0.0000      0.8349      1.1291      1.5832      0.2321      0.0000      0.0000      0.0000      0.0000
 12      0.0000      0.6271      0.0692      1.0554      0.1385      1.7306      0.0000      0.1463      0.0000
 13      8.1291      8.6356      8.7918      9.0294      8.3998      8.4303     10.4266      9.0227      8.5085
 14      0.9098      0.9618      1.0874      0.8945      1.1554      1.1354      0.7022      1.0574      1.0074
 15      0.3557      0.5252      0.3636      0.6093      0.1906      1.0443      0.5943      0.6131      0.0000
 16      0.0000      0.0516      0.0000      0.0000      0.0000      0.0000      0.0000      0.0000      0.0000
 17      0.0000      0.0843      0.0000      0.0000      0.0000      0.0000      0.0000      0.0000      0.0000
 18      0.0000      0.1621      0.0000      0.0000      0.7041      0.6026      0.4701      0.0000      0.0000
 19      0.0000      0.2832      0.6719      0.5969      0.3173      0.4356      0.4749      0.0000      0.4261
 20      0.0000      0.2065      0.0000      0.0000      0.0000      0.0000      0.0000      0.0000      0.0000
 21      0.4583      1.0735      2.1844      0.5743      0.0000      0.6317      0.9151      0.0000      0.0628
 22      0.4096      0.2808      0.4572      0.1158      0.9551      0.0000      0.6111      0.0000      0.0000
 23      0.0000      0.5979      0.0000      1.6596      0.5552      1.3873      0.1711      0.3587      0.0000
 24      4.2019      2.5583      2.3615      2.7058      2.4331      2.7627      2.3260      3.5963      3.5639
 25      3.7238      2.7565      2.3427      1.8939      2.5055      2.4645      4.6447      2.3564      3.6337
 26      2.7289      1.8578      2.7014      1.5416      2.3303      1.4958      1.8895      1.0430      2.5720
 27      0.0000      0.7084      0.0000      0.3780      0.2575      1.5218      0.6059      0.8011      1.6087
 28      0.0000      0.5592      0.0000      0.4293      0.0000      0.0000      0.0000      0.0000      0.1448
 29      0.0000      0.0885      0.0000      0.0000      0.0444      0.0000      0.0000      0.0000      0.0000
 30      0.0000      0.2016      0.0000      0.0829      0.0359      0.0000      0.0000      0.0682      0.0000
 31      0.0000      0.4760      1.1436      0.5167      0.0000      0.7145      0.0000      0.8195      0.4783
 32      0.0000      0.0608      0.0714      0.0806      0.0000      0.0000      0.0000      0.1672      0.0000
 33      4.7970      3.1817      2.8778      3.2142      3.4998      3.4085      3.4102      3.4368      4.0217
 34      1.0990      0.8298      0.8650      0.9381      1.0150      0.8802      0.9295      0.6634      1.0868
 35      0.0000      0.1740      0.0000      0.0000      0.0000      0.0000      0.0000      0.0000      0.0000
 36      0.0000      0.1227      0.0000      0.1276      0.0000      0.1026      0.0000      0.0000      0.1466
 37      0.0000      0.2959      0.0000      0.0000      0.0000      0.3037      0.5298      0.8966      1.6750
 38     17.7250     16.0930     16.1921     16.7085     16.1425     16.8315     15.7489     16.7220     14.5216
 39      0.0000      0.4953      0.9536      0.0901      1.6680      0.3799      0.2763      0.6049      0.0000
 40      0.0000      0.2229      0.0000      0.1787      0.0000      0.0000      0.0000      0.0343      0.0905
 41      0.0000      2.6986      2.5459      2.8466      2.5220      2.2505      1.8489      2.7814      1.8980
 42      3.4009      3.1527      3.6239      3.5825      3.5531      3.4024      4.0552      3.1128      4.1479
 43     13.3248      7.5002      8.7554      8.4555      8.6682      9.2623      9.3487      8.0802      8.9450
 44      0.0000      1.7162      1.8411      1.2018      0.2790      0.5893      1.5118      2.4350      0.3811
 45      0.0000      0.3258      0.0000      0.0000      0.0000      0.0000      0.0000      0.0000      0.0000
 46      0.0000      0.6359      0.0986      0.1733      0.0000      0.0000      0.2214      0.0000      0.7289
 47      0.0000      0.1232      0.0000      0.0000      0.0874      0.0000      0.0000      0.0000      0.0000
 48      0.0000      0.4256      0.8216      0.4914      0.0000      0.0000      0.0000      0.0000      0.0000
 49      0.0000      0.0957      0.1078      0.4823      0.0455      0.1561      0.0861      0.3753      0.4007
 50      4.6358      4.6078      4.2707      4.8090      5.6125      4.7569      5.3367      4.5205      4.6525
 51      0.0000      0.1421      0.0000      0.0591      0.0000      0.9136      0.0203      0.1585      0.0000
 52      0.0000      0.1320      0.0000      0.0000      0.3323      0.0370      0.0291      0.0000      0.3989
 53      0.0000      0.2055      0.3489      0.0000      0.0000      0.0000      0.0423      0.0000      0.6124
 54      0.0000      0.1046      0.0000      0.0000      0.0000      0.0000      0.0000      0.0000      0.0000
 55      0.0000      0.0879      0.0000      0.0000      0.0000      0.0000      0.0000      0.0000      0.0000
 56      0.0000      0.1767      0.2252      0.0000      0.0956      0.0000      0.0000      0.0000      0.0257
 57      0.0000      0.1229      0.0000      0.0000      0.0000      0.0000      0.0000      0.0000      0.0000
 58      1.9055      3.5010      1.4207      3.9235      4.0812      3.4748      4.3485      5.1507      2.5103
 59      5.7979      4.6899      4.9595      6.1986      4.6157      5.9342      4.8617      6.2704      3.8225
 60      2.2718      2.3855      2.3059      0.1538      4.1714      2.5093      0.9699      1.2785      3.5157
 61      0.8291      0.8800      0.7281      0.9180      1.5179      1.4732      0.6243      0.9426      0.7832
 62      0.0000      0.0871      0.0000      0.4443      0.0000      0.0000      0.0000      0.0000      0.0000
 63      0.0000      0.0516      0.0000      0.0000      0.0000      0.0040      0.0000      0.1042      0.0000
 64      0.0000      0.0161      0.0000      0.0000      0.0000      0.0000      0.0000      0.0000      0.0000
 65      0.0000      0.5431      0.6642      0.2389      0.4133      0.5002      0.6681      0.7563      0.6708
 66      0.0000      0.0112      0.0000      0.0000      0.0000      0.0000      0.0000      0.0000      0.0000

# j      m_j: min, <> & last-chain-values for 1 ...  7 chains
  1  0.0000E+00  8.1160E-03  5.3877E-03  1.1574E-02  7.5185E-03  5.1646E-03  0.0000E+00  0.0000E+00  0.0000E+00
  2  0.0000E+00  3.6108E-03  1.8350E-03  0.0000E+00  4.5072E-03  1.0327E-05  3.1043E-03  3.6519E-03  4.5424E-03
  3  0.0000E+00  1.4608E-03  1.2834E-03  4.4780E-03  0.0000E+00  0.0000E+00  7.6072E-04  1.4798E-03  0.0000E+00
  4  0.0000E+00  1.3703E-03  3.5180E-04  5.1167E-04  0.0000E+00  0.0000E+00  3.5504E-03  0.0000E+00  5.3521E-03
  5  3.7886E-02  3.9072E-02  4.7559E-02  3.3776E-02  2.7528E-02  4.8460E-02  3.9910E-02  4.5891E-02  5.0736E-02
  6  0.0000E+00  7.4783E-03  8.0967E-03  0.0000E+00  1.0098E-02  0.0000E+00  0.0000E+00  5.3361E-03  7.6089E-03
  7  1.1977E-01  7.1140E-02  8.5177E-02  6.6650E-02  6.3102E-02  6.7597E-02  6.9956E-02  7.9913E-02  5.2096E-02
  8  2.6011E-01  1.3284E-01  1.6774E-01  1.8499E-01  1.3414E-01  1.2788E-01  1.3417E-01  1.6552E-01  1.3062E-01
  9  7.6351E-02  8.0294E-02  1.1050E-01  1.4910E-01  1.1628E-01  4.9749E-02  9.1790E-02  5.5092E-02  8.2768E-02
 10  1.7520E-01  1.7780E-01  2.2256E-01  9.8772E-02  1.8137E-01  1.7489E-01  1.7613E-01  2.0185E-01  2.1267E-01
 11  0.0000E+00  8.0550E-02  1.1317E-01  1.5160E-01  2.0676E-02  0.0000E+00  0.0000E+00  0.0000E+00  0.0000E+00
 12  0.0000E+00  9.5960E-02  1.0997E-02  1.6032E-01  1.9574E-02  2.5940E-01  0.0000E+00  2.1972E-02  0.0000E+00
 13  3.5172E+00  3.7249E+00  3.9402E+00  3.8659E+00  3.3452E+00  3.5616E+00  4.1827E+00  3.8188E+00  3.4415E+00
 14  1.3202E+00  1.3915E+00  1.6345E+00  1.2845E+00  1.5433E+00  1.6089E+00  9.4475E-01  1.5010E+00  1.3667E+00
 15  8.4030E-01  1.2369E+00  8.8977E-01  1.4244E+00  4.1450E-01  2.4090E+00  1.3018E+00  1.4169E+00  0.0000E+00
 16  0.0000E+00  2.0562E-01  0.0000E+00  0.0000E+00  0.0000E+00  0.0000E+00  0.0000E+00  0.0000E+00  0.0000E+00
 17  0.0000E+00  4.3544E-01  0.0000E+00  0.0000E+00  0.0000E+00  0.0000E+00  0.0000E+00  0.0000E+00  0.0000E+00
 18  0.0000E+00  2.0772E-03  0.0000E+00  0.0000E+00  8.3285E-03  7.5619E-03  5.6017E-03  0.0000E+00  0.0000E+00
 19  0.0000E+00  1.4564E-03  3.5898E-03  3.0468E-03  1.5064E-03  2.1938E-03  2.2709E-03  0.0000E+00  2.0548E-03
 20  0.0000E+00  1.1595E-03  0.0000E+00  0.0000E+00  0.0000E+00  0.0000E+00  0.0000E+00  0.0000E+00  0.0000E+00
 21  3.1324E-03  7.3157E-03  1.5466E-02  3.8845E-03  0.0000E+00  4.2163E-03  5.7996E-03  0.0000E+00  4.0157E-04
 22  4.7345E-03  3.2359E-03  5.4739E-03  1.3245E-03  1.0162E-02  0.0000E+00  6.5487E-03  0.0000E+00  0.0000E+00
 23  0.0000E+00  9.3042E-03  0.0000E+00  2.5633E-02  7.9765E-03  2.1144E-02  2.4763E-03  5.4764E-03  0.0000E+00
 24  9.7573E-02  5.9227E-02  5.6804E-02  6.2178E-02  5.2006E-02  6.2643E-02  5.0080E-02  8.1692E-02  7.7369E-02
 25  1.1923E-01  8.7992E-02  7.7698E-02  6.0009E-02  7.3843E-02  7.7052E-02  1.3789E-01  7.3805E-02  1.0877E-01
 26  1.4605E-01  9.9127E-02  1.4976E-01  8.1645E-02  1.1480E-01  7.8171E-02  9.3764E-02  5.4606E-02  1.2869E-01
 27  0.0000E+00  7.5661E-02  0.0000E+00  4.0075E-02  2.5394E-02  1.5919E-01  6.0186E-02  8.3951E-02  1.6111E-01
 28  0.0000E+00  1.7332E-01  0.0000E+00  1.3209E-01  0.0000E+00  0.0000E+00  0.0000E+00  0.0000E+00  4.2086E-02
 29  0.0000E+00  4.7806E-02  0.0000E+00  0.0000E+00  2.2135E-02  0.0000E+00  0.0000E+00  0.0000E+00  0.0000E+00
 30  0.0000E+00  2.2745E-01  0.0000E+00  9.2875E-02  3.7370E-02  0.0000E+00  0.0000E+00  7.5499E-02  0.0000E+00
 31  0.0000E+00  9.4472E-01  2.3583E+00  1.0180E+00  0.0000E+00  1.3891E+00  0.0000E+00  1.5960E+00  8.9014E-01
 32  0.0000E+00  1.6232E-01  1.9807E-01  2.1355E-01  0.0000E+00  0.0000E+00  0.0000E+00  4.3804E-01  0.0000E+00
 33  2.8447E+01  1.8811E+01  1.7677E+01  1.8862E+01  1.9103E+01  1.9737E+01  1.8750E+01  1.9937E+01  2.2296E+01
 34  8.8257E+00  6.6438E+00  7.1953E+00  7.4545E+00  7.5022E+00  6.9021E+00  6.9210E+00  5.2114E+00  8.1589E+00
 35  0.0000E+00  1.7870E-03  0.0000E+00  0.0000E+00  0.0000E+00  0.0000E+00  0.0000E+00  0.0000E+00  0.0000E+00
 36  0.0000E+00  5.0984E-04  0.0000E+00  5.2641E-04  0.0000E+00  4.1751E-04  0.0000E+00  0.0000E+00  5.7153E-04
 37  0.0000E+00  1.3301E-03  0.0000E+00  0.0000E+00  0.0000E+00  1.3372E-03  2.2152E-03  3.9551E-03  7.0611E-03
 38  2.1653E-01  1.9600E-01  2.0490E-01  2.0198E-01  1.8151E-01  2.0078E-01  1.7838E-01  1.9983E-01  1.6584E-01
 39  0.0000E+00  8.6862E-03  1.7374E-02  1.5680E-03  2.7005E-02  6.5247E-03  4.5056E-03  1.0408E-02  0.0000E+00
 40  0.0000E+00  6.3182E-03  0.0000E+00  5.0280E-03  0.0000E+00  0.0000E+00  0.0000E+00  9.5448E-04  2.4060E-03
 41  0.0000E+00  1.1895E-01  1.1659E-01  1.2454E-01  1.0263E-01  9.7157E-02  7.5793E-02  1.2030E-01  7.8451E-02
 42  2.7606E-01  2.5514E-01  3.0471E-01  2.8778E-01  2.6548E-01  2.6969E-01  3.0521E-01  2.4718E-01  3.1478E-01
 43  1.5792E+00  8.8618E-01  1.0748E+00  9.9165E-01  9.4558E-01  1.0719E+00  1.0273E+00  9.3676E-01  9.9106E-01
 44  0.0000E+00  3.4914E-01  3.8915E-01  2.4269E-01  5.2407E-02  1.1742E-01  2.8603E-01  4.8606E-01  7.2703E-02
 45  0.0000E+00  1.3152E-01  0.0000E+00  0.0000E+00  0.0000E+00  0.0000E+00  0.0000E+00  0.0000E+00  0.0000E+00
 46  0.0000E+00  4.7182E-01  7.5985E-02  1.2764E-01  0.0000E+00  0.0000E+00  1.5275E-01  0.0000E+00  5.0716E-01
 47  0.0000E+00  1.8516E-01  0.0000E+00  0.0000E+00  1.2128E-01  0.0000E+00  0.0000E+00  0.0000E+00  0.0000E+00
 48  0.0000E+00  1.1285E+00  2.2634E+00  1.2934E+00  0.0000E+00  0.0000E+00  0.0000E+00  0.0000E+00  0.0000E+00
 49  0.0000E+00  5.7682E-01  6.7470E-01  2.8846E+00  2.5311E-01  9.2105E-01  4.8265E-01  2.2192E+00  2.2643E+00
 50  5.1899E+01  5.1429E+01  4.9525E+01  5.3277E+01  5.7835E+01  5.2000E+01  5.5394E+01  4.9506E+01  4.8693E+01
 51  0.0000E+00  8.6934E-04  0.0000E+00  3.5913E-04  0.0000E+00  5.4747E-03  1.1575E-04  9.5151E-04  0.0000E+00
 52  0.0000E+00  4.1395E-04  0.0000E+00  0.0000E+00  9.6198E-04  1.1376E-04  8.4916E-05  0.0000E+00  1.1727E-03
 53  0.0000E+00  9.7038E-04  1.7120E-03  0.0000E+00  0.0000E+00  0.0000E+00  1.8575E-04  0.0000E+00  2.7121E-03
 54  0.0000E+00  1.0123E-03  0.0000E+00  0.0000E+00  0.0000E+00  0.0000E+00  0.0000E+00  0.0000E+00  0.0000E+00
 55  0.0000E+00  1.3101E-03  0.0000E+00  0.0000E+00  0.0000E+00  0.0000E+00  0.0000E+00  0.0000E+00  0.0000E+00
 56  0.0000E+00  5.2112E-03  6.8993E-03  0.0000E+00  2.6032E-03  0.0000E+00  0.0000E+00  0.0000E+00  7.1069E-04
 57  0.0000E+00  4.8113E-03  0.0000E+00  0.0000E+00  0.0000E+00  0.0000E+00  0.0000E+00  0.0000E+00  0.0000E+00
 58  1.2654E-01  2.3179E-01  9.7728E-02  2.5783E-01  2.4947E-01  2.2532E-01  2.6775E-01  3.3460E-01  1.5585E-01
 59  8.2860E-01  6.6822E-01  7.3420E-01  8.7663E-01  6.0718E-01  8.2812E-01  6.4420E-01  8.7662E-01  5.1071E-01
 60  6.0305E-01  6.3130E-01  6.3405E-01  4.0398E-02  1.0192E+00  6.5041E-01  2.3872E-01  3.3199E-01  8.7247E-01
 61  4.8085E-01  5.0885E-01  4.3742E-01  5.2687E-01  8.1035E-01  8.3434E-01  3.3574E-01  5.3480E-01  4.2467E-01
 62  0.0000E+00  9.1785E-02  0.0000E+00  4.6496E-01  0.0000E+00  0.0000E+00  0.0000E+00  0.0000E+00  0.0000E+00
 63  0.0000E+00  1.0828E-01  0.0000E+00  0.0000E+00  0.0000E+00  8.2964E-03  0.0000E+00  2.1446E-01  0.0000E+00
 64  0.0000E+00  9.3411E-02  0.0000E+00  0.0000E+00  0.0000E+00  0.0000E+00  0.0000E+00  0.0000E+00  0.0000E+00
 65  0.0000E+00  6.6607E+00  8.4640E+00  2.9079E+00  4.6794E+00  6.0086E+00  7.6198E+00  9.1012E+00  7.7143E+00
 66  0.0000E+00  1.9393E-01  0.0000E+00  0.0000E+00  0.0000E+00  0.0000E+00  0.0000E+00  0.0000E+00  0.0000E+00

# AV, chi2 & Mass for <> & i_chain = 1 ...  7 solutions
AV       0.7399      0.7333      0.7504      0.7290      0.7307      0.7306      0.7308      0.7312      0.7284
chi2 3.9269E-01  4.0068E-01  3.9860E-01  3.9840E-01  3.9782E-01  3.9803E-01  3.9719E-01  3.9791E-01  3.9815E-01
Mass 6.0315E-12  5.9966E-12  5.9061E-12  6.0072E-12  6.4725E-12  6.1006E-12  6.4264E-12  6.0948E-12  6.3533E-12
   2.53                                  [v0_min (km/s) before EX0s...]
 212.57                                  [vd_min (km/s) before EX0s...]


## Synthetic spectrum (Best Model) ##l_obs f_obs f_syn wei
 3478    [Nl_obs]
 3741.00    0.54836   0.66189    0.000
 3742.00    0.61943   0.66616    0.000
 3743.00    0.65327   0.65948    0.000
 3744.00    0.62671   0.64313    0.000
 3745.00    0.54937   0.61934   18.203
 3746.00    0.48057   0.59124   20.809
 3747.00    0.46574   0.56274   21.471
 3748.00    0.46609   0.53857   21.455
 3749.00    0.43842   0.52394   22.809
 3750.00    0.42473   0.52277   23.544
 3751.00    0.47320   0.53588   21.133
 3752.00    0.55209   0.56061   18.113
 3753.00    0.60795   0.59214   16.449
 3754.00    0.62892   0.62497   15.900
 3755.00    0.62882   0.65435   15.903
 3756.00    0.62606   0.67745   15.973
 3757.00    0.63253   0.69385   15.810
 3758.00    0.64632   0.70490   15.472
 3759.00    0.65852   0.71210   15.186
 3760.00    0.66010   0.71606   15.149
 3761.00    0.64847   0.71637   15.421
 3762.00    0.63096   0.71216   15.849
 3763.00    0.61581   0.70248   16.239
 3764.00    0.60532   0.68685   16.520
 3765.00    0.59460   0.66536   16.818
 3766.00    0.57408   0.63920   17.419
 3767.00    0.54939   0.61102   18.202
 3768.00    0.54764   0.58454   18.260
 3769.00    0.57826   0.56395   17.293
 3770.00    0.61481   0.55347   16.265
 3771.00    0.62848   0.55600   15.911
 3772.00    0.60965   0.57151   16.403
 3773.00    0.57689   0.59729   17.334
 3774.00    0.57113   0.62949   17.509
 3775.00    0.60565   0.66440   16.511
 3776.00    0.65311   0.69900   15.311
 3777.00    0.70237   0.73120   14.237
 3778.00    0.77133   0.75979   12.965
 3779.00    0.84408   0.78414   11.847
 3780.00    0.86559   0.80366   11.553
 3781.00    0.83489   0.81784   11.978
 3782.00    0.81835   0.82648   12.220
 3783.00    0.84975   0.82956   11.768
 3784.00    0.90258   0.82716   11.079
 3785.00    0.93452   0.81970   10.701
 3786.00    0.91428   0.80823   10.938
 3787.00    0.85283   0.79388   11.726
 3788.00    0.79430   0.77730   12.590
 3789.00    0.75401   0.75848   13.262
 3790.00    0.71336   0.73682   14.018
 3791.00    0.66526   0.71135   15.032
 3792.00    0.62291   0.68131   16.054
 3793.00    0.60449   0.64699   16.543
 3794.00    0.61865   0.61033   16.164
 3795.00    0.63946   0.57481   15.638
 3796.00    0.62403   0.54495   16.025
 3797.00    0.57133   0.52569   17.503
 3798.00    0.51926   0.52118   19.258
 3799.00    0.50284   0.53285   19.887
 3800.00    0.53851   0.55848   18.570
 3801.00    0.61303   0.59337   16.312
 3802.00    0.69265   0.63229   14.437
 3803.00    0.74700   0.67067   13.387
 3804.00    0.75987   0.70537   13.160
 3805.00    0.73972   0.73520   13.519
 3806.00    0.71286   0.76068   14.028
 3807.00    0.70711   0.78291   14.142
 3808.00    0.73827   0.80233   13.545
 3809.00    0.79303   0.81840   12.610
 3810.00    0.83877   0.83021   11.922
 3811.00    0.84510   0.83703   11.833
 3812.00    0.81020   0.83882   12.343
 3813.00    0.79140   0.83647   12.636
 3814.00    0.83861   0.83127   11.925
 3815.00    0.89873   0.82430   11.127
 3816.00    0.89548   0.81622   11.167
 3817.00    0.84983   0.80727   11.767
 3818.00    0.82102   0.79766   12.180
 3819.00    0.81445   0.78862   12.278
 3820.00    0.80870   0.78197   12.365
 3821.00    0.80011   0.77793   12.498
 3822.00    0.79349   0.77456   12.603
 3823.00    0.78629   0.76938   12.718
 3824.00    0.77177   0.76088   12.957
 3825.00    0.74503   0.74864   13.422
 3826.00    0.71358   0.73263   14.014
 3827.00    0.70392   0.71272   14.206
 3828.00    0.72677   0.68874   13.759
 3829.00    0.74845   0.66056   13.361
 3830.00    0.73261   0.62838   13.650
 3831.00    0.67757   0.59317   14.759
 3832.00    0.60161   0.55746   16.622
 3833.00    0.52794   0.52518   18.941
 3834.00    0.48125   0.50079   20.779
 3835.00    0.48320   0.48831   20.695
 3836.00    0.53264   0.48996   18.775
 3837.00    0.59549   0.50520   16.793
 3838.00    0.63589   0.53164   15.726
 3839.00    0.63997   0.56600   15.626
 3840.00    0.62633   0.60476   15.966
 3841.00    0.64166   0.64473   15.585
 3842.00    0.69757   0.68322   14.335
 3843.00    0.74421   0.71805   13.437
 3844.00    0.74223   0.74803   13.473
 3845.00    0.70100   0.77289   14.265
 3846.00    0.65363   0.79300   15.299
 3847.00    0.63642   0.80899    0.000
 3848.00    0.65999   0.82148    0.000
 3849.00    0.70194   0.83130    0.000
 3850.00    0.74078   0.83944    0.000
 3851.00    0.77264   0.84639    0.000
 3852.00    0.81098   0.85174    0.000
 3853.00    0.87427   0.85507    0.000
 3854.00    0.93762   0.85651    0.000
 3855.00    0.93797   0.85657    0.000
 3856.00    0.87294   0.85616    0.000
 3857.00    0.81227   0.85609    0.000
 3858.00    0.79463   0.85655    0.000
 3859.00    0.80272   0.85780    0.000
 3860.00    0.81396   0.86033    0.000
 3861.00    0.81923   0.86390    0.000
 3862.00    0.82350   0.86749    0.000
 3863.00    0.84016   0.87020    0.000
 3864.00    0.87403   0.87148    0.000
 3865.00    0.91612   0.87112    0.000
 3866.00    0.94413   0.86921    0.000
 3867.00    0.93586   0.86604    0.000
 3868.00    0.90333   0.86185    0.000
 3869.00    0.88497   0.85657    0.000
 3870.00    0.90283   0.85016    0.000
 3871.00    0.95041   0.84325    0.000
 3872.00    0.99163   0.83686    0.000
 3873.00    0.98413   0.83136    0.000
 3874.00    0.93041   0.82580    0.000
 3875.00    0.86941   0.81865    0.000
 3876.00    0.83457   0.80892    0.000
 3877.00    0.83549   0.79641    0.000
 3878.00    0.84135   0.78165    0.000
 3879.00    0.81158   0.76512    0.000
 3880.00    0.75671   0.74631    0.000
 3881.00    0.71514   0.72423   13.983
 3882.00    0.69432   0.69850   14.403
 3883.00    0.68113   0.66914   14.681
 3884.00    0.67544   0.63622   14.805
 3885.00    0.68261   0.60102   14.650
 3886.00    0.69429   0.56695   14.403
 3887.00    0.69831   0.53861   14.320
 3888.00    0.69662   0.52047   14.355
 3889.00    0.69558   0.51619   14.377
 3890.00    0.69016   0.52696   14.489
 3891.00    0.67480   0.55036   14.819
 3892.00    0.65927   0.58193   15.168
 3893.00    0.65686   0.61713   15.224
 3894.00    0.66834   0.65236   14.962
 3895.00    0.68923   0.68535   14.509
 3896.00    0.71920   0.71505   13.904
 3897.00    0.75206   0.74091   13.297
 3898.00    0.76642   0.76284   13.048
 3899.00    0.75317   0.78160   13.277
 3900.00    0.74057   0.79812   13.503
 3901.00    0.75684   0.81270   13.213
 3902.00    0.79456   0.82518   12.586
 3903.00    0.83163   0.83591   12.025
 3904.00    0.85391   0.84559   11.711
 3905.00    0.86384   0.85487   11.576
 3906.00    0.88239   0.86466   11.333
 3907.00    0.91617   0.87535   10.915
 3908.00    0.93718   0.88610   10.670
 3909.00    0.92975   0.89574   10.756
 3910.00    0.92013   0.90341   10.868
 3911.00    0.92855   0.90872   10.770
 3912.00    0.93936   0.91153   10.646
 3913.00    0.93766   0.91207   10.665
 3914.00    0.93130   0.91090   10.738
 3915.00    0.92852   0.90830   10.770
 3916.00    0.92467   0.90429   10.815
 3917.00    0.91117   0.89916   10.975
 3918.00    0.88334   0.89337   11.321
 3919.00    0.85159   0.88760   11.743
 3920.00    0.84108   0.88276   11.889
 3921.00    0.85930   0.87928   11.637
 3922.00    0.88497   0.87658   11.300
 3923.00    0.89672   0.87341   11.152
 3924.00    0.88719   0.86865   11.272
 3925.00    0.86150   0.86144   11.608
 3926.00    0.83323   0.85153   12.001
 3927.00    0.81201   0.83933   12.315
 3928.00    0.79815   0.82508   12.529
 3929.00    0.78304   0.80904   12.771
 3930.00    0.75402   0.79201   13.262
 3931.00    0.71099   0.77535   14.065
 3932.00    0.66814   0.76112   14.967
 3933.00    0.63769   0.75233   15.682
 3934.00    0.62678   0.75203   15.955
 3935.00    0.64680   0.76066   15.461
 3936.00    0.70866   0.77584   14.111
 3937.00    0.79926   0.79432   12.512
 3938.00    0.88277   0.81321   11.328
 3939.00    0.92640   0.83028   10.794
 3940.00    0.91686   0.84404   10.907
 3941.00    0.88247   0.85397   11.332
 3942.00    0.87278   0.86061   11.458
 3943.00    0.89211   0.86505   11.209
 3944.00    0.90696   0.86866   11.026
 3945.00    0.90505   0.87244   11.049
 3946.00    0.89406   0.87609   11.185
 3947.00    0.86652   0.87882   11.540
 3948.00    0.81208   0.88056   12.314
 3949.00    0.75979   0.88149   13.162
 3950.00    0.75474   0.88124   13.250
 3951.00    0.79477   0.87925   12.582
 3952.00    0.84528   0.87544   11.830
 3953.00    0.89046   0.87021   11.230
 3954.00    0.92612   0.86339   10.798
 3955.00    0.93079   0.85425   10.744
 3956.00    0.88639   0.84255   11.282
 3957.00    0.81933   0.82844   12.205
 3958.00    0.77309   0.81150   12.935
 3959.00    0.75572   0.79068   13.232
 3960.00    0.75384   0.76511    0.000
 3961.00    0.76431   0.73495    0.000
 3962.00    0.78129   0.70109    0.000
 3963.00    0.77434   0.66398    0.000
 3964.00    0.72265   0.62393    0.000
 3965.00    0.66004   0.58228    0.000
 3966.00    0.62703   0.54119    0.000
 3967.00    0.60890   0.50365    0.000
 3968.00    0.58377   0.47373    0.000
 3969.00    0.58229   0.45584    0.000
 3970.00    0.63520   0.45328    0.000
 3971.00    0.71273   0.46679    0.000
 3972.00    0.76561   0.49403    0.000
 3973.00    0.77390   0.53110    0.000
 3974.00    0.75063   0.57387    0.000
 3975.00    0.73607   0.61844    0.000
 3976.00    0.74944   0.66152    0.000
 3977.00    0.75271   0.70113    0.000
 3978.00    0.71738   0.73620    0.000
 3979.00    0.67836   0.76621    0.000
 3980.00    0.68300   0.79114    0.000
 3981.00    0.74637   0.81145   13.398
 3982.00    0.85073   0.82831   11.755
 3983.00    0.95214   0.84310   10.503
 3984.00    1.01425   0.85670    9.860
 3985.00    1.03053   0.86932    9.704
 3986.00    1.01130   0.88088    9.888
 3987.00    0.97355   0.89143   10.272
 3988.00    0.93767   0.90076   10.665
 3989.00    0.92367   0.90844   10.826
 3990.00    0.93943   0.91465   10.645
 3991.00    0.97500   0.91975   10.256
 3992.00    1.01000   0.92358    9.901
 3993.00    1.02308   0.92592    9.774
 3994.00    1.01780   0.92692    9.825
 3995.00    1.02515   0.92736    9.755
 3996.00    1.04983   0.92799    9.525
 3997.00    1.05575   0.92937    9.472
 3998.00    1.02306   0.93192    9.775
 3999.00    0.96924   0.93537   10.317
 4000.00    0.92210   0.93841   10.845
 4001.00    0.90352   0.93992   11.068
 4002.00    0.91441   0.93964   10.936
 4003.00    0.93602   0.93748   10.684
 4004.00    0.95741   0.93362   10.445
 4005.00    0.98227   0.92944   10.180
 4006.00    1.01445   0.92695    9.858
 4007.00    1.04915   0.92676    9.532
 4008.00    1.06234   0.92825    9.413
 4009.00    1.02692   0.93125    9.738
 4010.00    0.97272   0.93588   10.280
 4011.00    0.96910   0.94145   10.319
 4012.00    1.01886   0.94704    9.815
 4013.00    1.06250   0.95230    9.412
 4014.00    1.07848   0.95701    9.272
 4015.00    1.08804   0.96090    9.191
 4016.00    1.09317   0.96359    9.148
 4017.00    1.07873   0.96498    9.270
 4018.00    1.05766   0.96529    9.455
 4019.00    1.05535   0.96415    9.476
 4020.00    1.04953   0.96069    9.528
 4021.00    1.00007   0.95480    9.999
 4022.00    0.94111   0.94714   10.626
 4023.00    0.94185   0.93845   10.617
 4024.00    0.98855   0.92977   10.116
 4025.00    1.01978   0.92285    9.806
 4026.00    1.03812   0.91932    9.633
 4027.00    1.08091   0.91930    9.251
 4028.00    1.13058   0.92102    8.845
 4029.00    1.13923   0.92248    8.778
 4030.00    1.09695   0.92321    9.116
 4031.00    1.03146   0.92425    9.695
 4032.00    0.98738   0.92661   10.128
 4033.00    0.99734   0.93073   10.027
 4034.00    1.04533   0.93696    9.566
 4035.00    1.08739   0.94507    9.196
 4036.00    1.08932   0.95403    9.180
 4037.00    1.04362   0.96208    9.582
 4038.00    0.98307   0.96747   10.172
 4039.00    0.95135   0.96928   10.511
 4040.00    0.96426   0.96753   10.371
 4041.00    1.00617   0.96298    9.939
 4042.00    1.03433   0.95647    9.668
 4043.00    1.01736   0.94849    9.829
 4044.00    0.97451   0.94027   10.262
 4045.00    0.94397   0.93432   10.594
 4046.00    0.94509   0.93298   10.581
 4047.00    0.97303   0.93630   10.277
 4048.00    1.00000   0.94195   10.000
 4049.00    1.00525   0.94781    9.948
 4050.00    0.99949   0.95267   10.005
 4051.00    0.99493   0.95539   10.051
 4052.00    0.98041   0.95546   10.200
 4053.00    0.94800   0.95342   10.549
 4054.00    0.91394   0.95018   10.942
 4055.00    0.89811   0.94673   11.134
 4056.00    0.90667   0.94357   11.029
 4057.00    0.92959   0.94064   10.757
 4058.00    0.94387   0.93817   10.595
 4059.00    0.94244   0.93618   10.611
 4060.00    0.94801   0.93383   10.548
 4061.00    0.97535   0.93028   10.253
 4062.00    1.01028   0.92561    9.898
 4063.00    1.03465   0.92132    9.665
 4064.00    1.04118   0.91936    9.604
 4065.00    1.02738   0.91978    9.733
 4066.00    0.99383   0.92092   10.062
 4067.00    0.95584   0.92206   10.462
 4068.00    0.94356   0.92318   10.598
 4069.00    0.97114   0.92325   10.297
 4070.00    1.02386   0.92113    9.767
 4071.00    1.07166   0.91738    9.331
 4072.00    1.08203   0.91376    9.242
 4073.00    1.04572   0.91080    9.563
 4074.00    0.98384   0.90730   10.164
 4075.00    0.92989   0.90292   10.754
 4076.00    0.91247   0.89892   10.959
 4077.00    0.92031   0.89691   10.866
 4078.00    0.90909   0.89779   11.000
 4079.00    0.87481   0.90107   11.431
 4080.00    0.86147   0.90510   11.608
 4081.00    0.89469   0.90810   11.177
 4082.00    0.96369   0.90896   10.377
 4083.00    1.03986   0.90774    9.617
 4084.00    1.08994   0.90523    9.175
 4085.00    1.09577   0.90212    9.126
 4086.00    1.05989   0.89869    9.435
 4087.00    1.00361   0.89461    9.964
 4088.00    0.95802   0.88889   10.438
 4089.00    0.94235   0.88061   10.612
 4090.00    0.95533   0.86923   10.468
 4091.00    0.96925   0.85434   10.317
 4092.00    0.94817   0.83562    0.000
 4093.00    0.89251   0.81312    0.000
 4094.00    0.83338   0.78644    0.000
 4095.00    0.79663   0.75532    0.000
 4096.00    0.79042   0.72103    0.000
 4097.00    0.79749   0.68553    0.000
 4098.00    0.78927   0.65059    0.000
 4099.00    0.75648   0.61834    0.000
 4100.00    0.71616   0.59172    0.000
 4101.00    0.71192   0.57485    0.000
 4102.00    0.77544   0.57178    0.000
 4103.00    0.86341   0.58296    0.000
 4104.00    0.90405   0.60513    0.000
 4105.00    0.88806   0.63436    0.000
 4106.00    0.85112   0.66696    0.000
 4107.00    0.82499   0.69945    0.000
 4108.00    0.82989   0.72963    0.000
 4109.00    0.87391   0.75652    0.000
 4110.00    0.94231   0.78010    0.000
 4111.00    0.98632   0.80093    0.000
 4112.00    0.96883   0.81956    0.000
 4113.00    0.92041   0.83608   10.865
 4114.00    0.89182   0.85007   11.213
 4115.00    0.89083   0.86120   11.225
 4116.00    0.90153   0.86951   11.092
 4117.00    0.91420   0.87505   10.939
 4118.00    0.92675   0.87835   10.790
 4119.00    0.94168   0.88089   10.619
 4120.00    0.95235   0.88405   10.500
 4121.00    0.93362   0.88817   10.711
 4122.00    0.88233   0.89312   11.334
 4123.00    0.84912   0.89833   11.777
 4124.00    0.87065   0.90294   11.486
 4125.00    0.91487   0.90584   10.931
 4126.00    0.94817   0.90610   10.547
 4127.00    0.98744   0.90391   10.127
 4128.00    1.03654   0.90053    9.647
 4129.00    1.04421   0.89730    9.577
 4130.00    0.98651   0.89459   10.137
 4131.00    0.91839   0.89308   10.889
 4132.00    0.89020   0.89395   11.233
 4133.00    0.89451   0.89783   11.179
 4134.00    0.91645   0.90415   10.912
 4135.00    0.96320   0.91169   10.382
 4136.00    1.02921   0.91855    9.716
 4137.00    1.07994   0.92303    9.260
 4138.00    1.08877   0.92468    9.185
 4139.00    1.05779   0.92310    9.454
 4140.00    1.01047   0.91811    9.896
 4141.00    0.98111   0.91029   10.193
 4142.00    0.98498   0.90098   10.152
 4143.00    1.00842   0.89311    9.916
 4144.00    1.03459   0.89030    9.666
 4145.00    1.05375   0.89294    9.490
 4146.00    1.05255   0.89830    9.501
 4147.00    1.01678   0.90416    9.835
 4148.00    0.96354   0.90938   10.378
 4149.00    0.93816   0.91316   10.659
 4150.00    0.94899   0.91561   10.537
 4151.00    0.96026   0.91698   10.414
 4152.00    0.96236   0.91720   10.391
 4153.00    0.97844   0.91685   10.220
 4154.00    0.99514   0.91696   10.049
 4155.00    0.96732   0.91819   10.338
 4156.00    0.91257   0.92059   10.958
 4157.00    0.90187   0.92408   11.088
 4158.00    0.93645   0.92840   10.679
 4159.00    0.95087   0.93264   10.517
 4160.00    0.93167   0.93604   10.733
 4161.00    0.92303   0.93839   10.834
 4162.00    0.94753   0.93981   10.554
 4163.00    0.99156   0.93999   10.085
 4164.00    1.02541   0.93876    9.752
 4165.00    1.02273   0.93648    9.778
 4166.00    0.99280   0.93317   10.073
 4167.00    0.96898   0.92893   10.320
 4168.00    0.96581   0.92440   10.354
 4169.00    0.97323   0.91982   10.275
 4170.00    0.96607   0.91468   10.351
 4171.00    0.92654   0.90874   10.793
 4172.00    0.88292   0.90295   11.326
 4173.00    0.88443   0.89914   11.307
 4174.00    0.94104   0.89800   10.627
 4175.00    1.01809   0.89869    9.822
 4176.00    1.04958   0.90016    9.528
 4177.00    0.99381   0.90204   10.062
 4178.00    0.91600   0.90467   10.917
 4179.00    0.91012   0.90829   10.988
 4180.00    0.96138   0.91200   10.402
 4181.00    0.99731   0.91472   10.026
 4182.00    0.99218   0.91665   10.079
 4183.00    0.96417   0.91841   10.373
 4184.00    0.94927   0.91986   10.535
 4185.00    0.97060   0.92057   10.299
 4186.00    1.00617   0.92022    9.938
 4187.00    1.02397   0.91960    9.776
 4188.00    1.02733   0.92031    9.735
 4189.00    1.03019   0.92228    9.680
 4190.00    1.02441   0.92424    9.760
 4191.00    0.99997   0.92575   10.081
 4192.00    0.96911   0.92695   10.317
 4193.00    0.95179   0.92713   10.264
 4194.00    0.95720   0.92493   10.469
 4195.00    0.97009   0.92029   11.044
 4196.00    0.94574   0.91453   10.445
 4197.00    0.87201   0.90878    8.520
 4198.00    0.81502   0.90374    7.236
 4199.00    0.82517   0.90052    7.008
 4200.00    0.86345   0.89946    7.273
 4201.00    0.87923   0.90000    7.479
 4202.00    0.87253   0.90243    7.558
 4203.00    0.85940   0.90690    7.580
 4204.00    0.84398   0.91237    7.443
 4205.00    0.82820   0.91809    7.189
 4206.00    0.82066   0.92383    7.127
 4207.00    0.84134   0.92887    7.349
 4208.00    0.91573   0.93250    7.521
 4209.00    1.02034   0.93424    7.407
 4210.00    1.06812   0.93438    7.247
 4211.00    1.02312   0.93377    7.259
 4212.00    0.95042   0.93251    7.426
 4213.00    0.91333   0.93039    7.656
 4214.00    0.92001   0.92783    7.856
 4215.00    0.95369   0.92601    7.930
 4216.00    0.99119   0.92659    7.812
 4217.00    1.01000   0.92950    7.592
 4218.00    0.99494   0.93237    7.472
 4219.00    0.95384   0.93332    7.515
 4220.00    0.91568   0.93154    7.615
 4221.00    0.89310   0.92638    7.654
 4222.00    0.87546   0.91773    7.594
 4223.00    0.86670   0.90667    7.493
 4224.00    0.88755   0.89486    7.464
 4225.00    0.92589   0.88422    7.524
 4226.00    0.93705   0.87703    7.585
 4227.00    0.91141   0.87573    7.601
 4228.00    0.88223   0.88066    7.605
 4229.00    0.87051   0.88875    7.645
 4230.00    0.87035   0.89676    7.750
 4231.00    0.86330   0.90315    7.880
 4232.00    0.83435   0.90686    7.942
 4233.00    0.80346   0.90844    7.912
 4234.00    0.81258   0.90944    7.845
 4235.00    0.86558   0.90984    7.803
 4236.00    0.92653   0.90995    7.811
 4237.00    0.95905   0.91134    7.833
 4238.00    0.94842   0.91424    7.818
 4239.00    0.92770   0.91816    7.838
 4240.00    0.94350   0.92289    8.012
 4241.00    0.96700   0.92760    8.223
 4242.00    0.93444   0.93130    8.234
 4243.00    0.87431   0.93396    8.167
 4244.00    0.86752   0.93518    8.312
 4245.00    0.91426   0.93372    8.543
 4246.00    0.95682   0.92942    8.497
 4247.00    0.97313   0.92367    8.267
 4248.00    0.97585   0.91779    8.179
 4249.00    0.97849   0.91217    8.217
 4250.00    0.98429   0.90726    8.194
 4251.00    0.97915   0.90452    8.114
 4252.00    0.95129   0.90387    8.056
 4253.00    0.92243   0.90361    7.909
 4254.00    0.92173   0.90352    7.586
 4255.00    0.94141   0.90468    7.310
 4256.00    0.95154   0.90701    7.268
 4257.00    0.93043   0.90889    7.276
 4258.00    0.87947   0.90921    7.114
 4259.00    0.83484   0.90903    6.969
 4260.00    0.83667   0.91002    7.062
 4261.00    0.88937   0.91313    7.243
 4262.00    0.96267   0.91811    7.298
 4263.00    1.00274   0.92307    7.395
 4264.00    0.98530   0.92622    7.726
 4265.00    0.96446   0.92669    7.999
 4266.00    0.98070   0.92373    7.925
 4267.00    0.97232   0.91755    7.902
 4268.00    0.89437   0.90957    8.187
 4269.00    0.82851   0.90041    8.128
 4270.00    0.84730   0.89044    7.534
 4271.00    0.89413   0.88156    7.586
 4272.00    0.90166   0.87661    9.130
 4273.00    0.89303   0.87627   11.381
 4274.00    0.90163   0.87877   11.677
 4275.00    0.90720   0.88366   10.955
 4276.00    0.89509   0.89095   10.988
 4277.00    0.89701   0.89892   11.175
 4278.00    0.93098   0.90543   10.782
 4279.00    0.96404   0.90904   10.373
 4280.00    0.96738   0.90996   10.377
 4281.00    0.95050   0.90960   10.489
 4282.00    0.92973   0.90817   10.585
 4283.00    0.90857   0.90543   11.132
 4284.00    0.88846   0.90139   11.851
 4285.00    0.87465   0.89631   10.948
 4286.00    0.86981   0.89136    8.927
 4287.00    0.87036   0.88688    7.793
 4288.00    0.86735   0.88204    7.691
 4289.00    0.85187   0.87716    7.963
 4290.00    0.83794   0.87420    8.134
 4291.00    0.85825   0.87433    8.226
 4292.00    0.89304   0.87596   -2.000
 4293.00    0.86915   0.87630   -2.000
 4294.00    0.79910   0.87421   -2.000
 4295.00    0.79413   0.87081   -2.000
 4296.00    0.86795   0.86607   -2.000
 4297.00    0.90732   0.85903   -2.000
 4298.00    0.87249   0.84997   -2.000
 4299.00    0.83601   0.84027   -2.000
 4300.00    0.83820   0.83236   -2.000
 4301.00    0.85110   0.82709   -2.000
 4302.00    0.84006   0.82298   -2.000
 4303.00    0.79440   0.81985   -2.000
 4304.00    0.75311   0.81827   -2.000
 4305.00    0.77660   0.81743   -2.000
 4306.00    0.84159   0.81668   -2.000
 4307.00    0.86100   0.81603   -2.000
 4308.00    0.82597   0.81669    7.746
 4309.00    0.79974   0.82039    7.692
 4310.00    0.79650   0.82725    7.721
 4311.00    0.78240   0.83644    7.947
 4312.00    0.75784   0.84717    8.263
 4313.00    0.75438   0.85895    8.371
 4314.00    0.77991   0.87149    8.233
 4315.00    0.81705   0.88457    8.079
 4316.00    0.84820   0.89667    8.088
 4317.00    0.86433   0.90492    8.299
 4318.00    0.87081   0.90792    8.526
 4319.00    0.88042   0.90586    8.507
 4320.00    0.89788   0.89923    8.360
 4321.00    0.91829   0.88904    8.395
 4322.00    0.93025   0.87653    8.661
 4323.00    0.92399   0.86247    9.000
 4324.00    0.90382   0.84849    9.241
 4325.00    0.88267   0.83701    9.286
 4326.00    0.87006   0.83041    9.199
 4327.00    0.87170   0.82885    9.077
 4328.00    0.89098   0.82894    8.852
 4329.00    0.91331   0.82737    8.526
 4330.00    0.88789   0.82295    0.000
 4331.00    0.79214   0.81544    0.000
 4332.00    0.71283   0.80364    0.000
 4333.00    0.73579   0.78588    0.000
 4334.00    0.80271   0.76203    0.000
 4335.00    0.81503   0.73307    0.000
 4336.00    0.77368   0.70036    0.000
 4337.00    0.74322   0.66657    0.000
 4338.00    0.78994   0.63610    0.000
 4339.00    0.92531   0.61264    0.000
 4340.00    1.06293   0.59932    0.000
 4341.00    1.11819   0.59961    0.000
 4342.00    1.10407   0.61300    0.000
 4343.00    1.06322   0.63508    0.000
 4344.00    1.00127   0.66242    0.000
 4345.00    0.92779   0.69239    0.000
 4346.00    0.88892   0.72149    0.000
 4347.00    0.89685   0.74736    0.000
 4348.00    0.88372   0.76953    0.000
 4349.00    0.81515   0.78756    0.000
 4350.00    0.76469   0.80067    0.000
 4351.00    0.78999   0.81016    8.332
 4352.00    0.84914   0.81995    8.477
 4353.00    0.87819   0.83203    8.458
 4354.00    0.85091   0.84457    8.502
 4355.00    0.79493   0.85644    8.709
 4356.00    0.78506   0.86828    8.786
 4357.00    0.85273   0.87977    8.559
 4358.00    0.94361   0.88962    8.276
 4359.00    0.99208   0.89803    8.158
 4360.00    0.96920   0.90640    8.227
 4361.00    0.90024   0.91443    8.352
 4362.00    0.85681   0.92069    8.313
 4363.00    0.87640   0.92505    8.220
 4364.00    0.93174   0.92846    8.550
 4365.00    0.98064   0.93048    9.451
 4366.00    0.99223   0.92975   10.343
 4367.00    0.95330   0.92681   10.770
 4368.00    0.87418   0.92358   11.247
 4369.00    0.80241   0.92070   12.125
 4370.00    0.80268   0.91756   12.836
 4371.00    0.86019   0.91444   12.303
 4372.00    0.88297   0.91194   10.415
 4373.00    0.84830   0.90978    8.679
 4374.00    0.82205   0.90792    8.024
 4375.00    0.83734   0.90747    8.186
 4376.00    0.86969   0.90911    8.424
 4377.00    0.89665   0.91082    8.398
 4378.00    0.91135   0.90964    8.388
 4379.00    0.90325   0.90492    8.538
 4380.00    0.86241   0.89797    8.716
 4381.00    0.80798   0.88930    8.808
 4382.00    0.77684   0.87801    8.807
 4383.00    0.77236   0.86558    8.768
 4384.00    0.77328   0.85690    8.756
 4385.00    0.78948   0.85461    8.771
 4386.00    0.84612   0.85676    8.758
 4387.00    0.91429   0.86058    8.674
 4388.00    0.93803   0.86631    8.524
 4389.00    0.92839   0.87451    8.385
 4390.00    0.93652   0.88335    8.358
 4391.00    0.95581   0.89187    8.465
 4392.00    0.94511   0.90006    8.659
 4393.00    0.91276   0.90695    8.853
 4394.00    0.90063   0.91187    8.957
 4395.00    0.92437   0.91583    8.963
 4396.00    0.96648   0.92051    8.940
 4397.00    0.98527   0.92481    8.979
 4398.00    0.95094   0.92588    9.123
 4399.00    0.89854   0.92327    9.279
 4400.00    0.88210   0.91910    9.314
 4401.00    0.89433   0.91578    9.251
 4402.00    0.90143   0.91273    9.177
 4403.00    0.90873   0.90749    9.057
 4404.00    0.93472   0.90136    8.855
 4405.00    0.96508   0.89888    8.702
 4406.00    0.97353   0.90123    8.738
 4407.00    0.95572   0.90534    8.933
 4408.00    0.92325   0.90966    9.178
 4409.00    0.89154   0.91518    9.393
 4410.00    0.87769   0.92138    9.501
 4411.00    0.89796   0.92606    9.383
 4412.00    0.94696   0.92818    9.070
 4413.00    0.98071   0.92775    8.852
 4414.00    0.97033   0.92516    8.897
 4415.00    0.95098   0.92252    9.007
 4416.00    0.95601   0.92215    8.989
 4417.00    0.95714   0.92381    9.003
 4418.00    0.92798   0.92688    9.182
 4419.00    0.89868   0.93091    9.282
 4420.00    0.89858   0.93457    9.118
 4421.00    0.90996   0.93663    8.938
 4422.00    0.91188   0.93718    8.935
 4423.00    0.91357   0.93771    8.956
 4424.00    0.92379   0.93828    8.863
 4425.00    0.93040   0.93753    8.775
 4426.00    0.93076   0.93596    8.814
 4427.00    0.94717   0.93498    8.950
 4428.00    0.98272   0.93462    9.109
 4429.00    1.00053   0.93319    9.239
 4430.00    0.97972   0.93018    9.316
 4431.00    0.94469   0.92780    9.340
 4432.00    0.92848   0.92651    9.308
 4433.00    0.94700   0.92485    9.207
 4434.00    0.98247   0.92310    9.087
 4435.00    0.98696   0.92298    9.066
 4436.00    0.94325   0.92538    9.196
 4437.00    0.88748   0.92909    9.411
 4438.00    0.86610   0.93244    9.549
 4439.00    0.90465   0.93487    9.437
 4440.00    0.96687   0.93603    9.171
 4441.00    0.96764   0.93582    9.073
 4442.00    0.90123   0.93495    9.205
 4443.00    0.85815   0.93499    9.315
 4444.00    0.87424   0.93711    9.254
 4445.00    0.89965   0.94059    9.129
 4446.00    0.91216   0.94361    9.073
 4447.00    0.93896   0.94570    9.144
 4448.00    0.98034   0.94754    9.258
 4449.00    1.00091   0.94783    9.235
 4450.00    0.99084   0.94518    9.085
 4451.00    0.97292   0.94099    8.994
 4452.00    0.96088   0.93618    9.025
 4453.00    0.95093   0.93003    9.094
 4454.00    0.93591   0.92260    9.135
 4455.00    0.91262   0.91588    9.136
 4456.00    0.88938   0.91147    9.103
 4457.00    0.88037   0.90848    9.051
 4458.00    0.88649   0.90620    9.026
 4459.00    0.89588   0.90529    9.073
 4460.00    0.89706   0.90596    9.180
 4461.00    0.88726   0.90736    0.000
 4462.00    0.88257   0.90961    0.000
 4463.00    0.90358   0.91300    0.000
 4464.00    0.94092   0.91548    0.000
 4465.00    0.96584   0.91583    0.000
 4466.00    0.96523   0.91495    0.000
 4467.00    0.94156   0.91374    0.000
 4468.00    0.89980   0.91238    0.000
 4469.00    0.85372   0.91130    0.000
 4470.00    0.83973   0.91164    0.000
 4471.00    0.88252   0.91446    0.000
 4472.00    0.93793   0.92083    0.000
 4473.00    0.94853   0.92990    0.000
 4474.00    0.94068   0.93840    0.000
 4475.00    0.97137   0.94426    0.000
 4476.00    1.03104   0.94793    0.000
 4477.00    1.07001   0.94979    0.000
 4478.00    1.05513   0.94888    0.000
 4479.00    0.98929   0.94482    0.000
 4480.00    0.92307   0.93944    0.000
 4481.00    0.90511   0.93609    0.000
 4482.00    0.92294   0.93703   10.084
 4483.00    0.94141   0.94110   10.030
 4484.00    0.95322   0.94553    9.993
 4485.00    0.96204   0.94951   10.024
 4486.00    0.95980   0.95310    9.996
 4487.00    0.94141   0.95518    9.849
 4488.00    0.92035   0.95456    9.814
 4489.00    0.91058   0.95204   10.036
 4490.00    0.90919   0.94961   10.257
 4491.00    0.91136   0.94828   10.199
 4492.00    0.92340   0.94760   10.014
 4493.00    0.94629   0.94692    9.934
 4494.00    0.96360   0.94656    9.983
 4495.00    0.96523   0.94772   10.068
 4496.00    0.96372   0.95038   10.082
 4497.00    0.96741   0.95405   10.016
 4498.00    0.96352   0.95878   10.025
 4499.00    0.94933   0.96416   10.165
 4500.00    0.94898   0.96919   10.254
 4501.00    0.97182   0.97379   10.189
 4502.00    0.99119   0.97928   10.136
 4503.00    0.99162   0.98520   10.211
 4504.00    0.99169   0.98935   10.319
 4505.00    0.99789   0.99136   10.355
 4506.00    0.98681   0.99215   10.322
 4507.00    0.96260   0.99187   10.266
 4508.00    0.97294   0.99046   10.223
 4509.00    1.02261   0.98832   10.225
 4510.00    1.04769   0.98570   10.292
 4511.00    1.01334   0.98228   10.386
 4512.00    0.95062   0.97821   10.413
 4513.00    0.89964   0.97421   10.381
 4514.00    0.88100   0.97068   10.420
 4515.00    0.89144   0.96807   10.586
 4516.00    0.90919   0.96662   10.790
 4517.00    0.92078   0.96532   10.881
 4518.00    0.92846   0.96378   10.755
 4519.00    0.93604   0.96288   10.542
 4520.00    0.94251   0.96213   10.522
 4521.00    0.93976   0.95979   10.723
 4522.00    0.91888   0.95478   10.901
 4523.00    0.89284   0.94859   10.893
 4524.00    0.89071   0.94253   10.741
 4525.00    0.91626   0.93568   10.544
 4526.00    0.94562   0.92814   10.393
 4527.00    0.95907   0.92146   10.354
 4528.00    0.95139   0.91653   10.453
 4529.00    0.93300   0.91324   10.622
 4530.00    0.91984   0.91167   10.741
 4531.00    0.90756   0.91210   10.819
 4532.00    0.88209   0.91460   10.965
 4533.00    0.86055   0.91781   11.166
 4534.00    0.87430   0.92139   11.293
 4535.00    0.90861   0.92646   11.270
 4536.00    0.92116   0.93355   11.136
 4537.00    0.91085   0.94119   11.035
 4538.00    0.90607   0.94709   11.096
 4539.00    0.91160   0.95086   11.244
 4540.00    0.91695   0.95315   11.282
 4541.00    0.93200   0.95455   11.148
 4542.00    0.97032   0.95540   10.929
 4543.00    1.00887   0.95478   10.760
 4544.00    1.01352   0.95178   10.728
 4545.00    0.99253   0.94796   10.783
 4546.00    0.97834   0.94546   10.825
 4547.00    0.98490   0.94321   10.848
 4548.00    1.00561   0.93925   10.889
 4549.00    1.02105   0.93468   10.890
 4550.00    1.01267   0.93262    0.000
 4551.00    0.97995   0.93280    0.000
 4552.00    0.93807   0.93278    0.000
 4553.00    0.91046   0.93323    0.000
 4554.00    0.91105   0.93560    0.000
 4555.00    0.92509   0.93976    0.000
 4556.00    0.93230   0.94536    0.000
 4557.00    0.93501   0.95177    0.000
 4558.00    0.94154   0.95725    0.000
 4559.00    0.94630   0.96108    0.000
 4560.00    0.94861   0.96382    0.000
 4561.00    0.97077   0.96562    0.000
 4562.00    1.01928   0.96580    0.000
 4563.00    1.05145   0.96421    0.000
 4564.00    1.03520   0.96252    0.000
 4565.00    1.00058   0.96226    0.000
 4566.00    0.98311   0.96312    0.000
 4567.00    0.97518   0.96399    0.000
 4568.00    0.96148   0.96484    0.000
 4569.00    0.94816   0.96611    0.000
 4570.00    0.94139   0.96666    0.000
 4571.00    0.93223   0.96570    0.000
 4572.00    0.91966   0.96550    0.000
 4573.00    0.92344   0.96689    0.000
 4574.00    0.95355   0.96693    0.000
 4575.00    0.99239   0.96481    0.000
 4576.00    1.01845   0.96277    0.000
 4577.00    1.02199   0.96104    0.000
 4578.00    1.00413   0.95778    0.000
 4579.00    0.97456   0.95277    0.000
 4580.00    0.94518   0.94809    0.000
 4581.00    0.92530   0.94523    0.000
 4582.00    0.91550   0.94369    0.000
 4583.00    0.90760   0.94272    0.000
 4584.00    0.89999   0.94313    0.000
 4585.00    0.90060   0.94535    0.000
 4586.00    0.90492   0.94811    0.000
 4587.00    0.89512   0.95070    0.000
 4588.00    0.88122   0.95310    0.000
 4589.00    0.90257   0.95486    0.000
 4590.00    0.95964   0.95505    0.000
 4591.00    1.00438   0.95376    0.000
 4592.00    1.01256   0.95223    0.000
 4593.00    1.00086   0.95116    0.000
 4594.00    0.98477   0.95008    0.000
 4595.00    0.96785   0.94886    0.000
 4596.00    0.95905   0.94830    0.000
 4597.00    0.97015   0.94871    0.000
 4598.00    0.98880   0.94968    0.000
 4599.00    0.98573   0.95055    0.000
 4600.00    0.96109   0.95089    0.000
 4601.00    0.94321   0.95158    0.000
 4602.00    0.94532   0.95344    0.000
 4603.00    0.95902   0.95596    0.000
 4604.00    0.97046   0.95881    0.000
 4605.00    0.97178   0.96214    0.000
 4606.00    0.97751   0.96627    0.000
 4607.00    1.00677   0.97088    0.000
 4608.00    1.03438   0.97534    0.000
 4609.00    1.01893   0.97859    0.000
 4610.00    0.98647   0.98033    0.000
 4611.00    0.99564   0.98107    0.000
 4612.00    1.03056   0.98107    0.000
 4613.00    1.03130   0.98040    0.000
 4614.00    0.99398   0.97947    0.000
 4615.00    0.95661   0.97840    0.000
 4616.00    0.93840   0.97734    0.000
 4617.00    0.93888   0.97708    0.000
 4618.00    0.95541   0.97686    0.000
 4619.00    0.98078   0.97641    0.000
 4620.00    0.99563   0.97699    0.000
 4621.00    0.98484   0.97837    0.000
 4622.00    0.96297   0.97890    0.000
 4623.00    0.95502   0.97915    0.000
 4624.00    0.96446   0.97954    0.000
 4625.00    0.97988   0.97889    0.000
 4626.00    0.99024   0.97770    0.000
 4627.00    0.99218   0.97723    0.000
 4628.00    0.99555   0.97608    0.000
 4629.00    1.00723   0.97347    0.000
 4630.00    1.01289   0.97170    0.000
 4631.00    0.99863   0.97119    0.000
 4632.00    0.97608   0.96924    0.000
 4633.00    0.96543   0.96545    0.000
 4634.00    0.97450   0.96226    0.000
 4635.00    0.99409   0.96005    0.000
 4636.00    0.99806   0.95738    0.000
 4637.00    0.97107   0.95438    0.000
 4638.00    0.93173   0.95221    0.000
 4639.00    0.90781   0.95088    0.000
 4640.00    0.91157   0.94993    0.000
 4641.00    0.93066   0.94925    0.000
 4642.00    0.92826   0.94788    0.000
 4643.00    0.89263   0.94546    0.000
 4644.00    0.86706   0.94282    0.000
 4645.00    0.88327   0.94015    0.000
 4646.00    0.91755   0.93708    0.000
 4647.00    0.93779   0.93494    0.000
 4648.00    0.93680   0.93505    0.000
 4649.00    0.92343   0.93679    0.000
 4650.00    0.91307   0.93904    0.000
 4651.00    0.91299   0.94192    0.000
 4652.00    0.91689   0.94558    0.000
 4653.00    0.92393   0.94929    0.000
 4654.00    0.94507   0.95233    0.000
 4655.00    0.97750   0.95544    0.000
 4656.00    0.99789   0.95911    0.000
 4657.00    0.99926   0.96294    0.000
 4658.00    1.00148   0.96637    0.000
 4659.00    1.01097   0.96872    0.000
 4660.00    1.00974   0.96916    0.000
 4661.00    0.99393   0.96701    0.000
 4662.00    0.98174   0.96213    0.000
 4663.00    0.97356   0.95521    0.000
 4664.00    0.94699   0.94801    0.000
 4665.00    0.90357   0.94108    0.000
 4666.00    0.87506   0.93420    0.000
 4667.00    0.87783   0.92908    0.000
 4668.00    0.90102   0.92791    0.000
 4669.00    0.92593   0.92996    0.000
 4670.00    0.93674   0.93337    0.000
 4671.00    0.93176   0.93793    0.000
 4672.00    0.92153   0.94332    0.000
 4673.00    0.91233   0.94813    0.000
 4674.00    0.90487   0.95162    0.000
 4675.00    0.90544   0.95413    0.000
 4676.00    0.92179   0.95558    0.000
 4677.00    0.94427   0.95523    0.000
 4678.00    0.95313   0.95364    0.000
 4679.00    0.94933   0.95229    0.000
 4680.00    0.94719   0.95131    0.000
 4681.00    0.93926   0.95024    0.000
 4682.00    0.91180   0.94982    0.000
 4683.00    0.89587   0.95060    0.000
 4684.00    0.93481   0.95161    0.000
 4685.00    0.99501   0.95240    0.000
 4686.00    1.00498   0.95317    0.000
 4687.00    0.96639   0.95367    0.000
 4688.00    0.93140   0.95406    0.000
 4689.00    0.92103   0.95467    0.000
 4690.00    0.92648   0.95511    0.000
 4691.00    0.93815   0.95555    0.000
 4692.00    0.94753   0.95677    0.000
 4693.00    0.94252   0.95790    0.000
 4694.00    0.91750   0.95774    0.000
 4695.00    0.88884   0.95698    0.000
 4696.00    0.87721   0.95598    0.000
 4697.00    0.87984   0.95327    0.000
 4698.00    0.88429   0.94851    0.000
 4699.00    0.89164   0.94401    0.000
 4700.00    0.90521   0.94108    0.000
 4701.00    0.91334   0.93826    0.000
 4702.00    0.90534   0.93495    0.000
 4703.00    0.89186   0.93289    0.000
 4704.00    0.88819   0.93292    0.000
 4705.00    0.89330   0.93330    0.000
 4706.00    0.89762   0.93313    0.000
 4707.00    0.89421   0.93350    0.000
 4708.00    0.88551   0.93445    0.000
 4709.00    0.88685   0.93520    0.000
 4710.00    0.90633   0.93627    0.000
 4711.00    0.92788   0.93850    0.000
 4712.00    0.93557   0.94072    0.000
 4713.00    0.93477   0.94279    0.000
 4714.00    0.93520   0.94591    0.000
 4715.00    0.93637   0.95083    0.000
 4716.00    0.93621   0.95641    0.000
 4717.00    0.93807   0.96162    0.000
 4718.00    0.94440   0.96629    0.000
 4719.00    0.95256   0.97090    0.000
 4720.00    0.96132   0.97477    0.000
 4721.00    0.97417   0.97673    0.000
 4722.00    0.99028   0.97635    0.000
 4723.00    0.99926   0.97427    0.000
 4724.00    0.98705   0.97126    0.000
 4725.00    0.94460   0.96719    0.000
 4726.00    0.89481   0.96148    0.000
 4727.00    0.89215   0.95480    0.000
 4728.00    0.93624   0.94942    0.000
 4729.00    0.94908   0.94606    0.000
 4730.00    0.90324   0.94377    0.000
 4731.00    0.86427   0.94288    0.000
 4732.00    0.87053   0.94380    0.000
 4733.00    0.89107   0.94582    0.000
 4734.00    0.90579   0.94869    0.000
 4735.00    0.93036   0.95183    0.000
 4736.00    0.96213   0.95358    0.000
 4737.00    0.96994   0.95491    0.000
 4738.00    0.94798   0.95756    0.000
 4739.00    0.92518   0.95994    0.000
 4740.00    0.91768   0.96065    0.000
 4741.00    0.91729   0.96148    0.000
 4742.00    0.91582   0.96388    0.000
 4743.00    0.91246   0.96634    0.000
 4744.00    0.90914   0.96754    0.000
 4745.00    0.90915   0.96860    0.000
 4746.00    0.91847   0.97061    0.000
 4747.00    0.94163   0.97205    0.000
 4748.00    0.96941   0.97170    0.000
 4749.00    0.98360   0.97081    0.000
 4750.00    0.97961   0.96986    0.000
 4751.00    0.96770   0.96789    0.000
 4752.00    0.95993   0.96487    0.000
 4753.00    0.96293   0.96202    0.000
 4754.00    0.96963   0.95947    0.000
 4755.00    0.96504   0.95717    0.000
 4756.00    0.94365   0.95525    0.000
 4757.00    0.91317   0.95342    0.000
 4758.00    0.89322   0.95122    0.000
 4759.00    0.90201   0.94905    0.000
 4760.00    0.93129   0.94667    0.000
 4761.00    0.95500   0.94300   13.278
 4762.00    0.95499   0.93868   13.214
 4763.00    0.93031   0.93558   13.413
 4764.00    0.90371   0.93352   13.605
 4765.00    0.90029   0.93200   13.464
 4766.00    0.91163   0.93209   13.205
 4767.00    0.91473   0.93398   13.211
 4768.00    0.90993   0.93675   13.410
 4769.00    0.91122   0.94041   13.529
 4770.00    0.92333   0.94469   13.583
 4771.00    0.94131   0.94806   13.695
 4772.00    0.95495   0.95086   13.742
 4773.00    0.95700   0.95439   13.601
 4774.00    0.95242   0.95777   13.527
 4775.00    0.94877   0.95925   13.751
 4776.00    0.94397   0.95967   14.009
 4777.00    0.93664   0.96049   13.963
 4778.00    0.93809   0.96016   13.822
 4779.00    0.95310   0.95758   13.866
 4780.00    0.96055   0.95488   13.905
 4781.00    0.94520   0.95283   13.717
 4782.00    0.92884   0.94950   13.511
 4783.00    0.93360   0.94570   13.527
 4784.00    0.94712   0.94380   13.683
 4785.00    0.95339   0.94257   13.810
 4786.00    0.96064   0.94074   13.872
 4787.00    0.97442   0.94060   13.930
 4788.00    0.97628   0.94239   14.077
 4789.00    0.95478   0.94433   14.332
 4790.00    0.92813   0.94729   14.579
 4791.00    0.91590   0.95158   14.734
 4792.00    0.91808   0.95562   14.881
 4793.00    0.92825   0.95930   15.066
 4794.00    0.94336   0.96267   15.157
 4795.00    0.95872   0.96444   15.115
 4796.00    0.96565   0.96448   15.139
 4797.00    0.95980   0.96391   15.329
 4798.00    0.94523   0.96282   15.505
 4799.00    0.92625   0.96107   15.499
 4800.00    0.90428   0.95939   15.342
 4801.00    0.88748   0.95835   15.133
 4802.00    0.89195   0.95777   14.955
 4803.00    0.91894   0.95682   14.868
 4804.00    0.94787   0.95516   14.908
 4805.00    0.96115   0.95357   15.022
 4806.00    0.95548   0.95276   15.077
 4807.00    0.93540   0.95167   15.040
 4808.00    0.91015   0.95046   15.012
 4809.00    0.89394   0.95053   14.997
 4810.00    0.90076   0.95157   14.876
 4811.00    0.92353   0.95256   14.712
 4812.00    0.93504   0.95388   14.745
 4813.00    0.92367   0.95597   15.003
 4814.00    0.90310   0.95818   15.226
 4815.00    0.89713   0.96001   15.186
 4816.00    0.92369   0.96153   14.881
 4817.00    0.96230   0.96271   14.614
 4818.00    0.96602   0.96290   14.768
 4819.00    0.93227   0.96143   15.234
 4820.00    0.90334   0.95874   15.447
 4821.00    0.90093   0.95601   15.275
 4822.00    0.91543   0.95280   15.115
 4823.00    0.93169   0.94827   15.134
 4824.00    0.93700   0.94445   15.220
 4825.00    0.92242   0.94269   15.320
 4826.00    0.88878   0.94135   15.417
 4827.00    0.85963   0.93936   15.264
 4828.00    0.86360   0.93750   14.619
 4829.00    0.88815   0.93671   13.826
 4830.00    0.89640   0.93648   13.377
 4831.00    0.88556   0.93515   13.270
 4832.00    0.87837   0.93325   13.274
 4833.00    0.88030   0.93287   13.413
 4834.00    0.88352   0.93273   13.835
 4835.00    0.89085   0.93079   14.375
 4836.00    0.90749   0.92818   14.675
 4837.00    0.91880   0.92635   14.787
 4838.00    0.90698   0.92379   15.010
 4839.00    0.88466   0.91952   15.284
 4840.00    0.87700   0.91556   15.368
 4841.00    0.88529   0.91297   15.340
 4842.00    0.89599   0.91005   15.433
 4843.00    0.90278   0.90604   15.646
 4844.00    0.90603   0.90239   15.799
 4845.00    0.90734   0.89914   15.714
 4846.00    0.90517   0.89483   15.409
 4847.00    0.89117   0.88862   15.232
 4848.00    0.86481   0.88083    0.000
 4849.00    0.84979   0.87259    0.000
 4850.00    0.86184   0.86313    0.000
 4851.00    0.87234   0.85023    0.000
 4852.00    0.85056   0.83511    0.000
 4853.00    0.81184   0.81915    0.000
 4854.00    0.78613   0.79991    0.000
 4855.00    0.78188   0.77715    0.000
 4856.00    0.80539   0.75377    0.000
 4857.00    0.88112   0.73018    0.000
 4858.00    1.03095   0.70711    0.000
 4859.00    1.25201   0.68772    0.000
 4860.00    1.50348   0.67263    0.000
 4861.00    1.70375   0.66350    0.000
 4862.00    1.79054   0.66483    0.000
 4863.00    1.76468   0.67482    0.000
 4864.00    1.64406   0.68847    0.000
 4865.00    1.43244   0.70698    0.000
 4866.00    1.16952   0.72922    0.000
 4867.00    0.95435   0.74945    0.000
 4868.00    0.84550   0.76696    0.000
 4869.00    0.80530   0.78409    0.000
 4870.00    0.78957   0.79863    0.000
 4871.00    0.79895   0.80942    0.000
 4872.00    0.82623   0.82069    0.000
 4873.00    0.83341   0.83340    0.000
 4874.00    0.81242   0.84444    0.000
 4875.00    0.80651   0.85478   15.456
 4876.00    0.83620   0.86635   15.376
 4877.00    0.87104   0.87657   15.343
 4878.00    0.89065   0.88417   15.393
 4879.00    0.90763   0.89149   15.466
 4880.00    0.92678   0.89702   15.442
 4881.00    0.93259   0.89870   15.222
 4882.00    0.92120   0.89945   14.938
 4883.00    0.90833   0.90033   14.888
 4884.00    0.90241   0.89920   15.086
 4885.00    0.89746   0.89699   15.216
 4886.00    0.88990   0.89579   15.151
 4887.00    0.88289   0.89525   15.092
 4888.00    0.87729   0.89564   15.191
 4889.00    0.86959   0.89815   15.431
 4890.00    0.85622   0.90201   15.662
 4891.00    0.83818   0.90732   15.685
 4892.00    0.83037   0.91596   15.538
 4893.00    0.85291   0.92593   15.446
 4894.00    0.89736   0.93497   15.443
 4895.00    0.93169   0.94343   15.379
 4896.00    0.94287   0.95018   15.253
 4897.00    0.93964   0.95458   15.196
 4898.00    0.92747   0.95701   15.204
 4899.00    0.90719   0.95671   15.173
 4900.00    0.88849   0.95491   15.118
 4901.00    0.88471   0.95414   15.156
 4902.00    0.89347   0.95321   15.319
 4903.00    0.90215   0.95107   15.518
 4904.00    0.90988   0.94992   15.551
 4905.00    0.92410   0.95001   15.275
 4906.00    0.94357   0.94901   14.946
 4907.00    0.95943   0.94684   14.910
 4908.00    0.96427   0.94525   15.061
 4909.00    0.95718   0.94373   15.065
 4910.00    0.94890   0.94154   14.923
 4911.00    0.94954   0.94024   14.867
 4912.00    0.94707   0.93985   14.996
 4913.00    0.92553   0.93836   15.268
 4914.00    0.89893   0.93537   15.557
 4915.00    0.89166   0.93143   15.722
 4916.00    0.90145   0.92531   15.751
 4917.00    0.90801   0.91667   15.741
 4918.00    0.89415   0.90741   15.829
 4919.00    0.86158   0.89922   16.032
 4920.00    0.84502   0.89248   16.065
 4921.00    0.86811   0.88880   15.741
 4922.00    0.89030   0.89055   15.468
 4923.00    0.87119   0.89574   15.623
 4924.00    0.84895   0.90276   15.932
 4925.00    0.86768   0.91281   15.988
 4926.00    0.89263   0.92462   15.954
 4927.00    0.88402   0.93441   16.112
 4928.00    0.87736   0.94242   16.326
 4929.00    0.90659   0.94889   16.365
 4930.00    0.92803   0.95150   16.310
 4931.00    0.90262   0.95151   16.336
 4932.00    0.87110   0.95000   16.466
 4933.00    0.87404   0.94549   16.663
 4934.00    0.88328   0.94019   16.905
 4935.00    0.86811   0.93659   17.108
 4936.00    0.84932   0.93333   17.076
 4937.00    0.85313   0.93060   16.804
 4938.00    0.87408   0.92982   16.627
 4939.00    0.89132   0.93133   16.743
 4940.00    0.88587   0.93537    0.000
 4941.00    0.86455   0.94047    0.000
 4942.00    0.86697   0.94516    0.000
 4943.00    0.90607   0.95097    0.000
 4944.00    0.93983   0.95722    0.000
 4945.00    0.93804   0.96120    0.000
 4946.00    0.91810   0.96406    0.000
 4947.00    0.90657   0.96742    0.000
 4948.00    0.91538   0.96939    0.000
 4949.00    0.94023   0.96908    0.000
 4950.00    0.96355   0.96771    0.000
 4951.00    0.97104   0.96553    0.000
 4952.00    0.96102   0.96133    0.000
 4953.00    0.94765   0.95476    0.000
 4954.00    0.95514   0.94756    0.000
 4955.00    0.98610   0.94168    0.000
 4956.00    1.01702   0.93632    0.000
 4957.00    1.03930   0.93052    0.000
 4958.00    1.06822   0.92825    0.000
 4959.00    1.10915   0.93047    0.000
 4960.00    1.14715   0.93248    0.000
 4961.00    1.15993   0.93376    0.000
 4962.00    1.12954   0.93624    0.000
 4963.00    1.06444   0.93863    0.000
 4964.00    0.99674   0.93869    0.000
 4965.00    0.94883   0.93728    0.000
 4966.00    0.92461   0.93668    0.000
 4967.00    0.91765   0.93669    0.000
 4968.00    0.91615   0.93663    0.000
 4969.00    0.90962   0.93773    0.000
 4970.00    0.89396   0.94002    0.000
 4971.00    0.87941   0.94261    0.000
 4972.00    0.88306   0.94503    0.000
 4973.00    0.90482   0.94665    0.000
 4974.00    0.92863   0.94706    0.000
 4975.00    0.93995   0.94539    0.000
 4976.00    0.93298   0.94193    0.000
 4977.00    0.91649   0.93713    0.000
 4978.00    0.90567   0.93011    0.000
 4979.00    0.90270   0.92226    0.000
 4980.00    0.90066   0.91558    0.000
 4981.00    0.89906   0.90918    0.000
 4982.00    0.90160   0.90337    0.000
 4983.00    0.90638   0.90079    0.000
 4984.00    0.90705   0.90134    0.000
 4985.00    0.89820   0.90298    0.000
 4986.00    0.88164   0.90616    0.000
 4987.00    0.87416   0.91101    0.000
 4988.00    0.89014   0.91556    0.000
 4989.00    0.91437   0.91928    0.000
 4990.00    0.92311   0.92214    0.000
 4991.00    0.91948   0.92418    0.000
 4992.00    0.91806   0.92619    0.000
 4993.00    0.91767   0.92674    0.000
 4994.00    0.90966   0.92603    0.000
 4995.00    0.89319   0.92573    0.000
 4996.00    0.87674   0.92396    0.000
 4997.00    0.87585   0.92048    0.000
 4998.00    0.89297   0.91682    0.000
 4999.00    0.89822   0.91209    0.000
 5000.00    0.87228   0.90685    0.000
 5001.00    0.85056   0.90224    0.000
 5002.00    0.88108   0.89773    0.000
 5003.00    0.97783   0.89422    0.000
 5004.00    1.12720   0.89232    0.000
 5005.00    1.29916   0.89079    0.000
 5006.00    1.45722   0.88958    0.000
 5007.00    1.56737   0.88986    0.000
 5008.00    1.60612   0.89036    0.000
 5009.00    1.56653   0.88919    0.000
 5010.00    1.45697   0.88727    0.000
 5011.00    1.29960   0.88492    0.000
 5012.00    1.12845   0.88132    0.000
 5013.00    0.98492   0.87769    0.000
 5014.00    0.89615   0.87440    0.000
 5015.00    0.86114   0.87197    0.000
 5016.00    0.85983   0.87200    0.000
 5017.00    0.86357   0.87309    0.000
 5018.00    0.85900   0.87447    0.000
 5019.00    0.85817   0.87790    0.000
 5020.00    0.87230   0.88273    0.000
 5021.00    0.89702   0.88663    0.000
 5022.00    0.91946   0.89026    0.000
 5023.00    0.92502   0.89498    0.000
 5024.00    0.90994   0.89915    0.000
 5025.00    0.88585   0.90246    0.000
 5026.00    0.87039   0.90640    0.000
 5027.00    0.87856   0.90963    0.000
 5028.00    0.90557   0.91262    0.000
 5029.00    0.92675   0.91651   17.971
 5030.00    0.92942   0.91920   18.134
 5031.00    0.92258   0.92037   18.515
 5032.00    0.91939   0.92070   18.896
 5033.00    0.92700   0.91950   18.812
 5034.00    0.93668   0.91610   18.357
 5035.00    0.92835   0.91015   18.162
 5036.00    0.89889   0.90324   18.417
 5037.00    0.86532   0.89681   18.794
 5038.00    0.84157   0.89015   18.971
 5039.00    0.83177   0.88520   18.869
 5040.00    0.83438   0.88287   18.669
 5041.00    0.84440   0.88236   18.644
 5042.00    0.85589   0.88586   18.776
 5043.00    0.86522   0.89179   18.810
 5044.00    0.87744   0.89647   18.703
 5045.00    0.89986   0.90163   18.629
 5046.00    0.92162   0.90687   18.645
 5047.00    0.92222   0.90907   18.688
 5048.00    0.90418   0.90912   18.738
 5049.00    0.88867   0.90932   18.818
 5050.00    0.88755   0.90984   18.885
 5051.00    0.89926   0.91009   18.860
 5052.00    0.91449   0.91118   18.764
 5053.00    0.92248   0.91423   18.691
 5054.00    0.92105   0.91825   18.713
 5055.00    0.91578   0.92205   18.839
 5056.00    0.91443   0.92581   18.954
 5057.00    0.92077   0.92976   18.933
 5058.00    0.92614   0.93288   18.849
 5059.00    0.92028   0.93402   18.834
 5060.00    0.91101   0.93402   18.793
 5061.00    0.91080   0.93258   18.589
 5062.00    0.91179   0.92947   18.376
 5063.00    0.90338   0.92584   18.363
 5064.00    0.90195   0.92083   18.460
 5065.00    0.92212   0.91561   18.467
 5066.00    0.93412   0.91271   18.407
 5067.00    0.90770   0.91016   18.420
 5068.00    0.87319   0.90710   18.569
 5069.00    0.87036   0.90606   18.805
 5070.00    0.87986   0.90676   18.967
 5071.00    0.87008   0.90620   18.938
 5072.00    0.85760   0.90458   18.821
 5073.00    0.86970   0.90429   18.732
 5074.00    0.89811   0.90370   18.568
 5075.00    0.91871   0.90052   18.294
 5076.00    0.91733   0.89670   18.185
 5077.00    0.89757   0.89412   18.395
 5078.00    0.88307   0.89101   18.597
 5079.00    0.88885   0.88656   18.464
 5080.00    0.89842   0.88416   18.166
 5081.00    0.89421   0.88470   17.983
 5082.00    0.88307   0.88559   17.968
 5083.00    0.87655   0.88733   18.094
 5084.00    0.87460   0.89156   18.344
 5085.00    0.87493   0.89682   18.598
 5086.00    0.88019   0.90153   18.585
 5087.00    0.89127   0.90604   18.292
 5088.00    0.90321   0.91063   18.146
 5089.00    0.91217   0.91461   18.333
 5090.00    0.91946   0.91724   18.494
 5091.00    0.92596   0.91863   18.397
 5092.00    0.92872   0.91906   18.342
 5093.00    0.92208   0.91817   18.630
 5094.00    0.90097   0.91561   19.270
 5095.00    0.87364   0.91173   19.965
 5096.00    0.86277   0.90739   20.174
 5097.00    0.87388   0.90340   19.907
 5098.00    0.88640   0.89954   19.905
 5099.00    0.89233   0.89626   20.356
 5100.00    0.90683   0.89489   20.553
 5101.00    0.92690   0.89450   20.270
 5102.00    0.92391   0.89413   20.184
 5103.00    0.89579   0.89404   20.508
 5104.00    0.87708   0.89373   20.669
 5105.00    0.88530   0.89345   20.329
 5106.00    0.90547   0.89284   19.774
 5107.00    0.91683   0.89153   19.379
 5108.00    0.90755   0.89184   19.371
 5109.00    0.88802   0.89324   19.716
 5110.00    0.88341   0.89419   20.169
 5111.00    0.89403   0.89736   20.581
 5112.00    0.89613   0.90177   20.975
 5113.00    0.88683   0.90511   21.313
 5114.00    0.88592   0.90925   21.455
 5115.00    0.89806   0.91304   21.326
 5116.00    0.90995   0.91468   20.997
 5117.00    0.91442   0.91529   20.678
 5118.00    0.91369   0.91423   20.579
 5119.00    0.90959   0.91091   20.653
 5120.00    0.90184   0.90598   20.673
 5121.00    0.89036   0.90011   20.589
 5122.00    0.87658   0.89409   20.514
 5123.00    0.86507   0.88763   20.463
 5124.00    0.86148   0.88195   20.383
 5125.00    0.86755   0.87856   20.328
 5126.00    0.87961   0.87604   20.367
 5127.00    0.88826   0.87466   20.341
 5128.00    0.88622   0.87578   20.056
 5129.00    0.88276   0.87773   19.711
 5130.00    0.89038   0.87984   19.653
 5131.00    0.89705   0.88329   19.908
 5132.00    0.88437   0.88668   20.245
 5133.00    0.86527   0.88840   20.386
 5134.00    0.86263   0.89006   20.215
 5135.00    0.86664   0.89132   20.023
 5136.00    0.85685   0.88971   20.122
 5137.00    0.84368   0.88797   20.323
 5138.00    0.84883   0.88672   20.260
 5139.00    0.86947   0.88277   19.986
 5140.00    0.88670   0.88025   19.776
 5141.00    0.88389   0.87953   19.746
 5142.00    0.85966   0.87609   19.850
 5143.00    0.83879   0.87429   19.930
 5144.00    0.84349   0.87484   19.872
 5145.00    0.86023   0.87314   19.791
 5146.00    0.86788   0.87197   19.804
 5147.00    0.87101   0.87227   19.782
 5148.00    0.87886   0.87162   19.618
 5149.00    0.88187   0.87152   19.491
 5150.00    0.87390   0.87192   19.529
 5151.00    0.87305   0.87239   19.521
 5152.00    0.88992   0.87443   19.334
 5153.00    0.90088   0.87719   19.253
 5154.00    0.88903   0.88047   19.427
 5155.00    0.87719   0.88500   19.472
 5156.00    0.88635   0.88938   19.203
 5157.00    0.90316   0.89327   19.163
 5158.00    0.91104   0.89600   19.610
 5159.00    0.91341   0.89566   19.884
 5160.00    0.91470   0.89322   19.570
 5161.00    0.90761   0.88783   19.340
 5162.00    0.88912   0.87774   19.622
 5163.00    0.86964   0.86563   19.917
 5164.00    0.85655   0.85197   19.823
 5165.00    0.84498   0.83600   19.684
 5166.00    0.82889   0.82081   19.751
 5167.00    0.80799   0.80797   19.776
 5168.00    0.78700   0.79701   19.664
 5169.00    0.77359   0.78950   19.737
 5170.00    0.77087   0.78706   20.099
 5171.00    0.77482   0.78840   20.396
 5172.00    0.78110   0.79200   20.437
 5173.00    0.78855   0.79950   20.464
 5174.00    0.79873   0.81013   20.589
 5175.00    0.81414   0.81962   20.626
 5176.00    0.83159   0.82754   20.586
 5177.00    0.84266   0.83473   20.735
 5178.00    0.84689   0.83886   20.865
 5179.00    0.85303   0.83836   20.425
 5180.00    0.86197   0.83491   20.209
 5181.00    0.86438   0.83136   21.748
 5182.00    0.85657   0.82791   22.778
 5183.00    0.84388   0.82446   18.178
 5184.00    0.83202   0.82488   13.281
 5185.00    0.82437   0.82924   11.574
 5186.00    0.82352   0.83447   11.844
 5187.00    0.83061   0.84165   12.237
 5188.00    0.84201   0.84895   11.966
 5189.00    0.85103   0.85466   11.701
 5190.00    0.85542   0.86036    0.000
 5191.00    0.85738   0.86317    0.000
 5192.00    0.85780   0.86387    0.000
 5193.00    0.85693   0.86705    0.000
 5194.00    0.85962   0.86970    0.000
 5195.00    0.87248   0.87067    0.000
 5196.00    0.89427   0.87439    0.000
 5197.00    0.91627   0.87859    0.000
 5198.00    0.92842   0.88014    0.000
 5199.00    0.92515   0.88133    0.000
 5200.00    0.91386   0.88162    0.000
 5201.00    0.90748   0.87852    0.000
 5202.00    0.90680   0.87326    0.000
 5203.00    0.90341   0.86795    0.000
 5204.00    0.89137   0.86147    0.000
 5205.00    0.87048   0.85406    0.000
 5206.00    0.84788   0.84993    0.000
 5207.00    0.83361   0.84850    0.000
 5208.00    0.83290   0.84772    0.000
 5209.00    0.84508   0.85103    0.000
 5210.00    0.86391   0.85769    0.000
 5211.00    0.88177   0.86418   11.199
 5212.00    0.89541   0.87167   11.139
 5213.00    0.90395   0.87983   11.271
 5214.00    0.90530   0.88668   11.093
 5215.00    0.89968   0.89236   10.610
 5216.00    0.89431   0.89720   11.079
 5217.00    0.89590   0.90092   14.055
 5218.00    0.90161   0.90338   19.659
 5219.00    0.90430   0.90435   22.165
 5220.00    0.89988   0.90341   20.463
 5221.00    0.88889   0.90089   19.774
 5222.00    0.87700   0.89691   20.324
 5223.00    0.87026   0.89087   20.705
 5224.00    0.87013   0.88438   20.630
 5225.00    0.87124   0.87991   20.468
 5226.00    0.86153   0.87585   20.392
 5227.00    0.83908   0.87300   20.417
 5228.00    0.82387   0.87488   20.519
 5229.00    0.83117   0.87755   20.597
 5230.00    0.85073   0.87983   20.473
 5231.00    0.86648   0.88549   20.193
 5232.00    0.87289   0.89054   20.152
 5233.00    0.87245   0.89397   20.503
 5234.00    0.87220   0.89933   20.821
 5235.00    0.87862   0.90427   20.748
 5236.00    0.89345   0.90841   20.499
 5237.00    0.90982   0.91338   20.420
 5238.00    0.91295   0.91792   20.663
 5239.00    0.89918   0.92143   21.074
 5240.00    0.88404   0.92384   21.188
 5241.00    0.88076   0.92535   20.919
 5242.00    0.88902   0.92556   20.805
 5243.00    0.90374   0.92341   21.068
 5244.00    0.91951   0.92027   21.287
 5245.00    0.92703   0.91722   21.202
 5246.00    0.91512   0.91232   21.079
 5247.00    0.88928   0.90666   21.161
 5248.00    0.87351   0.90337   21.433
 5249.00    0.87842   0.90043   21.771
 5250.00    0.89111   0.89734   22.028
 5251.00    0.89443   0.89721   22.183
 5252.00    0.87920   0.89852   22.362
 5253.00    0.85828   0.90020   22.629
 5254.00    0.86025   0.90304   22.905
 5255.00    0.88672   0.90573   22.992
 5256.00    0.90883   0.90800   22.709
 5257.00    0.91102   0.90879   22.249
 5258.00    0.90058   0.90682   22.056
 5259.00    0.88717   0.90265   22.221
 5260.00    0.87634   0.89568   22.460
 5261.00    0.87108   0.88639   22.511
 5262.00    0.87184   0.87558   22.301
 5263.00    0.87511   0.86345   22.018
 5264.00    0.87444   0.85309   21.943
 5265.00    0.86467   0.84442   22.071
 5266.00    0.84541   0.83571   22.156
 5267.00    0.82667   0.83158   22.069
 5268.00    0.82160   0.83185   21.864
 5269.00    0.82611   0.83148   21.687
 5270.00    0.82699   0.83486   21.642
 5271.00    0.83014   0.84359   21.586
 5272.00    0.84952   0.85078   21.296
 5273.00    0.87158   0.85868   20.894
 5274.00    0.87136   0.87036   20.660
 5275.00    0.85807   0.87957   20.559
 5276.00    0.85911   0.88695   20.387
 5277.00    0.87411   0.89536   20.132
 5278.00    0.88448   0.90099   19.908
 5279.00    0.88468   0.90459   19.746
 5280.00    0.87975   0.90800   19.623
 5281.00    0.87226   0.91003   19.548
 5282.00    0.86483   0.91241   19.528
 5283.00    0.86674   0.91546   19.496
 5284.00    0.88491   0.91867   19.400
 5285.00    0.91006   0.92355   19.330
 5286.00    0.92869   0.92888   19.396
 5287.00    0.94167   0.93345   19.542
 5288.00    0.95515   0.93776   19.668
 5289.00    0.96616   0.94076   19.800
 5290.00    0.96635   0.94159   20.008
 5291.00    0.94935   0.94053   20.263
 5292.00    0.91880   0.93750   20.490
 5293.00    0.89481   0.93279   20.652
 5294.00    0.89168   0.92682   20.779
 5295.00    0.89562   0.92026   20.972
 5296.00    0.89008   0.91458   21.279
 5297.00    0.88208   0.90980   21.571
 5298.00    0.88358   0.90634   21.688
 5299.00    0.89260   0.90613   21.624
 5300.00    0.90494   0.90802   21.488
 5301.00    0.92461   0.91102   21.426
 5302.00    0.95008   0.91639   21.488
 5303.00    0.96455   0.92267   21.542
 5304.00    0.95876   0.92826   21.510
 5305.00    0.94694   0.93392   21.526
 5306.00    0.94445   0.93900   21.707
 5307.00    0.95086   0.94236   21.983
 5308.00    0.95636   0.94488   22.210
 5309.00    0.94905   0.94660   22.269
 5310.00    0.92833   0.94644   22.158
 5311.00    0.91040   0.94564   22.008
 5312.00    0.90781   0.94445   21.896
 5313.00    0.91760   0.94161   21.778
 5314.00    0.92877   0.93876   21.673
 5315.00    0.92911   0.93634   21.737
 5316.00    0.91582   0.93286   22.000
 5317.00    0.89888   0.92963   22.289
 5318.00    0.88837   0.92691   22.576
 5319.00    0.88761   0.92331   23.078
 5320.00    0.89274   0.91921   23.650
 5321.00    0.89502   0.91410   23.640
 5322.00    0.89100   0.90802   23.108
 5323.00    0.88591   0.90174   22.961
 5324.00    0.88770   0.89400   23.294
 5325.00    0.90126   0.88620   23.208
 5326.00    0.91630   0.88104   22.603
 5327.00    0.91111   0.87682   22.404
 5328.00    0.88464   0.87407   22.776
 5329.00    0.85930   0.87581   22.953
 5330.00    0.84776   0.87992   22.685
 5331.00    0.84696   0.88507   22.500
 5332.00    0.85827   0.89218   22.544
 5333.00    0.88651   0.89915   22.481
 5334.00    0.91589   0.90479   22.263
 5335.00    0.91736   0.90953   22.194
 5336.00    0.89164   0.91214   22.404
 5337.00    0.86792   0.91238   22.750
 5338.00    0.86510   0.91242   22.896
 5339.00    0.88227   0.91183   22.539
 5340.00    0.90314   0.90978   21.925
 5341.00    0.90855   0.90930   21.581
 5342.00    0.90261   0.90960   21.609
 5343.00    0.90377   0.90905   21.767
 5344.00    0.91059   0.91038   21.829
 5345.00    0.90818   0.91196   21.725
 5346.00    0.89860   0.91277   21.644
 5347.00    0.89529   0.91547   21.829
 5348.00    0.89895   0.91855   22.147
 5349.00    0.90129   0.92149   22.273
 5350.00    0.90128   0.92599   22.271
 5351.00    0.90331   0.93147   22.412
 5352.00    0.90828   0.93686   22.646
 5353.00    0.91482   0.94210   22.740
 5354.00    0.92365   0.94751   22.702
 5355.00    0.93497   0.95186   22.722
 5356.00    0.94358   0.95437   22.937
 5357.00    0.94385   0.95592   23.362
 5358.00    0.93801   0.95561   23.817
 5359.00    0.93218   0.95315   24.042
 5360.00    0.92935   0.95000   23.919
 5361.00    0.92961   0.94534   23.565
 5362.00    0.93181   0.93933   23.311
 5363.00    0.93355   0.93376   23.383
 5364.00    0.93113   0.92755   23.596
 5365.00    0.92232   0.92093   23.695
 5366.00    0.90938   0.91554   23.777
 5367.00    0.89724   0.91021   24.018
 5368.00    0.89085   0.90543   24.293
 5369.00    0.89177   0.90312   24.359
 5370.00    0.89557   0.90237   24.121
 5371.00    0.89818   0.90280   23.744
 5372.00    0.90171   0.90619   23.645
 5373.00    0.90900   0.91120   23.979
 5374.00    0.91824   0.91604   24.263
 5375.00    0.92487   0.92203   24.067
 5376.00    0.92418   0.92757   23.686
 5377.00    0.91676   0.93089   23.528
 5378.00    0.91122   0.93377   23.657
 5379.00    0.91243   0.93556   23.914
 5380.00    0.91396   0.93510   -2.000
 5381.00    0.90992   0.93463   -2.000
 5382.00    0.90307   0.93418   -2.000
 5383.00    0.89905   0.93230   -2.000
 5384.00    0.90131   0.93074   -2.000
 5385.00    0.90640   0.92956   -2.000
 5386.00    0.90376   0.92705   -2.000
 5387.00    0.89099   0.92426   -2.000
 5388.00    0.88026   0.92144   -2.000
 5389.00    0.88237   0.91763   -2.000
 5390.00    0.89753   0.91326   -2.000
 5391.00    0.91635   0.90880   -2.000
 5392.00    0.92364   0.90478   -2.000
 5393.00    0.91315   0.90054   -2.000
 5394.00    0.89260   0.89610   -2.000
 5395.00    0.87279   0.89390   23.009
 5396.00    0.86154   0.89221   23.393
 5397.00    0.86098   0.88956   23.478
 5398.00    0.86737   0.88916   23.295
 5399.00    0.87532   0.88935   23.066
 5400.00    0.88019   0.88755   23.077
 5401.00    0.88041   0.88603   23.338
 5402.00    0.87740   0.88457   23.576
 5403.00    0.87246   0.88166   23.666
 5404.00    0.86623   0.87905   23.736
 5405.00    0.86090   0.87734   23.891
 5406.00    0.85947   0.87595   24.123
 5407.00    0.86099   0.87634   24.349
 5408.00    0.86131   0.87899   24.449
 5409.00    0.85960   0.88253   24.377
 5410.00    0.85908   0.88736   24.205
 5411.00    0.86324   0.89378   24.167
 5412.00    0.87360   0.90019   24.473
 5413.00    0.88702   0.90660   24.824
 5414.00    0.89743   0.91268   24.665
 5415.00    0.90198   0.91746   24.297
 5416.00    0.90224   0.92168   24.483
 5417.00    0.90357   0.92446   25.093
 5418.00    0.91068   0.92557   25.348
 5419.00    0.91894   0.92657   25.208
 5420.00    0.91889   0.92607   25.236
 5421.00    0.90940   0.92431   25.527
 5422.00    0.89671   0.92351   25.761
 5423.00    0.88728   0.92155   25.737
 5424.00    0.88503   0.91874   25.476
 5425.00    0.88880   0.91694   25.149
 5426.00    0.89360   0.91338   24.981
 5427.00    0.89346   0.90978   25.136
 5428.00    0.88571   0.90734   25.568
 5429.00    0.87653   0.90252   25.764
 5430.00    0.87506   0.89884   25.290
 5431.00    0.88339   0.89748   24.688
 5432.00    0.89642   0.89534   24.630
 5433.00    0.90439   0.89519   24.871
 5434.00    0.90035   0.89754   24.882
 5435.00    0.88913   0.90081   24.798
 5436.00    0.88118   0.90570   24.930
 5437.00    0.88317   0.91150   25.013
 5438.00    0.89559   0.91730   24.703
 5439.00    0.91167   0.92245   24.253
 5440.00    0.92348   0.92613   24.020
 5441.00    0.92865   0.92778   23.932
 5442.00    0.92862   0.92750   23.824
 5443.00    0.92580   0.92514   23.771
 5444.00    0.92008   0.92132   23.881
 5445.00    0.90673   0.91770   24.079
 5446.00    0.88679   0.91355   24.199
 5447.00    0.87491   0.90983   24.110
 5448.00    0.88079   0.90821   23.880
 5449.00    0.89442   0.90670   23.834
 5450.00    0.90353   0.90553   24.137
 5451.00    0.90812   0.90524   24.512
 5452.00    0.91217   0.90408   24.677
 5453.00    0.91661   0.90332   24.708
 5454.00    0.92073   0.90325   24.721
 5455.00    0.92348   0.90234   24.641
 5456.00    0.92357   0.90247   24.514
 5457.00    0.91993   0.90361   24.652
 5458.00    0.91483   0.90453   25.090
 5459.00    0.91444   0.90573   25.336
 5460.00    0.92034   0.90646   25.188
 5461.00    0.92592   0.90747   25.154
 5462.00    0.92552   0.90847   25.497
 5463.00    0.91915   0.90818   25.838
 5464.00    0.90826   0.90876   25.894
 5465.00    0.89423   0.90976   25.856
 5466.00    0.88212   0.90949   25.852
 5467.00    0.88045   0.90919   25.767
 5468.00    0.89064   0.90905   25.726
 5469.00    0.90385   0.90788   26.080
 5470.00    0.90957   0.90518   26.336
 5471.00    0.90149   0.90246   25.439
 5472.00    0.88468   0.89987   25.016
 5473.00    0.87349   0.89539   28.320
 5474.00    0.87198   0.89162   30.846
 5475.00    0.87149   0.88979   21.091
 5476.00    0.86984   0.88720   13.206
 5477.00    0.87427   0.88563   10.813
 5478.00    0.88620   0.88633   10.943
 5479.00    0.89843   0.88776   11.308
 5480.00    0.90366   0.88970   11.109
 5481.00    0.89873   0.89212   11.194
 5482.00    0.88875   0.89545   11.439
 5483.00    0.88423   0.89878   10.900
 5484.00    0.88952   0.90123   10.646
 5485.00    0.90071   0.90397   13.057
 5486.00    0.90921   0.90638   20.868
 5487.00    0.90752   0.90728   29.186
 5488.00    0.90072   0.90847   26.111
 5489.00    0.90029   0.90995   23.604
 5490.00    0.90325   0.90997   24.321
 5491.00    0.89962   0.91031   -2.000
 5492.00    0.89889   0.91128   -2.000
 5493.00    0.91356   0.91106   -2.000
 5494.00    0.91445   0.91063   -2.000
 5495.00    0.86874   0.91083   -2.000
 5496.00    0.82880   0.91068   -2.000
 5497.00    0.87273   0.90945   -2.000
 5498.00    0.96704   0.90832   -2.000
 5499.00    1.01967   0.90774   -2.000
 5500.00    1.01335   0.90614   -2.000
 5501.00    0.98595   0.90409   -2.000
 5502.00    0.96076   0.90268   -2.000
 5503.00    0.93829   0.90068   -2.000
 5504.00    0.90257   0.89901   -2.000
 5505.00    0.84662   0.89811   -2.000
 5506.00    0.80494   0.89615   -2.000
 5507.00    0.81454   0.89500   -2.000
 5508.00    0.85837   0.89488   -2.000
 5509.00    0.89760   0.89350   -2.000
 5510.00    0.92122   0.89295   -2.000
 5511.00    0.93471   0.89315   -2.000
 5512.00    0.93946   0.89309   -2.000
 5513.00    0.93598   0.89441   -2.000
 5514.00    0.92978   0.89650   -2.000
 5515.00    0.92597   0.89940   26.651
 5516.00    0.92334   0.90321   26.717
 5517.00    0.92083   0.90681   26.778
 5518.00    0.92343   0.91078   26.682
 5519.00    0.93151   0.91412   26.461
 5520.00    0.93228   0.91604   26.478
 5521.00    0.91843   0.91714   26.893
 5522.00    0.90312   0.91678   27.250
 5523.00    0.89853   0.91529   27.177
 5524.00    0.89878   0.91309   27.010
 5525.00    0.89595   0.90992   27.046
 5526.00    0.89260   0.90723   27.000
 5527.00    0.89332   0.90508   26.584
 5528.00    0.89806   0.90287   25.951
 5529.00    0.90331   0.90209   25.432
 5530.00    0.90424   0.90256   25.317
 5531.00    0.90139   0.90312   25.571
 5532.00    0.90320   0.90402   25.747
 5533.00    0.91437   0.90578   25.642
 5534.00    0.92963   0.90760   25.632
 5535.00    0.94044   0.90896   25.919
 5536.00    0.94042   0.91112   26.183
 5537.00    0.93317   0.91325   26.113
 5538.00    0.93251   0.91473   25.739
 5539.00    0.94295   0.91659   25.305
 5540.00    0.95287   0.91800   25.108
 5541.00    0.95099   0.91914   25.257
 5542.00    0.93506   0.92021   25.612
 5543.00    0.91392   0.92054   25.923
 5544.00    0.90365   0.92134   25.972
 5545.00    0.90838   0.92255   25.932
 5546.00    0.91659   0.92318   26.207
 5547.00    0.91893   0.92422   26.226
 5548.00    0.91493   0.92560   25.015
 5549.00    0.91063   0.92628   24.713
 5550.00    0.91430   0.92664   29.038
 5551.00    0.92521   0.92664   32.061
 5552.00    0.93405   0.92606   20.255
 5553.00    0.93708   0.92515   12.185
 5554.00    0.93839   0.92365    9.991
 5555.00    0.94220   0.92215   10.273
 5556.00    0.94914   0.92093   10.784
 5557.00    0.95290   0.91911   10.610
 5558.00    0.94545   0.91734   10.490
 5559.00    0.93309   0.91578   10.680
 5560.00    0.93080   0.91368   10.770
 5561.00    0.93704   0.91174   10.677
 5562.00    0.93731   0.90957   10.678
 5563.00    0.92800   0.90707   10.795
 5564.00    0.91631   0.90525   10.852
 5565.00    0.90680   0.90349   10.966
 5566.00    0.89960   0.90159   11.315
 5567.00    0.89332   0.90053   11.366
 5568.00    0.88740   0.90034   10.710
 5569.00    0.88557   0.89979   10.830
 5570.00    0.89172   0.89970   14.161
 5571.00    0.90149   0.90134   23.914
 5572.00    0.90715   0.90214   32.502
 5573.00    0.90862   0.90274   28.182
 5574.00    0.91036   0.90521   25.903
 5575.00    0.91316   0.90675   27.106
 5576.00    0.91508   0.90756   27.429
 5577.00    0.91528   0.90930   26.349
 5578.00    0.91551   0.90960   25.925
 5579.00    0.92106   0.90896   26.147
 5580.00    0.93366   0.90832   26.117
 5581.00    0.94252   0.90572   26.010
 5582.00    0.93736   0.90211   26.343
 5583.00    0.92588   0.89816   26.709
 5584.00    0.91978   0.89293   26.493
 5585.00    0.91604   0.88783   26.009
 5586.00    0.90697   0.88291   25.855
 5587.00    0.89386   0.87842   26.115
 5588.00    0.88129   0.87579   26.546
 5589.00    0.86966   0.87416   26.812
 5590.00    0.85808   0.87409   26.734
 5591.00    0.84808   0.87549   26.539
 5592.00    0.84395   0.87731   26.502
 5593.00    0.85199   0.88008   26.626
 5594.00    0.87327   0.88228   26.749
 5595.00    0.89803   0.88395   26.679
 5596.00    0.91388   0.88617   26.422
 5597.00    0.91381   0.88700   26.287
 5598.00    0.90206   0.88682   26.460
 5599.00    0.89567   0.88755   26.722
 5600.00    0.90409   0.88843   26.877
 5601.00    0.91625   0.88993   27.049
 5602.00    0.92016   0.89248   27.269
 5603.00    0.91629   0.89571   27.230
 5604.00    0.90938   0.90046   26.908
 5605.00    0.90279   0.90546   26.826
 5606.00    0.90084   0.90993   27.069
 5607.00    0.90921   0.91389   26.897
 5608.00    0.92690   0.91680   26.073
 5609.00    0.94370   0.91824   25.367
 5610.00    0.95222   0.91790   25.187
 5611.00    0.95331   0.91611   25.198
 5612.00    0.94885   0.91283   25.115
 5613.00    0.93839   0.90918   25.024
 5614.00    0.92291   0.90534   25.053
 5615.00    0.90602   0.90057   25.209
 5616.00    0.89139   0.89730   25.415
 5617.00    0.88138   0.89569   25.565
 5618.00    0.87678   0.89421   25.749
 5619.00    0.87727   0.89344   26.199
 5620.00    0.88335   0.89324   26.650
 5621.00    0.89539   0.89342   26.374
 5622.00    0.90701   0.89411   25.616
 5623.00    0.90776   0.89484   25.468
 5624.00    0.90096   0.89522   26.062
 5625.00    0.90228   0.89637   26.502
 5626.00    0.91370   0.89877   26.477
 5627.00    0.92261   0.90095   26.547
 5628.00    0.92656   0.90317   26.809
 5629.00    0.93434   0.90577   26.791
 5630.00    0.94586   0.90776   26.485
 5631.00    0.95140   0.90918   26.374
 5632.00    0.94635   0.90967   26.655
 5633.00    0.93361   0.90904   27.173
 5634.00    0.91894   0.90787   27.715
 5635.00    0.90778   0.90612   28.093
 5636.00    0.90068   0.90390   28.204
 5637.00    0.89524   0.90166   28.080
 5638.00    0.89280   0.89963   27.924
 5639.00    0.89532   0.89835   27.995
 5640.00    0.89567   0.89752   28.374
 5641.00    0.88458   0.89673   28.927
 5642.00    0.86836   0.89713   29.292
 5643.00    0.86205   0.89801   29.149
 5644.00    0.86975   0.89891   28.783
 5645.00    0.88547   0.90038   28.688
 5646.00    0.90165   0.90162   28.787
 5647.00    0.91304   0.90294   28.701
 5648.00    0.92056   0.90433   28.382
 5649.00    0.92648   0.90484   28.068
 5650.00    0.92642   0.90482   28.012
 5651.00    0.91509   0.90445   28.304
 5652.00    0.89646   0.90324   28.656
 5653.00    0.87895   0.90126   28.707
 5654.00    0.86691   0.89829   28.542
 5655.00    0.86185   0.89455   28.400
 5656.00    0.86541   0.89160   28.200
 5657.00    0.87578   0.88878   27.863
 5658.00    0.88347   0.88518   27.702
 5659.00    0.88006   0.88320   27.906
 5660.00    0.86852   0.88318   27.970
 5661.00    0.85757   0.88346   27.492
 5662.00    0.85407   0.88418   27.039
 5663.00    0.86071   0.88580   27.125
 5664.00    0.87460   0.88824   27.317
 5665.00    0.88891   0.89104   27.109
 5666.00    0.89537   0.89358   26.822
 5667.00    0.89145   0.89581   26.915
 5668.00    0.88567   0.89844   27.359
 5669.00    0.88714   0.90142   27.822
 5670.00    0.89655   0.90412   27.878
 5671.00    0.90885   0.90665   27.492
 5672.00    0.91671   0.90925   27.257
 5673.00    0.91600   0.91170   27.525
 5674.00    0.90924   0.91348   27.927
 5675.00    0.90104   0.91428   28.126
 5676.00    0.89469   0.91461   28.363
 5677.00    0.89183   0.91439   28.767
 5678.00    0.89247   0.91309   28.925
 5679.00    0.89482   0.91096   28.662
 5680.00    0.89582   0.90872   28.453
 5681.00    0.89421   0.90650   28.627
 5682.00    0.89185   0.90385   28.998
 5683.00    0.89044   0.90149   29.253
 5684.00    0.88989   0.89997   29.225
 5685.00    0.89032   0.89911   29.004
 5686.00    0.89268   0.89877   28.873
 5687.00    0.89686   0.89902   28.815
 5688.00    0.90107   0.90008   28.439
 5689.00    0.90364   0.90190   27.686
 5690.00    0.90407   0.90400   26.988
 5691.00    0.90370   0.90580   26.711
 5692.00    0.90505   0.90748   26.972
 5693.00    0.90849   0.90846   27.521
 5694.00    0.91183   0.90858   27.782
 5695.00    0.91414   0.90779   27.537
 5696.00    0.91623   0.90624   27.135
 5697.00    0.91673   0.90412   26.983
 5698.00    0.91200   0.90083   27.291
 5699.00    0.90051   0.89775   27.860
 5700.00    0.88456   0.89467   28.148
 5701.00    0.87072   0.89106   28.001
 5702.00    0.86625   0.88798   27.761
 5703.00    0.86853   0.88482   27.668
 5704.00    0.86743   0.88195   27.716
 5705.00    0.86103   0.87949   27.766
 5706.00    0.85541   0.87655   27.664
 5707.00    0.85235   0.87470   27.486
 5708.00    0.84898   0.87381   27.405
 5709.00    0.84495   0.87324   27.252
 5710.00    0.84358   0.87487   26.742
 5711.00    0.84995   0.87729   26.184
 5712.00    0.86707   0.88035   26.128
 5713.00    0.88868   0.88547   26.516
 5714.00    0.90372   0.89059   26.885
 5715.00    0.90858   0.89577   27.110
 5716.00    0.90712   0.90136   27.388
 5717.00    0.90583   0.90607   27.820
 5718.00    0.91018   0.91038   28.336
 5719.00    0.92011   0.91429   28.727
 5720.00    0.93179   0.91703   28.807
 5721.00    0.94226   0.91902   28.715
 5722.00    0.94965   0.92031   28.729
 5723.00    0.95261   0.92064   28.899
 5724.00    0.95067   0.92035   29.098
 5725.00    0.94510   0.91978   29.182
 5726.00    0.93891   0.91861   29.096
 5727.00    0.93643   0.91713   28.966
 5728.00    0.93948   0.91618   28.934
 5729.00    0.94282   0.91568   28.923
 5730.00    0.94074   0.91540   28.758
 5731.00    0.93576   0.91501   28.362
 5732.00    0.93353   0.91510   27.854
 5733.00    0.93566   0.91593   27.571
 5734.00    0.94036   0.91658   27.710
 5735.00    0.94422   0.91715   28.009
 5736.00    0.94432   0.91739   28.069
 5737.00    0.94036   0.91751   27.778
 5738.00    0.93512   0.91774   27.293
 5739.00    0.93421   0.91766   26.895
 5740.00    0.93945   0.91747    0.000
 5741.00    0.94376   0.91744    0.000
 5742.00    0.93978   0.91726    0.000
 5743.00    0.92786   0.91680    0.000
 5744.00    0.91487   0.91660    0.000
 5745.00    0.91151   0.91623    0.000
 5746.00    0.92187   0.91572    0.000
 5747.00    0.93703   0.91478    0.000
 5748.00    0.94695   0.91317    0.000
 5749.00    0.94909   0.91204    0.000
 5750.00    0.94532   0.91115    0.000
 5751.00    0.93901   0.91004    0.000
 5752.00    0.93283   0.90899    0.000
 5753.00    0.92758   0.90814    0.000
 5754.00    0.92297   0.90772    0.000
 5755.00    0.91848   0.90812    0.000
 5756.00    0.91531   0.90861    0.000
 5757.00    0.91674   0.90866    0.000
 5758.00    0.92411   0.90880    0.000
 5759.00    0.93481   0.90889    0.000
 5760.00    0.94325   0.90901    0.000
 5761.00    0.94281   0.90946    0.000
 5762.00    0.93207   0.90993    0.000
 5763.00    0.91682   0.91074    0.000
 5764.00    0.90560   0.91254    0.000
 5765.00    0.90580   0.91434    0.000
 5766.00    0.91613   0.91592    0.000
 5767.00    0.92687   0.91742    0.000
 5768.00    0.93279   0.91854    0.000
 5769.00    0.93625   0.91915    0.000
 5770.00    0.93942   0.91920    0.000
 5771.00    0.94141   0.91853    0.000
 5772.00    0.93893   0.91708    0.000
 5773.00    0.92917   0.91551    0.000
 5774.00    0.91817   0.91323    0.000
 5775.00    0.91705   0.91028    0.000
 5776.00    0.92319   0.90709    0.000
 5777.00    0.92230   0.90322    0.000
 5778.00    0.91100   0.89911    0.000
 5779.00    0.89770   0.89489    0.000
 5780.00    0.88739   0.89035    0.000
 5781.00    0.87928   0.88628    0.000
 5782.00    0.87141   0.88346    0.000
 5783.00    0.86381   0.88179    0.000
 5784.00    0.86271   0.88139    0.000
 5785.00    0.87512   0.88156    0.000
 5786.00    0.89496   0.88313    0.000
 5787.00    0.90801   0.88624    0.000
 5788.00    0.90838   0.88939    0.000
 5789.00    0.89983   0.89319    0.000
 5790.00    0.89119   0.89654    0.000
 5791.00    0.89015   0.89961    0.000
 5792.00    0.89387   0.90319    0.000
 5793.00    0.89486   0.90595    0.000
 5794.00    0.89373   0.90860    0.000
 5795.00    0.89591   0.91103    0.000
 5796.00    0.90274   0.91289    0.000
 5797.00    0.91189   0.91463    0.000
 5798.00    0.92030   0.91602    0.000
 5799.00    0.92585   0.91753    0.000
 5800.00    0.92898   0.91887    0.000
 5801.00    0.93143   0.91943    0.000
 5802.00    0.93404   0.91980    0.000
 5803.00    0.93580   0.91972    0.000
 5804.00    0.93311   0.91932    0.000
 5805.00    0.92393   0.91914   -2.000
 5806.00    0.91247   0.91872   -2.000
 5807.00    0.90434   0.91848   -2.000
 5808.00    0.90054   0.91837   -2.000
 5809.00    0.89873   0.91804   -2.000
 5810.00    0.89559   0.91804   -2.000
 5811.00    0.89028   0.91802   -2.000
 5812.00    0.88714   0.91796   -2.000
 5813.00    0.88908   0.91806   -2.000
 5814.00    0.89191   0.91810   -2.000
 5815.00    0.89189   0.91837   -2.000
 5816.00    0.89213   0.91881   -2.000
 5817.00    0.89523   0.91969   -2.000
 5818.00    0.89753   0.92108   -2.000
 5819.00    0.89673   0.92235   -2.000
 5820.00    0.89737   0.92367   -2.000
 5821.00    0.90380   0.92483   -2.000
 5822.00    0.91494   0.92589   -2.000
 5823.00    0.92688   0.92684   -2.000
 5824.00    0.93534   0.92741    0.000
 5825.00    0.93818   0.92791    0.000
 5826.00    0.93682   0.92808    0.000
 5827.00    0.93467   0.92811    0.000
 5828.00    0.93551   0.92799    0.000
 5829.00    0.93994   0.92773    0.000
 5830.00    0.94427   0.92739    0.000
 5831.00    0.94550   0.92686    0.000
 5832.00    0.94385   0.92629    0.000
 5833.00    0.94096   0.92567    0.000
 5834.00    0.93846   0.92509    0.000
 5835.00    0.93607   0.92462    0.000
 5836.00    0.93176   0.92461    0.000
 5837.00    0.92693   0.92474    0.000
 5838.00    0.92658   0.92476    0.000
 5839.00    0.93034   0.92493    0.000
 5840.00    0.93109   0.92515    0.000
 5841.00    0.92513   0.92527    0.000
 5842.00    0.91531   0.92486    0.000
 5843.00    0.90718   0.92392    0.000
 5844.00    0.90602   0.92254    0.000
 5845.00    0.91197   0.92076    0.000
 5846.00    0.92059   0.91854    0.000
 5847.00    0.93016   0.91566    0.000
 5848.00    0.94211   0.91256    0.000
 5849.00    0.95471   0.90946    0.000
 5850.00    0.96260   0.90623    0.000
 5851.00    0.96110   0.90290    0.000
 5852.00    0.94866   0.89927    0.000
 5853.00    0.92979   0.89578    0.000
 5854.00    0.91284   0.89315    0.000
 5855.00    0.90247   0.89113    0.000
 5856.00    0.89809   0.88956    0.000
 5857.00    0.89508   0.88809    0.000
 5858.00    0.88809   0.88755    0.000
 5859.00    0.87732   0.88837    0.000
 5860.00    0.86829   0.88968    0.000
 5861.00    0.86795   0.89133    0.000
 5862.00    0.88044   0.89263    0.000
 5863.00    0.90064   0.89438    0.000
 5864.00    0.91819   0.89655    0.000
 5865.00    0.92746   0.89851    0.000
 5866.00    0.92886   0.90003    0.000
 5867.00    0.92748   0.90104    0.000
 5868.00    0.92853   0.90228    0.000
 5869.00    0.93034   0.90311    0.000
 5870.00    0.92957   0.90346    0.000
 5871.00    0.93076   0.90316    0.000
 5872.00    0.94255   0.90216    0.000
 5873.00    0.96988   0.90122    0.000
 5874.00    1.01068   0.89953    0.000
 5875.00    1.05331   0.89759    0.000
 5876.00    1.08203   0.89551    0.000
 5877.00    1.08489   0.89333    0.000
 5878.00    1.05925   0.89129    0.000
 5879.00    1.01664   0.88833    0.000
 5880.00    0.97448   0.88503    0.000
 5881.00    0.94546   0.88107    0.000
 5882.00    0.93298   0.87617    0.000
 5883.00    0.92818   0.86956    0.000
 5884.00    0.91952   0.86041    0.000
 5885.00    0.90265   0.84977    0.000
 5886.00    0.87870   0.83881    0.000
 5887.00    0.85158   0.82728    0.000
 5888.00    0.82629   0.81526    0.000
 5889.00    0.80737   0.80346    0.000
 5890.00    0.79690   0.79253    0.000
 5891.00    0.79303   0.78594    0.000
 5892.00    0.79155   0.78312    0.000
 5893.00    0.78794   0.78212    0.000
 5894.00    0.78193   0.78409    0.000
 5895.00    0.77980   0.78732    0.000
 5896.00    0.78569   0.79347    0.000
 5897.00    0.79634   0.80343    0.000
 5898.00    0.80826   0.81405    0.000
 5899.00    0.82211   0.82497    0.000
 5900.00    0.83848   0.83573    0.000
 5901.00    0.85545   0.84596   31.160
 5902.00    0.87097   0.85604   30.978
 5903.00    0.88425   0.86490   30.773
 5904.00    0.89549   0.87194   30.827
 5905.00    0.90534   0.87746   30.847
 5906.00    0.91342   0.88175   30.548
 5907.00    0.91815   0.88491   29.968
 5908.00    0.91992   0.88699   29.379
 5909.00    0.92167   0.88787   29.110
 5910.00    0.92454   0.88817   29.171
 5911.00    0.92615   0.88799   29.228
 5912.00    0.92239   0.88756   29.134
 5913.00    0.90970   0.88686   29.076
 5914.00    0.89075   0.88578   29.183
 5915.00    0.87443   0.88556   29.396
 5916.00    0.86692   0.88542   29.579
 5917.00    0.86873   0.88586   29.594
 5918.00    0.87663   0.88673   29.446
 5919.00    0.88533   0.88750   29.262
 5920.00    0.89041   0.88887   29.084
 5921.00    0.89004   0.89005   28.883
 5922.00    0.88687   0.89098   28.809
 5923.00    0.88656   0.89192   29.105
 5924.00    0.89185   0.89241   29.646
 5925.00    0.90115   0.89256   29.994
 5926.00    0.90973   0.89284   30.079
 5927.00    0.91247   0.89266   30.220
 5928.00    0.90980   0.89235   30.531
 5929.00    0.90630   0.89184   30.876
 5930.00    0.90362   0.89117   31.148
 5931.00    0.90015   0.89137   31.360
 5932.00    0.89435   0.89151   31.628
 5933.00    0.88649   0.89161   32.046
 5934.00    0.88050   0.89172   32.374
 5935.00    0.88081   0.89169   32.290
 5936.00    0.88545   0.89215   32.072
 5937.00    0.88957   0.89254   32.177
 5938.00    0.89460   0.89275   32.257
 5939.00    0.90489   0.89294   31.699
 5940.00    0.91868   0.89287   30.907
 5941.00    0.93007   0.89269   30.564
 5942.00    0.93506   0.89265   30.367
 5943.00    0.93288   0.89246   29.766
 5944.00    0.92627   0.89219   29.231
 5945.00    0.91875   0.89207   29.427
 5946.00    0.91064   0.89169   29.999
 5947.00    0.90130   0.89097   30.181
 5948.00    0.89280   0.88996   29.997
 5949.00    0.88729   0.88905   29.874
 5950.00    0.88314   0.88853   29.837
 5951.00    0.87845   0.88789   29.729
 5952.00    0.87578   0.88706   29.573
 5953.00    0.87768   0.88649   29.514
 5954.00    0.88124   0.88663   29.674
 5955.00    0.88173   0.88731   30.053
 5956.00    0.87753   0.88796   30.429
 5957.00    0.87118   0.88898   30.612
 5958.00    0.86937   0.89038   30.737
 5959.00    0.87674   0.89217   30.939
 5960.00    0.89006   0.89415   31.026
 5961.00    0.90234   0.89578   30.906
 5962.00    0.90747   0.89757   30.956
 5963.00    0.90476   0.89899   31.436
 5964.00    0.90134   0.90031   32.018
 5965.00    0.90258   0.90140   32.359
 5966.00    0.90497   0.90211   32.622
 5967.00    0.90447   0.90301   32.971
 5968.00    0.90286   0.90349   33.145
 5969.00    0.90500   0.90371   32.829
 5970.00    0.91553   0.90355   32.018
 5971.00    0.93244   0.90286   31.117
 5972.00    0.94487   0.90184   30.755
 5973.00    0.94622   0.90038   30.972
 5974.00    0.94112   0.89860   30.963
 5975.00    0.93491   0.89662   30.410
 5976.00    0.92767   0.89446   30.050
 5977.00    0.91809   0.89245   30.221
 5978.00    0.90615   0.89056   30.344
 5979.00    0.89512   0.88891   30.061
 5980.00    0.89089   0.88782   29.744
 5981.00    0.89342   0.88697   29.762
 5982.00    0.89493   0.88621   30.151
 5983.00    0.89091   0.88571   30.602
 5984.00    0.88401   0.88531   30.593
 5985.00    0.87771   0.88575   30.231
 5986.00    0.87361   0.88658   30.269
 5987.00    0.87242   0.88751   30.815
 5988.00    0.87414   0.88888   31.131
 5989.00    0.87681   0.89025   30.988
 5990.00    0.87752   0.89172   30.976
 5991.00    0.87757   0.89286   31.305
 5992.00    0.88208   0.89372   31.611
 5993.00    0.89190   0.89458   31.792
 5994.00    0.90250   0.89500   32.127
 5995.00    0.90927   0.89489   32.580
 5996.00    0.90981   0.89437   32.764
 5997.00    0.90518   0.89333   32.653
 5998.00    0.89880   0.89219   32.608
 5999.00    0.89215   0.89124   32.746
 6000.00    0.88493   0.89006   32.886
 6001.00    0.87857   0.88888   32.893
 6002.00    0.87578   0.88740   32.737
 6003.00    0.87689   0.88579   32.428
 6004.00    0.88004   0.88494   32.001
 6005.00    0.88370   0.88412   31.556
 6006.00    0.88741   0.88323   31.214
 6007.00    0.89202   0.88246   31.045
 6008.00    0.89797   0.88149   31.030
 6009.00    0.90176   0.88140   31.024
 6010.00    0.89917   0.88164   30.862
 6011.00    0.89269   0.88147   30.587
 6012.00    0.88841   0.88124   30.337
 6013.00    0.88802   0.88072   30.083
 6014.00    0.88889   0.88044   29.879
 6015.00    0.88707   0.88023   30.284
 6016.00    0.88023   0.87970   31.477
 6017.00    0.87145   0.87929   31.515
 6018.00    0.86589   0.87924   29.710
 6019.00    0.86480   0.87916   31.153
 6020.00    0.86702   0.87948   39.473
 6021.00    0.87214   0.88033   34.215
 6022.00    0.88047   0.88146   17.740
 6023.00    0.89204   0.88331   11.444
 6024.00    0.90480   0.88515   10.285
 6025.00    0.91284   0.88760   10.905
 6026.00    0.91226   0.89017   11.285
 6027.00    0.90782   0.89252   11.029
 6028.00    0.90686   0.89528   10.829
 6029.00    0.91159   0.89766   10.966
 6030.00    0.91941   0.89992   11.199
 6031.00    0.92451   0.90175   10.805
 6032.00    0.92323   0.90332   10.082
 6033.00    0.91856   0.90470   10.988
 6034.00    0.91491   0.90554   16.621
 6035.00    0.91294   0.90609   32.022
 6036.00    0.91218   0.90646   38.843
 6037.00    0.91335   0.90654   30.855
 6038.00    0.91602   0.90667   29.056
 6039.00    0.91702   0.90666   30.670
 6040.00    0.91503   0.90668   30.838
 6041.00    0.91367   0.90701   30.228
 6042.00    0.91663   0.90729   30.611
 6043.00    0.92418   0.90798   31.111
 6044.00    0.93433   0.90861   30.829
 6045.00    0.94403   0.90920   30.664
 6046.00    0.95030   0.90969   31.214
 6047.00    0.95116   0.90989   31.648
 6048.00    0.94660   0.90983   31.418
 6049.00    0.93886   0.90932   31.267
 6050.00    0.93001   0.90867   31.674
 6051.00    0.92095   0.90759   32.166
 6052.00    0.91266   0.90632   32.334
 6053.00    0.90672   0.90483   32.394
 6054.00    0.90376   0.90344   32.648
 6055.00    0.90275   0.90217   33.153
 6056.00    0.90186   0.90082   33.595
 6057.00    0.89926   0.89983   33.403
 6058.00    0.89520   0.89875   32.703
 6059.00    0.89219   0.89806   32.355
 6060.00    0.89200   0.89721   32.645
 6061.00    0.89423   0.89660   33.081
 6062.00    0.89575   0.89631   33.239
 6063.00    0.89223   0.89598   33.113
 6064.00    0.88463   0.89639   32.911
 6065.00    0.87927   0.89678   32.839
 6066.00    0.88004   0.89822   32.711
 6067.00    0.88634   0.90041   32.115
 6068.00    0.89553   0.90253   31.320
 6069.00    0.90402   0.90486   31.030
 6070.00    0.90794   0.90672   31.224
 6071.00    0.90479   0.90825   31.251
 6072.00    0.89743   0.90917   30.963
 6073.00    0.89295   0.90926   30.763
 6074.00    0.89654   0.90863   30.841
 6075.00    0.90830   0.90726   31.068
 6076.00    0.91971   0.90512   31.209
 6077.00    0.91901   0.90257   31.134
 6078.00    0.90587   0.89971   31.180
 6079.00    0.89007   0.89697   31.838
 6080.00    0.88072   0.89461   32.887
 6081.00    0.88210   0.89237   33.552
 6082.00    0.89040   0.89043   33.604
 6083.00    0.89738   0.88910   33.409
 6084.00    0.89868   0.88819   33.223
 6085.00    0.89450   0.88736   33.108
 6086.00    0.88760   0.88697   33.085
 6087.00    0.88161   0.88689   33.154
 6088.00    0.87871   0.88697   33.293
 6089.00    0.87911   0.88704   33.449
 6090.00    0.88089   0.88711   33.552
 6091.00    0.88164   0.88753   33.558
 6092.00    0.88108   0.88810   33.516
 6093.00    0.88037   0.88855   33.495
 6094.00    0.88054   0.88921   33.446
 6095.00    0.88188   0.88952   33.259
 6096.00    0.88350   0.88932   32.852
 6097.00    0.88399   0.88854   32.262
 6098.00    0.88247   0.88744   31.711
 6099.00    0.87944   0.88643   31.385
 6100.00    0.87741   0.88496   31.238
 6101.00    0.87845   0.88358   31.129
 6102.00    0.88147   0.88194   30.986
 6103.00    0.88443   0.88087   30.879
 6104.00    0.88689   0.88134   31.050
 6105.00    0.88853   0.88222   31.557
 6106.00    0.88757   0.88366   31.939
 6107.00    0.88321   0.88530   31.933
 6108.00    0.87770   0.88697   32.163
 6109.00    0.87444   0.88888   33.038
 6110.00    0.87578   0.89055   33.768
 6111.00    0.88127   0.89178   33.619
 6112.00    0.88687   0.89257   33.214
 6113.00    0.88896   0.89281   33.239
 6114.00    0.88743   0.89228   33.502
 6115.00    0.88397   0.89100   33.671
 6116.00    0.88049   0.88909   33.822
 6117.00    0.87811   0.88677   34.060
 6118.00    0.87662   0.88439   34.235
 6119.00    0.87602   0.88172   34.194
 6120.00    0.87716   0.87914   33.951
 6121.00    0.88028   0.87709   33.607
 6122.00    0.88415   0.87516   33.264
 6123.00    0.88708   0.87466   32.924
 6124.00    0.88781   0.87508   32.498
 6125.00    0.88726   0.87572   32.100
 6126.00    0.88859   0.87681   32.049
 6127.00    0.89258   0.87768   32.266
 6128.00    0.89613   0.87849   32.153
 6129.00    0.89659   0.87872   31.632
 6130.00    0.89378   0.87842   31.367
 6131.00    0.88926   0.87757   31.606
 6132.00    0.88547   0.87555   31.906
 6133.00    0.88342   0.87317   31.961
 6134.00    0.88217   0.87027   31.908
 6135.00    0.88051   0.86724   31.924
 6136.00    0.87789   0.86467   32.051
 6137.00    0.87510   0.86267   32.206
 6138.00    0.87402   0.86269   32.273
 6139.00    0.87596   0.86404   32.422
 6140.00    0.88079   0.86615   33.017
 6141.00    0.88598   0.86858   33.905
 6142.00    0.88775   0.87120   34.418
 6143.00    0.88528   0.87435   34.513
 6144.00    0.88127   0.87713   34.797
 6145.00    0.87942   0.87952   35.217
 6146.00    0.88242   0.88130   35.027
 6147.00    0.88856   0.88214   33.953
 6148.00    0.89265   0.88212   32.381
 6149.00    0.89059   0.88165   30.769
 6150.00    0.88116   0.88082   29.472
 6151.00    0.86726   0.87982   28.802
 6152.00    0.85448   0.87827   28.932
 6153.00    0.84727   0.87631   29.571
 6154.00    0.84734   0.87336   30.122
 6155.00    0.85234   0.86964   30.333
 6156.00    0.85772   0.86549   30.354
 6157.00    0.86094   0.86059   30.356
 6158.00    0.86162   0.85544   30.433
 6159.00    0.86013   0.85002   30.588
 6160.00    0.85710   0.84481   30.838
 6161.00    0.85287   0.83955   31.391
 6162.00    0.84789   0.83513   32.361
 6163.00    0.84332   0.83239   33.152
 6164.00    0.84085   0.83102   33.051
 6165.00    0.84215   0.83102   32.620
 6166.00    0.84740   0.83169   32.811
 6167.00    0.85351   0.83333   33.530
 6168.00    0.85694   0.83536   34.079
 6169.00    0.85796   0.83732   34.081
 6170.00    0.85873   0.84001   33.544
 6171.00    0.86007   0.84342   32.656
 6172.00    0.86178   0.84694   31.727
 6173.00    0.86335   0.85006   31.132
 6174.00    0.86437   0.85337   31.085
 6175.00    0.86479   0.85647   31.446
 6176.00    0.86477   0.85926   31.965
 6177.00    0.86450   0.86176   32.533
 6178.00    0.86403   0.86425   32.980
 6179.00    0.86307   0.86613   32.879
 6180.00    0.86186   0.86715   32.097
 6181.00    0.86170   0.86780   31.231
 6182.00    0.86328   0.86772   30.836
 6183.00    0.86518   0.86689   30.948
 6184.00    0.86559   0.86511   31.372
 6185.00    0.86383   0.86305   31.884
 6186.00    0.86004   0.86037   32.290
 6187.00    0.85474   0.85754   32.486
 6188.00    0.84806   0.85503   32.493
 6189.00    0.83947   0.85279   32.448
 6190.00    0.82965   0.85141   32.501
 6191.00    0.82132   0.85020   32.738
 6192.00    0.81519   0.85015   33.272
 6193.00    0.80824   0.85128   34.234
 6194.00    0.79989   0.85268   35.267
 6195.00    0.79497   0.85466   35.324
 6196.00    0.79739   0.85658   34.473
 6197.00    0.80650   0.85850   34.353
 6198.00    0.81907   0.86019   35.243
 6199.00    0.83095   0.86155   35.137
 6200.00    0.83972   0.86300   33.371
 6201.00    0.84561   0.86455   31.872
 6202.00    0.84937   0.86597   31.600
 6203.00    0.85128   0.86718   32.019
 6204.00    0.85170   0.86798   32.638
 6205.00    0.85122   0.86833   33.464
 6206.00    0.85020   0.86800   34.329
 6207.00    0.84887   0.86697   34.674
 6208.00    0.84838   0.86523   34.305
 6209.00    0.85062   0.86272   33.569
 6210.00    0.85600   0.85957   -2.000
 6211.00    0.86271   0.85583   -2.000
 6212.00    0.86718   0.85196   -2.000
 6213.00    0.86554   0.84781   -2.000
 6214.00    0.85729   0.84411   -2.000
 6215.00    0.84548   0.84116   -2.000
 6216.00    0.83309   0.83877   -2.000
 6217.00    0.82240   0.83738   -2.000
 6218.00    0.81682   0.83660   -2.000
 6219.00    0.81968   0.83617   -2.000
 6220.00    0.82952   0.83622   -2.000
 6221.00    0.84095   0.83661   -2.000
 6222.00    0.85043   0.83713   30.631
 6223.00    0.85679   0.83749   31.102
 6224.00    0.85890   0.83741   31.907
 6225.00    0.85576   0.83728   33.044
 6226.00    0.84829   0.83666   34.439
 6227.00    0.83936   0.83588   35.880
 6228.00    0.83283   0.83504   36.873
 6229.00    0.83166   0.83417   36.960
 6230.00    0.83448   0.83329   36.532
 6231.00    0.83747   0.83285   36.300
 6232.00    0.83910   0.83328   36.103
 6233.00    0.83980   0.83366   35.367
 6234.00    0.83976   0.83469   34.218
 6235.00    0.83911   0.83538   33.191
 6236.00    0.83873   0.83550   32.587
 6237.00    0.83945   0.83523   32.472
 6238.00    0.84047   0.83429   32.754
 6239.00    0.84066   0.83312   33.124
 6240.00    0.84073   0.83158   32.982
 6241.00    0.84162   0.83042   31.970
 6242.00    0.84195   0.82941   30.629
 6243.00    0.84059   0.82826   29.658
 6244.00    0.84019   0.82796   29.218
 6245.00    0.84391   0.82779   29.318
 6246.00    0.85078   0.82781   30.202
 6247.00    0.85727   0.82810   31.961
 6248.00    0.85993   0.82828   33.800
 6249.00    0.85609   0.82797   34.733
 6250.00    0.84457   0.82706   35.199
 6251.00    0.82771   0.82568   35.992
 6252.00    0.81286   0.82355   36.649
 6253.00    0.80620   0.82173   36.552
 6254.00    0.80706   0.81984   36.303
 6255.00    0.81177   0.81866   36.490
 6256.00    0.81778   0.81788   36.580
 6257.00    0.82338   0.81789   36.075
 6258.00    0.82721   0.81869   35.494
 6259.00    0.82879   0.82038   35.296
 6260.00    0.82894   0.82334   35.148
 6261.00    0.82894   0.82624   34.692
 6262.00    0.82983   0.82973   34.090
 6263.00    0.83142   0.83314   33.625
 6264.00    0.83186   0.83622   33.401
 6265.00    0.82951   0.83874   33.311
 6266.00    0.82429   0.84109   33.056
 6267.00    0.81806   0.84318   32.485
 6268.00    0.81449   0.84479   31.764
 6269.00    0.81721   0.84616   31.157
 6270.00    0.82805   0.84727   30.880
 6271.00    0.84406   0.84820   31.006
 6272.00    0.85731   0.84890   31.456
 6273.00    0.86303   0.84943   32.132
 6274.00    0.86292   0.84958   32.956
 6275.00    0.85968   0.84963   33.675
 6276.00    0.85435   0.84947   33.874
 6277.00    0.84766   0.84923   33.623
 6278.00    0.84072   0.84889   33.585
 6279.00    0.83514   0.84880   34.124
 6280.00    0.83262   0.84874    0.000
 6281.00    0.83311   0.84921    0.000
 6282.00    0.83487   0.85019    0.000
 6283.00    0.83745   0.85134    0.000
 6284.00    0.84203   0.85305    0.000
 6285.00    0.84827   0.85445    0.000
 6286.00    0.85394   0.85603    0.000
 6287.00    0.85760   0.85729    0.000
 6288.00    0.85940   0.85809    0.000
 6289.00    0.86023   0.85840    0.000
 6290.00    0.86130   0.85793    0.000
 6291.00    0.86356   0.85694    0.000
 6292.00    0.86756   0.85553    0.000
 6293.00    0.87368   0.85366    0.000
 6294.00    0.88260   0.85174    0.000
 6295.00    0.89643   0.84971    0.000
 6296.00    0.91779   0.84763    0.000
 6297.00    0.94697   0.84586    0.000
 6298.00    0.98180   0.84456    0.000
 6299.00    1.01924   0.84385    0.000
 6300.00    1.05462   0.84368    0.000
 6301.00    1.07930   0.84392    0.000
 6302.00    1.08312   0.84475    0.000
 6303.00    1.06057   0.84610    0.000
 6304.00    1.01412   0.84786    0.000
 6305.00    0.95788   0.84958    0.000
 6306.00    0.91034   0.85119    0.000
 6307.00    0.87996   0.85275    0.000
 6308.00    0.86506   0.85361    0.000
 6309.00    0.85846   0.85395    0.000
 6310.00    0.85313   0.85353    0.000
 6311.00    0.84961   0.85254    0.000
 6312.00    0.85158   0.85116    0.000
 6313.00    0.85740   0.84969    0.000
 6314.00    0.86226   0.84806    0.000
 6315.00    0.86318   0.84644    0.000
 6316.00    0.86024   0.84550    0.000
 6317.00    0.85709   0.84510    0.000
 6318.00    0.85729   0.84497    0.000
 6319.00    0.85977   0.84595    0.000
 6320.00    0.86171   0.84745    0.000
 6321.00    0.86255   0.84950   34.191
 6322.00    0.86365   0.85185   34.205
 6323.00    0.86709   0.85419   33.989
 6324.00    0.87378   0.85676   33.710
 6325.00    0.88166   0.85876   33.672
 6326.00    0.88778   0.86070   34.060
 6327.00    0.89035   0.86180   34.730
 6328.00    0.88868   0.86255   35.442
 6329.00    0.88296   0.86291   36.112
 6330.00    0.87480   0.86239   36.697
 6331.00    0.86738   0.86175   37.061
 6332.00    0.86230   0.86061   37.163
 6333.00    0.85739   0.85937   37.187
 6334.00    0.85070   0.85795   37.237
 6335.00    0.84341   0.85624   37.136
 6336.00    0.83776   0.85496   36.841
 6337.00    0.83529   0.85394   36.670
 6338.00    0.83724   0.85355   36.709
 6339.00    0.84451   0.85311   36.532
 6340.00    0.85527   0.85321   35.973
 6341.00    0.86416   0.85336   35.491
 6342.00    0.86732   0.85351   35.358
 6343.00    0.86527   0.85385   35.316
 6344.00    0.86167   0.85398   35.097
 6345.00    0.86167   0.85474   34.714
 6346.00    0.86717   0.85529   34.329
 6347.00    0.87492   0.85618   34.143
 6348.00    0.87979   0.85681   34.334
 6349.00    0.87744   0.85741   34.972
 6350.00    0.86846   0.85745   35.728
 6351.00    0.85863   0.85704   35.882
 6352.00    0.85145   0.85599   35.474
 6353.00    0.84588   0.85425   35.459
 6354.00    0.84134   0.85196   36.142
 6355.00    0.83912   0.84917   36.859
 6356.00    0.83973   0.84636   37.182
 6357.00    0.84195   0.84348   37.371
 6358.00    0.84394   0.84070   37.721
 6359.00    0.84463   0.83841   38.226
 6360.00    0.84710   0.83687   38.418
 6361.00    0.85720   0.83609   37.691
 6362.00    0.87551   0.83614   36.527
 6363.00    0.89667   0.83718   36.002
 6364.00    0.91555   0.83906   35.931
 6365.00    0.92888   0.84166   -1.000
 6366.00    0.93416   0.84470   -1.000
 6367.00    0.93001   0.84806   33.912
 6368.00    0.91778   0.85144   34.334
 6369.00    0.90152   0.85471   34.487
 6370.00    0.88677   0.85752   34.244
 6371.00    0.87826   0.86009   34.216
 6372.00    0.87574   0.86221   34.278
 6373.00    0.87501   0.86391   33.848
 6374.00    0.87268   0.86503   33.280
 6375.00    0.86787   0.86558   33.307
 6376.00    0.86309   0.86576   33.533
 6377.00    0.86158   0.86556   33.041
 6378.00    0.86167   0.86508   32.216
 6379.00    0.85907   0.86448   32.083
 6380.00    0.85314   0.86401   32.791
 6381.00    0.84684   0.86353   33.810
 6382.00    0.84438   0.86336   34.492
 6383.00    0.84799   0.86318   34.542
 6384.00    0.85361   0.86295   34.596
 6385.00    0.85538   0.86276   35.434
 6386.00    0.85363   0.86249   36.655
 6387.00    0.85231   0.86202   37.212
 6388.00    0.85344   0.86129   36.926
 6389.00    0.85684   0.86032   36.329
 6390.00    0.86091   0.85919   35.827
 6391.00    0.86337   0.85782   35.516
 6392.00    0.86214   0.85662   35.161
 6393.00    0.85672   0.85522   34.637
 6394.00    0.84956   0.85439   34.368
 6395.00    0.84375   0.85396   34.698
 6396.00    0.84026   0.85380   35.248
 6397.00    0.83829   0.85405   35.506
 6398.00    0.83621   0.85434   35.603
 6399.00    0.83343   0.85486   35.857
 6400.00    0.83204   0.85526   36.199
 6401.00    0.83402   0.85639   36.448
 6402.00    0.83858   0.85750   36.632
 6403.00    0.84363   0.85849   36.845
 6404.00    0.84740   0.85945   37.080
 6405.00    0.84932   0.85986   37.276
 6406.00    0.85038   0.86003   37.357
 6407.00    0.85119   0.85983   37.070
 6408.00    0.85066   0.85931   35.983
 6409.00    0.84737   0.85894   34.270
 6410.00    0.84084   0.85848   32.863
 6411.00    0.83242   0.85781   32.432
 6412.00    0.82549   0.85737   33.084
 6413.00    0.82294   0.85707   34.322
 6414.00    0.82553   0.85682   34.893
 6415.00    0.83206   0.85670   34.390
 6416.00    0.83974   0.85671   34.096
 6417.00    0.84563   0.85674   34.557
 6418.00    0.84761   0.85700   34.687
 6419.00    0.84537   0.85738   34.086
 6420.00    0.84068   0.85791   33.958
 6421.00    0.83636   0.85874   34.744
 6422.00    0.83536   0.85984   35.348
 6423.00    0.83921   0.86123   35.117
 6424.00    0.84714   0.86231   34.767
 6425.00    0.85555   0.86325   34.833
 6426.00    0.85923   0.86372   35.170
 6427.00    0.85691   0.86389   35.705
 6428.00    0.85243   0.86361   36.600
 6429.00    0.84932   0.86302   37.442
 6430.00    0.84871   0.86216   37.333
 6431.00    0.85023   0.86127   37.002
 6432.00    0.85288   0.86086   38.216
 6433.00    0.85709   0.86055   39.079
 6434.00    0.86406   0.86067   35.651
 6435.00    0.87141   0.86093   33.626
 6436.00    0.87373   0.86146   41.591
 6437.00    0.86868   0.86217   43.100
 6438.00    0.85821   0.86296   24.635
 6439.00    0.84641   0.86378   13.532
 6440.00    0.83750   0.86500   11.062
 6441.00    0.83227   0.86610   11.641
 6442.00    0.82867   0.86694   12.342
 6443.00    0.82594   0.86738   12.155
 6444.00    0.82556   0.86709   12.220
 6445.00    0.83092   0.86620   12.239
 6446.00    0.84426   0.86469   11.264
 6447.00    0.86026   0.86277   11.021
 6448.00    0.86981   0.86052   14.543
 6449.00    0.87108   0.85827   27.994
 6450.00    0.86878   0.85617   43.100
 6451.00    0.86780   0.85519   38.707
 6452.00    0.87040   0.85465   33.253
 6453.00    0.87367   0.85488   35.031
 6454.00    0.87244   0.85550   36.495
 6455.00    0.86523   0.85618   35.501
 6456.00    0.85384   0.85702   35.224
 6457.00    0.84097   0.85792   36.394
 6458.00    0.82970   0.85865   37.835
 6459.00    0.82334   0.85924   38.699
 6460.00    0.82392   0.85947   38.649
 6461.00    0.83023   0.85957   37.439
 6462.00    0.83859   0.85938   35.296
 6463.00    0.84459   0.85936   33.136
 6464.00    0.84534   0.85990   31.735
 6465.00    0.84206   0.86033   31.295
 6466.00    0.83849   0.86128   31.704
 6467.00    0.83838   0.86190   32.607
 6468.00    0.84355   0.86271   33.540
 6469.00    0.85203   0.86308   34.190
 6470.00    0.86008   0.86346   34.460
 6471.00    0.86468   0.86351   34.467
 6472.00    0.86469   0.86339   34.422
 6473.00    0.86170   0.86336   34.496
 6474.00    0.85847   0.86290   34.721
 6475.00    0.85721   0.86246   34.938
 6476.00    0.85792   0.86173   35.120
 6477.00    0.85742   0.86104   35.624
 6478.00    0.85288   0.86004   36.563
 6479.00    0.84474   0.85905   37.243
 6480.00    0.83477   0.85792   37.205
 6481.00    0.82451   0.85670   37.152
 6482.00    0.81707   0.85544   37.692
 6483.00    0.81764   0.85425   38.423
 6484.00    0.82730   0.85306   38.501
 6485.00    0.83935   0.85163   37.336
 6486.00    0.84651   0.84976   35.320
 6487.00    0.84594   0.84720   33.622
 6488.00    0.84010   0.84384   32.854
 6489.00    0.83584   0.83962   32.854
 6490.00    0.83688   0.83461   33.203
 6491.00    0.84012   0.82915   33.458
 6492.00    0.84048   0.82355   33.601
 6493.00    0.83424   0.81829   34.149
 6494.00    0.82214   0.81369   35.161
 6495.00    0.80964   0.81047   35.848
 6496.00    0.80056   0.80906   35.994
 6497.00    0.79472   0.80920   36.496
 6498.00    0.79207   0.81157   37.590
 6499.00    0.79388   0.81485   38.258
 6500.00    0.79945   0.81972   38.116
 6501.00    0.80586   0.82497   38.073
 6502.00    0.81298   0.83056   38.566
 6503.00    0.82376   0.83605   39.083
 6504.00    0.83707   0.84092   39.128
 6505.00    0.84697   0.84527   38.675
 6506.00    0.85001   0.84868   38.071
 6507.00    0.84739   0.85138   37.748
 6508.00    0.84311   0.85313   37.623
 6509.00    0.84179   0.85425   37.225
 6510.00    0.84409   0.85473   36.598
 6511.00    0.84730   0.85472   36.178
 6512.00    0.85125   0.85429   35.767
 6513.00    0.85787   0.85359   34.793
 6514.00    0.86497   0.85273   33.643
 6515.00    0.86716   0.85184   33.195
 6516.00    0.86304   0.85106   33.389
 6517.00    0.85555   0.85059   33.544
 6518.00    0.84833   0.85033   33.755
 6519.00    0.84403   0.85043   34.656
 6520.00    0.84308   0.85086   35.978
 6521.00    0.84439   0.85137   36.710
 6522.00    0.84771   0.85196   36.832
 6523.00    0.85286   0.85240   37.163
 6524.00    0.85699   0.85271   37.758
 6525.00    0.85667   0.85281   38.120
 6526.00    0.85260   0.85267   38.332
 6527.00    0.84848   0.85233   38.797
 6528.00    0.84722   0.85199    0.000
 6529.00    0.84939   0.85157    0.000
 6530.00    0.85204   0.85122    0.000
 6531.00    0.85180   0.85088    0.000
 6532.00    0.84992   0.85057    0.000
 6533.00    0.84927   0.85035    0.000
 6534.00    0.84879   0.85020    0.000
 6535.00    0.84590   0.85005    0.000
 6536.00    0.84094   0.84977    0.000
 6537.00    0.83610   0.84916    0.000
 6538.00    0.83309   0.84822    0.000
 6539.00    0.83247   0.84680    0.000
 6540.00    0.83335   0.84493    0.000
 6541.00    0.83558   0.84247    0.000
 6542.00    0.84234   0.83954    0.000
 6543.00    0.86065   0.83617    0.000
 6544.00    0.90116   0.83249    0.000
 6545.00    0.97364   0.82861    0.000
 6546.00    1.08148   0.82442    0.000
 6547.00    1.21247   0.82028    0.000
 6548.00    1.33222   0.81588    0.000
 6549.00    1.40233   0.81119    0.000
 6550.00    1.39890   0.80603    0.000
 6551.00    1.32141   0.80009    0.000
 6552.00    1.19715   0.79338    0.000
 6553.00    1.06365   0.78565    0.000
 6554.00    0.95301   0.77686    0.000
 6555.00    0.88533   0.76704    0.000
 6556.00    0.86884   0.75635    0.000
 6557.00    0.93354   0.74517    0.000
 6558.00    1.15313   0.73392    0.000
 6559.00    1.62586   0.72322    0.000
 6560.00    2.44218   0.71385    0.000
 6561.00    3.56818   0.70641    0.000
 6562.00    4.78664   0.70146    0.000
 6563.00    5.79452   0.69974    0.000
 6564.00    6.29059   0.70213    0.000
 6565.00    6.11837   0.70755    0.000
 6566.00    5.33830   0.71580    0.000
 6567.00    4.18169   0.72567    0.000
 6568.00    2.98670   0.73622    0.000
 6569.00    2.01704   0.74677    0.000
 6570.00    1.37625   0.75701    0.000
 6571.00    1.03968   0.76641    0.000
 6572.00    0.89458   0.77491    0.000
 6573.00    0.83896   0.78243    0.000
 6574.00    0.82110   0.78920    0.000
 6575.00    0.81795   0.79520    0.000
 6576.00    0.82339   0.80087    0.000
 6577.00    0.84086   0.80592    0.000
 6578.00    0.88315   0.81067    0.000
 6579.00    0.98193   0.81480    0.000
 6580.00    1.17945   0.81853    0.000
 6581.00    1.48879   0.82172    0.000
 6582.00    1.87776   0.82452    0.000
 6583.00    2.26322   0.82694    0.000
 6584.00    2.53183   0.82874    0.000
 6585.00    2.60599   0.83027    0.000
 6586.00    2.46671   0.83098    0.000
 6587.00    2.15867   0.83145    0.000
 6588.00    1.77432   0.83131    0.000
 6589.00    1.40856   0.83084    0.000
 6590.00    1.13348   0.83012    0.000
 6591.00    0.96790   0.82920    0.000
 6592.00    0.88574   0.82837    0.000
 6593.00    0.85393   0.82765    0.000
 6594.00    0.84452   0.82758    0.000
 6595.00    0.84079   0.82797    0.000
 6596.00    0.83685   0.82894    0.000
 6597.00    0.83389   0.83021    0.000
 6598.00    0.83569   0.83167    0.000
 6599.00    0.84166   0.83308    0.000
 6600.00    0.84781   0.83446    0.000
 6601.00    0.85116   0.83552    0.000
 6602.00    0.85088   0.83626    0.000
 6603.00    0.84858   0.83655    0.000
 6604.00    0.84663   0.83653    0.000
 6605.00    0.84523   0.83622    0.000
 6606.00    0.84333   0.83599    0.000
 6607.00    0.84068   0.83575    0.000
 6608.00    0.83705   0.83591    0.000
 6609.00    0.83104   0.83625   35.848
 6610.00    0.82260   0.83716   35.804
 6611.00    0.81648   0.83841   35.953
 6612.00    0.81859   0.83991   36.311
 6613.00    0.83054   0.84163   36.351
 6614.00    0.84889   0.84317   35.821
 6615.00    0.86533   0.84481   35.653
 6616.00    0.87283   0.84599   36.607
 6617.00    0.87218   0.84703   37.846
 6618.00    0.86810   0.84750   38.241
 6619.00    0.86435   0.84764   38.359
 6620.00    0.86318   0.84727   38.977
 6621.00    0.86521   0.84660   39.315
 6622.00    0.86890   0.84555   38.608
 6623.00    0.87034   0.84425   37.746
 6624.00    0.86645   0.84280   37.575
 6625.00    0.85779   0.84123   37.694
 6626.00    0.84856   0.83981   37.399
 6627.00    0.84547   0.83836   36.552
 6628.00    0.85062   0.83709   35.613
 6629.00    0.85715   0.83591   35.377
 6630.00    0.85857   0.83483   36.009
 6631.00    0.85542   0.83401   36.535
 6632.00    0.85086   0.83332   36.237
 6633.00    0.84730   0.83297   35.699
 6634.00    0.84605   0.83277   35.640
 6635.00    0.84711   0.83301   36.191
 6636.00    0.84869   0.83330   37.033
 6637.00    0.84759   0.83387   37.515
 6638.00    0.84302   0.83434   37.454
 6639.00    0.83820   0.83479   37.492
 6640.00    0.83646   0.83508   38.023
 6641.00    0.83898   0.83536   38.718
 6642.00    0.84424   0.83553   39.098
 6643.00    0.84857   0.83562   38.948
 6644.00    0.84982   0.83577   38.526
 6645.00    0.84860   0.83597   38.404
 6646.00    0.84580   0.83625   38.643
 6647.00    0.84183   0.83663   38.673
 6648.00    0.83828   0.83700   38.258
 6649.00    0.83777   0.83736   37.724
 6650.00    0.84051   0.83762   37.133
 6651.00    0.84371   0.83781   36.238
 6652.00    0.84469   0.83780   35.323
 6653.00    0.84237   0.83765   35.072
 6654.00    0.83825   0.83723   35.534
 6655.00    0.83540   0.83668   36.117
 6656.00    0.83425   0.83582   36.536
 6657.00    0.83257   0.83480   36.997
 6658.00    0.82981   0.83360   37.546
 6659.00    0.82747   0.83224   37.963
 6660.00    0.82631   0.83093   38.185
 6661.00    0.82589   0.82959   38.384
 6662.00    0.82553   0.82856   38.738
 6663.00    0.82510   0.82765   39.305
 6664.00    0.82591   0.82728   39.854
 6665.00    0.82997   0.82724   40.001
 6666.00    0.83757   0.82759   39.748
 6667.00    0.84719   0.82828   39.388
 6668.00    0.85667   0.82900   38.965
 6669.00    0.86388   0.82977   38.377
 6670.00    0.86773   0.83027   37.792
 6671.00    0.86829   0.83051   37.454
 6672.00    0.86667   0.83024   37.226
 6673.00    0.86461   0.82956   36.802
 6674.00    0.86391   0.82848   36.212
 6675.00    0.86563   0.82717   35.736
 6676.00    0.86902   0.82586   35.626
 6677.00    0.87201   0.82459   35.960
 6678.00    0.87253   0.82376   36.455
 6679.00    0.86955   0.82339   36.759
 6680.00    0.86445   0.82370   37.029
 6681.00    0.85939   0.82452   37.594
 6682.00    0.85483   0.82584   38.287
 6683.00    0.85031   0.82730   38.754
 6684.00    0.84606   0.82884   39.101
 6685.00    0.84288   0.83034   39.570
 6686.00    0.84151   0.83159   39.950
 6687.00    0.84202   0.83261   39.951
 6688.00    0.84322   0.83320   39.782
 6689.00    0.84408   0.83358   39.709
 6690.00    0.84529   0.83348   39.516
 6691.00    0.84728   0.83327   38.985
 6692.00    0.84805   0.83267   38.399
 6693.00    0.84591   0.83207   38.016
 6694.00    0.84220   0.83124   37.610
 6695.00    0.83915   0.83056   37.022
 6696.00    0.83760   0.82981    0.000
 6697.00    0.83707   0.82930    0.000
 6698.00    0.83626   0.82888    0.000
 6699.00    0.83418   0.82866    0.000
 6700.00    0.83108   0.82861    0.000
 6701.00    0.82764   0.82857    0.000
 6702.00    0.82433   0.82860    0.000
 6703.00    0.82163   0.82855    0.000
 6704.00    0.82020   0.82838    0.000
 6705.00    0.82028   0.82816    0.000
 6706.00    0.82135   0.82770    0.000
 6707.00    0.82253   0.82716    0.000
 6708.00    0.82323   0.82628    0.000
 6709.00    0.82526   0.82524    0.000
 6710.00    0.83492   0.82383    0.000
 6711.00    0.86697   0.82229    0.000
 6712.00    0.94550   0.82061    0.000
 6713.00    1.09509   0.81886    0.000
 6714.00    1.33035   0.81730    0.000
 6715.00    1.62836   0.81586    0.000
 6716.00    1.92134   0.81483    0.000
 6717.00    2.13135   0.81422    0.000
 6718.00    2.19449   0.81407    0.000
 6719.00    2.09045   0.81454    0.000
 6720.00    1.85221   0.81527    0.000
 6721.00    1.54931   0.81654    0.000
 6722.00    1.26795   0.81776    0.000
 6723.00    1.06303   0.81925    0.000
 6724.00    0.94462   0.82052    0.000
 6725.00    0.90167   0.82189    0.000
 6726.00    0.91742   0.82296    0.000
 6727.00    0.98967   0.82396    0.000
 6728.00    1.12826   0.82471    0.000
 6729.00    1.32297   0.82530    0.000
 6730.00    1.53594   0.82572    0.000
 6731.00    1.71295   0.82584    0.000
 6732.00    1.79818   0.82581    0.000
 6733.00    1.76547   0.82544    0.000
 6734.00    1.62596   0.82498    0.000
 6735.00    1.42236   0.82422    0.000
 6736.00    1.21407   0.82342    0.000
 6737.00    1.04397   0.82243    0.000
 6738.00    0.93033   0.82144    0.000
 6739.00    0.86920   0.82038    0.000
 6740.00    0.84242   0.81935    0.000
 6741.00    0.83418   0.81841    0.000
 6742.00    0.83321   0.81753    0.000
 6743.00    0.82918   0.81678    0.000
 6744.00    0.81596   0.81606    0.000
 6745.00    0.79942   0.81547    0.000
 6746.00    0.79139   0.81497    0.000
 6747.00    0.79542   0.81469    0.000
 6748.00    0.80702   0.81447    0.000
 6749.00    0.81907   0.81455    0.000
 6750.00    0.82562   0.81485    0.000
 6751.00    0.82628   0.81545    0.000
 6752.00    0.82428   0.81642    0.000
 6753.00    0.82214   0.81755   38.574
 6754.00    0.82101   0.81912   38.584
 6755.00    0.82067   0.82060   38.346
 6756.00    0.82089   0.82233   38.168
 6757.00    0.82310   0.82386   37.716
 6758.00    0.82788   0.82521   36.771
 6759.00    0.83154   0.82628   36.114
 6760.00    0.83077   0.82689   36.342
 6761.00    0.82829   0.82718   36.643
 6762.00    0.82773   0.82692   36.117
 6763.00    0.82722   0.82647   35.496
 6764.00    0.82350   0.82560   35.767
 6765.00    0.81720   0.82476   36.761
 6766.00    0.81248   0.82381   37.272
 6767.00    0.81536   0.82308   35.580
 6768.00    0.82661   0.82255   31.923
 6769.00    0.83602   0.82242   28.751
 6770.00    0.83319   0.82265   27.159
 6771.00    0.81755   0.82329   26.562
 6772.00    0.79512   0.82419   26.490
 6773.00    0.77472   0.82523   27.330
 6774.00    0.76567   0.82635   29.207
 6775.00    0.77542   0.82733   30.765
 6776.00    0.80331   0.82803   30.523
 6777.00    0.83741   0.82835   29.094
 6778.00    0.86546   0.82817   27.812
 6779.00    0.88284   0.82761   27.407
 6780.00    0.89104   0.82654   27.878
 6781.00    0.89541   0.82532   28.517
 6782.00    0.89899   0.82379   28.877
 6783.00    0.89984   0.82236   29.410
 6784.00    0.89791   0.82096   30.235
 6785.00    0.89777   0.81990   30.478
 6786.00    0.89954   0.81907   29.987
 6787.00    0.89580   0.81866   30.003
 6788.00    0.88309   0.81850   31.078
 6789.00    0.86626   0.81857   32.338
 6790.00    0.84931   0.81882   33.119
 6791.00    0.83232   0.81912   33.893
 6792.00    0.81921   0.81947   34.741
 6793.00    0.81839   0.81988   34.735
 6794.00    0.82983   0.82028   33.663
 6795.00    0.84273   0.82074   32.472
 6796.00    0.84975   0.82117   31.731
 6797.00    0.85154   0.82175   31.398
 6798.00    0.85079   0.82221   31.508
 6799.00    0.84987   0.82276   32.227
 6800.00    0.85123   0.82316   33.176
 6801.00    0.85639   0.82354   33.403
 6802.00    0.86224   0.82376   32.791
 6803.00    0.86306   0.82390   32.134
 6804.00    0.86088   0.82387   31.574
 6805.00    0.86326   0.82377   30.681
 6806.00    0.86705   0.82356   29.730
 6807.00    0.86203   0.82333   29.452
 6808.00    0.85425   0.82308   29.907
 6809.00    0.86018   0.82282   30.612
 6810.00    0.87419   0.82261   31.458
 6811.00    0.87526   0.82252   32.727
 6812.00    0.86438   0.82239   34.240
 6813.00    0.85964   0.82248   35.298
 6814.00    0.86294   0.82258   35.582
 6815.00    0.86320   0.82284   35.266
 6816.00    0.86026   0.82313   34.342
 6817.00    0.86160   0.82354   32.832
 6818.00    0.86482   0.82400   31.378
 6819.00    0.86103   0.82455   30.720
 6820.00    0.84824   0.82500   31.095
 6821.00    0.83090   0.82544   32.396
 6822.00    0.81417   0.82576   34.229
 6823.00    0.80307   0.82604   35.810
 6824.00    0.80251   0.82618   36.165
 6825.00    0.81375   0.82622   34.817
 6826.00    0.82903   0.82610   32.436
 6827.00    0.83887   0.82595   30.073
 6828.00    0.84403   0.82566   28.359
 6829.00    0.84905   0.82539   27.519
 6830.00    0.85113   0.82498   27.501
 6831.00    0.84597   0.82460   28.257
 6832.00    0.83734   0.82407   29.982
 6833.00    0.83235   0.82341   32.784
 6834.00    0.83379   0.82253   35.795
 6835.00    0.84062   0.82142   37.425
 6836.00    0.84960   0.82021   37.335
 6837.00    0.85726   0.81883   36.670
 6838.00    0.86175   0.81750   36.835
 6839.00    0.86206   0.81616   37.731
 6840.00    0.85704   0.81518   36.447
 6841.00    0.84712   0.81440   33.449
 6842.00    0.83564   0.81413   34.971
 6843.00    0.82648   0.81417   40.970
 6844.00    0.82160   0.81463   30.539
 6845.00    0.82154   0.81533   16.746
 6846.00    0.82578   0.81615   11.894
 6847.00    0.83139   0.81693   11.323
 6848.00    0.83263   0.81749   12.097
 6849.00    0.82813   0.81780   12.329
 6850.00    0.82517   0.81777   12.086
 6851.00    0.82962   0.81744   12.003
 6852.00    0.83908   0.81678   11.914
 6853.00    0.84776   0.81593   11.718
 6854.00    0.85060   0.81495   11.810
 6855.00    0.84598   0.81397   12.121
 6856.00    0.83653   0.81305   11.763
 6857.00    0.82473   0.81225   11.279
 6858.00    0.81118   0.81173   13.162
 6859.00    0.80051   0.81147   21.844
 6860.00    0.80227   0.81138   42.343
 6861.00    0.81671   0.81151   43.100
 6862.00    0.83073   0.81174   34.916
 6863.00    0.83704   0.81201   34.175
 6864.00    0.84129   0.81230   35.657
 6865.00    0.84905   0.81262   34.698
 6866.00    0.85944   0.81284   33.676
 6867.00    0.86569   0.81300   34.163
 6868.00    0.85880   0.81308   34.713
 6869.00    0.84085   0.81320   34.472
 6870.00    0.82591   0.81335   34.337
 6871.00    0.82172   0.81364   34.634
 6872.00    0.82465   0.81406   34.624
 6873.00    0.82865   0.81454   34.127
 6874.00    0.82919   0.81510   33.794
 6875.00    0.82502   0.81570   33.911
 6876.00    0.81794   0.81633   34.283
 6877.00    0.81005   0.81686   34.994
 6878.00    0.80313   0.81734   36.323
 6879.00    0.79936   0.81775   37.493
 6880.00    0.80055   0.81811   36.823
 6881.00    0.80511   0.81849   34.496
 6882.00    0.80899   0.81888   32.211
 6883.00    0.81020   0.81946   30.797
 6884.00    0.80911   0.82010   30.324
 6885.00    0.80614   0.82106   30.663
 6886.00    0.80191   0.82206   31.570
 6887.00    0.79924   0.82331   32.638
 6888.00    0.80157   0.82442   33.421
 6889.00    0.80869   0.82562   33.997
 6890.00    0.81740   0.82661   34.749
 6891.00    0.82516   0.82747   35.417
 6892.00    0.83048   0.82810   35.441
 6893.00    0.83245   0.82854   35.283
 6894.00    0.83109   0.82882   35.864
 6895.00    0.82808   0.82893   37.111
 6896.00    0.82594   0.82904   38.202
 6897.00    0.82611   0.82908   38.659
 6898.00    0.82887   0.82921   38.542
 6899.00    0.83364   0.82939   38.142
 6900.00    0.83901   0.82967   37.719
 6901.00    0.84266   0.83001   37.271
 6902.00    0.84258   0.83038   36.722
 6903.00    0.83876   0.83079   36.183
 6904.00    0.83339   0.83112   35.762
 6905.00    0.83054   0.83138   35.304
 6906.00    0.83294   0.83142   34.612
 6907.00    0.83805   0.83134   33.731
 6908.00    0.84049   0.83094   32.960
 6909.00    0.83587   0.83046   32.784
 6910.00    0.82463   0.82967   33.423
 6911.00    0.81519   0.82890   34.350
 6912.00    0.81482   0.82796   34.860
 6913.00    0.82018   0.82716   34.940
 6914.00    0.82383   0.82639   34.871
 6915.00    0.82189   0.82585   34.650
 6916.00    0.81542   0.82544   34.298
 6917.00    0.81041   0.82523   34.156
 6918.00    0.81060   0.82516   34.543
 6919.00    0.81193   0.82513   35.475
 6920.00    0.80962   0.82517   36.700
 6921.00    0.80422   0.82516   37.693
 6922.00    0.79900   0.82513   37.981
 6923.00    0.79716   0.82508   37.530
 6924.00    0.79912   0.82497   36.692
 6925.00    0.80131   0.82495   35.967
 6926.00    0.80127   0.82490   35.620
 6927.00    0.80089   0.82501   35.535
 6928.00    0.80290   0.82516   35.423
 6929.00    0.80827   0.82545   35.011
 6930.00    0.81473   0.82581   34.501
 6931.00    0.81704   0.82622   34.597
 6932.00    0.81335   0.82666   35.438
 6933.00    0.80780   0.82709   36.166
 6934.00    0.80442   0.82749   36.272
 6935.00    0.80396   0.82787   36.339
 6936.00    0.80563   0.82813   36.759
 6937.00    0.80817   0.82836   37.197
 6938.00    0.81021   0.82836   37.462
 6939.00    0.81062   0.82834   37.830
 6940.00    0.80881   0.82806   38.275
 6941.00    0.80499   0.82773   38.266
 6942.00    0.80029   0.82725   37.652
 6943.00    0.79641   0.82676   36.866
 6944.00    0.79412   0.82626   36.159
 6945.00    0.79304   0.82582   35.461
 6946.00    0.79314   0.82546   34.821
 6947.00    0.79490   0.82520   34.398
 6948.00    0.79808   0.82508   34.009
 6949.00    0.80134   0.82506   33.259
 6950.00    0.80272   0.82519   32.336
 6951.00    0.80083   0.82546   31.845
 6952.00    0.79806   0.82580   31.930
 6953.00    0.79893   0.82632   32.284
 6954.00    0.80295   0.82689   32.676
 6955.00    0.80542   0.82769   33.108
 6956.00    0.80570   0.82846   33.809
 6957.00    0.80678   0.82949   35.038
 6958.00    0.80877   0.83036   36.455
 6959.00    0.80919   0.83144   37.227
 6960.00    0.80806   0.83228   37.285
 6961.00    0.80754   0.83324   37.272
 6962.00    0.80849   0.83391   37.322
 6963.00    0.80992   0.83460   37.066
 6964.00    0.80969   0.83501   36.294
 6965.00    0.80631   0.83532   35.200
 6966.00    0.80218   0.83537   34.428
 6967.00    0.80145   0.83517   34.455
 6968.00    0.80479   0.83469   34.686
 6969.00    0.80989   0.83385   34.208
 6970.00    0.81395   0.83270   33.465
 6971.00    0.81520   0.83117   33.403
 6972.00    0.81465   0.82939   33.902
 6973.00    0.81439   0.82737   34.303
 6974.00    0.81462   0.82530   34.541
 6975.00    0.81386   0.82331   34.916
 6976.00    0.81002   0.82162   35.409
 6977.00    0.80258   0.82036   35.808
 6978.00    0.79510   0.81970   36.058
 6979.00    0.79177   0.81964   36.284
 6980.00    0.79248   0.82028   36.703
 6981.00    0.79423   0.82141   37.321
 6982.00    0.79369   0.82304   37.575
 6983.00    0.79008   0.82482   36.897
 6984.00    0.78772   0.82677   35.519
 6985.00    0.79091   0.82853   34.206
 6986.00    0.79829   0.83016   33.782
 6987.00    0.80530   0.83142   34.373
 6988.00    0.80763   0.83240   34.755
 6989.00    0.80454   0.83304   33.959
 6990.00    0.80115   0.83342   32.980
 6991.00    0.80232   0.83355   32.785
 6992.00    0.80722   0.83344   32.960
 6993.00    0.81274   0.83319   32.983
 6994.00    0.81684   0.83272   33.215
 6995.00    0.81884   0.83215   33.971
 6996.00    0.81937   0.83140   34.754
 6997.00    0.81962   0.83062   35.099
 6998.00    0.82058   0.82971   35.327
 6999.00    0.82202   0.82890   35.824
 7000.00    0.82210   0.82801   36.460
 7001.00    0.81945   0.82736   -2.000
 7002.00    0.81451   0.82668   -2.000
 7003.00    0.80849   0.82632   -2.000
 7004.00    0.80273   0.82592   -2.000
 7005.00    0.79873   0.82584   -2.000
 7006.00    0.79801   0.82564   -2.000
 7007.00    0.80080   0.82566   -2.000
 7008.00    0.80549   0.82546   -2.000
 7009.00    0.80957   0.82537   -2.000
 7010.00    0.81051   0.82502   -2.000
 7011.00    0.80753   0.82471   -2.000
 7012.00    0.80204   0.82419   -2.000
 7013.00    0.79595   0.82376   -2.000
 7014.00    0.79085   0.82327   -2.000
 7015.00    0.78856   0.82295   -2.000
 7016.00    0.79066   0.82274   -2.000
 7017.00    0.79616   0.82271   -2.000
 7018.00    0.80155   0.82291   -2.000
 7019.00    0.80493   0.82317   -2.000
 7020.00    0.80699   0.82368   -2.000
 7021.00    0.80890   0.82412   -2.000
 7022.00    0.81124   0.82477   -2.000
 7023.00    0.81304   0.82529   -2.000
 7024.00    0.81250   0.82603   -2.000
 7025.00    0.81011   0.82661   -2.000
 7026.00    0.80828   0.82745   -2.000
 7027.00    0.80767   0.82813   -2.000
 7028.00    0.80666   0.82904   -2.000
 7029.00    0.80323   0.82979   -2.000
 7030.00    0.79677   0.83070   -2.000
 7031.00    0.79100   0.83143   -2.000
 7032.00    0.79115   0.83227   -2.000
 7033.00    0.79542   0.83299   -2.000
 7034.00    0.79707   0.83387   -2.000
 7035.00    0.79408   0.83473   -2.000
 7036.00    0.79070   0.83585   -2.000
 7037.00    0.79568   0.83705   -2.000
 7038.00    0.81399   0.83858   -2.000
 7039.00    0.83168   0.84017   -2.000
 7040.00    0.82976   0.84202   -2.000
 7041.00    0.81551   0.84377   -2.000
 7042.00    0.80989   0.84555   -2.000
 7043.00    0.81478   0.84698   -2.000
 7044.00    0.81885   0.84814   -2.000
 7045.00    0.81748   0.84873   -2.000
 7046.00    0.81369   0.84879   -2.000
 7047.00    0.81409   0.84815   -2.000
 7048.00    0.82215   0.84689   -2.000
 7049.00    0.82980   0.84499   -2.000
 7050.00    0.82702   0.84257   -2.000
 7051.00    0.81648   0.83972   -2.000
 7052.00    0.80727   0.83663   -2.000
 7053.00    0.80384   0.83338   -2.000
 7054.00    0.80452   0.83023   -2.000
 7055.00    0.80215   0.82717   -2.000
 7056.00    0.79437   0.82442   -2.000
 7057.00    0.79389   0.82192   -2.000
 7058.00    0.80864   0.81979   -2.000
 7059.00    0.82081   0.81795   -2.000
 7060.00    0.81376   0.81640   -2.000
 7061.00    0.80005   0.81514   -2.000
 7062.00    0.79760   0.81408   -2.000
 7063.00    0.80479   0.81334   -2.000
 7064.00    0.81133   0.81276   -2.000
 7065.00    0.81061   0.81255   -2.000
 7066.00    0.80274   0.81253   -2.000
 7067.00    0.79511   0.81294   -2.000
 7068.00    0.79330   0.81356   -2.000
 7069.00    0.79447   0.81455   -2.000
 7070.00    0.79527   0.81572   -2.000
 7071.00    0.79735   0.81706   -2.000
 7072.00    0.80110   0.81845   -2.000
 7073.00    0.80198   0.81972   -2.000
 7074.00    0.79887   0.82081   -2.000
 7075.00    0.79847   0.82148   -2.000
 7076.00    0.80524   0.82175   -2.000
 7077.00    0.81595   0.82138   -2.000
 7078.00    0.82657   0.82048   -2.000
 7079.00    0.83604   0.81887   -2.000
 7080.00    0.84223   0.81672   -2.000
 7081.00    0.84066   0.81395   -2.000
 7082.00    0.83013   0.81084   -2.000
 7083.00    0.81497   0.80733   -2.000
 7084.00    0.80019   0.80379   -2.000
 7085.00    0.78897   0.80016   -2.000
 7086.00    0.78254   0.79685   -2.000
 7087.00    0.78058   0.79371   -2.000
 7088.00    0.78325   0.79114   -2.000
 7089.00    0.79123   0.78895   -2.000
 7090.00    0.80242   0.78738   -2.000
 7091.00    0.81152   0.78633   -2.000
 7092.00    0.81384   0.78575   -2.000
 7093.00    0.80772   0.78580   -2.000
 7094.00    0.79759   0.78601   -2.000
 7095.00    0.79236   0.78695   -2.000
 7096.00    0.79588   0.78768   -2.000
 7097.00    0.80528   0.78920   -2.000
 7098.00    0.81581   0.79014   -2.000
 7099.00    0.82293   0.79183   -2.000
 7100.00    0.82333   0.79271   -2.000
 7101.00    0.81620   0.79421   -2.000
 7102.00    0.80570   0.79486   -2.000
 7103.00    0.79874   0.79590   -2.000
 7104.00    0.79732   0.79622   -2.000
 7105.00    0.79814   0.79675   -2.000
 7106.00    0.79694   0.79679   -2.000
 7107.00    0.79182   0.79694   -2.000
 7108.00    0.78834   0.79685   -2.000
 7109.00    0.79469   0.79686   -2.000
 7110.00    0.80883   0.79685   -2.000
 7111.00    0.82012   0.79695   -2.000
 7112.00    0.81867   0.79713   -2.000
 7113.00    0.80149   0.79741   -2.000
 7114.00    0.78006   0.79773   -2.000
 7115.00    0.76995   0.79808   -2.000
 7116.00    0.77003   0.79831   -2.000
 7117.00    0.76956   0.79849   -2.000
 7118.00    0.76652   0.79837   -2.000
 7119.00    0.76461   0.79812   -2.000
 7120.00    0.76338   0.79748   -2.000
 7121.00    0.76093   0.79667   -2.000
 7122.00    0.76009   0.79554   -2.000
 7123.00    0.76312   0.79423   -2.000
 7124.00    0.76358   0.79280   -2.000
 7125.00    0.75601   0.79124   -2.000
 7126.00    0.74953   0.78985   -2.000
 7127.00    0.75273   0.78843   -2.000
 7128.00    0.75397   0.78746   -2.000
 7129.00    0.74163   0.78659   -2.000
 7130.00    0.72916   0.78630   -2.000
 7131.00    0.73214   0.78622   -2.000
 7132.00    0.74119   0.78665   -2.000
 7133.00    0.74367   0.78732   -2.000
 7134.00    0.74811   0.78826   -2.000
 7135.00    0.76677   0.78937   -2.000
 7136.00    0.79661   0.79046   -2.000
 7137.00    0.82584   0.79162   -2.000
 7138.00    0.84269   0.79249   -2.000
 7139.00    0.84284   0.79334   -2.000
 7140.00    0.83413   0.79378   -2.000
 7141.00    0.82465   0.79417   -2.000
 7142.00    0.81396   0.79416   -2.000
 7143.00    0.80446   0.79417   -2.000
 7144.00    0.80828   0.79387   -2.000
 7145.00    0.82786   0.79380   -2.000
 7146.00    0.84481   0.79361   -2.000
 7147.00    0.84556   0.79379   -2.000
 7148.00    0.83634   0.79401   -2.000
 7149.00    0.82029   0.79469   -2.000
 7150.00    0.78664   0.79544   -2.000
 7151.00    0.74025   0.79657   -2.000
 7152.00    0.71276   0.79768   -2.000
 7153.00    0.72019   0.79902   -2.000
 7154.00    0.74397   0.80009   -2.000
 7155.00    0.76421   0.80115   -2.000
 7156.00    0.77647   0.80177   -2.000
 7157.00    0.78196   0.80227   -2.000
 7158.00    0.78197   0.80232   -2.000
 7159.00    0.77810   0.80220   -2.000
 7160.00    0.77238   0.80177   -2.000
 7161.00    0.76752   0.80130   -2.000
 7162.00    0.76562   0.80087   -2.000
 7163.00    0.76313   0.80055   -2.000
 7164.00    0.75257   0.80051   -2.000
 7165.00    0.73777   0.80068   -2.000
 7166.00    0.73375   0.80124   -2.000
 7167.00    0.74439   0.80199   -2.000
 7168.00    0.75909   0.80303   -2.000
 7169.00    0.77073   0.80411   -2.000
 7170.00    0.77873   0.80521   -2.000
 7171.00    0.77830   0.80616   -2.000
 7172.00    0.76300   0.80685   -2.000
 7173.00    0.74322   0.80729   -2.000
 7174.00    0.74141   0.80736   -2.000
 7175.00    0.76255   0.80714   -2.000
 7176.00    0.79381   0.80657   -2.000
 7177.00    0.82690   0.80581   -2.000
 7178.00    0.85840   0.80484   -2.000
 7179.00    0.87515   0.80382   -2.000
 7180.00    0.86252   0.80274   -2.000
 7181.00    0.83234   0.80166   -2.000
 7182.00    0.81413   0.80061   -2.000
 7183.00    0.82088   0.79954   -2.000
 7184.00    0.84536   0.79858   -2.000
 7185.00    0.86921   0.79769   -2.000
 7186.00    0.87228   0.79691   -2.000
 7187.00    0.84685   0.79640   -2.000
 7188.00    0.80027   0.79595   -2.000
 7189.00    0.75381   0.79591   -2.000
 7190.00    0.73004   0.79590   -2.000
 7191.00    0.73169   0.79636   -2.000
 7192.00    0.74609   0.79680   -2.000
 7193.00    0.75873   0.79759   -2.000
 7194.00    0.76322   0.79834   -2.000
 7195.00    0.77175   0.79919   -2.000
 7196.00    0.79584   0.79998   -2.000
 7197.00    0.81761   0.80068   -2.000
 7198.00    0.81244   0.80124   -2.000
 7199.00    0.78462   0.80159   -2.000
 7200.00    0.75477   0.80180   -2.000
 7201.00    0.73751   0.80178   -2.000
 7202.00    0.73762   0.80166   -2.000
 7203.00    0.74932   0.80128   -2.000
 7204.00    0.76306   0.80095   -2.000
 7205.00    0.77324   0.80046   -2.000
 7206.00    0.77542   0.80023   -2.000
 7207.00    0.76329   0.80009   -2.000
 7208.00    0.73828   0.80019   -2.000
 7209.00    0.71756   0.80056   -2.000
 7210.00    0.71463   0.80111   -2.000
 7211.00    0.72162   0.80195   -2.000
 7212.00    0.72524   0.80290   -2.000
 7213.00    0.72231   0.80409   -2.000
 7214.00    0.71990   0.80532   -2.000
 7215.00    0.73255   0.80661   -2.000
 7216.00    0.76709   0.80793   -2.000
 7217.00    0.81174   0.80915   -2.000
 7218.00    0.84410   0.81041   -2.000
