###################################################################
## OUTPUT of StarlightChains_v04.for    [Cid@UFSC - 01/Apr/2007] ##
###################################################################

## Some input info
2013T.txt                                [arq_obs]
Base.CB07.vall.4m                        [arq_base]
Masks.EmLines.NEW.gm                     [arq_masks]
StCv04.C11.config                        [arq_config]
   66                                    [N_base]
    0                                    [N_YAV_components = # of components with extra extinction!]
    0                                    [i_FitPowerLaw (1/0 = Yes/No)]
-9.99                                    [alpha_PowerLaw]
CCM                                      [red_law_option]
 1.458241                                [q_norm = A(l_norm)/A(V)]

## (Re)Sampling Parameters
 3741.00                                 [l_ini (A)]
 7218.00                                 [l_fin (A)]
    1.00                                 [dl    (A)]     (OBS: dl_cushion =    50.00 A)

## Normalization info
 4020.00                                 [l_norm (A) - for base]
 4010.00                                 [llow_norm (A) - window for f_obs]
 4060.00                                 [lupp_norm (A) - window for f_obs]
2.566497E-18                             [fobs_norm (in input units)]

## S/N
 3691.00                                 [llow_SN (A) - window for S/N]
 7268.00                                 [lupp_SN (A) - window for S/N]
   2.945                                 [S/N in S/N window]
   4.442                                 [S/N in norm. window]
  10.000                                 [S/N_err in S/N window]
  15.080                                 [S/N_err in norm. window]
  1.0000                                 [fscale_chi2]

## etc...
    -2007413                             [idum_orig]
  2362                                   [NOl_eff]
  1571                                   [Nl_eff]
   791    NSIGMA                         [Ntot_cliped & clip_method]
   446670                                [Nglobal_steps]
   7                                     [N_chains]
  10                                     [NEX0s_base = N_base in EX0s-fits]
 0   0   1       67   2.0   3.688E+01    [Clip-Bug, RC-Crash & Burn-In warning-flags, n_censored_weights, wei_nsig_threshold & wei_limit]
     9      9.335      8.837      0.498  [idt_all, wdt_TotTime, wdt_UsrTime & wdt_SysTime (sec)]

## Synthesis Results - Best model ##

 2.63384E+00                             [chi2/Nl_eff]
    13.74589                             [adev (%)]

    85.64214                             [sum-of-x (%)]
 3.42522E-18                             [Flux_tot (units of input spectrum!)]
 5.87124E-15                             [Mini_tot (???)]
 3.80788E-15                             [Mcor_tot (???)]

   0.00                                  [v0_min  (km/s)]
 289.68                                  [vd_min  (km/s)]
 0.3303                                  [AV_min  (mag)]
 0.0000                                  [YAV_min (mag)]

# j     x_j(%)      Mini_j(%)     Mcor_j(%)     age_j(yr)     Z_j      (L/M)_j    YAV?  Mstars   component_j        a/Fe...       SSP_chi2r SSP_adev(%)   SSP_AV   SSP_x(%)
  1      0.0000     0.0000E+00    0.0000E+00    1.000000E+06  0.00400  1.094E-02    0   1.0000   age020_m42            0.0000     3.1147E+00    14.4943   2.3081    70.2560
  2      0.0000     0.0000E+00    0.0000E+00    3.160000E+06  0.00400  4.007E-02    0   0.9999   age045_m42            0.0000     2.8283E+00    14.0533   1.5671    75.6104
  3      0.0000     0.0000E+00    0.0000E+00    5.010000E+06  0.00400  2.539E-02    0   0.9488   age055_m42            0.0000     2.9560E+00    14.2600   1.8951    73.4710
  4      0.0000     0.0000E+00    0.0000E+00    6.610000E+06  0.00400  2.620E-02    0   0.9220   age061_m42            0.0000     2.8266E+00    14.0567   1.4922    75.8030
  5      0.0000     0.0000E+00    0.0000E+00    1.000000E+07  0.00400  1.322E-02    0   0.8862   age070_m42            0.0000     2.9573E+00    14.3331   1.2031    77.5540
  6      0.0000     0.0000E+00    0.0000E+00    1.445000E+07  0.00400  7.883E-03    0   0.8571   age078_m42            0.0000     3.0114E+00    14.3958   1.5352    75.4237
  7      0.0000     0.0000E+00    0.0000E+00    2.512000E+07  0.00400  5.251E-03    0   0.8174   age090_m42            0.0000     2.9693E+00    14.3675   1.0693    78.1109
  8      0.0000     0.0000E+00    0.0000E+00    4.000000E+07  0.00400  3.649E-03    0   0.7851   age104_m42            0.0000     2.9054E+00    14.2616   0.8381    78.9185
  9     14.1227     3.1053E+00    3.6528E+00    5.500000E+07  0.00400  3.098E-03    0   0.7629   age110_m42            0.0000     2.7939E+00    14.0492   0.9911    78.9957
 10      0.0000     0.0000E+00    0.0000E+00    1.015200E+08  0.00400  2.228E-03    0   0.7207   age116_m42            0.0000     2.7378E+00    13.9313   1.0117    79.1665
 11      0.0000     0.0000E+00    0.0000E+00    2.861200E+08  0.00400  1.093E-03    0   0.6648   age125_m42            0.0000     2.7722E+00    14.0134   0.4325    81.8435
 12      0.0000     0.0000E+00    0.0000E+00    5.088000E+08  0.00400  6.597E-04    0   0.6365   age130_m42            0.0000     2.6827E+00    13.8373   0.4203    82.6808
 13      0.0000     0.0000E+00    0.0000E+00    1.434000E+09  0.00400  2.132E-04    0   0.5798   age139_m42            0.0000     2.7109E+00    13.9553  -0.5546    84.4821
 14      0.0000     0.0000E+00    0.0000E+00    4.250000E+09  0.00400  5.895E-05    0   0.5377   age158_m42            0.0000     2.8819E+00    14.2884  -0.9806    80.7294
 15      0.0000     0.0000E+00    0.0000E+00    7.500000E+09  0.00400  3.510E-05    0   0.5212   age171_m42            0.0000     3.0726E+00    14.6256  -1.0000    75.1894
 16      0.0000     0.0000E+00    0.0000E+00    1.300000E+10  0.00400  2.005E-05    0   0.5034   age193_m42            0.0000     3.4531E+00    15.2347  -1.0000    69.9997
 17      0.0000     0.0000E+00    0.0000E+00    1.800000E+10  0.00400  1.525E-05    0   0.4967   age213_m42            0.0000     3.5042E+00    15.3254  -1.0000    69.0236
 18      0.0000     0.0000E+00    0.0000E+00    1.000000E+06  0.00800  1.238E-02    0   1.0000   age020_m52            0.0000     3.1180E+00    14.4985   2.3044    70.3838
 19      0.0000     0.0000E+00    0.0000E+00    3.160000E+06  0.00800  3.074E-02    0   0.9966   age045_m52            0.0000     3.1033E+00    14.4745   2.2299    70.9436
 20      0.0000     0.0000E+00    0.0000E+00    5.010000E+06  0.00800  2.668E-02    0   0.9443   age055_m52            0.0000     3.0004E+00    14.3271   1.9801    72.7204
 21      0.0000     0.0000E+00    0.0000E+00    6.610000E+06  0.00800  2.136E-02    0   0.9177   age061_m52            0.0000     2.9773E+00    14.3589   0.7029    78.4623
 22      0.0000     0.0000E+00    0.0000E+00    1.000000E+07  0.00800  1.215E-02    0   0.8827   age070_m52            0.0000     3.0557E+00    14.5022   1.3830    77.3024
 23      0.0000     0.0000E+00    0.0000E+00    1.445000E+07  0.00800  8.717E-03    0   0.8552   age078_m52            0.0000     2.9933E+00    14.3783   1.4996    76.4958
 24      0.0000     0.0000E+00    0.0000E+00    2.512000E+07  0.00800  5.592E-03    0   0.8162   age090_m52            0.0000     2.9691E+00    14.3832   1.1318    79.0605
 25      0.0000     0.0000E+00    0.0000E+00    4.000000E+07  0.00800  3.896E-03    0   0.7841   age104_m52            0.0000     2.8865E+00    14.2384   1.0414    79.7992
 26      0.0000     0.0000E+00    0.0000E+00    1.015200E+08  0.00800  2.148E-03    0   0.7226   age116_m52            0.0000     2.7803E+00    14.0221   0.9801    79.7224
 27      0.0000     0.0000E+00    0.0000E+00    2.861200E+08  0.00800  9.925E-04    0   0.6683   age125_m52            0.0000     2.6746E+00    13.8341   0.4853    83.4288
 28      0.0000     0.0000E+00    0.0000E+00    9.047900E+08  0.00800  3.141E-04    0   0.6138   age135_m52            0.0000     2.7174E+00    13.9699  -0.3138    86.9503
 29      0.0000     0.0000E+00    0.0000E+00    1.434000E+09  0.00800  1.719E-04    0   0.5853   age139_m52            0.0000     2.8312E+00    14.2364  -0.8902    85.0113
 30      0.0000     0.0000E+00    0.0000E+00    2.500000E+09  0.00800  7.872E-05    0   0.5600   age150_m52            0.0000     3.0466E+00    14.6063  -1.0000    77.8835
 31      0.0000     0.0000E+00    0.0000E+00    4.250000E+09  0.00800  4.336E-05    0   0.5426   age158_m52            0.0000     3.0970E+00    14.6771  -1.0000    76.6939
 32      0.0000     0.0000E+00    0.0000E+00    6.250000E+09  0.00800  3.159E-05    0   0.5319   age166_m52            0.0000     3.5830E+00    15.4555  -1.0000    70.7138
 33      0.0000     0.0000E+00    0.0000E+00    1.300000E+10  0.00800  1.361E-05    0   0.5073   age193_m52            0.0000     5.4963E+00    18.6718  -1.0000    57.3242
 34      0.0000     0.0000E+00    0.0000E+00    1.800000E+10  0.00800  9.886E-06    0   0.4990   age213_m52            0.0000     6.1157E+00    19.5374  -1.0000    54.3242
 35      0.0000     0.0000E+00    0.0000E+00    1.000000E+06  0.02000  1.544E-02    0   1.0000   age020_m62            0.0000     3.1326E+00    14.5190   2.3030    70.4664
 36      0.0000     0.0000E+00    0.0000E+00    3.160000E+06  0.02000  3.762E-02    0   0.9858   age045_m62            0.0000     3.1315E+00    14.5094   2.2432    71.0460
 37      0.0000     0.0000E+00    0.0000E+00    5.010000E+06  0.02000  3.296E-02    0   0.9342   age055_m62            0.0000     2.8952E+00    14.1575   1.8544    74.4115
 38      0.0000     0.0000E+00    0.0000E+00    8.710000E+06  0.02000  1.154E-02    0   0.8861   age067_m62            0.0000     3.7768E+00    15.8594   0.8249    79.5044
 39      0.0000     0.0000E+00    0.0000E+00    1.445000E+07  0.02000  7.663E-03    0   0.8472   age078_m62            0.0000     3.2088E+00    14.8003   1.0222    79.2388
 40      0.0000     0.0000E+00    0.0000E+00    2.512000E+07  0.02000  4.532E-03    0   0.8099   age090_m62            0.0000     3.2379E+00    14.8850   1.0123    79.0757
 41      0.0000     0.0000E+00    0.0000E+00    5.500000E+07  0.02000  2.733E-03    0   0.7595   age110_m62            0.0000     2.9256E+00    14.3150   1.0267    79.1183
 42      0.0000     0.0000E+00    0.0000E+00    1.609000E+08  0.02000  1.369E-03    0   0.6985   age120_m62            0.0000     2.7414E+00    13.9636   0.8587    81.6340
 43      0.0000     0.0000E+00    0.0000E+00    2.861200E+08  0.02000  9.013E-04    0   0.6714   age125_m62            0.0000     2.6669E+00    13.8337   0.5973    84.4274
 44     71.5195     9.6895E+01    9.6347E+01    5.088000E+08  0.02000  5.028E-04    0   0.6449   age130_m62            0.0000     2.6430E+00    13.7714   0.2179    86.8167
 45      0.0000     0.0000E+00    0.0000E+00    9.047900E+08  0.02000  2.428E-04    0   0.6179   age135_m62            0.0000     2.7739E+00    14.1002  -0.3576    85.8751
 46      0.0000     0.0000E+00    0.0000E+00    1.434000E+09  0.02000  1.263E-04    0   0.5908   age139_m62            0.0000     2.9171E+00    14.3971  -0.7960    84.3870
 47      0.0000     0.0000E+00    0.0000E+00    2.500000E+09  0.02000  5.985E-05    0   0.5673   age150_m62            0.0000     3.1871E+00    14.8288  -1.0000    78.2341
 48      0.0000     0.0000E+00    0.0000E+00    4.250000E+09  0.02000  3.271E-05    0   0.5468   age158_m62            0.0000     4.0244E+00    16.1944  -1.0000    68.5455
 49      0.0000     0.0000E+00    0.0000E+00    1.000000E+10  0.02000  1.360E-05    0   0.5167   age181_m62            0.0000     5.6001E+00    18.6821  -1.0000    58.6368
 50      0.0000     0.0000E+00    0.0000E+00    1.800000E+10  0.02000  7.124E-06    0   0.5013   age213_m62            0.0000     6.7621E+00    20.2831  -1.0000    52.8661
 51      0.0000     0.0000E+00    0.0000E+00    1.000000E+06  0.05000  2.592E-02    0   0.9998   age020_m72            0.0000     3.1804E+00    14.5912   2.2985    70.3508
 52      0.0000     0.0000E+00    0.0000E+00    3.160000E+06  0.05000  4.845E-02    0   0.9577   age045_m72            0.0000     3.0439E+00    14.3844   2.1235    72.0873
 53      0.0000     0.0000E+00    0.0000E+00    5.010000E+06  0.05000  3.072E-02    0   0.9147   age055_m72            0.0000     3.1754E+00    14.6633   1.6233    75.7830
 54      0.0000     0.0000E+00    0.0000E+00    6.610000E+06  0.05000  1.455E-02    0   0.8877   age061_m72            0.0000     4.3923E+00    16.9152   0.8641    80.3321
 55      0.0000     0.0000E+00    0.0000E+00    1.000000E+07  0.05000  9.074E-03    0   0.8524   age070_m72            0.0000     3.2523E+00    14.8090   1.8065    75.6208
 56      0.0000     0.0000E+00    0.0000E+00    2.512000E+07  0.05000  4.250E-03    0   0.7902   age090_m72            0.0000     3.0930E+00    14.5761   1.4959    77.3589
 57      0.0000     0.0000E+00    0.0000E+00    4.000000E+07  0.05000  3.087E-03    0   0.7618   age104_m72            0.0000     3.0857E+00    14.6048   1.2610    78.8623
 58      0.0000     0.0000E+00    0.0000E+00    1.015200E+08  0.05000  1.700E-03    0   0.7096   age116_m72            0.0000     2.8019E+00    14.0832   1.0007    81.2588
 59      0.0000     0.0000E+00    0.0000E+00    2.861200E+08  0.05000  7.384E-04    0   0.6633   age125_m72            0.0000     2.6494E+00    13.8191   0.4654    85.5960
 60      0.0000     0.0000E+00    0.0000E+00    5.088000E+08  0.05000  3.819E-04    0   0.6372   age130_m72            0.0000     2.7114E+00    13.9844  -0.0206    86.7848
 61      0.0000     0.0000E+00    0.0000E+00    9.047900E+08  0.05000  1.676E-04    0   0.6110   age135_m72            0.0000     3.0031E+00    14.5813  -0.6974    84.5566
 62      0.0000     0.0000E+00    0.0000E+00    1.434000E+09  0.05000  8.837E-05    0   0.5874   age139_m72            0.0000     3.2334E+00    14.9374  -1.0000    79.3499
 63      0.0000     0.0000E+00    0.0000E+00    2.500000E+09  0.05000  4.233E-05    0   0.5598   age150_m72            0.0000     4.0964E+00    16.3082  -1.0000    69.1111
 64      0.0000     0.0000E+00    0.0000E+00    6.250000E+09  0.05000  1.435E-05    0   0.5249   age166_m72            0.0000     6.0846E+00    19.4090  -1.0000    55.8980
 65      0.0000     0.0000E+00    0.0000E+00    1.300000E+10  0.05000  6.513E-06    0   0.5036   age193_m72            0.0000     7.7261E+00    21.5788  -1.0000    49.5456
 66      0.0000     0.0000E+00    0.0000E+00    1.800000E+10  0.05000  4.527E-06    0   0.4945   age213_m72            0.0000     8.7320E+00    22.8401  -1.0000    45.7973


## Synthesis Results - Average & Chains ##

# j      x_j: min, <> & last-chain-values for 1 ...  7 chains
  1      0.0000      0.0402      0.0000      0.0000      0.0000      0.0000      0.0000      0.0000      0.0000
  2      0.0000      0.2544      0.0000      1.0881      2.9865      0.0000      0.0000      0.0000      0.6645
  3      0.0000      0.2553      0.0000      0.0000      0.0000      0.0000      0.8348      0.0000      0.0000
  4      0.0000      0.3837      0.0000      0.0000      0.0000      0.0000      2.5164      0.0000      0.0000
  5      0.0000      0.2921      0.0000      0.0000      0.0000      0.0000      0.0000      0.0000      1.2891
  6      0.0000      0.1535      0.5778      0.0000      0.0200      0.0000      0.0000      0.0000      0.0000
  7      0.0000      0.4533      0.0000      0.3812      0.0000      0.0000      1.5153      0.0000      0.0000
  8      0.0000      0.7594      0.0000      1.2922      0.0000      0.0000      3.2735      0.0000      0.6858
  9     14.1227      0.7030      0.4448      0.3730      0.0000      0.0000      0.0000      2.1728      1.6864
 10      0.0000      1.0400      0.0000      5.6022      1.1772      0.0000      1.8935      0.0000      1.3860
 11      0.0000      1.7228      0.0000      0.1145      0.0000      4.4582      0.0000      2.3387      3.2953
 12      0.0000      4.8916      6.0733      4.1921      6.7521      4.5731      0.7749      8.8838      0.0000
 13      0.0000      0.2518      0.0000      0.0000      0.0000      0.0000      0.0000      0.0000      0.2076
 14      0.0000      0.1218      0.0000      0.5061      0.0000      0.0000      0.0000      0.0000      0.0000
 15      0.0000      0.1120      0.0000      0.0000      0.0000      0.0000      0.0000      0.0762      0.0000
 16      0.0000      0.0155      0.0000      0.0000      0.0000      0.0000      0.0000      0.0000      0.0000
 17      0.0000      0.0085      0.0000      0.0000      0.0000      0.0000      0.0000      0.0000      0.0000
 18      0.0000      0.0642      0.4793      0.0000      0.0000      0.1914      0.0067      0.0000      0.0000
 19      0.0000      0.0660      0.0000      0.0000      0.0000      0.0000      0.0000      0.0104      0.0000
 20      0.0000      0.2250      0.0000      0.1101      0.0000      0.0000      0.0000      0.0000      0.0000
 21      0.0000      0.5352      0.0000      0.0000      0.0728      0.0000      0.0000      0.0000      0.0000
 22      0.0000      0.3606      0.5764      0.0000      0.4417      0.6152      0.0000      0.0000      1.5593
 23      0.0000      0.0952      0.9542      0.1228      0.0000      0.0224      0.0000      0.0000      0.0000
 24      0.0000      0.3535      0.0000      0.0000      0.0000      1.6585      0.0000      1.1111      0.0000
 25      0.0000      0.3106      0.0000      0.0000      0.0000      0.0000      0.0000      0.0000      0.0000
 26      0.0000      0.2723      0.0000      1.3589      0.0000      0.0000      0.0000      0.0000      0.0000
 27      0.0000      3.0777      7.3533      4.6241      1.0217      1.7348      3.0469      1.9541      2.7020
 28      0.0000      0.5340      0.0000      0.0000      0.0000      0.0000      0.0000      0.0000      0.0000
 29      0.0000      0.0404      0.0000      0.0000      0.0000      0.0000      0.0000      0.0000      0.0000
 30      0.0000      0.0329      0.0000      0.0000      0.0000      0.0000      0.0000      0.0000      0.7046
 31      0.0000      0.0353      0.0000      0.0000      0.0000      0.0000      0.0000      0.0000      0.0000
 32      0.0000      0.0415      0.0000      0.0000      0.0000      0.0000      0.0000      0.0000      0.4850
 33      0.0000      0.0086      0.0000      0.0000      0.0000      0.0000      0.0000      0.0000      0.0000
 34      0.0000      0.0049      0.0000      0.0000      0.0000      0.0000      0.0000      0.0000      0.0000
 35      0.0000      0.0753      0.0000      0.0000      0.0000      0.0000      0.0000      0.0000      0.0000
 36      0.0000      0.1586      0.3135      0.0000      0.0000      0.0000      0.0000      0.0000      0.0000
 37      0.0000      0.3668      0.5376      0.0000      0.0000      0.0000      0.0000      1.4503      0.0000
 38      0.0000      0.0607      0.0000      0.0000      0.6501      0.0000      0.0000      0.0000      0.0000
 39      0.0000      0.0700      0.0000      0.0000      0.0000      0.0000      0.0000      0.0000      0.0000
 40      0.0000      0.1920      0.0000      0.0000      0.0000      0.2656      0.0000      0.0000      0.0000
 41      0.0000      0.2117      0.0000      0.0000      0.0000      0.0000      0.0000      0.0000      0.0000
 42      0.0000      0.8354      0.0000      0.0000      0.0000      0.0000      0.0000      1.3795      0.0000
 43      0.0000      3.4205      1.0639      4.0285      3.1783      2.9367      2.8000      0.0000      1.7106
 44     71.5195     48.7693     53.0376     54.7073     58.6708     54.1302     57.7937     59.5954     62.2018
 45      0.0000      0.6361      0.0000      0.0000      0.0000      0.0000      0.0301      0.0000      0.0000
 46      0.0000      0.1112      0.0000      0.0000      0.0000      0.0000      0.1487      0.0000      0.0000
 47      0.0000      0.0286      0.0000      0.0000      0.0000      0.0000      0.0000      0.0000      0.0000
 48      0.0000      0.0463      0.4399      0.0000      0.0000      0.0000      0.0000      0.0000      0.0000
 49      0.0000      0.0285      0.0000      0.0000      0.0000      0.0000      0.0000      0.0000      0.0000
 50      0.0000      0.0022      0.0000      0.0000      0.0000      0.0000      0.0000      0.0000      0.0000
 51      0.0000      0.0448      0.0000      0.0000      0.0000      0.0000      0.0000      0.5454      0.0000
 52      0.0000      0.1273      0.4623      0.0000      0.6508      0.0000      0.0000      0.0000      0.0000
 53      0.0000      0.0827      0.6120      0.0000      0.0000      0.0000      0.0000      0.0000      0.0000
 54      0.0000      0.0829      0.0000      0.0000      0.0000      0.0000      0.0000      0.0000      0.0000
 55      0.0000      0.1088      0.0000      0.0000      0.0000      0.0000      0.0000      0.0000      0.0000
 56      0.0000      0.1588      0.2024      0.0000      0.0000      0.0000      0.1365      0.0000      0.0000
 57      0.0000      0.4459      0.0000      0.0000      3.4158      0.0000      0.0000      0.0000      0.0000
 58      0.0000      0.7509      0.0000      0.0000      0.0000      1.9502      0.0000      0.0000      1.1105
 59      0.0000      5.3241      5.8329      2.3788      0.5793     13.1135      4.0819      3.3637      5.9709
 60      0.0000      5.2197      5.8373      3.4295      5.6364      0.2188      6.5041      2.4694      0.0000
 61      0.0000      0.2559      0.3260      0.0000      0.0000      0.0000      0.0000      0.0000      0.0000
 62      0.0000      0.0676      0.0000      0.6012      0.0000      0.0000      0.0000      0.0000      0.0000
 63      0.0000      0.0121      0.0000      0.0000      0.0000      0.0000      0.0000      0.0000      0.0000
 64      0.0000      0.0045      0.0000      0.0000      0.0000      0.0000      0.0000      0.0418      0.0000
 65      0.0000      0.0097      0.0000      0.0000      0.0000      0.0000      0.0000      0.0000      0.0000
 66      0.0000      0.0006      0.0000      0.0000      0.0000      0.0000      0.0000      0.0000      0.0000

# j      m_j: min, <> & last-chain-values for 1 ...  7 chains
  1  0.0000E+00  3.5786E-03  0.0000E+00  0.0000E+00  0.0000E+00  0.0000E+00  0.0000E+00  0.0000E+00  0.0000E+00
  2  0.0000E+00  6.1782E-03  0.0000E+00  2.7260E-02  7.7513E-02  0.0000E+00  0.0000E+00  0.0000E+00  1.5690E-02
  3  0.0000E+00  9.2840E-03  0.0000E+00  0.0000E+00  0.0000E+00  0.0000E+00  3.2494E-02  0.0000E+00  0.0000E+00
  4  0.0000E+00  1.3143E-02  0.0000E+00  0.0000E+00  0.0000E+00  0.0000E+00  9.2241E-02  0.0000E+00  0.0000E+00
  5  0.0000E+00  1.9057E-02  0.0000E+00  0.0000E+00  0.0000E+00  0.0000E+00  0.0000E+00  0.0000E+00  8.1773E-02
  6  0.0000E+00  1.6247E-02  6.0648E-02  0.0000E+00  2.2601E-03  0.0000E+00  0.0000E+00  0.0000E+00  0.0000E+00
  7  0.0000E+00  6.8683E-02  0.0000E+00  5.9572E-02  0.0000E+00  0.0000E+00  2.4570E-01  0.0000E+00  0.0000E+00
  8  0.0000E+00  1.5903E-01  0.0000E+00  2.7912E-01  0.0000E+00  0.0000E+00  7.3364E-01  0.0000E+00  1.3963E-01
  9  3.6528E+00  1.6850E-01  1.0575E-01  9.2203E-02  0.0000E+00  0.0000E+00  0.0000E+00  5.4038E-01  3.9297E-01
 10  0.0000E+00  3.2742E-01  0.0000E+00  1.8192E+00  3.9605E-01  0.0000E+00  6.3801E-01  0.0000E+00  4.2426E-01
 11  0.0000E+00  1.0199E+00  0.0000E+00  6.9920E-02  0.0000E+00  2.9089E+00  0.0000E+00  1.4366E+00  1.8967E+00
 12  0.0000E+00  4.5935E+00  5.6569E+00  4.0605E+00  6.7758E+00  4.7333E+00  7.7875E-01  8.6567E+00  0.0000E+00
 13  0.0000E+00  6.6650E-01  0.0000E+00  0.0000E+00  0.0000E+00  0.0000E+00  0.0000E+00  0.0000E+00  5.3435E-01
 14  0.0000E+00  1.0816E+00  0.0000E+00  4.6347E+00  0.0000E+00  0.0000E+00  0.0000E+00  0.0000E+00  0.0000E+00
 15  0.0000E+00  1.6185E+00  0.0000E+00  0.0000E+00  0.0000E+00  0.0000E+00  0.0000E+00  1.1421E+00  0.0000E+00
 16  0.0000E+00  3.7798E-01  0.0000E+00  0.0000E+00  0.0000E+00  0.0000E+00  0.0000E+00  0.0000E+00  0.0000E+00
 17  0.0000E+00  2.7078E-01  0.0000E+00  0.0000E+00  0.0000E+00  0.0000E+00  0.0000E+00  0.0000E+00  0.0000E+00
 18  0.0000E+00  5.0468E-03  3.7376E-02  0.0000E+00  0.0000E+00  1.6581E-02  5.6241E-04  0.0000E+00  0.0000E+00
 19  0.0000E+00  2.0838E-03  0.0000E+00  0.0000E+00  0.0000E+00  0.0000E+00  0.0000E+00  3.3992E-04  0.0000E+00
 20  0.0000E+00  7.7505E-03  0.0000E+00  3.9129E-03  0.0000E+00  0.0000E+00  0.0000E+00  0.0000E+00  0.0000E+00
 21  0.0000E+00  2.2380E-02  0.0000E+00  0.0000E+00  3.2534E-03  0.0000E+00  0.0000E+00  0.0000E+00  0.0000E+00
 22  0.0000E+00  2.5498E-02  4.0426E-02  0.0000E+00  3.3377E-02  4.7949E-02  0.0000E+00  0.0000E+00  1.0720E-01
 23  0.0000E+00  9.0859E-03  9.0371E-02  1.2099E-02  0.0000E+00  2.3566E-03  0.0000E+00  0.0000E+00  0.0000E+00
 24  0.0000E+00  5.0222E-02  0.0000E+00  0.0000E+00  0.0000E+00  2.5969E-01  0.0000E+00  1.6379E-01  0.0000E+00
 25  0.0000E+00  6.0841E-02  0.0000E+00  0.0000E+00  0.0000E+00  0.0000E+00  0.0000E+00  0.0000E+00  0.0000E+00
 26  0.0000E+00  8.9161E-02  0.0000E+00  4.5893E-01  0.0000E+00  0.0000E+00  0.0000E+00  0.0000E+00  0.0000E+00
 27  0.0000E+00  2.0170E+00  4.7799E+00  3.1258E+00  7.1556E-01  1.2531E+00  2.1371E+00  1.3289E+00  1.7216E+00
 28  0.0000E+00  1.0156E+00  0.0000E+00  0.0000E+00  0.0000E+00  0.0000E+00  0.0000E+00  0.0000E+00  0.0000E+00
 29  0.0000E+00  1.3395E-01  0.0000E+00  0.0000E+00  0.0000E+00  0.0000E+00  0.0000E+00  0.0000E+00  0.0000E+00
 30  0.0000E+00  2.2753E-01  0.0000E+00  0.0000E+00  0.0000E+00  0.0000E+00  0.0000E+00  0.0000E+00  4.7434E+00
 31  0.0000E+00  4.3007E-01  0.0000E+00  0.0000E+00  0.0000E+00  0.0000E+00  0.0000E+00  0.0000E+00  0.0000E+00
 32  0.0000E+00  6.8039E-01  0.0000E+00  0.0000E+00  0.0000E+00  0.0000E+00  0.0000E+00  0.0000E+00  7.7274E+00
 33  0.0000E+00  3.1149E-01  0.0000E+00  0.0000E+00  0.0000E+00  0.0000E+00  0.0000E+00  0.0000E+00  0.0000E+00
 34  0.0000E+00  2.4188E-01  0.0000E+00  0.0000E+00  0.0000E+00  0.0000E+00  0.0000E+00  0.0000E+00  0.0000E+00
 35  0.0000E+00  4.7467E-03  0.0000E+00  0.0000E+00  0.0000E+00  0.0000E+00  0.0000E+00  0.0000E+00  0.0000E+00
 36  0.0000E+00  4.0453E-03  7.9312E-03  0.0000E+00  0.0000E+00  0.0000E+00  0.0000E+00  0.0000E+00  0.0000E+00
 37  0.0000E+00  1.0120E-02  1.4709E-02  0.0000E+00  0.0000E+00  0.0000E+00  0.0000E+00  4.1515E-02  0.0000E+00
 38  0.0000E+00  4.5327E-03  0.0000E+00  0.0000E+00  5.1922E-02  0.0000E+00  0.0000E+00  0.0000E+00  0.0000E+00
 39  0.0000E+00  7.5272E-03  0.0000E+00  0.0000E+00  0.0000E+00  0.0000E+00  0.0000E+00  0.0000E+00  0.0000E+00
 40  0.0000E+00  3.3388E-02  0.0000E+00  0.0000E+00  0.0000E+00  5.0922E-02  0.0000E+00  0.0000E+00  0.0000E+00
 41  0.0000E+00  5.7267E-02  0.0000E+00  0.0000E+00  0.0000E+00  0.0000E+00  0.0000E+00  0.0000E+00  0.0000E+00
 42  0.0000E+00  4.1488E-01  0.0000E+00  0.0000E+00  0.0000E+00  0.0000E+00  0.0000E+00  7.1084E-01  0.0000E+00
 43  0.0000E+00  2.4799E+00  7.6508E-01  3.0127E+00  2.4625E+00  2.3468E+00  2.1726E+00  0.0000E+00  1.2058E+00
 44  9.6347E+01  6.0882E+01  6.5672E+01  7.0443E+01  7.8269E+01  7.4479E+01  7.7214E+01  7.7199E+01  7.5495E+01
 45  0.0000E+00  1.5757E+00  0.0000E+00  0.0000E+00  0.0000E+00  0.0000E+00  7.9882E-02  0.0000E+00  0.0000E+00
 46  0.0000E+00  5.0630E-01  0.0000E+00  0.0000E+00  0.0000E+00  0.0000E+00  7.2465E-01  0.0000E+00  0.0000E+00
 47  0.0000E+00  2.6387E-01  0.0000E+00  0.0000E+00  0.0000E+00  0.0000E+00  0.0000E+00  0.0000E+00  0.0000E+00
 48  0.0000E+00  7.5325E-01  7.0986E+00  0.0000E+00  0.0000E+00  0.0000E+00  0.0000E+00  0.0000E+00  0.0000E+00
 49  0.0000E+00  1.0551E+00  0.0000E+00  0.0000E+00  0.0000E+00  0.0000E+00  0.0000E+00  0.0000E+00  0.0000E+00
 50  0.0000E+00  1.5239E-01  0.0000E+00  0.0000E+00  0.0000E+00  0.0000E+00  0.0000E+00  0.0000E+00  0.0000E+00
 51  0.0000E+00  1.6833E-03  0.0000E+00  0.0000E+00  0.0000E+00  0.0000E+00  0.0000E+00  2.1247E-02  0.0000E+00
 52  0.0000E+00  2.4499E-03  8.8224E-03  0.0000E+00  1.3380E-02  0.0000E+00  0.0000E+00  0.0000E+00  0.0000E+00
 53  0.0000E+00  2.3956E-03  1.7592E-02  0.0000E+00  0.0000E+00  0.0000E+00  0.0000E+00  0.0000E+00  0.0000E+00
 54  0.0000E+00  4.9244E-03  0.0000E+00  0.0000E+00  0.0000E+00  0.0000E+00  0.0000E+00  0.0000E+00  0.0000E+00
 55  0.0000E+00  9.9446E-03  0.0000E+00  0.0000E+00  0.0000E+00  0.0000E+00  0.0000E+00  0.0000E+00  0.0000E+00
 56  0.0000E+00  2.8739E-02  3.6338E-02  0.0000E+00  0.0000E+00  0.0000E+00  2.6433E-02  0.0000E+00  0.0000E+00
 57  0.0000E+00  1.0709E-01  0.0000E+00  0.0000E+00  8.7675E-01  0.0000E+00  0.0000E+00  0.0000E+00  0.0000E+00
 58  0.0000E+00  3.0505E-01  0.0000E+00  0.0000E+00  0.0000E+00  8.7326E-01  0.0000E+00  0.0000E+00  4.3862E-01
 59  0.0000E+00  4.6549E+00  5.0582E+00  2.1452E+00  5.4125E-01  1.2637E+01  3.8195E+00  3.0517E+00  5.0755E+00
 60  0.0000E+00  8.4764E+00  9.4023E+00  5.7445E+00  9.7813E+00  3.9167E-01  1.1304E+01  4.1612E+00  0.0000E+00
 61  0.0000E+00  9.0814E-01  1.1473E+00  0.0000E+00  0.0000E+00  0.0000E+00  0.0000E+00  0.0000E+00  0.0000E+00
 62  0.0000E+00  4.3743E-01  0.0000E+00  4.0117E+00  0.0000E+00  0.0000E+00  0.0000E+00  0.0000E+00  0.0000E+00
 63  0.0000E+00  1.5611E-01  0.0000E+00  0.0000E+00  0.0000E+00  0.0000E+00  0.0000E+00  0.0000E+00  0.0000E+00
 64  0.0000E+00  1.5995E-01  0.0000E+00  0.0000E+00  0.0000E+00  0.0000E+00  0.0000E+00  1.5459E+00  0.0000E+00
 65  0.0000E+00  7.2818E-01  0.0000E+00  0.0000E+00  0.0000E+00  0.0000E+00  0.0000E+00  0.0000E+00  0.0000E+00
 66  0.0000E+00  6.2114E-02  0.0000E+00  0.0000E+00  0.0000E+00  0.0000E+00  0.0000E+00  0.0000E+00  0.0000E+00

# AV, chi2 & Mass for <> & i_chain = 1 ...  7 solutions
AV       0.3303      0.3195      0.3143      0.3280      0.3407      0.3311      0.3287      0.3187      0.2969
chi2 2.6338E+00  2.6450E+00  2.6419E+00  2.6395E+00  2.6404E+00  2.6388E+00  2.6389E+00  2.6380E+00  2.6395E+00
Mass 3.8079E-15  4.0501E-15  4.0547E-15  3.9717E-15  3.8995E-15  3.7321E-15  3.8314E-15  3.8988E-15  4.0410E-15
   0.00                                  [v0_min (km/s) before EX0s...]
 289.68                                  [vd_min (km/s) before EX0s...]


## Synthetic spectrum (Best Model) ##l_obs f_obs f_syn wei
 3478    [Nl_obs]
 3741.00    1.79628   0.41796    0.000
 3742.00    1.37743   0.41978    0.000
 3743.00    0.86065   0.41596    0.000
 3744.00    0.40148   0.40773    0.000
 3745.00   -0.02452   0.39512   -2.000
 3746.00   -0.42527   0.38075   -2.000
 3747.00   -0.64035   0.36822   -2.000
 3748.00   -0.59727   0.35838   -2.000
 3749.00   -0.48471   0.35274   -2.000
 3750.00   -0.43512   0.35383   -2.000
 3751.00   -0.32402   0.36166   -2.000
 3752.00   -0.07544   0.37427   -2.000
 3753.00    0.16016   0.39017   -1.000
 3754.00    0.26601   0.40786   -1.000
 3755.00    0.29383   0.42532   -1.000
 3756.00    0.24636   0.44091   -1.000
 3757.00   -0.00144   0.45304   -2.000
 3758.00   -0.41891   0.46184   -2.000
 3759.00   -0.73818   0.46816   -2.000
 3760.00   -0.82104   0.47063   -2.000
 3761.00   -0.77701   0.46924   -2.000
 3762.00   -0.65261   0.46525   -2.000
 3763.00   -0.34891   0.45729   -2.000
 3764.00    0.11109   0.44571   -1.000
 3765.00    0.53378   0.43264   18.734
 3766.00    0.81259   0.41757   -1.000
 3767.00    0.98561   0.40198   -1.000
 3768.00    1.07456   0.38969   -1.000
 3769.00    1.05847   0.38131   -1.000
 3770.00    0.98205   0.37725   -1.000
 3771.00    0.94874   0.38033   -1.000
 3772.00    0.99070   0.39076   -1.000
 3773.00    1.04811   0.40648   -1.000
 3774.00    1.02589   0.42670   -1.000
 3775.00    0.85710   0.45039   -1.000
 3776.00    0.61741   0.47573   -1.000
 3777.00    0.46267   0.50086   21.614
 3778.00    0.41490   0.52409   24.102
 3779.00    0.38840   0.54468   25.746
 3780.00    0.35792   0.56197   -1.000
 3781.00    0.34458   0.57494   -1.000
 3782.00    0.31398   0.58284   -1.000
 3783.00    0.21880   0.58611   -1.000
 3784.00    0.11344   0.58560   -1.000
 3785.00    0.09403   0.58032   -1.000
 3786.00    0.16162   0.57059   -1.000
 3787.00    0.26037   0.55847   -1.000
 3788.00    0.37328   0.54350   -1.000
 3789.00    0.48481   0.52522   20.626
 3790.00    0.51156   0.50501   19.548
 3791.00    0.42523   0.48305   23.517
 3792.00    0.41526   0.45939   24.081
 3793.00    0.63589   0.43543   -1.000
 3794.00    0.88409   0.41235   -1.000
 3795.00    0.88574   0.39217   -1.000
 3796.00    0.66034   0.37725   -1.000
 3797.00    0.37465   0.36836   26.692
 3798.00    0.13990   0.36683   -1.000
 3799.00   -0.01104   0.37406   -2.000
 3800.00   -0.11804   0.38857   -2.000
 3801.00   -0.21171   0.40834   -2.000
 3802.00   -0.24541   0.43264   -2.000
 3803.00   -0.16147   0.45928   -2.000
 3804.00    0.04732   0.48587   -1.000
 3805.00    0.33707   0.51186   -1.000
 3806.00    0.62300   0.53589   16.051
 3807.00    0.83305   0.55719   -1.000
 3808.00    0.94490   0.57617   -1.000
 3809.00    0.97252   0.59174   -1.000
 3810.00    0.95160   0.60367   -1.000
 3811.00    0.91501   0.61307   -1.000
 3812.00    0.87730   0.61923   -1.000
 3813.00    0.83220   0.62240   -1.000
 3814.00    0.75783   0.62435   13.196
 3815.00    0.64909   0.62478   15.406
 3816.00    0.53287   0.62335   18.766
 3817.00    0.45685   0.62111   21.889
 3818.00    0.47296   0.61795   21.144
 3819.00    0.59079   0.61290   16.926
 3820.00    0.75890   0.60558   13.177
 3821.00    0.87585   0.59676   -1.000
 3822.00    0.83711   0.58649   -1.000
 3823.00    0.68865   0.57332   14.521
 3824.00    0.60339   0.55757   16.573
 3825.00    0.59608   0.54046   16.776
 3826.00    0.51817   0.52123   19.299
 3827.00    0.36929   0.49977   27.079
 3828.00    0.30866   0.47671   -1.000
 3829.00    0.38284   0.45235   26.120
 3830.00    0.50241   0.42793   19.904
 3831.00    0.60772   0.40390   -1.000
 3832.00    0.69127   0.38140   -1.000
 3833.00    0.73449   0.36353   -1.000
 3834.00    0.71239   0.35087   -1.000
 3835.00    0.64214   0.34414   -1.000
 3836.00    0.56625   0.34586   -1.000
 3837.00    0.49293   0.35498   -1.000
 3838.00    0.41945   0.37036   23.841
 3839.00    0.40144   0.39222   24.911
 3840.00    0.49757   0.41789   20.098
 3841.00    0.64717   0.44577   -1.000
 3842.00    0.74607   0.47512   -1.000
 3843.00    0.80897   0.50336   -1.000
 3844.00    0.90585   0.53021   -1.000
 3845.00    1.02203   0.55541   -1.000
 3846.00    1.09901   0.57723   -1.000
 3847.00    1.12433   0.59680    0.000
 3848.00    1.12138   0.61493    0.000
 3849.00    1.11761   0.62961    0.000
 3850.00    1.12866   0.64206    0.000
 3851.00    1.14547   0.65430    0.000
 3852.00    1.15392   0.66366    0.000
 3853.00    1.15865   0.67050    0.000
 3854.00    1.17639   0.67797    0.000
 3855.00    1.22424   0.68354    0.000
 3856.00    1.29740   0.68688    0.000
 3857.00    1.35281   0.69194    0.000
 3858.00    1.35251   0.69679    0.000
 3859.00    1.30211   0.69976    0.000
 3860.00    1.22936   0.70419    0.000
 3861.00    1.16387   0.70926    0.000
 3862.00    1.13962   0.71211    0.000
 3863.00    1.19181   0.71446    0.000
 3864.00    1.31116   0.71686    0.000
 3865.00    1.42450   0.71683    0.000
 3866.00    1.48693   0.71483    0.000
 3867.00    1.53103   0.71224    0.000
 3868.00    1.58453   0.70763    0.000
 3869.00    1.62497   0.70078    0.000
 3870.00    1.62207   0.69338    0.000
 3871.00    1.56245   0.68479    0.000
 3872.00    1.44412   0.67416    0.000
 3873.00    1.27995   0.66339    0.000
 3874.00    1.12963   0.65189    0.000
 3875.00    1.08815   0.63798    0.000
 3876.00    1.16838   0.62371    0.000
 3877.00    1.27919   0.60857    0.000
 3878.00    1.35141   0.59033    0.000
 3879.00    1.37527   0.57106    0.000
 3880.00    1.34107   0.55102    0.000
 3881.00    1.23197   0.52804   -1.000
 3882.00    1.07913   0.50328   -1.000
 3883.00    0.95530   0.47843   -1.000
 3884.00    0.89317   0.45348   -1.000
 3885.00    0.87176   0.42886   -1.000
 3886.00    0.85602   0.40740   -1.000
 3887.00    0.82017   0.39176   -1.000
 3888.00    0.77624   0.38162   -1.000
 3889.00    0.75922   0.37818   -1.000
 3890.00    0.77160   0.38351   -1.000
 3891.00    0.78743   0.39565   -1.000
 3892.00    0.79401   0.41273   -1.000
 3893.00    0.79239   0.43467   -1.000
 3894.00    0.77767   0.45931   -1.000
 3895.00    0.74853   0.48429   -1.000
 3896.00    0.73266   0.50909   -1.000
 3897.00    0.75302   0.53305   -1.000
 3898.00    0.76140   0.55569   -1.000
 3899.00    0.70288   0.57616   14.227
 3900.00    0.63876   0.59462   15.655
 3901.00    0.66457   0.61310   15.047
 3902.00    0.75561   0.62945   13.234
 3903.00    0.82200   0.64373   12.165
 3904.00    0.82119   0.65952   12.177
 3905.00    0.76273   0.67407   13.111
 3906.00    0.69115   0.68685   14.469
 3907.00    0.65289   0.70069   15.317
 3908.00    0.65904   0.71345   15.173
 3909.00    0.69174   0.72408   14.456
 3910.00    0.71757   0.73313   13.936
 3911.00    0.70434   0.74058   14.198
 3912.00    0.63732   0.74615   15.691
 3913.00    0.52267   0.74860   -1.000
 3914.00    0.38833   0.74999   -1.000
 3915.00    0.27612   0.75117   -1.000
 3916.00    0.23231   0.75005   -1.000
 3917.00    0.28896   0.74872   -1.000
 3918.00    0.44739   0.74825   -1.000
 3919.00    0.66648   0.74660   15.004
 3920.00    0.86433   0.74451   11.570
 3921.00    0.98938   0.74273   -1.000
 3922.00    1.06080   0.73924   -1.000
 3923.00    1.09877   0.73345   -1.000
 3924.00    1.08600   0.72602   -1.000
 3925.00    1.02356   0.71506   -1.000
 3926.00    0.95464   0.70005   -1.000
 3927.00    0.89870   0.68209   11.127
 3928.00    0.82639   0.66129   12.101
 3929.00    0.72528   0.63857   13.788
 3930.00    0.62603   0.61564   15.974
 3931.00    0.55967   0.59586   17.868
 3932.00    0.53916   0.58115   18.547
 3933.00    0.57158   0.57192   17.495
 3934.00    0.66103   0.57126   -1.000
 3935.00    0.79682   0.57953   -1.000
 3936.00    0.95558   0.59369   -1.000
 3937.00    1.12599   0.61234   -1.000
 3938.00    1.30615   0.63346   -1.000
 3939.00    1.46331   0.65456   -1.000
 3940.00    1.54215   0.67343   -1.000
 3941.00    1.53396   0.68848   -1.000
 3942.00    1.47770   0.70055   -1.000
 3943.00    1.39884   0.70920   -1.000
 3944.00    1.30335   0.71380   -1.000
 3945.00    1.21064   0.71673   -1.000
 3946.00    1.14850   0.71816   -1.000
 3947.00    1.11864   0.71709   -1.000
 3948.00    1.09707   0.71502   -1.000
 3949.00    1.05541   0.71198   -1.000
 3950.00    0.98161   0.70756   -1.000
 3951.00    0.91104   0.70227   10.976
 3952.00    0.89229   0.69511   11.207
 3953.00    0.91024   0.68632   -1.000
 3954.00    0.90884   0.67685   -1.000
 3955.00    0.85889   0.66486   11.643
 3956.00    0.77294   0.65022   12.938
 3957.00    0.70694   0.63416   14.145
 3958.00    0.71466   0.61535   13.993
 3959.00    0.77986   0.59371   12.823
 3960.00    0.84302   0.56958    0.000
 3961.00    0.85507   0.54217    0.000
 3962.00    0.80530   0.51262    0.000
 3963.00    0.74401   0.48167    0.000
 3964.00    0.72782   0.44940    0.000
 3965.00    0.75208   0.41789    0.000
 3966.00    0.77261   0.38924    0.000
 3967.00    0.74144   0.36486    0.000
 3968.00    0.63823   0.34677    0.000
 3969.00    0.49520   0.33698    0.000
 3970.00    0.35810   0.33605    0.000
 3971.00    0.24763   0.34405    0.000
 3972.00    0.16960   0.36048    0.000
 3973.00    0.12572   0.38325    0.000
 3974.00    0.10321   0.41079    0.000
 3975.00    0.07264   0.44164    0.000
 3976.00    0.04289   0.47309    0.000
 3977.00    0.08792   0.50407    0.000
 3978.00    0.23756   0.53381    0.000
 3979.00    0.41422   0.56109    0.000
 3980.00    0.53208   0.58620    0.000
 3981.00    0.56143   0.60869   17.812
 3982.00    0.51014   0.62883   19.602
 3983.00    0.40914   0.64745   -1.000
 3984.00    0.30546   0.66418   -1.000
 3985.00    0.25369   0.67998   -1.000
 3986.00    0.29072   0.69443   -1.000
 3987.00    0.42022   0.70736   -1.000
 3988.00    0.60137   0.72005   16.629
 3989.00    0.75976   0.73108   13.162
 3990.00    0.85396   0.74045   11.710
 3991.00    0.89172   0.74916   11.214
 3992.00    0.87816   0.75630   11.387
 3993.00    0.80889   0.76225   12.363
 3994.00    0.72226   0.76716   13.845
 3995.00    0.69226   0.77104   14.446
 3996.00    0.74059   0.77491   13.503
 3997.00    0.83547   0.77817   11.969
 3998.00    0.98103   0.78080   10.193
 3999.00    1.20574   0.78398   -1.000
 4000.00    1.45014   0.78677   -1.000
 4001.00    1.59433   0.78838   -1.000
 4002.00    1.61464   0.78950   -1.000
 4003.00    1.57378   0.79086   -1.000
 4004.00    1.49487   0.79200   -1.000
 4005.00    1.36082   0.79232   -1.000
 4006.00    1.18345   0.79365   -1.000
 4007.00    1.00280   0.79656    9.972
 4008.00    0.85248   0.79930   11.731
 4009.00    0.74910   0.80207   13.349
 4010.00    0.68696   0.80600   14.557
 4011.00    0.65176   0.80987   15.343
 4012.00    0.64598   0.81312   15.480
 4013.00    0.68182   0.81690   14.667
 4014.00    0.76192   0.82023   13.125
 4015.00    0.86947   0.82320   11.501
 4016.00    0.96027   0.82635   10.414
 4017.00    1.00000   0.82831   10.000
 4018.00    1.01517   0.82970    9.851
 4019.00    1.05709   0.83085    9.460
 4020.00    1.14619   0.83084   -1.000
 4021.00    1.26512   0.82955   -1.000
 4022.00    1.36349   0.82763   -1.000
 4023.00    1.41589   0.82595   -1.000
 4024.00    1.47664   0.82320   -1.000
 4025.00    1.58214   0.81992   -1.000
 4026.00    1.65476   0.81783   -1.000
 4027.00    1.60251   0.81506   -1.000
 4028.00    1.42039   0.81219   -1.000
 4029.00    1.17596   0.81046   -1.000
 4030.00    0.97829   0.80843   10.222
 4031.00    0.88746   0.80776   11.268
 4032.00    0.85439   0.80910   11.704
 4033.00    0.80980   0.81111   12.349
 4034.00    0.73251   0.81477   13.652
 4035.00    0.63503   0.81941   15.747
 4036.00    0.54867   0.82409   -1.000
 4037.00    0.51246   0.82846   -1.000
 4038.00    0.56008   0.83144   -1.000
 4039.00    0.68331   0.83296   14.635
 4040.00    0.82323   0.83257   12.147
 4041.00    0.93828   0.83037   10.658
 4042.00    1.03279   0.82742    9.683
 4043.00    1.11005   0.82386   -1.000
 4044.00    1.15163   0.82047   -1.000
 4045.00    1.13595   0.81720   -1.000
 4046.00    1.05549   0.81493   -1.000
 4047.00    0.94965   0.81547   10.530
 4048.00    0.89710   0.81600   11.147
 4049.00    0.93243   0.81572   10.725
 4050.00    1.02462   0.81671    9.760
 4051.00    1.12041   0.81697   -1.000
 4052.00    1.16977   0.81568   -1.000
 4053.00    1.15422   0.81443   -1.000
 4054.00    1.09233   0.81226   -1.000
 4055.00    1.02676   0.80955    9.739
 4056.00    1.00053   0.80766    9.995
 4057.00    1.00416   0.80490    9.959
 4058.00    0.98434   0.80188   10.159
 4059.00    0.90587   0.79973   11.039
 4060.00    0.77284   0.79691   12.939
 4061.00    0.63764   0.79408   15.683
 4062.00    0.57054   0.79159   17.527
 4063.00    0.58952   0.78802   16.963
 4064.00    0.66873   0.78545   14.954
 4065.00    0.78783   0.78473   12.693
 4066.00    0.93383   0.78301   10.709
 4067.00    1.08505   0.78075   -1.000
 4068.00    1.21316   0.77944   -1.000
 4069.00    1.29260   0.77797   -1.000
 4070.00    1.31287   0.77555   -1.000
 4071.00    1.29427   0.77144   -1.000
 4072.00    1.26977   0.76703   -1.000
 4073.00    1.25436   0.76336   -1.000
 4074.00    1.24318   0.75825   -1.000
 4075.00    1.21636   0.75300   -1.000
 4076.00    1.15707   0.74875   -1.000
 4077.00    1.07337   0.74404   -1.000
 4078.00    0.99448   0.74065   -1.000
 4079.00    0.96017   0.73865   -1.000
 4080.00    0.98259   0.73585   -1.000
 4081.00    1.01219   0.73325   -1.000
 4082.00    1.00682   0.73017   -1.000
 4083.00    0.99860   0.72560   -1.000
 4084.00    1.03023   0.72042   -1.000
 4085.00    1.09268   0.71384   -1.000
 4086.00    1.15378   0.70580   -1.000
 4087.00    1.18955   0.69667   -1.000
 4088.00    1.19970   0.68586   -1.000
 4089.00    1.21363   0.67296   -1.000
 4090.00    1.25402   0.65789   -1.000
 4091.00    1.31116   0.64089   -1.000
 4092.00    1.35456   0.62106    0.000
 4093.00    1.34678   0.59887    0.000
 4094.00    1.27386   0.57525    0.000
 4095.00    1.15826   0.54938    0.000
 4096.00    1.02466   0.52278    0.000
 4097.00    0.88175   0.49722    0.000
 4098.00    0.73520   0.47309    0.000
 4099.00    0.59726   0.45259    0.000
 4100.00    0.49689   0.43717    0.000
 4101.00    0.47468   0.42704    0.000
 4102.00    0.53869   0.42429    0.000
 4103.00    0.65359   0.42952    0.000
 4104.00    0.78082   0.44048    0.000
 4105.00    0.89446   0.45662    0.000
 4106.00    0.97443   0.47709    0.000
 4107.00    1.00587   0.49959    0.000
 4108.00    0.98667   0.52326    0.000
 4109.00    0.92963   0.54693    0.000
 4110.00    0.86001   0.56951    0.000
 4111.00    0.80925   0.59117    0.000
 4112.00    0.79882   0.61121    0.000
 4113.00    0.83368   0.62937   -1.000
 4114.00    0.89850   0.64573   -1.000
 4115.00    0.96320   0.66010   -1.000
 4116.00    0.99953   0.67280   -1.000
 4117.00    0.99093   0.68391   -1.000
 4118.00    0.94465   0.69295   -1.000
 4119.00    0.88579   0.70080   11.289
 4120.00    0.83786   0.70838   11.935
 4121.00    0.81423   0.71483   12.282
 4122.00    0.81031   0.72010   12.341
 4123.00    0.81246   0.72476   12.308
 4124.00    0.81714   0.72888   12.238
 4125.00    0.82881   0.73217   12.065
 4126.00    0.85030   0.73446   11.761
 4127.00    0.88267   0.73593   11.329
 4128.00    0.92774   0.73701   10.779
 4129.00    0.98738   0.73852   -1.000
 4130.00    1.06131   0.74055   -1.000
 4131.00    1.13955   0.74290   -1.000
 4132.00    1.19418   0.74597   -1.000
 4133.00    1.20437   0.75076   -1.000
 4134.00    1.18649   0.75598   -1.000
 4135.00    1.15957   0.76131   -1.000
 4136.00    1.10430   0.76698   -1.000
 4137.00    1.00390   0.77115    9.961
 4138.00    0.88912   0.77431   11.247
 4139.00    0.79739   0.77649   12.541
 4140.00    0.72998   0.77679   13.699
 4141.00    0.67714   0.77635   14.768
 4142.00    0.64387   0.77535   15.531
 4143.00    0.64194   0.77335   15.578
 4144.00    0.68011   0.77227   14.704
 4145.00    0.75464   0.77292   13.251
 4146.00    0.84482   0.77324   11.837
 4147.00    0.93058   0.77388   10.746
 4148.00    1.00402   0.77516    9.960
 4149.00    1.05753   0.77562   -1.000
 4150.00    1.07788   0.77635   -1.000
 4151.00    1.06229   0.77690   -1.000
 4152.00    1.02647   0.77686   -1.000
 4153.00    0.99153   0.77716   10.085
 4154.00    0.97437   0.77706   10.263
 4155.00    0.97906   0.77775   10.214
 4156.00    0.99457   0.77911   10.055
 4157.00    1.00515   0.78058    9.949
 4158.00    0.99807   0.78287   10.019
 4159.00    0.97422   0.78542   10.265
 4160.00    0.94871   0.78802   10.541
 4161.00    0.93395   0.78998   10.707
 4162.00    0.93348   0.79175   10.713
 4163.00    0.94602   0.79305   10.571
 4164.00    0.96699   0.79291   10.341
 4165.00    0.98820   0.79235   10.119
 4166.00    0.99815   0.79070   10.019
 4167.00    0.98362   0.78728   10.167
 4168.00    0.93803   0.78351   10.661
 4169.00    0.88372   0.77954   11.316
 4170.00    0.85759   0.77477   11.661
 4171.00    0.85465   0.76986   11.701
 4172.00    0.83818   0.76499   11.931
 4173.00    0.80458   0.76095   12.429
 4174.00    0.78134   0.75879   12.799
 4175.00    0.78264   0.75766   12.777
 4176.00    0.80306   0.75724   12.452
 4177.00    0.82748   0.75773   12.085
 4178.00    0.84236   0.75899   11.871
 4179.00    0.85306   0.76125   11.722
 4180.00    0.87436   0.76461   11.437
 4181.00    0.90726   0.76753   11.022
 4182.00    0.94464   0.76978   10.586
 4183.00    0.98788   0.77266   10.123
 4184.00    1.04141   0.77522   -1.000
 4185.00    1.10035   0.77774   -1.000
 4186.00    1.15916   0.77999   -1.000
 4187.00    1.22554   0.78094   -1.000
 4188.00    1.29932   0.78273   -1.000
 4189.00    1.34393   0.78510   -1.000
 4190.00    1.32048   0.78636   -1.000
 4191.00    1.23337   0.78663   -1.000
 4192.00    1.11566   0.78647   -1.000
 4193.00    1.00502   0.78596    9.950
 4194.00    0.92970   0.78424   10.756
 4195.00    0.89668   0.78121   11.152
 4196.00    0.89328   0.77775   11.195
 4197.00    0.89261   0.77484   11.203
 4198.00    0.87912   0.77178   11.375
 4199.00    0.86830   0.76933   11.517
 4200.00    0.87931   0.76911   11.373
 4201.00    0.91148   0.76929   10.971
 4202.00    0.95274   0.77006   10.496
 4203.00    0.98999   0.77279   10.101
 4204.00    1.02687   0.77585   -1.000
 4205.00    1.08875   0.77902   -1.000
 4206.00    1.17310   0.78252   -1.000
 4207.00    1.22795   0.78535   -1.000
 4208.00    1.22560   0.78784   -1.000
 4209.00    1.19941   0.78952   -1.000
 4210.00    1.18771   0.78977   -1.000
 4211.00    1.20111   0.79003   -1.000
 4212.00    1.22595   0.79016   -1.000
 4213.00    1.23287   0.78967   -1.000
 4214.00    1.20421   0.78916   -1.000
 4215.00    1.14410   0.78802   -1.000
 4216.00    1.06397   0.78757   -1.000
 4217.00    0.97732   0.78831   10.232
 4218.00    0.90567   0.78816   11.042
 4219.00    0.87257   0.78681   11.460
 4220.00    0.87252   0.78469   11.461
 4221.00    0.87197   0.78184   11.468
 4222.00    0.85366   0.77776   11.714
 4223.00    0.82853   0.77344   12.070
 4224.00    0.82231   0.76911   12.161
 4225.00    0.86105   0.76516   11.614
 4226.00    0.94283   0.76239   10.606
 4227.00    1.03588   0.76067   -1.000
 4228.00    1.09672   0.76159   -1.000
 4229.00    1.08864   0.76395   -1.000
 4230.00    1.01380   0.76574    9.864
 4231.00    0.90801   0.76789   11.013
 4232.00    0.80980   0.76973   12.349
 4233.00    0.74267   0.77041   13.465
 4234.00    0.69463   0.77203   14.396
 4235.00    0.64406   0.77359   15.527
 4236.00    0.61691   0.77424   16.210
 4237.00    0.65647   0.77598   15.233
 4238.00    0.74933   0.77764   13.345
 4239.00    0.84011   0.77946   11.903
 4240.00    0.87981   0.78184   11.366
 4241.00    0.84841   0.78358   11.787
 4242.00    0.77548   0.78442   12.895
 4243.00    0.71661   0.78458   13.955
 4244.00    0.71421   0.78439   14.001
 4245.00    0.78140   0.78278   12.797
 4246.00    0.88944   0.78020   11.243
 4247.00    0.98949   0.77744   10.106
 4248.00    1.04204   0.77514   -1.000
 4249.00    1.02501   0.77344   -1.000
 4250.00    0.93895   0.77118   10.650
 4251.00    0.80327   0.77002   12.449
 4252.00    0.65054   0.77052   15.372
 4253.00    0.51480   0.77082   -1.000
 4254.00    0.42123   0.77095   -1.000
 4255.00    0.39167   0.77117   -1.000
 4256.00    0.44532   0.77206   -1.000
 4257.00    0.55433   0.77338   18.040
 4258.00    0.62254   0.77395   16.063
 4259.00    0.61164   0.77453   16.349
 4260.00    0.61575   0.77546   16.240
 4261.00    0.68647   0.77688   14.567
 4262.00    0.73096   0.77897   13.681
 4263.00    0.69027   0.78050   14.487
 4264.00    0.63785   0.78097   15.678
 4265.00    0.63488   0.78036   15.751
 4266.00    0.65375   0.77828   15.296
 4267.00    0.66531   0.77478   15.031
 4268.00    0.68189   0.77057   14.665
 4269.00    0.71259   0.76550   14.033
 4270.00    0.74346   0.76029   13.451
 4271.00    0.76019   0.75552   13.155
 4272.00    0.75986   0.75210   13.160
 4273.00    0.75224   0.75154   13.294
 4274.00    0.75520   0.75181   13.242
 4275.00    0.77497   0.75274   -2.000
 4276.00    0.80209   0.75545   -2.000
 4277.00    0.82640   0.75821   -2.000
 4278.00    0.84242   0.76079   -2.000
 4279.00    0.84798   0.76260   -2.000
 4280.00    0.84405   0.76252   -2.000
 4281.00    0.83561   0.76213   -2.000
 4282.00    0.83012   0.76059   -2.000
 4283.00    0.83223   0.75775   -2.000
 4284.00    0.84161   0.75443   -2.000
 4285.00    0.85134   0.74999   -2.000
 4286.00    0.85282   0.74614   -2.000
 4287.00    0.84818   0.74248   -2.000
 4288.00    0.84531   0.73867   -2.000
 4289.00    0.83976   0.73458   -2.000
 4290.00    0.82196   0.73090   -2.000
 4291.00    0.80045   0.72889   12.493
 4292.00    0.79346   0.72698   12.603
 4293.00    0.80331   0.72434   12.448
 4294.00    0.82112   0.71991   12.178
 4295.00    0.84361   0.71551   11.854
 4296.00    0.86385   0.71147   11.576
 4297.00    0.85261   0.70612   11.729
 4298.00    0.78925   0.70042   12.670
 4299.00    0.71095   0.69402   14.066
 4300.00    0.67082   0.68832   14.907
 4301.00    0.67033   0.68464   14.918
 4302.00    0.68642   0.68088   14.568
 4303.00    0.71813   0.67775   13.925
 4304.00    0.77338   0.67651   12.930
 4305.00    0.84614   0.67572   11.818
 4306.00    0.91831   0.67607   -1.000
 4307.00    0.96612   0.67656   -1.000
 4308.00    0.97340   0.67695   -1.000
 4309.00    0.94334   0.67896   -1.000
 4310.00    0.88519   0.68172   11.297
 4311.00    0.80206   0.68532   12.468
 4312.00    0.70826   0.68870   14.119
 4313.00    0.64211   0.69168   15.574
 4314.00    0.63674   0.69480   15.705
 4315.00    0.69566   0.69758   14.375
 4316.00    0.79750   0.70023   12.539
 4317.00    0.90395   0.70107   11.063
 4318.00    0.98213   0.69926   -1.000
 4319.00    1.01935   0.69550   -1.000
 4320.00    1.01897   0.68955   -1.000
 4321.00    0.99562   0.68212   -1.000
 4322.00    0.96639   0.67434   -1.000
 4323.00    0.94464   0.66501   -1.000
 4324.00    0.93455   0.65479   -1.000
 4325.00    0.93056   0.64427   -1.000
 4326.00    0.92853   0.63421   -1.000
 4327.00    0.92903   0.62598   -1.000
 4328.00    0.92583   0.61719   -1.000
 4329.00    0.90362   0.60693   -1.000
 4330.00    0.85205   0.59505    0.000
 4331.00    0.77471   0.58149    0.000
 4332.00    0.69927   0.56654    0.000
 4333.00    0.66415   0.54906    0.000
 4334.00    0.65749   0.52940    0.000
 4335.00    0.62895   0.50839    0.000
 4336.00    0.60358   0.48757    0.000
 4337.00    0.66883   0.46810    0.000
 4338.00    0.81539   0.45136    0.000
 4339.00    0.94145   0.43902    0.000
 4340.00    1.00923   0.43162    0.000
 4341.00    1.05515   0.43065    0.000
 4342.00    1.09502   0.43629    0.000
 4343.00    1.11094   0.44692    0.000
 4344.00    1.08310   0.46142    0.000
 4345.00    1.00499   0.47890    0.000
 4346.00    0.89810   0.49773    0.000
 4347.00    0.79606   0.51698    0.000
 4348.00    0.70570   0.53620    0.000
 4349.00    0.61814   0.55419    0.000
 4350.00    0.54472   0.57069    0.000
 4351.00    0.50771   0.58533   19.696
 4352.00    0.51171   0.59911   19.542
 4353.00    0.54648   0.61330   18.299
 4354.00    0.59983   0.62682   16.671
 4355.00    0.66076   0.63951   15.134
 4356.00    0.72086   0.65168   13.872
 4357.00    0.77552   0.66334   12.895
 4358.00    0.82523   0.67434   12.118
 4359.00    0.87656   0.68440   11.408
 4360.00    0.94163   0.69385   -1.000
 4361.00    1.01864   0.70239   -1.000
 4362.00    1.07139   0.70949   -1.000
 4363.00    1.06256   0.71509   -1.000
 4364.00    0.99188   0.71974   -1.000
 4365.00    0.88275   0.72349   11.328
 4366.00    0.76422   0.72588   13.085
 4367.00    0.66724   0.72692   14.987
 4368.00    0.62036   0.72720   16.120
 4369.00    0.62750   0.72726   15.936
 4370.00    0.65340   0.72722   15.305
 4371.00    0.66298   0.72728   15.083
 4372.00    0.65296   0.72762   15.315
 4373.00    0.64159   0.72793   15.586
 4374.00    0.65606   0.72785   15.243
 4375.00    0.71017   0.72817   14.081
 4376.00    0.79051   0.72907   12.650
 4377.00    0.86454   0.72978   11.567
 4378.00    0.89280   0.72894   11.201
 4379.00    0.86692   0.72684   11.535
 4380.00    0.82328   0.72420   12.147
 4381.00    0.79529   0.72148   12.574
 4382.00    0.78853   0.71850   12.682
 4383.00    0.79057   0.71454   12.649
 4384.00    0.78001   0.71188   12.820
 4385.00    0.74180   0.71127   13.481
 4386.00    0.67405   0.71256   14.836
 4387.00    0.58615   0.71482   17.061
 4388.00    0.49756   0.71724   -1.000
 4389.00    0.43668   0.72069   -1.000
 4390.00    0.43170   0.72432   -1.000
 4391.00    0.48076   0.72832   -1.000
 4392.00    0.55047   0.73231   18.166
 4393.00    0.60740   0.73529   16.464
 4394.00    0.63365   0.73732   15.782
 4395.00    0.63979   0.73852   15.630
 4396.00    0.65364   0.74023   15.299
 4397.00    0.67813   0.74207   14.746
 4398.00    0.69726   0.74245   14.342
 4399.00    0.72204   0.74189   13.850
 4400.00    0.77864   0.74089   12.843
 4401.00    0.85134   0.74057   11.746
 4402.00    0.89286   0.74118   11.200
 4403.00    0.87829   0.74120   11.386
 4404.00    0.81423   0.74066   12.282
 4405.00    0.73173   0.74107   13.666
 4406.00    0.66845   0.74304   14.960
 4407.00    0.63868   0.74529   15.657
 4408.00    0.63769   0.74687   15.682
 4409.00    0.65930   0.74839   15.168
 4410.00    0.69679   0.74983   14.352
 4411.00    0.73977   0.75080   13.518
 4412.00    0.78270   0.75124   12.776
 4413.00    0.83734   0.75102   11.943
 4414.00    0.92042   0.75023   10.865
 4415.00    1.03372   0.74884   -1.000
 4416.00    1.15944   0.74858   -1.000
 4417.00    1.25958   0.74880   -1.000
 4418.00    1.30177   0.74953   -1.000
 4419.00    1.28844   0.75117   -1.000
 4420.00    1.24082   0.75263   -1.000
 4421.00    1.17806   0.75402   -1.000
 4422.00    1.11803   0.75501   -1.000
 4423.00    1.07854   0.75591   -1.000
 4424.00    1.05913   0.75722   -1.000
 4425.00    1.02879   0.75759   -1.000
 4426.00    0.96903   0.75742   10.320
 4427.00    0.90691   0.75695   11.026
 4428.00    0.87089   0.75602   11.483
 4429.00    0.85640   0.75534   11.677
 4430.00    0.85073   0.75379   11.755
 4431.00    0.85139   0.75269   11.746
 4432.00    0.85316   0.75229   11.721
 4433.00    0.83989   0.75142   11.906
 4434.00    0.79359   0.75086   12.601
 4435.00    0.70341   0.75035   14.216
 4436.00    0.58202   0.75042   17.181
 4437.00    0.46775   0.75115   -1.000
 4438.00    0.38599   0.75136   -1.000
 4439.00    0.33317   0.75150   -1.000
 4440.00    0.30181   0.75124   -1.000
 4441.00    0.29351   0.75065   -1.000
 4442.00    0.31813   0.75009   -1.000
 4443.00    0.38693   0.74963   -1.000
 4444.00    0.48708   0.74992   -1.000
 4445.00    0.58083   0.75087   17.217
 4446.00    0.64395   0.75176   15.529
 4447.00    0.67654   0.75189   14.781
 4448.00    0.68688   0.75184   14.559
 4449.00    0.68661   0.75155   14.564
 4450.00    0.69439   0.75013   14.401
 4451.00    0.72734   0.74837   13.749
 4452.00    0.77193   0.74628   12.955
 4453.00    0.79128   0.74348   12.638
 4454.00    0.76987   0.74011   12.989
 4455.00    0.72196   0.73657   13.851
 4456.00    0.67943   0.73428   14.718
 4457.00    0.67600   0.73252   14.793
 4458.00    0.71848   0.73113   13.918
 4459.00    0.78749   0.73008   12.699
 4460.00    0.85460   0.72968   11.701
 4461.00    0.89366   0.72966    0.000
 4462.00    0.89539   0.72961    0.000
 4463.00    0.86855   0.73055    0.000
 4464.00    0.83596   0.73118    0.000
 4465.00    0.82227   0.73162    0.000
 4466.00    0.83466   0.73222    0.000
 4467.00    0.86660   0.73296    0.000
 4468.00    0.90925   0.73409    0.000
 4469.00    0.95143   0.73534    0.000
 4470.00    0.97753   0.73748    0.000
 4471.00    0.97360   0.73993    0.000
 4472.00    0.93636   0.74239    0.000
 4473.00    0.87662   0.74462    0.000
 4474.00    0.82050   0.74610    0.000
 4475.00    0.78662   0.74667    0.000
 4476.00    0.76204   0.74624    0.000
 4477.00    0.73196   0.74551    0.000
 4478.00    0.71238   0.74407    0.000
 4479.00    0.72637   0.74197    0.000
 4480.00    0.77690   0.73954    0.000
 4481.00    0.84512   0.73741    0.000
 4482.00    0.89419   0.73694   11.183
 4483.00    0.89717   0.73807   11.146
 4484.00    0.85804   0.73945   11.654
 4485.00    0.79064   0.74099   12.648
 4486.00    0.70193   0.74250   14.246
 4487.00    0.60110   0.74366   16.636
 4488.00    0.50591   0.74443   -1.000
 4489.00    0.43495   0.74490   -1.000
 4490.00    0.40091   0.74569   -1.000
 4491.00    0.40469   0.74660   -1.000
 4492.00    0.43490   0.74748   -1.000
 4493.00    0.48584   0.74866   -1.000
 4494.00    0.56466   0.74940   17.710
 4495.00    0.67393   0.75083   14.838
 4496.00    0.80082   0.75299   12.487
 4497.00    0.91167   0.75532   10.969
 4498.00    0.95795   0.75819   10.439
 4499.00    0.91340   0.76070   10.948
 4500.00    0.79021   0.76320   12.655
 4501.00    0.63491   0.76507   15.750
 4502.00    0.51361   0.76740   -1.000
 4503.00    0.46506   0.77014   -1.000
 4504.00    0.48997   0.77204   -1.000
 4505.00    0.57792   0.77322   17.304
 4506.00    0.71347   0.77366   14.016
 4507.00    0.86403   0.77340   11.574
 4508.00    0.98622   0.77241   10.140
 4509.00    1.05646   0.77149   -1.000
 4510.00    1.07512   0.77034   -1.000
 4511.00    1.05210   0.76856   -1.000
 4512.00    0.99920   0.76621   10.008
 4513.00    0.92196   0.76370   10.847
 4514.00    0.82623   0.76120   12.103
 4515.00    0.73760   0.75840   13.558
 4516.00    0.67766   0.75623   14.757
 4517.00    0.60658   0.75426   16.486
 4518.00    0.49153   0.75176   -1.000
 4519.00    0.45977   0.74953   -1.000
 4520.00    0.64055   0.74679   15.612
 4521.00    0.83327   0.74433   12.001
 4522.00    0.75929   0.74124   13.170
 4523.00    0.57487   0.73797   17.395
 4524.00    0.58497   0.73537   17.095
 4525.00    0.67600   0.73225   14.793
 4526.00    0.59318   0.72927   16.858
 4527.00    0.45449   0.72651   -1.000
 4528.00    0.51314   0.72433   19.488
 4529.00    0.74814   0.72284   13.366
 4530.00    0.95787   0.72260   -1.000
 4531.00    0.95442   0.72293   -1.000
 4532.00    0.72063   0.72428   13.877
 4533.00    0.53391   0.72578   18.730
 4534.00    0.61416   0.72762   16.282
 4535.00    0.76933   0.73068   12.998
 4536.00    0.76476   0.73392   13.076
 4537.00    0.69365   0.73758   14.417
 4538.00    0.70248   0.74019   14.235
 4539.00    0.73026   0.74206   13.694
 4540.00    0.68894   0.74312   14.515
 4541.00    0.62237   0.74323   16.068
 4542.00    0.61218   0.74282   16.335
 4543.00    0.69296   0.74189   14.431
 4544.00    0.83953   0.74009   11.911
 4545.00    0.96870   0.73738   10.323
 4546.00    0.98663   0.73457   -1.000
 4547.00    0.83526   0.73146   11.972
 4548.00    0.58129   0.72845   17.203
 4549.00    0.42736   0.72527   -1.000
 4550.00    0.47249   0.72318    0.000
 4551.00    0.61131   0.72260    0.000
 4552.00    0.73066   0.72208    0.000
 4553.00    0.81039   0.72229    0.000
 4554.00    0.88954   0.72305    0.000
 4555.00    1.01663   0.72467    0.000
 4556.00    1.11658   0.72684    0.000
 4557.00    1.01656   0.72992    0.000
 4558.00    0.78734   0.73282    0.000
 4559.00    0.73926   0.73539    0.000
 4560.00    0.88026   0.73795    0.000
 4561.00    0.88453   0.73991    0.000
 4562.00    0.70319   0.74159    0.000
 4563.00    0.61367   0.74251    0.000
 4564.00    0.68440   0.74311    0.000
 4565.00    0.73600   0.74388    0.000
 4566.00    0.74491   0.74464    0.000
 4567.00    0.84380   0.74553    0.000
 4568.00    0.99296   0.74608    0.000
 4569.00    1.01282   0.74624    0.000
 4570.00    0.89015   0.74633    0.000
 4571.00    0.76947   0.74581    0.000
 4572.00    0.75079   0.74506    0.000
 4573.00    0.82662   0.74501    0.000
 4574.00    0.85776   0.74428    0.000
 4575.00    0.71032   0.74283    0.000
 4576.00    0.52316   0.74096    0.000
 4577.00    0.53625   0.73882    0.000
 4578.00    0.69306   0.73654    0.000
 4579.00    0.77335   0.73375    0.000
 4580.00    0.73340   0.73119    0.000
 4581.00    0.66501   0.72893    0.000
 4582.00    0.64118   0.72717    0.000
 4583.00    0.67015   0.72569    0.000
 4584.00    0.67146   0.72485    0.000
 4585.00    0.58858   0.72513    0.000
 4586.00    0.53066   0.72561    0.000
 4587.00    0.61126   0.72650    0.000
 4588.00    0.74148   0.72745    0.000
 4589.00    0.79209   0.72860    0.000
 4590.00    0.79507   0.72960    0.000
 4591.00    0.83031   0.73031    0.000
 4592.00    0.88778   0.73091    0.000
 4593.00    0.90830   0.73155    0.000
 4594.00    0.84298   0.73219    0.000
 4595.00    0.71811   0.73265    0.000
 4596.00    0.66995   0.73314    0.000
 4597.00    0.77836   0.73386    0.000
 4598.00    0.94358   0.73451    0.000
 4599.00    1.03068   0.73547    0.000
 4600.00    0.98893   0.73637    0.000
 4601.00    0.85447   0.73732    0.000
 4602.00    0.73212   0.73889    0.000
 4603.00    0.69918   0.74020    0.000
 4604.00    0.74729   0.74187    0.000
 4605.00    0.81470   0.74342    0.000
 4606.00    0.82461   0.74511    0.000
 4607.00    0.77638   0.74685    0.000
 4608.00    0.76621   0.74825    0.000
 4609.00    0.83395   0.74939    0.000
 4610.00    0.91312   0.74983    0.000
 4611.00    0.97725   0.74975    0.000
 4612.00    1.07471   0.74939    0.000
 4613.00    1.16747   0.74872    0.000
 4614.00    1.11369   0.74783    0.000
 4615.00    0.88746   0.74707    0.000
 4616.00    0.62569   0.74598    0.000
 4617.00    0.46325   0.74520    0.000
 4618.00    0.46126   0.74462    0.000
 4619.00    0.58387   0.74402    0.000
 4620.00    0.72770   0.74393    0.000
 4621.00    0.83502   0.74420    0.000
 4622.00    0.89885   0.74433    0.000
 4623.00    0.87274   0.74429    0.000
 4624.00    0.71005   0.74424    0.000
 4625.00    0.53576   0.74372    0.000
 4626.00    0.55961   0.74300    0.000
 4627.00    0.75314   0.74220    0.000
 4628.00    0.90240   0.74112    0.000
 4629.00    0.91161   0.73973    0.000
 4630.00    0.83133   0.73847    0.000
 4631.00    0.76451   0.73755    0.000
 4632.00    0.78932   0.73635    0.000
 4633.00    0.85468   0.73499    0.000
 4634.00    0.86143   0.73377    0.000
 4635.00    0.83844   0.73291    0.000
 4636.00    0.85742   0.73221    0.000
 4637.00    0.84743   0.73150    0.000
 4638.00    0.72769   0.73073    0.000
 4639.00    0.64458   0.73017    0.000
 4640.00    0.76940   0.72941    0.000
 4641.00    0.97527   0.72869    0.000
 4642.00    1.02718   0.72783    0.000
 4643.00    0.88467   0.72669    0.000
 4644.00    0.64927   0.72553    0.000
 4645.00    0.44970   0.72447    0.000
 4646.00    0.38114   0.72346    0.000
 4647.00    0.45396   0.72277    0.000
 4648.00    0.61349   0.72270    0.000
 4649.00    0.77137   0.72307    0.000
 4650.00    0.85625   0.72391    0.000
 4651.00    0.85815   0.72492    0.000
 4652.00    0.81426   0.72597    0.000
 4653.00    0.78460   0.72720    0.000
 4654.00    0.78122   0.72816    0.000
 4655.00    0.72829   0.72908    0.000
 4656.00    0.59390   0.72998    0.000
 4657.00    0.47466   0.73051    0.000
 4658.00    0.46326   0.73093    0.000
 4659.00    0.55601   0.73068    0.000
 4660.00    0.68684   0.72970    0.000
 4661.00    0.76658   0.72773    0.000
 4662.00    0.76202   0.72521    0.000
 4663.00    0.72746   0.72216    0.000
 4664.00    0.71999   0.71905    0.000
 4665.00    0.75613   0.71621    0.000
 4666.00    0.83803   0.71349    0.000
 4667.00    0.95621   0.71144    0.000
 4668.00    1.03540   0.71063    0.000
 4669.00    0.95896   0.71096    0.000
 4670.00    0.78007   0.71201    0.000
 4671.00    0.72299   0.71375    0.000
 4672.00    0.82533   0.71579    0.000
 4673.00    0.89088   0.71779    0.000
 4674.00    0.84864   0.71979    0.000
 4675.00    0.81001   0.72145    0.000
 4676.00    0.80436   0.72278    0.000
 4677.00    0.74824   0.72362    0.000
 4678.00    0.63577   0.72391    0.000
 4679.00    0.55338   0.72401    0.000
 4680.00    0.54685   0.72407    0.000
 4681.00    0.59717   0.72407    0.000
 4682.00    0.66226   0.72415    0.000
 4683.00    0.69589   0.72434    0.000
 4684.00    0.66543   0.72464    0.000
 4685.00    0.57458   0.72467    0.000
 4686.00    0.50133   0.72487    0.000
 4687.00    0.53963   0.72482    0.000
 4688.00    0.66452   0.72474    0.000
 4689.00    0.77476   0.72459    0.000
 4690.00    0.82740   0.72436    0.000
 4691.00    0.83141   0.72390    0.000
 4692.00    0.79018   0.72335    0.000
 4693.00    0.70218   0.72274    0.000
 4694.00    0.57937   0.72174    0.000
 4695.00    0.46009   0.72065    0.000
 4696.00    0.41970   0.71920    0.000
 4697.00    0.50002   0.71749    0.000
 4698.00    0.61625   0.71535    0.000
 4699.00    0.66530   0.71333    0.000
 4700.00    0.67436   0.71154    0.000
 4701.00    0.70104   0.70988    0.000
 4702.00    0.69987   0.70846    0.000
 4703.00    0.62028   0.70727    0.000
 4704.00    0.52319   0.70690    0.000
 4705.00    0.48421   0.70687    0.000
 4706.00    0.48836   0.70711    0.000
 4707.00    0.49435   0.70751    0.000
 4708.00    0.50227   0.70825    0.000
 4709.00    0.52781   0.70938    0.000
 4710.00    0.57617   0.71069    0.000
 4711.00    0.65572   0.71249    0.000
 4712.00    0.78511   0.71414    0.000
 4713.00    0.94944   0.71607    0.000
 4714.00    1.07675   0.71799    0.000
 4715.00    1.10836   0.72030    0.000
 4716.00    1.04509   0.72272    0.000
 4717.00    0.92002   0.72511    0.000
 4718.00    0.77910   0.72701    0.000
 4719.00    0.68069   0.72871    0.000
 4720.00    0.68271   0.72983    0.000
 4721.00    0.77289   0.73023    0.000
 4722.00    0.85806   0.72996    0.000
 4723.00    0.90116   0.72895    0.000
 4724.00    0.95786   0.72754    0.000
 4725.00    1.02184   0.72549    0.000
 4726.00    0.99454   0.72313    0.000
 4727.00    0.86885   0.72040    0.000
 4728.00    0.76542   0.71788    0.000
 4729.00    0.75899   0.71588    0.000
 4730.00    0.82054   0.71436    0.000
 4731.00    0.86549   0.71336    0.000
 4732.00    0.81230   0.71301    0.000
 4733.00    0.70965   0.71336    0.000
 4734.00    0.70232   0.71385    0.000
 4735.00    0.79915   0.71488    0.000
 4736.00    0.87251   0.71585    0.000
 4737.00    0.86209   0.71691    0.000
 4738.00    0.80572   0.71843    0.000
 4739.00    0.76291   0.71978    0.000
 4740.00    0.77018   0.72100    0.000
 4741.00    0.78764   0.72203    0.000
 4742.00    0.75237   0.72317    0.000
 4743.00    0.72025   0.72404    0.000
 4744.00    0.78602   0.72477    0.000
 4745.00    0.86149   0.72512    0.000
 4746.00    0.78883   0.72536    0.000
 4747.00    0.63375   0.72538    0.000
 4748.00    0.57787   0.72487    0.000
 4749.00    0.63786   0.72427    0.000
 4750.00    0.71549   0.72330    0.000
 4751.00    0.75728   0.72224    0.000
 4752.00    0.75823   0.72074    0.000
 4753.00    0.72745   0.71937    0.000
 4754.00    0.66927   0.71782    0.000
 4755.00    0.56716   0.71632    0.000
 4756.00    0.42654   0.71477    0.000
 4757.00    0.32624   0.71321    0.000
 4758.00    0.34274   0.71169    0.000
 4759.00    0.45817   0.70998    0.000
 4760.00    0.61673   0.70830    0.000
 4761.00    0.79402   0.70647   12.594
 4762.00    0.95647   0.70468   -1.000
 4763.00    1.02349   0.70328   -1.000
 4764.00    0.96982   0.70232   -1.000
 4765.00    0.90680   0.70174   11.028
 4766.00    0.91644   0.70177   10.912
 4767.00    0.91986   0.70238   10.871
 4768.00    0.83235   0.70357   12.014
 4769.00    0.68668   0.70501   14.563
 4770.00    0.56112   0.70683   17.821
 4771.00    0.51250   0.70845   19.512
 4772.00    0.52944   0.71020   18.888
 4773.00    0.52407   0.71194   19.082
 4774.00    0.46594   0.71348   -1.000
 4775.00    0.44064   0.71468   -1.000
 4776.00    0.49050   0.71526   -1.000
 4777.00    0.53983   0.71561   18.524
 4778.00    0.50970   0.71547   -1.000
 4779.00    0.38726   0.71481   -1.000
 4780.00    0.24633   0.71381   -1.000
 4781.00    0.21949   0.71270   -1.000
 4782.00    0.33464   0.71135   -1.000
 4783.00    0.47695   0.70994   -1.000
 4784.00    0.54740   0.70869   18.268
 4785.00    0.52802   0.70787   18.939
 4786.00    0.46426   0.70703   -1.000
 4787.00    0.43856   0.70671   -1.000
 4788.00    0.50587   0.70697   19.768
 4789.00    0.66280   0.70737   15.088
 4790.00    0.82630   0.70816   12.102
 4791.00    0.87999   0.70919   11.364
 4792.00    0.83007   0.71018   12.047
 4793.00    0.78619   0.71117   12.720
 4794.00    0.77612   0.71191   12.885
 4795.00    0.74754   0.71229   13.377
 4796.00    0.70817   0.71216   14.121
 4797.00    0.70955   0.71166   14.094
 4798.00    0.72272   0.71080   13.837
 4799.00    0.67655   0.70966   14.781
 4800.00    0.60428   0.70847   16.549
 4801.00    0.60404   0.70723   16.555
 4802.00    0.69406   0.70607   14.408
 4803.00    0.80725   0.70476   12.388
 4804.00    0.84046   0.70356   11.898
 4805.00    0.74072   0.70228   13.500
 4806.00    0.62886   0.70146   15.902
 4807.00    0.65780   0.70082   15.202
 4808.00    0.76260   0.70032   13.113
 4809.00    0.79677   0.70023   12.551
 4810.00    0.78281   0.70033   12.775
 4811.00    0.80353   0.70068   12.445
 4812.00    0.81289   0.70112   12.302
 4813.00    0.74725   0.70170   13.382
 4814.00    0.68611   0.70223   14.575
 4815.00    0.71416   0.70262   14.003
 4816.00    0.75105   0.70269   13.315
 4817.00    0.70587   0.70242   14.167
 4818.00    0.64994   0.70164   15.386
 4819.00    0.66491   0.70045   15.040
 4820.00    0.68754   0.69883   14.545
 4821.00    0.64584   0.69678   15.484
 4822.00    0.58564   0.69460   17.075
 4823.00    0.55826   0.69209   17.913
 4824.00    0.52837   0.68975   18.926
 4825.00    0.48214   0.68781   -1.000
 4826.00    0.49871   0.68600   20.052
 4827.00    0.60124   0.68423   16.632
 4828.00    0.67131   0.68246   14.896
 4829.00    0.63744   0.68076   15.688
 4830.00    0.58058   0.67903   17.224
 4831.00    0.56704   0.67725   17.635
 4832.00    0.56145   0.67507   17.811
 4833.00    0.55311   0.67294   18.080
 4834.00    0.60443   0.67046   16.544
 4835.00    0.70454   0.66767   14.194
 4836.00    0.73014   0.66448   13.696
 4837.00    0.64376   0.66100   15.534
 4838.00    0.55137   0.65726   18.137
 4839.00    0.51442   0.65297   19.440
 4840.00    0.49165   0.64852   20.340
 4841.00    0.46114   0.64362   21.686
 4842.00    0.45639   0.63855   -1.000
 4843.00    0.50247   0.63271   19.902
 4844.00    0.59257   0.62658   16.876
 4845.00    0.69659   0.61976   14.356
 4846.00    0.77354   0.61228   12.928
 4847.00    0.79987   0.60375   12.502
 4848.00    0.77178   0.59432    0.000
 4849.00    0.68450   0.58385    0.000
 4850.00    0.54318   0.57251    0.000
 4851.00    0.40873   0.55988    0.000
 4852.00    0.36326   0.54614    0.000
 4853.00    0.39303   0.53141    0.000
 4854.00    0.41644   0.51595    0.000
 4855.00    0.41886   0.50004    0.000
 4856.00    0.44706   0.48454    0.000
 4857.00    0.52751   0.47007    0.000
 4858.00    0.65894   0.45718    0.000
 4859.00    0.83359   0.44654    0.000
 4860.00    1.02873   0.43886    0.000
 4861.00    1.18510   0.43466    0.000
 4862.00    1.25104   0.43460    0.000
 4863.00    1.25984   0.43861    0.000
 4864.00    1.25708   0.44549    0.000
 4865.00    1.17320   0.45515    0.000
 4866.00    0.93836   0.46662    0.000
 4867.00    0.66958   0.47933    0.000
 4868.00    0.54940   0.49245    0.000
 4869.00    0.62760   0.50567    0.000
 4870.00    0.81837   0.51846    0.000
 4871.00    0.94128   0.53057    0.000
 4872.00    0.88184   0.54219    0.000
 4873.00    0.75441   0.55340    0.000
 4874.00    0.71309   0.56387    0.000
 4875.00    0.74110   0.57366   13.493
 4876.00    0.75257   0.58267   13.288
 4877.00    0.71203   0.59104   14.044
 4878.00    0.61960   0.59850   16.140
 4879.00    0.48983   0.60514   20.415
 4880.00    0.37200   0.61088   -1.000
 4881.00    0.35667   0.61541   -1.000
 4882.00    0.47889   0.61921   20.882
 4883.00    0.65269   0.62232   15.321
 4884.00    0.75190   0.62490   13.300
 4885.00    0.68739   0.62714   14.548
 4886.00    0.50843   0.62935   19.668
 4887.00    0.42471   0.63174   -1.000
 4888.00    0.53918   0.63455   18.547
 4889.00    0.72269   0.63769   13.837
 4890.00    0.85027   0.64137   -1.000
 4891.00    0.91873   0.64532   -1.000
 4892.00    0.93014   0.64998   -1.000
 4893.00    0.85128   0.65494   11.747
 4894.00    0.72862   0.65965   13.725
 4895.00    0.69997   0.66413   14.286
 4896.00    0.79522   0.66797   12.575
 4897.00    0.89146   0.67126   11.218
 4898.00    0.89933   0.67382   11.119
 4899.00    0.82755   0.67578   12.084
 4900.00    0.72625   0.67704   13.769
 4901.00    0.65896   0.67813   15.176
 4902.00    0.68524   0.67878   14.594
 4903.00    0.83073   0.67913   12.038
 4904.00    1.01416   0.67929   -1.000
 4905.00    1.08444   0.67940   -1.000
 4906.00    0.99604   0.67930   -1.000
 4907.00    0.82806   0.67896   12.076
 4908.00    0.69019   0.67835   14.489
 4909.00    0.65813   0.67762   15.195
 4910.00    0.68356   0.67658   14.629
 4911.00    0.64826   0.67547   15.426
 4912.00    0.53822   0.67412   18.580
 4913.00    0.43169   0.67249   -1.000
 4914.00    0.38582   0.67035   -1.000
 4915.00    0.41652   0.66795   -1.000
 4916.00    0.50870   0.66514   19.658
 4917.00    0.62517   0.66215   15.996
 4918.00    0.72008   0.65920   13.887
 4919.00    0.76775   0.65660   13.025
 4920.00    0.80346   0.65494   12.446
 4921.00    0.86614   0.65418   -1.000
 4922.00    0.90403   0.65484   -1.000
 4923.00    0.84984   0.65626   11.767
 4924.00    0.74401   0.65869   13.441
 4925.00    0.66017   0.66183   15.148
 4926.00    0.58859   0.66548   16.990
 4927.00    0.50648   0.66891   19.744
 4928.00    0.47539   0.67191   -1.000
 4929.00    0.54818   0.67432   18.242
 4930.00    0.66018   0.67588   15.147
 4931.00    0.74112   0.67659   13.493
 4932.00    0.83298   0.67663   12.005
 4933.00    0.96210   0.67604   -1.000
 4934.00    1.01920   0.67522   -1.000
 4935.00    0.91021   0.67472   -1.000
 4936.00    0.69299   0.67437   14.430
 4937.00    0.49673   0.67437   20.132
 4938.00    0.43476   0.67483   -1.000
 4939.00    0.52000   0.67597   19.231
 4940.00    0.62694   0.67770    0.000
 4941.00    0.65647   0.67990    0.000
 4942.00    0.63933   0.68210    0.000
 4943.00    0.62388   0.68434    0.000
 4944.00    0.60579   0.68637    0.000
 4945.00    0.57895   0.68804    0.000
 4946.00    0.56585   0.68917    0.000
 4947.00    0.59889   0.68992    0.000
 4948.00    0.69772   0.69001    0.000
 4949.00    0.81360   0.68950    0.000
 4950.00    0.83745   0.68840    0.000
 4951.00    0.77153   0.68677    0.000
 4952.00    0.75937   0.68478    0.000
 4953.00    0.85512   0.68241    0.000
 4954.00    0.96376   0.68019    0.000
 4955.00    1.01931   0.67798    0.000
 4956.00    1.03649   0.67623    0.000
 4957.00    1.02417   0.67462    0.000
 4958.00    0.96885   0.67386    0.000
 4959.00    0.89271   0.67389    0.000
 4960.00    0.84931   0.67421    0.000
 4961.00    0.84629   0.67474    0.000
 4962.00    0.83875   0.67529    0.000
 4963.00    0.78336   0.67594    0.000
 4964.00    0.67039   0.67640    0.000
 4965.00    0.56272   0.67672    0.000
 4966.00    0.55553   0.67689    0.000
 4967.00    0.65317   0.67718    0.000
 4968.00    0.77537   0.67736    0.000
 4969.00    0.84362   0.67766    0.000
 4970.00    0.82736   0.67787    0.000
 4971.00    0.79418   0.67806    0.000
 4972.00    0.83762   0.67803    0.000
 4973.00    0.92169   0.67762    0.000
 4974.00    0.94724   0.67670    0.000
 4975.00    0.92165   0.67529    0.000
 4976.00    0.90544   0.67314    0.000
 4977.00    0.87674   0.67058    0.000
 4978.00    0.78816   0.66748    0.000
 4979.00    0.68366   0.66428    0.000
 4980.00    0.63178   0.66113    0.000
 4981.00    0.61066   0.65834    0.000
 4982.00    0.57379   0.65598    0.000
 4983.00    0.55148   0.65444    0.000
 4984.00    0.58040   0.65377    0.000
 4985.00    0.61034   0.65397    0.000
 4986.00    0.59940   0.65480    0.000
 4987.00    0.62026   0.65619    0.000
 4988.00    0.71864   0.65780    0.000
 4989.00    0.77281   0.65939    0.000
 4990.00    0.68358   0.66092    0.000
 4991.00    0.55291   0.66206    0.000
 4992.00    0.52403   0.66297    0.000
 4993.00    0.62463   0.66331    0.000
 4994.00    0.76278   0.66313    0.000
 4995.00    0.76331   0.66249    0.000
 4996.00    0.59915   0.66131    0.000
 4997.00    0.51175   0.65961    0.000
 4998.00    0.62047   0.65753    0.000
 4999.00    0.70465   0.65515    0.000
 5000.00    0.62571   0.65261    0.000
 5001.00    0.55390   0.65017    0.000
 5002.00    0.61634   0.64783    0.000
 5003.00    0.72007   0.64591    0.000
 5004.00    0.79624   0.64421    0.000
 5005.00    0.91064   0.64284    0.000
 5006.00    1.10414   0.64169    0.000
 5007.00    1.32048   0.64086    0.000
 5008.00    1.46886   0.64015    0.000
 5009.00    1.47045   0.63932    0.000
 5010.00    1.32060   0.63827    0.000
 5011.00    1.09459   0.63703    0.000
 5012.00    0.86418   0.63559    0.000
 5013.00    0.67165   0.63407    0.000
 5014.00    0.56075   0.63266    0.000
 5015.00    0.57259   0.63146    0.000
 5016.00    0.69271   0.63071    0.000
 5017.00    0.84582   0.63034    0.000
 5018.00    0.93712   0.63053    0.000
 5019.00    0.90218   0.63140    0.000
 5020.00    0.80659   0.63297    0.000
 5021.00    0.79434   0.63493    0.000
 5022.00    0.87921   0.63728    0.000
 5023.00    0.95763   0.63981    0.000
 5024.00    0.97700   0.64258    0.000
 5025.00    0.94526   0.64514    0.000
 5026.00    0.85738   0.64766    0.000
 5027.00    0.71053   0.64976    0.000
 5028.00    0.56818   0.65161    0.000
 5029.00    0.51669   0.65309   19.354
 5030.00    0.55811   0.65401   17.918
 5031.00    0.62635   0.65436   15.966
 5032.00    0.65416   0.65412   15.287
 5033.00    0.61217   0.65334   16.335
 5034.00    0.54930   0.65192   18.205
 5035.00    0.53397   0.65008   18.727
 5036.00    0.55908   0.64796   17.887
 5037.00    0.59111   0.64599   16.917
 5038.00    0.65393   0.64421   15.292
 5039.00    0.75804   0.64280   13.192
 5040.00    0.80602   0.64202   12.407
 5041.00    0.74879   0.64180   13.355
 5042.00    0.76386   0.64240   13.091
 5043.00    0.97285   0.64354   -1.000
 5044.00    1.13956   0.64494   -1.000
 5045.00    1.04631   0.64642   -1.000
 5046.00    0.87707   0.64791   -1.000
 5047.00    0.85792   0.64913   11.656
 5048.00    0.90813   0.65022   -1.000
 5049.00    0.89232   0.65109   -1.000
 5050.00    0.85148   0.65208   11.744
 5051.00    0.85630   0.65300   11.678
 5052.00    0.88310   0.65415   -1.000
 5053.00    0.89202   0.65545   -1.000
 5054.00    0.88708   0.65698   -1.000
 5055.00    0.87674   0.65853   -1.000
 5056.00    0.84793   0.66009   11.793
 5057.00    0.79283   0.66146   12.613
 5058.00    0.72486   0.66260   13.796
 5059.00    0.66464   0.66325   15.046
 5060.00    0.63089   0.66345   15.851
 5061.00    0.63987   0.66308   15.628
 5062.00    0.69693   0.66226   14.349
 5063.00    0.75574   0.66094   13.232
 5064.00    0.73162   0.65936   13.668
 5065.00    0.65428   0.65750   15.284
 5066.00    0.67354   0.65578   14.847
 5067.00    0.78175   0.65400   12.792
 5068.00    0.78603   0.65236   12.722
 5069.00    0.66975   0.65083   14.931
 5070.00    0.62978   0.64946   15.879
 5071.00    0.68823   0.64815   14.530
 5072.00    0.65923   0.64675   15.169
 5073.00    0.51723   0.64546   19.334
 5074.00    0.43129   0.64407   -1.000
 5075.00    0.48231   0.64267   20.734
 5076.00    0.60678   0.64125   16.480
 5077.00    0.69526   0.63998   14.383
 5078.00    0.66538   0.63888   15.029
 5079.00    0.57058   0.63800   17.526
 5080.00    0.54440   0.63760   18.369
 5081.00    0.60131   0.63769   16.630
 5082.00    0.65221   0.63837   15.332
 5083.00    0.64747   0.63941   15.445
 5084.00    0.60480   0.64093   16.534
 5085.00    0.59609   0.64271   16.776
 5086.00    0.68540   0.64466   14.590
 5087.00    0.82150   0.64654   12.173
 5088.00    0.89516   0.64829   -1.000
 5089.00    0.87379   0.64975   -1.000
 5090.00    0.80199   0.65077   12.469
 5091.00    0.76043   0.65130   13.150
 5092.00    0.79830   0.65130   12.527
 5093.00    0.84888   0.65079   11.780
 5094.00    0.82112   0.64984   12.178
 5095.00    0.73850   0.64850   13.541
 5096.00    0.67925   0.64702   14.722
 5097.00    0.67631   0.64540   14.786
 5098.00    0.71659   0.64402   13.955
 5099.00    0.75744   0.64267   13.202
 5100.00    0.76217   0.64185   13.121
 5101.00    0.73441   0.64111   13.616
 5102.00    0.69334   0.64086   14.423
 5103.00    0.64612   0.64058   15.477
 5104.00    0.59981   0.64066   16.672
 5105.00    0.57340   0.64071   17.440
 5106.00    0.58341   0.64101   17.140
 5107.00    0.62934   0.64134   15.890
 5108.00    0.68376   0.64190   14.625
 5109.00    0.69413   0.64263   14.407
 5110.00    0.64951   0.64353   15.396
 5111.00    0.61714   0.64461   16.204
 5112.00    0.65005   0.64579   15.383
 5113.00    0.72723   0.64690   13.751
 5114.00    0.79009   0.64787   12.657
 5115.00    0.78076   0.64850   12.808
 5116.00    0.71586   0.64872   13.969
 5117.00    0.69869   0.64839   14.313
 5118.00    0.75784   0.64751   13.195
 5119.00    0.79369   0.64601   12.599
 5120.00    0.75179   0.64409   13.302
 5121.00    0.68755   0.64176   14.544
 5122.00    0.65516   0.63932   15.263
 5123.00    0.66671   0.63683   14.999
 5124.00    0.74351   0.63456   13.450
 5125.00    0.90784   0.63264   -1.000
 5126.00    1.06642   0.63111   -1.000
 5127.00    1.04265   0.63011   -1.000
 5128.00    0.85061   0.62946   -1.000
 5129.00    0.68923   0.62932   14.509
 5130.00    0.60077   0.62932   16.645
 5131.00    0.46514   0.62963   21.499
 5132.00    0.32800   0.62981   -1.000
 5133.00    0.37596   0.63001   -1.000
 5134.00    0.58688   0.62995   17.039
 5135.00    0.75081   0.62973   13.319
 5136.00    0.77949   0.62925   12.829
 5137.00    0.73195   0.62853   13.662
 5138.00    0.67904   0.62775   14.727
 5139.00    0.66123   0.62683   15.123
 5140.00    0.67216   0.62599   14.877
 5141.00    0.69325   0.62520   14.425
 5142.00    0.76687   0.62452   13.040
 5143.00    0.92076   0.62399   -1.000
 5144.00    1.00827   0.62361   -1.000
 5145.00    0.87046   0.62341   -1.000
 5146.00    0.65392   0.62328   15.292
 5147.00    0.60395   0.62338   16.558
 5148.00    0.66076   0.62352   15.134
 5149.00    0.64276   0.62393   15.558
 5150.00    0.60019   0.62439   16.661
 5151.00    0.66988   0.62509   14.928
 5152.00    0.81472   0.62585   12.274
 5153.00    0.91728   0.62673   -1.000
 5154.00    0.93902   0.62753   -1.000
 5155.00    0.89428   0.62820   -1.000
 5156.00    0.79867   0.62848   12.521
 5157.00    0.68411   0.62823   14.618
 5158.00    0.61547   0.62719   16.248
 5159.00    0.62882   0.62525   15.903
 5160.00    0.67440   0.62224   14.828
 5161.00    0.68140   0.61820   14.676
 5162.00    0.62494   0.61317   16.002
 5163.00    0.54687   0.60740   18.286
 5164.00    0.55107   0.60120   18.147
 5165.00    0.65839   0.59489   15.189
 5166.00    0.72049   0.58902   13.879
 5167.00    0.63726   0.58387   15.692
 5168.00    0.49777   0.57996   20.090
 5169.00    0.41803   0.57741   23.922
 5170.00    0.42768   0.57648   23.382
 5171.00    0.49156   0.57699   20.343
 5172.00    0.54284   0.57890   18.422
 5173.00    0.57104   0.58177   17.512
 5174.00    0.64502   0.58530   15.503
 5175.00    0.76817   0.58896   13.018
 5176.00    0.83251   0.59242   -1.000
 5177.00    0.77850   0.59525   12.845
 5178.00    0.66137   0.59731   15.120
 5179.00    0.58445   0.59850   17.110
 5180.00    0.64151   0.59889   15.588
 5181.00    0.81501   0.59874   -1.000
 5182.00    0.97551   0.59817   -1.000
 5183.00    1.03960   0.59766   -1.000
 5184.00    1.01263   0.59721   -1.000
 5185.00    0.91886   0.59725   -1.000
 5186.00    0.78888   0.59757   -1.000
 5187.00    0.70188   0.59835   14.247
 5188.00    0.74765   0.59938   13.375
 5189.00    0.87569   0.60059   -1.000
 5190.00    0.92268   0.60193    0.000
 5191.00    0.81307   0.60318    0.000
 5192.00    0.60700   0.60447    0.000
 5193.00    0.47172   0.60563    0.000
 5194.00    0.55468   0.60681    0.000
 5195.00    0.71620   0.60785    0.000
 5196.00    0.68079   0.60880    0.000
 5197.00    0.49137   0.60962    0.000
 5198.00    0.39436   0.61015    0.000
 5199.00    0.41706   0.61047    0.000
 5200.00    0.42919   0.61034    0.000
 5201.00    0.41132   0.60996    0.000
 5202.00    0.41820   0.60917    0.000
 5203.00    0.43400   0.60828    0.000
 5204.00    0.42343   0.60726    0.000
 5205.00    0.44550   0.60637    0.000
 5206.00    0.56284   0.60579    0.000
 5207.00    0.69184   0.60557    0.000
 5208.00    0.71994   0.60593    0.000
 5209.00    0.68454   0.60660    0.000
 5210.00    0.67337   0.60794    0.000
 5211.00    0.67693   0.60935   14.772
 5212.00    0.65272   0.61120   15.321
 5213.00    0.61615   0.61283   16.230
 5214.00    0.60337   0.61459   16.574
 5215.00    0.62221   0.61591   16.072
 5216.00    0.66554   0.61703   15.025
 5217.00    0.72877   0.61766   13.722
 5218.00    0.80724   0.61783   12.388
 5219.00    0.89024   0.61747   -1.000
 5220.00    0.94280   0.61652   -1.000
 5221.00    0.90260   0.61511   -1.000
 5222.00    0.77716   0.61324   12.867
 5223.00    0.69597   0.61113   14.368
 5224.00    0.73129   0.60891   13.675
 5225.00    0.79188   0.60684   12.628
 5226.00    0.80270   0.60507   -1.000
 5227.00    0.80897   0.60379   -1.000
 5228.00    0.84411   0.60317   -1.000
 5229.00    0.86103   0.60319   -1.000
 5230.00    0.82910   0.60379   -1.000
 5231.00    0.77753   0.60493   12.861
 5232.00    0.71947   0.60654   13.899
 5233.00    0.62934   0.60844   15.890
 5234.00    0.53223   0.61070   18.789
 5235.00    0.51251   0.61306   19.512
 5236.00    0.55743   0.61557   17.940
 5237.00    0.53957   0.61796   18.533
 5238.00    0.43332   0.62023   -1.000
 5239.00    0.35031   0.62221   -1.000
 5240.00    0.33127   0.62383   -1.000
 5241.00    0.31481   0.62503   -1.000
 5242.00    0.30940   0.62572   -1.000
 5243.00    0.40074   0.62594   -1.000
 5244.00    0.57994   0.62571   17.243
 5245.00    0.73509   0.62512   13.604
 5246.00    0.79274   0.62421   12.614
 5247.00    0.74719   0.62315   13.384
 5248.00    0.62115   0.62208   16.099
 5249.00    0.46012   0.62110   21.733
 5250.00    0.34515   0.62023   -1.000
 5251.00    0.35194   0.61956   -1.000
 5252.00    0.45242   0.61906   22.103
 5253.00    0.55057   0.61861   18.163
 5254.00    0.60659   0.61809   16.486
 5255.00    0.63494   0.61734   15.749
 5256.00    0.64677   0.61621   15.461
 5257.00    0.64208   0.61463   15.574
 5258.00    0.61700   0.61225   16.207
 5259.00    0.56699   0.60933   17.637
 5260.00    0.49082   0.60554   20.374
 5261.00    0.40818   0.60147   -1.000
 5262.00    0.38268   0.59681   -1.000
 5263.00    0.46627   0.59238   21.447
 5264.00    0.61810   0.58792   16.179
 5265.00    0.75374   0.58423   13.267
 5266.00    0.82558   0.58107   -1.000
 5267.00    0.82338   0.57907   -1.000
 5268.00    0.76178   0.57793   -1.000
 5269.00    0.67429   0.57783   14.830
 5270.00    0.60450   0.57864   16.543
 5271.00    0.56432   0.58052   17.721
 5272.00    0.50097   0.58306   19.961
 5273.00    0.40374   0.58608   -1.000
 5274.00    0.39158   0.58938   -1.000
 5275.00    0.52473   0.59285   19.057
 5276.00    0.65329   0.59625   15.307
 5277.00    0.64280   0.59974   15.557
 5278.00    0.55287   0.60287   18.087
 5279.00    0.47292   0.60589   21.145
 5280.00    0.39859   0.60854   -1.000
 5281.00    0.33312   0.61122   -1.000
 5282.00    0.34808   0.61366   -1.000
 5283.00    0.46455   0.61622   21.526
 5284.00    0.59390   0.61858   16.838
 5285.00    0.67335   0.62109   14.851
 5286.00    0.73146   0.62339   13.671
 5287.00    0.77619   0.62543   12.883
 5288.00    0.75043   0.62706   13.326
 5289.00    0.64058   0.62819   15.611
 5290.00    0.51723   0.62881   19.334
 5291.00    0.45237   0.62876   -1.000
 5292.00    0.47128   0.62817   21.219
 5293.00    0.52429   0.62704   19.073
 5294.00    0.51720   0.62562   19.335
 5295.00    0.47673   0.62401   20.976
 5296.00    0.53942   0.62242   18.538
 5297.00    0.66315   0.62100   15.080
 5298.00    0.63469   0.61998   15.756
 5299.00    0.46549   0.61948   21.483
 5300.00    0.40127   0.61955   -1.000
 5301.00    0.51677   0.61997   19.351
 5302.00    0.67209   0.62086   14.879
 5303.00    0.76984   0.62201   12.990
 5304.00    0.79547   0.62338   12.571
 5305.00    0.71736   0.62467   13.940
 5306.00    0.51834   0.62583   19.292
 5307.00    0.33715   0.62667   -1.000
 5308.00    0.37151   0.62723   -1.000
 5309.00    0.58333   0.62739   17.143
 5310.00    0.76598   0.62713   13.055
 5311.00    0.82801   0.62645   12.077
 5312.00    0.80749   0.62538   12.384
 5313.00    0.77880   0.62404   12.840
 5314.00    0.80318   0.62240   12.450
 5315.00    0.87544   0.62071   -1.000
 5316.00    0.94491   0.61871   -1.000
 5317.00    0.96685   0.61677   -1.000
 5318.00    0.92358   0.61472   -1.000
 5319.00    0.84228   0.61269   -1.000
 5320.00    0.77365   0.61034   12.926
 5321.00    0.75677   0.60811   13.214
 5322.00    0.79718   0.60553   12.544
 5323.00    0.84808   0.60325   -1.000
 5324.00    0.85649   0.60072   -1.000
 5325.00    0.82048   0.59886   -1.000
 5326.00    0.77110   0.59715   12.968
 5327.00    0.74224   0.59615   13.473
 5328.00    0.74136   0.59550   13.489
 5329.00    0.72812   0.59574   13.734
 5330.00    0.67305   0.59672   14.858
 5331.00    0.61028   0.59802   16.386
 5332.00    0.58354   0.59969   17.137
 5333.00    0.59520   0.60127   16.801
 5334.00    0.61789   0.60307   16.184
 5335.00    0.61394   0.60445   16.288
 5336.00    0.58622   0.60579   17.058
 5337.00    0.60080   0.60661   16.644
 5338.00    0.67852   0.60746   14.738
 5339.00    0.73684   0.60791   13.572
 5340.00    0.71997   0.60842   13.889
 5341.00    0.67072   0.60881   14.909
 5342.00    0.63405   0.60951   15.772
 5343.00    0.60525   0.61019   16.522
 5344.00    0.58031   0.61103   17.232
 5345.00    0.57683   0.61199   17.336
 5346.00    0.58928   0.61308   16.970
 5347.00    0.58164   0.61444   17.193
 5348.00    0.56274   0.61592   17.770
 5349.00    0.59308   0.61751   16.861
 5350.00    0.65985   0.61929   15.155
 5351.00    0.66342   0.62112   15.074
 5352.00    0.58219   0.62293   17.176
 5353.00    0.50363   0.62446   19.856
 5354.00    0.49007   0.62583   20.405
 5355.00    0.53988   0.62677   18.523
 5356.00    0.63004   0.62723   15.872
 5357.00    0.72779   0.62707   13.740
 5358.00    0.77940   0.62634   12.830
 5359.00    0.73450   0.62499   -2.000
 5360.00    0.62346   0.62313   -2.000
 5361.00    0.54080   0.62076   -2.000
 5362.00    0.54191   0.61810   -2.000
 5363.00    0.61754   0.61522   -2.000
 5364.00    0.70234   0.61248   -2.000
 5365.00    0.71224   0.60974   -2.000
 5366.00    0.62149   0.60745   -2.000
 5367.00    0.46842   0.60553   -2.000
 5368.00    0.32880   0.60414   -2.000
 5369.00    0.27517   0.60340   -2.000
 5370.00    0.31185   0.60308   -2.000
 5371.00    0.39441   0.60357   -2.000
 5372.00    0.48641   0.60444   -2.000
 5373.00    0.57521   0.60606   -2.000
 5374.00    0.67846   0.60755   14.739
 5375.00    0.79556   0.60930   12.570
 5376.00    0.83958   0.61076   -1.000
 5377.00    0.74330   0.61211   13.454
 5378.00    0.61183   0.61311   16.344
 5379.00    0.58660   0.61383   17.047
 5380.00    0.64979   0.61417   15.390
 5381.00    0.71814   0.61416   13.925
 5382.00    0.78048   0.61399   12.813
 5383.00    0.85090   0.61346   -1.000
 5384.00    0.90215   0.61280   -1.000
 5385.00    0.89591   0.61197   -1.000
 5386.00    0.82281   0.61087   -1.000
 5387.00    0.72229   0.60957   13.845
 5388.00    0.68709   0.60806   14.554
 5389.00    0.76130   0.60642   13.135
 5390.00    0.86368   0.60460   -1.000
 5391.00    0.90098   0.60273   -1.000
 5392.00    0.86096   0.60085   -1.000
 5393.00    0.77745   0.59894   12.863
 5394.00    0.69518   0.59716   14.385
 5395.00    0.64239   0.59541   15.567
 5396.00    0.61793   0.59382   16.183
 5397.00    0.62167   0.59215   16.086
 5398.00    0.66570   0.59086   15.022
 5399.00    0.72126   0.58964   13.865
 5400.00    0.71136   0.58846   14.058
 5401.00    0.64447   0.58730   15.517
 5402.00    0.64732   0.58636   15.448
 5403.00    0.75824   0.58548   13.189
 5404.00    0.86416   0.58477   -1.000
 5405.00    0.90127   0.58438   -1.000
 5406.00    0.91659   0.58446   -1.000
 5407.00    0.92031   0.58502   -1.000
 5408.00    0.85589   0.58601   -1.000
 5409.00    0.73799   0.58725   13.550
 5410.00    0.66742   0.58882   14.983
 5411.00    0.68355   0.59068   14.629
 5412.00    0.73069   0.59282   13.686
 5413.00    0.73114   0.59481   13.677
 5414.00    0.63606   0.59671   15.722
 5415.00    0.49879   0.59833   20.049
 5416.00    0.43705   0.59983   22.880
 5417.00    0.46505   0.60097   21.503
 5418.00    0.49989   0.60168   20.004
 5419.00    0.50492   0.60198   19.805
 5420.00    0.50865   0.60196   19.660
 5421.00    0.55542   0.60160   18.004
 5422.00    0.66816   0.60112   14.966
 5423.00    0.79600   0.60029   12.563
 5424.00    0.85341   0.59933   -1.000
 5425.00    0.82291   0.59828   -1.000
 5426.00    0.74991   0.59748   13.335
 5427.00    0.69133   0.59648   14.465
 5428.00    0.68991   0.59566   14.495
 5429.00    0.74740   0.59471   13.380
 5430.00    0.82536   0.59417   -1.000
 5431.00    0.85760   0.59413   -1.000
 5432.00    0.81255   0.59431   -1.000
 5433.00    0.77590   0.59471   12.888
 5434.00    0.83286   0.59554   -1.000
 5435.00    0.89898   0.59661   -1.000
 5436.00    0.85978   0.59804   -1.000
 5437.00    0.76885   0.59943   13.007
 5438.00    0.72739   0.60091   13.748
 5439.00    0.72044   0.60206   13.880
 5440.00    0.70590   0.60291   14.166
 5441.00    0.72359   0.60337   13.820
 5442.00    0.80053   0.60340   12.492
 5443.00    0.85596   0.60313   -1.000
 5444.00    0.82536   0.60246   -1.000
 5445.00    0.77072   0.60159   12.975
 5446.00    0.74705   0.60060   13.386
 5447.00    0.69636   0.59963   14.360
 5448.00    0.60056   0.59896   16.651
 5449.00    0.58338   0.59837   17.142
 5450.00    0.69931   0.59780   14.300
 5451.00    0.80485   0.59729   -1.000
 5452.00    0.79430   0.59685   12.590
 5453.00    0.74170   0.59649   13.483
 5454.00    0.73019   0.59614   13.695
 5455.00    0.74972   0.59580   13.338
 5456.00    0.76804   0.59558   13.020
 5457.00    0.77492   0.59572   12.904
 5458.00    0.77694   0.59571   12.871
 5459.00    0.78636   0.59577   12.717
 5460.00    0.78708   0.59567   12.705
 5461.00    0.73639   0.59562   13.580
 5462.00    0.64908   0.59549   15.406
 5463.00    0.60860   0.59528   16.431
 5464.00    0.65076   0.59515   15.367
 5465.00    0.73617   0.59501   13.584
 5466.00    0.83855   0.59461   -1.000
 5467.00    0.95372   0.59409   -1.000
 5468.00    1.00695   0.59341   -1.000
 5469.00    0.89185   0.59255   -2.000
 5470.00    0.70324   0.59140   -2.000
 5471.00    0.66629   0.59014   -2.000
 5472.00    0.69564   0.58880   -2.000
 5473.00    0.49431   0.58738   -2.000
 5474.00    0.19785   0.58600   -2.000
 5475.00    0.22548   0.58493   -2.000
 5476.00    0.43985   0.58389   -2.000
 5477.00    0.35246   0.58319   -2.000
 5478.00    0.11539   0.58316   -2.000
 5479.00    0.19311   0.58343   -2.000
 5480.00    0.15053   0.58394   -2.000
 5481.00   -0.76340   0.58454   -2.000
 5482.00   -1.93697   0.58545   -2.000
 5483.00   -2.12179   0.58657   -2.000
 5484.00   -1.39123   0.58760   -2.000
 5485.00   -0.64348   0.58871   -2.000
 5486.00   -0.12491   0.58948   -2.000
 5487.00    0.36215   0.59018   -2.000
 5488.00    0.73127   0.59062   -2.000
 5489.00    0.80264   0.59118   -2.000
 5490.00    0.73839   0.59144   -2.000
 5491.00    0.79489   0.59162   -2.000
 5492.00    0.91252   0.59168   -2.000
 5493.00    0.89418   0.59154   -1.000
 5494.00    0.69846   0.59132   14.317
 5495.00    0.43941   0.59108   22.758
 5496.00    0.32767   0.59068   -1.000
 5497.00    0.46500   0.59012   21.506
 5498.00    0.65463   0.58947   15.276
 5499.00    0.67774   0.58899   14.755
 5500.00    0.57311   0.58822   17.449
 5501.00    0.47773   0.58742   20.932
 5502.00    0.45667   0.58653   21.898
 5503.00    0.51508   0.58585   19.414
 5504.00    0.62171   0.58521   16.085
 5505.00    0.71842   0.58466   13.919
 5506.00    0.73635   0.58414   13.580
 5507.00    0.66961   0.58376   14.934
 5508.00    0.60957   0.58378   16.405
 5509.00    0.61310   0.58379   16.311
 5510.00    0.63104   0.58401   15.847
 5511.00    0.63412   0.58440   15.770
 5512.00    0.67368   0.58494   14.844
 5513.00    0.75806   0.58565   13.192
 5514.00    0.80225   0.58657   -1.000
 5515.00    0.75250   0.58751   13.289
 5516.00    0.64123   0.58846   15.595
 5517.00    0.51908   0.58924   19.265
 5518.00    0.42247   0.58994   -1.000
 5519.00    0.38637   0.59033   -1.000
 5520.00    0.44096   0.59038   22.678
 5521.00    0.57192   0.59011   17.485
 5522.00    0.71532   0.58955   13.980
 5523.00    0.80206   0.58873   -1.000
 5524.00    0.79089   0.58773   -1.000
 5525.00    0.71958   0.58658   13.897
 5526.00    0.68399   0.58542   14.620
 5527.00    0.71392   0.58434   14.007
 5528.00    0.76518   0.58347   13.069
 5529.00    0.81965   0.58289   -1.000
 5530.00    0.89034   0.58284   -1.000
 5531.00    0.95107   0.58280   -1.000
 5532.00    0.94958   0.58311   -1.000
 5533.00    0.89041   0.58344   -1.000
 5534.00    0.82643   0.58409   -1.000
 5535.00    0.78886   0.58469   -1.000
 5536.00    0.77189   0.58560   12.955
 5537.00    0.73785   0.58652   13.553
 5538.00    0.65619   0.58733   15.240
 5539.00    0.57561   0.58814   17.373
 5540.00    0.57958   0.58893   17.254
 5541.00    0.67894   0.58957   14.729
 5542.00    0.81521   0.59015   -1.000
 5543.00    0.90256   0.59054   -1.000
 5544.00    0.87621   0.59096   -1.000
 5545.00    0.75498   0.59138   13.245
 5546.00    0.62005   0.59171   16.128
 5547.00    0.56552   0.59201   17.683
 5548.00    0.62870   0.59226   15.906
 5549.00    0.71455   0.59244   13.995
 5550.00    0.71609   0.59237   13.965
 5551.00    0.66935   0.59230   14.940
 5552.00    0.66703   0.59192   14.992
 5553.00    0.73769   0.59153   13.556
 5554.00    0.84431   0.59084   -1.000
 5555.00    0.90484   0.59019   -1.000
 5556.00    0.87883   0.58944   -1.000
 5557.00    0.83901   0.58855   -1.000
 5558.00    0.85394   0.58754   -1.000
 5559.00    0.88501   0.58650   -1.000
 5560.00    0.87852   0.58542   -1.000
 5561.00    0.84463   0.58428   -1.000
 5562.00    0.80534   0.58314   -1.000
 5563.00    0.75469   0.58200   13.250
 5564.00    0.69966   0.58099   14.293
 5565.00    0.68302   0.58010   14.641
 5566.00    0.72386   0.57917   13.815
 5567.00    0.78504   0.57859   -1.000
 5568.00    0.82604   0.57807   -1.000
 5569.00    0.83394   0.57778   -1.000
 5570.00    0.80609   0.57761   -1.000
 5571.00    0.74214   0.57780   13.475
 5572.00    0.65981   0.57795   15.156
 5573.00    0.59691   0.57806   16.753
 5574.00    0.58070   0.57860   17.221
 5575.00    0.61230   0.57894   16.332
 5576.00    0.66602   0.57915   15.015
 5577.00    0.70298   0.57920   14.225
 5578.00    0.72575   0.57908   13.779
 5579.00    0.77472   0.57863   12.908
 5580.00    0.83085   0.57785   -1.000
 5581.00    0.81991   0.57686   -1.000
 5582.00    0.75550   0.57536   13.236
 5583.00    0.73396   0.57391   13.625
 5584.00    0.75746   0.57217   13.202
 5585.00    0.73515   0.57045   13.603
 5586.00    0.65681   0.56866   15.225
 5587.00    0.59522   0.56706   16.800
 5588.00    0.57019   0.56590   17.538
 5589.00    0.54745   0.56507   18.267
 5590.00    0.53111   0.56475   18.828
 5591.00    0.55463   0.56470   18.030
 5592.00    0.60573   0.56493   16.509
 5593.00    0.63672   0.56530   15.706
 5594.00    0.62443   0.56576   16.015
 5595.00    0.58673   0.56649   17.044
 5596.00    0.58610   0.56740   17.062
 5597.00    0.66850   0.56821   14.959
 5598.00    0.75624   0.56892   13.223
 5599.00    0.73123   0.56974   13.676
 5600.00    0.60441   0.57092   16.545
 5601.00    0.47981   0.57183   20.842
 5602.00    0.45116   0.57317   22.165
 5603.00    0.54190   0.57433   18.454
 5604.00    0.65020   0.57595   15.380
 5605.00    0.67052   0.57734   14.914
 5606.00    0.65662   0.57855   15.230
 5607.00    0.70719   0.57949   14.141
 5608.00    0.80371   0.58004   -1.000
 5609.00    0.86387   0.58030   -1.000
 5610.00    0.82720   0.58015   -1.000
 5611.00    0.69101   0.57964   14.472
 5612.00    0.53265   0.57886   18.774
 5613.00    0.44542   0.57774   22.451
 5614.00    0.47240   0.57644   21.169
 5615.00    0.59104   0.57485   16.919
 5616.00    0.71217   0.57366   14.042
 5617.00    0.74610   0.57290   13.403
 5618.00    0.66246   0.57216   15.095
 5619.00    0.52409   0.57157   19.081
 5620.00    0.48436   0.57117   20.646
 5621.00    0.60165   0.57114   16.621
 5622.00    0.73647   0.57118   13.578
 5623.00    0.75360   0.57148   13.270
 5624.00    0.65430   0.57162   15.283
 5625.00    0.53463   0.57205   18.704
 5626.00    0.52841   0.57268   18.925
 5627.00    0.65853   0.57335   15.185
 5628.00    0.78894   0.57386   -1.000
 5629.00    0.80514   0.57437   -1.000
 5630.00    0.70361   0.57465   14.212
 5631.00    0.55594   0.57478   17.988
 5632.00    0.46815   0.57463   21.361
 5633.00    0.48937   0.57429   20.434
 5634.00    0.58509   0.57370   17.091
 5635.00    0.69340   0.57312   14.422
 5636.00    0.75887   0.57238   13.177
 5637.00    0.76761   0.57158   -1.000
 5638.00    0.75097   0.57097   13.316
 5639.00    0.75306   0.57044   13.279
 5640.00    0.79498   0.57015   -1.000
 5641.00    0.80286   0.56969   -1.000
 5642.00    0.67183   0.56965   14.885
 5643.00    0.51132   0.56960   19.557
 5644.00    0.55712   0.56969   17.949
 5645.00    0.74905   0.56983   13.350
 5646.00    0.80198   0.56986   -1.000
 5647.00    0.66271   0.56989   15.089
 5648.00    0.50151   0.56964   19.940
 5649.00    0.42757   0.56934   23.388
 5650.00    0.45141   0.56870   22.153
 5651.00    0.54832   0.56797   18.238
 5652.00    0.67710   0.56707   14.769
 5653.00    0.78978   0.56595   -1.000
 5654.00    0.85023   0.56472   -1.000
 5655.00    0.86286   0.56337   -1.000
 5656.00    0.85923   0.56226   -1.000
 5657.00    0.86660   0.56128   -1.000
 5658.00    0.89337   0.56013   -1.000
 5659.00    0.91561   0.55958   -1.000
 5660.00    0.88638   0.55950   -1.000
 5661.00    0.75669   0.55970   -1.000
 5662.00    0.55368   0.55992   18.061
 5663.00    0.46278   0.56056   21.608
 5664.00    0.60142   0.56156   16.627
 5665.00    0.75853   0.56273   -1.000
 5666.00    0.72931   0.56388   13.712
 5667.00    0.69186   0.56508   14.454
 5668.00    0.82973   0.56633   -1.000
 5669.00    0.93437   0.56761   -1.000
 5670.00    0.78668   0.56884   -1.000
 5671.00    0.53150   0.56995   18.815
 5672.00    0.39426   0.57094   -1.000
 5673.00    0.40815   0.57177   -1.000
 5674.00    0.49448   0.57233   20.223
 5675.00    0.55820   0.57249   17.915
 5676.00    0.57488   0.57248   17.395
 5677.00    0.62906   0.57233   15.897
 5678.00    0.74695   0.57181   13.388
 5679.00    0.80755   0.57114   -1.000
 5680.00    0.75124   0.57032   13.311
 5681.00    0.68833   0.56952   14.528
 5682.00    0.70686   0.56857   14.147
 5683.00    0.77166   0.56770   -1.000
 5684.00    0.83338   0.56714   -1.000
 5685.00    0.88362   0.56666   -1.000
 5686.00    0.90842   0.56634   -1.000
 5687.00    0.87319   0.56605   -1.000
 5688.00    0.76998   0.56611   -1.000
 5689.00    0.63513   0.56622   15.745
 5690.00    0.52451   0.56655   19.065
 5691.00    0.49220   0.56669   20.317
 5692.00    0.55201   0.56691   18.116
 5693.00    0.66695   0.56692   14.994
 5694.00    0.76812   0.56674   -1.000
 5695.00    0.78596   0.56638   -1.000
 5696.00    0.72765   0.56574   13.743
 5697.00    0.66710   0.56505   14.990
 5698.00    0.63248   0.56382   15.811
 5699.00    0.60319   0.56264   16.578
 5700.00    0.60348   0.56129   16.571
 5701.00    0.68142   0.55981   14.675
 5702.00    0.78323   0.55836   -1.000
 5703.00    0.79772   0.55700   -1.000
 5704.00    0.74363   0.55585   -1.000
 5705.00    0.72794   0.55470   13.737
 5706.00    0.75005   0.55366   -1.000
 5707.00    0.73771   0.55299   -1.000
 5708.00    0.71261   0.55269   14.033
 5709.00    0.75223   0.55263   -1.000
 5710.00    0.85092   0.55313   -1.000
 5711.00    0.92760   0.55401   -1.000
 5712.00    0.89021   0.55512   -1.000
 5713.00    0.69871   0.55669   14.312
 5714.00    0.44434   0.55852   22.505
 5715.00    0.27974   0.56030   -1.000
 5716.00    0.29273   0.56216   -1.000
 5717.00    0.47227   0.56396   21.174
 5718.00    0.69473   0.56556   14.394
 5719.00    0.83033   0.56716   -1.000
 5720.00    0.87674   0.56848   -1.000
 5721.00    0.87465   0.56951   -1.000
 5722.00    0.79523   0.57038   -1.000
 5723.00    0.64473   0.57090   15.510
 5724.00    0.57487   0.57122   17.395
 5725.00    0.65834   0.57130   15.190
 5726.00    0.68203   0.57125   14.662
 5727.00    0.51100   0.57094   19.569
 5728.00    0.40589   0.57076   -1.000
 5729.00    0.57916   0.57067   17.266
 5730.00    0.82389   0.57035   -1.000
 5731.00    0.88853   0.57018   -1.000
 5732.00    0.78637   0.56978   -1.000
 5733.00    0.63854   0.56978   15.661
 5734.00    0.53660   0.56963   18.636
 5735.00    0.52730   0.56952   18.964
 5736.00    0.60682   0.56934   16.479
 5737.00    0.71389   0.56912   14.008
 5738.00    0.74511   0.56890   13.421
 5739.00    0.66941   0.56863   14.939
 5740.00    0.57213   0.56839    0.000
 5741.00    0.52352   0.56803    0.000
 5742.00    0.52013   0.56764    0.000
 5743.00    0.56410   0.56715    0.000
 5744.00    0.68321   0.56667    0.000
 5745.00    0.83131   0.56617    0.000
 5746.00    0.88284   0.56554    0.000
 5747.00    0.80918   0.56488    0.000
 5748.00    0.71094   0.56403    0.000
 5749.00    0.64255   0.56345    0.000
 5750.00    0.57660   0.56289    0.000
 5751.00    0.53294   0.56231    0.000
 5752.00    0.58047   0.56164    0.000
 5753.00    0.68421   0.56100    0.000
 5754.00    0.72238   0.56049    0.000
 5755.00    0.69634   0.56034    0.000
 5756.00    0.71329   0.56039    0.000
 5757.00    0.75298   0.56035    0.000
 5758.00    0.69967   0.56045    0.000
 5759.00    0.59861   0.56053    0.000
 5760.00    0.59857   0.56073    0.000
 5761.00    0.65382   0.56094    0.000
 5762.00    0.60537   0.56123    0.000
 5763.00    0.51771   0.56157    0.000
 5764.00    0.57865   0.56225    0.000
 5765.00    0.74402   0.56292    0.000
 5766.00    0.82423   0.56335    0.000
 5767.00    0.78516   0.56375    0.000
 5768.00    0.71565   0.56398    0.000
 5769.00    0.66905   0.56408    0.000
 5770.00    0.65459   0.56389    0.000
 5771.00    0.66859   0.56366    0.000
 5772.00    0.69165   0.56300    0.000
 5773.00    0.68032   0.56228    0.000
 5774.00    0.62659   0.56143    0.000
 5775.00    0.63181   0.56015    0.000
 5776.00    0.76296   0.55898    0.000
 5777.00    0.87143   0.55749    0.000
 5778.00    0.79115   0.55615    0.000
 5779.00    0.58654   0.55456    0.000
 5780.00    0.40237   0.55313    0.000
 5781.00    0.27297   0.55170   -2.000
 5782.00    0.16572   0.55063   -2.000
 5783.00    0.04950   0.55006   -2.000
 5784.00   -0.05810   0.54957   -2.000
 5785.00   -0.06621   0.54948   -2.000
 5786.00    0.06232   0.54965   -2.000
 5787.00    0.21995   0.55035   -2.000
 5788.00    0.33310   0.55103   -2.000
 5789.00    0.48501   0.55184   -2.000
 5790.00    0.71041   0.55286   -2.000
 5791.00    0.87076   0.55372   -2.000
 5792.00    0.89696   0.55497   -2.000
 5793.00    0.91752   0.55614   -2.000
 5794.00    0.97083   0.55715   -2.000
 5795.00    0.87582   0.55817   -2.000
 5796.00    0.57931   0.55901   -2.000
 5797.00    0.30603   0.55966   -2.000
 5798.00    0.23733   0.56018   -2.000
 5799.00    0.35484   0.56078   -2.000
 5800.00    0.56100   0.56127   -2.000
 5801.00    0.75138   0.56155    0.000
 5802.00    0.84841   0.56179    0.000
 5803.00    0.82256   0.56186    0.000
 5804.00    0.71763   0.56168    0.000
 5805.00    0.62640   0.56157    0.000
 5806.00    0.55880   0.56142    0.000
 5807.00    0.44213   0.56129    0.000
 5808.00    0.30564   0.56126    0.000
 5809.00    0.27404   0.56119    0.000
 5810.00    0.32743   0.56109    0.000
 5811.00    0.31857   0.56116    0.000
 5812.00    0.26654   0.56117    0.000
 5813.00    0.33748   0.56117    0.000
 5814.00    0.53809   0.56125    0.000
 5815.00    0.70773   0.56138    0.000
 5816.00    0.72638   0.56156    0.000
 5817.00    0.58205   0.56186    0.000
 5818.00    0.39362   0.56235    0.000
 5819.00    0.32790   0.56274    0.000
 5820.00    0.41088   0.56312    0.000
 5821.00    0.54522   0.56348    0.000
 5822.00    0.63304   0.56367    0.000
 5823.00    0.63782   0.56397    0.000
 5824.00    0.64602   0.56405    0.000
 5825.00    0.75962   0.56429    0.000
 5826.00    0.89868   0.56423    0.000
 5827.00    0.92241   0.56431    0.000
 5828.00    0.86931   0.56425    0.000
 5829.00    0.85135   0.56408    0.000
 5830.00    0.84763   0.56401    0.000
 5831.00    0.78923   0.56367    0.000
 5832.00    0.71045   0.56359    0.000
 5833.00    0.67334   0.56330    0.000
 5834.00    0.65284   0.56320    0.000
 5835.00    0.61286   0.56286    0.000
 5836.00    0.60316   0.56273    0.000
 5837.00    0.66164   0.56265    0.000
 5838.00    0.70946   0.56223    0.000
 5839.00    0.68717   0.56207    0.000
 5840.00    0.68518   0.56171    0.000
 5841.00    0.77917   0.56137    0.000
 5842.00    0.88194   0.56082    0.000
 5843.00    0.88577   0.56015    0.000
 5844.00    0.78885   0.55933    0.000
 5845.00    0.64142   0.55828    0.000
 5846.00    0.49313   0.55722    0.000
 5847.00    0.37661   0.55593    0.000
 5848.00    0.30393   0.55456    0.000
 5849.00    0.30638   0.55329    0.000
 5850.00    0.44243   0.55189    0.000
 5851.00    0.67622   0.55054    0.000
 5852.00    0.83438   0.54917    0.000
 5853.00    0.80082   0.54780    0.000
 5854.00    0.62024   0.54670    0.000
 5855.00    0.43358   0.54592    0.000
 5856.00    0.40484   0.54531    0.000
 5857.00    0.55166   0.54464    0.000
 5858.00    0.71334   0.54439    0.000
 5859.00    0.77944   0.54460    0.000
 5860.00    0.77133   0.54491    0.000
 5861.00    0.73767   0.54549    0.000
 5862.00    0.70890   0.54602    0.000
 5863.00    0.69982   0.54670    0.000
 5864.00    0.71137   0.54756    0.000
 5865.00    0.73181   0.54836    0.000
 5866.00    0.73344   0.54899    0.000
 5867.00    0.66169   0.54955    0.000
 5868.00    0.47928   0.55025    0.000
 5869.00    0.30291   0.55073    0.000
 5870.00    0.32772   0.55102    0.000
 5871.00    0.51182   0.55107    0.000
 5872.00    0.62270   0.55089    0.000
 5873.00    0.57832   0.55058    0.000
 5874.00    0.47450   0.54999    0.000
 5875.00    0.43642   0.54938    0.000
 5876.00    0.53704   0.54838    0.000
 5877.00    0.70465   0.54716    0.000
 5878.00    0.79970   0.54587    0.000
 5879.00    0.80430   0.54404    0.000
 5880.00    0.78060   0.54175    0.000
 5881.00    0.72590   0.53908    0.000
 5882.00    0.61231   0.53629    0.000
 5883.00    0.49674   0.53299    0.000
 5884.00    0.45949   0.52954    0.000
 5885.00    0.48132   0.52608    0.000
 5886.00    0.49002   0.52234    0.000
 5887.00    0.45641   0.51853    0.000
 5888.00    0.40227   0.51476    0.000
 5889.00    0.38776   0.51083    0.000
 5890.00    0.44289   0.50750    0.000
 5891.00    0.49318   0.50595    0.000
 5892.00    0.47455   0.50541    0.000
 5893.00    0.46377   0.50501    0.000
 5894.00    0.53612   0.50544    0.000
 5895.00    0.61210   0.50610    0.000
 5896.00    0.60593   0.50716    0.000
 5897.00    0.57492   0.50990    0.000
 5898.00    0.59558   0.51328    0.000
 5899.00    0.64599   0.51657    0.000
 5900.00    0.67772   0.52005    0.000
 5901.00    0.68240   0.52342   14.654
 5902.00    0.66978   0.52656   14.930
 5903.00    0.64639   0.52927   15.470
 5904.00    0.61429   0.53187   16.279
 5905.00    0.57453   0.53408   17.405
 5906.00    0.55023   0.53578   18.174
 5907.00    0.58873   0.53734   16.986
 5908.00    0.68006   0.53826   14.704
 5909.00    0.72777   0.53899   -1.000
 5910.00    0.67270   0.53931   14.866
 5911.00    0.55558   0.53959   17.999
 5912.00    0.46440   0.53961   21.533
 5913.00    0.48562   0.53949   20.592
 5914.00    0.61506   0.53923   16.259
 5915.00    0.74362   0.53911   -1.000
 5916.00    0.78431   0.53917   -1.000
 5917.00    0.72989   0.53920   -1.000
 5918.00    0.64738   0.53941   15.447
 5919.00    0.63350   0.53951   15.785
 5920.00    0.66399   0.53970   15.060
 5921.00    0.60787   0.53986   16.451
 5922.00    0.47455   0.53990   21.073
 5923.00    0.42049   0.53997   23.782
 5924.00    0.49048   0.54028   20.388
 5925.00    0.59036   0.54034   16.939
 5926.00    0.65954   0.54049   15.162
 5927.00    0.69662   0.54043   14.355
 5928.00    0.68509   0.54036   14.597
 5929.00    0.60427   0.54020   16.549
 5930.00    0.50722   0.54005   19.715
 5931.00    0.48679   0.54020   20.543
 5932.00    0.55302   0.54027   18.083
 5933.00    0.64341   0.54042   15.542
 5934.00    0.70695   0.54021   14.145
 5935.00    0.72154   0.54021   13.859
 5936.00    0.69109   0.54027   14.470
 5937.00    0.63557   0.54034   15.734
 5938.00    0.57444   0.54035   17.408
 5939.00    0.52882   0.54028   18.910
 5940.00    0.52855   0.54009   18.920
 5941.00    0.57630   0.53960   17.352
 5942.00    0.59559   0.53931   16.790
 5943.00    0.52144   0.53897   19.178
 5944.00    0.43462   0.53882   23.009
 5945.00    0.45735   0.53842   21.865
 5946.00    0.59236   0.53806   16.882
 5947.00    0.75442   0.53760   -1.000
 5948.00    0.84059   0.53716   -1.000
 5949.00    0.80837   0.53676   -1.000
 5950.00    0.74424   0.53663   -1.000
 5951.00    0.73611   0.53670   -1.000
 5952.00    0.74270   0.53652   -1.000
 5953.00    0.71420   0.53660   -1.000
 5954.00    0.70768   0.53675   14.131
 5955.00    0.74422   0.53722   -1.000
 5956.00    0.69634   0.53742   14.361
 5957.00    0.51617   0.53779   19.373
 5958.00    0.39595   0.53836   25.256
 5959.00    0.46229   0.53884   21.631
 5960.00    0.56709   0.53959   17.634
 5961.00    0.56058   0.54012   17.839
 5962.00    0.47827   0.54076   20.909
 5963.00    0.41024   0.54122   24.376
 5964.00    0.40464   0.54155   24.713
 5965.00    0.45603   0.54190   21.929
 5966.00    0.51623   0.54203   19.371
 5967.00    0.57740   0.54224   17.319
 5968.00    0.69070   0.54226   14.478
 5969.00    0.82148   0.54208   -1.000
 5970.00    0.82435   0.54177   -1.000
 5971.00    0.68631   0.54142   14.571
 5972.00    0.57830   0.54083   17.292
 5973.00    0.56300   0.54040   17.762
 5974.00    0.52817   0.53967   18.933
 5975.00    0.45018   0.53884   22.213
 5976.00    0.44493   0.53796   22.476
 5977.00    0.54731   0.53690   18.271
 5978.00    0.66309   0.53626   15.081
 5979.00    0.69689   0.53545   14.349
 5980.00    0.62156   0.53506   16.089
 5981.00    0.54654   0.53443   18.297
 5982.00    0.63606   0.53382   15.722
 5983.00    0.81680   0.53337   -1.000
 5984.00    0.84519   0.53269   -1.000
 5985.00    0.71478   0.53264   -1.000
 5986.00    0.62380   0.53264   16.031
 5987.00    0.61957   0.53293   16.140
 5988.00    0.59703   0.53295   16.750
 5989.00    0.50270   0.53313   19.893
 5990.00    0.36986   0.53329   -1.000
 5991.00    0.28782   0.53315   -1.000
 5992.00    0.33338   0.53337   -1.000
 5993.00    0.45552   0.53360   21.953
 5994.00    0.53554   0.53385   18.673
 5995.00    0.53452   0.53364   18.708
 5996.00    0.49409   0.53346   20.239
 5997.00    0.48956   0.53319   20.427
 5998.00    0.56179   0.53265   17.800
 5999.00    0.63160   0.53242   15.833
 6000.00    0.60281   0.53192   16.589
 6001.00    0.52025   0.53145   19.222
 6002.00    0.47928   0.53085   20.865
 6003.00    0.48257   0.53015   20.722
 6004.00    0.49789   0.52982   20.085
 6005.00    0.54641   0.52919   18.301
 6006.00    0.65303   0.52862   15.313
 6007.00    0.78187   0.52813   -1.000
 6008.00    0.86928   0.52751   -1.000
 6009.00    0.86903   0.52730   -1.000
 6010.00    0.79376   0.52700   -1.000
 6011.00    0.73682   0.52696   -1.000
 6012.00    0.74363   0.52664   -1.000
 6013.00    0.71635   0.52611   -1.000
 6014.00    0.59926   0.52599   16.687
 6015.00    0.51021   0.52579   19.600
 6016.00    0.52002   0.52580   19.230
 6017.00    0.50984   0.52559   19.614
 6018.00    0.41366   0.52574   24.174
 6019.00    0.36092   0.52588   -1.000
 6020.00    0.43897   0.52567   22.781
 6021.00    0.55765   0.52602   17.932
 6022.00    0.60810   0.52638   16.445
 6023.00    0.56320   0.52701   17.756
 6024.00    0.47262   0.52736   21.158
 6025.00    0.43487   0.52813   22.995
 6026.00    0.48486   0.52911   20.624
 6027.00    0.56117   0.52958   17.820
 6028.00    0.62352   0.53048   16.038
 6029.00    0.68765   0.53126   14.542
 6030.00    0.72956   0.53209   -1.000
 6031.00    0.68099   0.53267   14.685
 6032.00    0.58001   0.53329   17.241
 6033.00    0.56482   0.53396   17.705
 6034.00    0.62942   0.53420   15.888
 6035.00    0.61937   0.53445   16.145
 6036.00    0.52567   0.53474   19.023
 6037.00    0.49699   0.53495   20.121
 6038.00    0.56129   0.53494   17.816
 6039.00    0.60611   0.53498   16.499
 6040.00    0.57916   0.53487   17.266
 6041.00    0.52495   0.53488   19.049
 6042.00    0.52084   0.53469   19.200
 6043.00    0.61209   0.53462   16.337
 6044.00    0.70302   0.53471   14.224
 6045.00    0.65609   0.53437   15.242
 6046.00    0.56698   0.53417   17.637
 6047.00    0.63434   0.53384   15.764
 6048.00    0.76787   0.53370   -1.000
 6049.00    0.73440   0.53327   -1.000
 6050.00    0.58820   0.53290   17.001
 6051.00    0.54599   0.53259   18.315
 6052.00    0.62193   0.53219   16.079
 6053.00    0.68555   0.53166   14.587
 6054.00    0.66460   0.53124   15.047
 6055.00    0.57266   0.53096   17.462
 6056.00    0.49531   0.53044   20.189
 6057.00    0.50948   0.53024   19.628
 6058.00    0.57817   0.52982   17.296
 6059.00    0.61137   0.52976   16.357
 6060.00    0.56535   0.52957   17.688
 6061.00    0.46904   0.52954   21.320
 6062.00    0.43099   0.52967   23.203
 6063.00    0.51803   0.52955   19.304
 6064.00    0.63292   0.52989   15.800
 6065.00    0.66219   0.52983   15.101
 6066.00    0.63201   0.53018   15.823
 6067.00    0.61266   0.53077   16.322
 6068.00    0.61575   0.53116   16.240
 6069.00    0.61430   0.53156   16.279
 6070.00    0.57308   0.53159   17.450
 6071.00    0.48961   0.53169   20.424
 6072.00    0.42091   0.53149   23.758
 6073.00    0.44480   0.53138   22.482
 6074.00    0.61207   0.53115   16.338
 6075.00    0.82658   0.53054   -1.000
 6076.00    0.82444   0.52991   -1.000
 6077.00    0.56806   0.52900   17.604
 6078.00    0.41082   0.52801   24.342
 6079.00    0.55134   0.52694   18.138
 6080.00    0.77315   0.52620   -1.000
 6081.00    0.84528   0.52560   -1.000
 6082.00    0.74131   0.52453   -1.000
 6083.00    0.58036   0.52394   17.231
 6084.00    0.54148   0.52342   18.468
 6085.00    0.63622   0.52283   15.718
 6086.00    0.68279   0.52251   14.646
 6087.00    0.64555   0.52234   15.491
 6088.00    0.68906   0.52247   14.513
 6089.00    0.80703   0.52233   -1.000
 6090.00    0.78447   0.52215   -1.000
 6091.00    0.60042   0.52222   16.655
 6092.00    0.46715   0.52228   21.406
 6093.00    0.46141   0.52227   21.673
 6094.00    0.46849   0.52248   21.345
 6095.00    0.40318   0.52225   24.803
 6096.00    0.28108   0.52201   -1.000
 6097.00    0.21499   0.52182   -1.000
 6098.00    0.32307   0.52139   -1.000
 6099.00    0.50198   0.52160   19.921
 6100.00    0.52757   0.52121   18.955
 6101.00    0.43484   0.52102   22.997
 6102.00    0.44293   0.52059   22.577
 6103.00    0.58448   0.51997   17.109
 6104.00    0.71806   0.52060   -1.000
 6105.00    0.72908   0.52070   -1.000
 6106.00    0.60263   0.52107   16.594
 6107.00    0.47373   0.52123   21.109
 6108.00    0.49950   0.52117   20.020
 6109.00    0.62663   0.52153   15.958
 6110.00    0.69155   0.52166   14.460
 6111.00    0.64674   0.52192   15.462
 6112.00    0.55783   0.52193   17.927
 6113.00    0.53811   0.52184   18.584
 6114.00    0.64384   0.52154   15.532
 6115.00    0.75404   0.52103   -1.000
 6116.00    0.72468   0.52043   -1.000
 6117.00    0.59851   0.51988   16.708
 6118.00    0.50631   0.51943   19.751
 6119.00    0.51743   0.51882   19.326
 6120.00    0.61608   0.51810   16.232
 6121.00    0.70242   0.51737   -1.000
 6122.00    0.69044   0.51659   -1.000
 6123.00    0.60278   0.51618   16.590
 6124.00    0.52697   0.51610   18.977
 6125.00    0.55584   0.51565   17.991
 6126.00    0.69521   0.51529   -1.000
 6127.00    0.80709   0.51483   -1.000
 6128.00    0.77196   0.51431   -1.000
 6129.00    0.61631   0.51375   16.226
 6130.00    0.45870   0.51301   21.801
 6131.00    0.43840   0.51254   22.810
 6132.00    0.54687   0.51179   18.286
 6133.00    0.56874   0.51116   17.583
 6134.00    0.42963   0.51050   23.276
 6135.00    0.34993   0.50963   -1.000
 6136.00    0.42796   0.50888   23.367
 6137.00    0.46046   0.50797   21.718
 6138.00    0.33312   0.50796   -1.000
 6139.00    0.19165   0.50854   -1.000
 6140.00    0.20271   0.50889   -1.000
 6141.00    0.41265   0.50878   24.234
 6142.00    0.67977   0.50870   -1.000
 6143.00    0.73746   0.50938   -1.000
 6144.00    0.57331   0.51017   17.443
 6145.00    0.46834   0.51077   21.352
 6146.00    0.52225   0.51121   19.148
 6147.00    0.56439   0.51149   17.718
 6148.00    0.51477   0.51133   19.426
 6149.00    0.45760   0.51117   21.853
 6150.00    0.44135   0.51105   22.658
 6151.00    0.43935   0.51079   22.761
 6152.00    0.43943   0.51042   22.757
 6153.00    0.45313   0.50954   22.069
 6154.00    0.46232   0.50858   21.630
 6155.00    0.43251   0.50734   23.121
 6156.00    0.38491   0.50608   25.980
 6157.00    0.37344   0.50502   26.778
 6158.00    0.38726   0.50372   25.822
 6159.00    0.38256   0.50281   26.139
 6160.00    0.40098   0.50173   24.939
 6161.00    0.50674   0.50036   19.734
 6162.00    0.61175   0.49919   16.346
 6163.00    0.58266   0.49851   17.163
 6164.00    0.50040   0.49841   19.984
 6165.00    0.54519   0.49837   18.342
 6166.00    0.71744   0.49838   -1.000
 6167.00    0.88706   0.49874   -1.000
 6168.00    0.95099   0.49901   -1.000
 6169.00    0.86679   0.49929   -1.000
 6170.00    0.66344   0.49984   15.073
 6171.00    0.42788   0.50093   23.371
 6172.00    0.27950   0.50223   -1.000
 6173.00    0.28991   0.50296   -1.000
 6174.00    0.39409   0.50378   25.375
 6175.00    0.49430   0.50463   20.231
 6176.00    0.58729   0.50537   17.027
 6177.00    0.68540   0.50623   -1.000
 6178.00    0.72490   0.50699   -1.000
 6179.00    0.66291   0.50761   15.085
 6180.00    0.57279   0.50791   17.458
 6181.00    0.53437   0.50807   18.714
 6182.00    0.53148   0.50832   18.815
 6183.00    0.51994   0.50826   19.233
 6184.00    0.49209   0.50803   20.322
 6185.00    0.46653   0.50782   -2.000
 6186.00    0.47108   0.50734   -2.000
 6187.00    0.50546   0.50682   -2.000
 6188.00    0.52808   0.50656   -2.000
 6189.00    0.54838   0.50626   -2.000
 6190.00    0.65840   0.50613   -2.000
 6191.00    0.83211   0.50562   -2.000
 6192.00    0.85577   0.50536   -2.000
 6193.00    0.66356   0.50584   -2.000
 6194.00    0.47247   0.50603   -2.000
 6195.00    0.44481   0.50633   -2.000
 6196.00    0.53028   0.50664   -2.000
 6197.00    0.60736   0.50714   16.465
 6198.00    0.57703   0.50766   17.330
 6199.00    0.44645   0.50785   22.399
 6200.00    0.33600   0.50816   -1.000
 6201.00    0.35548   0.50853   -1.000
 6202.00    0.52951   0.50897   18.885
 6203.00    0.72152   0.50896   -1.000
 6204.00    0.70185   0.50891   -1.000
 6205.00    0.48046   0.50867   20.813
 6206.00    0.31638   0.50825   -1.000
 6207.00    0.36053   0.50783   -1.000
 6208.00    0.56348   0.50694   17.747
 6209.00    0.76439   0.50621   -1.000
 6210.00    0.79367   0.50521   -1.000
 6211.00    0.67008   0.50422   14.923
 6212.00    0.55367   0.50324   18.061
 6213.00    0.48844   0.50204   20.473
 6214.00    0.40911   0.50089   24.443
 6215.00    0.31387   0.49982   -1.000
 6216.00    0.26779   0.49914   -1.000
 6217.00    0.31848   0.49859   -1.000
 6218.00    0.45965   0.49821   21.756
 6219.00    0.59997   0.49744   16.667
 6220.00    0.63241   0.49691   15.812
 6221.00    0.57026   0.49671   17.536
 6222.00    0.50851   0.49658   19.665
 6223.00    0.51390   0.49660   19.459
 6224.00    0.59396   0.49627   16.836
 6225.00    0.68229   0.49588   -1.000
 6226.00    0.70570   0.49561   -1.000
 6227.00    0.68157   0.49550   -1.000
 6228.00    0.66803   0.49531   -1.000
 6229.00    0.67946   0.49526   -1.000
 6230.00    0.70350   0.49477   -1.000
 6231.00    0.73379   0.49427   -1.000
 6232.00    0.73781   0.49434   -1.000
 6233.00    0.62711   0.49400   15.946
 6234.00    0.39708   0.49404   25.184
 6235.00    0.25495   0.49391   -1.000
 6236.00    0.34953   0.49348   -1.000
 6237.00    0.52004   0.49326   19.229
 6238.00    0.57965   0.49262   17.252
 6239.00    0.57494   0.49236   17.393
 6240.00    0.59570   0.49188   16.787
 6241.00    0.61050   0.49142   16.380
 6242.00    0.59143   0.49108   16.908
 6243.00    0.60407   0.49032   16.554
 6244.00    0.67647   0.48989   -1.000
 6245.00    0.72258   0.48933   -1.000
 6246.00    0.70066   0.48883   -1.000
 6247.00    0.69554   0.48824   -1.000
 6248.00    0.74504   0.48786   -1.000
 6249.00    0.76246   0.48761   -1.000
 6250.00    0.72930   0.48715   -1.000
 6251.00    0.76530   0.48687   -1.000
 6252.00    0.90164   0.48621   -1.000
 6253.00    1.00127   0.48599   -1.000
 6254.00    0.96592   0.48601   -1.000
 6255.00    0.82101   0.48612   -1.000
 6256.00    0.62932   0.48649   15.890
 6257.00    0.44839   0.48663   22.302
 6258.00    0.32513   0.48706   -1.000
 6259.00    0.29206   0.48770   -1.000
 6260.00    0.36003   0.48855   27.775
 6261.00    0.50446   0.48957   19.823
 6262.00    0.62906   0.49051   15.897
 6263.00    0.61342   0.49152   16.302
 6264.00    0.50044   0.49251   19.982
 6265.00    0.46948   0.49301   21.300
 6266.00    0.57886   0.49396   17.275
 6267.00    0.72972   0.49499   -1.000
 6268.00    0.78408   0.49560   -1.000
 6269.00    0.66566   0.49622   -1.000
 6270.00    0.51904   0.49632   19.266
 6271.00    0.57342   0.49683   17.439
 6272.00    0.74442   0.49715   -1.000
 6273.00    0.75952   0.49733   -1.000
 6274.00    0.61931   0.49764   16.147
 6275.00    0.52564   0.49736   19.024
 6276.00    0.54383   0.49763   18.388
 6277.00    0.60821   0.49753   16.442
 6278.00    0.65731   0.49750   15.213
 6279.00    0.66480   0.49781   -1.000
 6280.00    0.64702   0.49746    0.000
 6281.00    0.63495   0.49770    0.000
 6282.00    0.62999   0.49783    0.000
 6283.00    0.62439   0.49788    0.000
 6284.00    0.63835   0.49836    0.000
 6285.00    0.68891   0.49815    0.000
 6286.00    0.74298   0.49820    0.000
 6287.00    0.73645   0.49833    0.000
 6288.00    0.61163   0.49812    0.000
 6289.00    0.40644   0.49823    0.000
 6290.00    0.32828   0.49775    0.000
 6291.00    0.49039   0.49716    0.000
 6292.00    0.65965   0.49677    0.000
 6293.00    0.62106   0.49600    0.000
 6294.00    0.52236   0.49562    0.000
 6295.00    0.53102   0.49509    0.000
 6296.00    0.53125   0.49419    0.000
 6297.00    0.43438   0.49349    0.000
 6298.00    0.41892   0.49294    0.000
 6299.00    0.60485   0.49275    0.000
 6300.00    0.82561   0.49257    0.000
 6301.00    0.91250   0.49215    0.000
 6302.00    0.88766   0.49185    0.000
 6303.00    0.81178   0.49195    0.000
 6304.00    0.68900   0.49215    0.000
 6305.00    0.55312   0.49210    0.000
 6306.00    0.49928   0.49200    0.000
 6307.00    0.54658   0.49191    0.000
 6308.00    0.59274   0.49196    0.000
 6309.00    0.58820   0.49178    0.000
 6310.00    0.59284   0.49121    0.000
 6311.00    0.60439   0.49091    0.000
 6312.00    0.52905   0.49045    0.000
 6313.00    0.42126   0.49009    0.000
 6314.00    0.48641   0.48964    0.000
 6315.00    0.66194   0.48907    0.000
 6316.00    0.60936   0.48903    0.000
 6317.00    0.32279   0.48890    0.000
 6318.00    0.17397   0.48868    0.000
 6319.00    0.27156   0.48894    0.000
 6320.00    0.37991   0.48927    0.000
 6321.00    0.38047   0.48983   26.283
 6322.00    0.35544   0.49025   28.134
 6323.00    0.38695   0.49050   25.843
 6324.00    0.48589   0.49120   20.581
 6325.00    0.57020   0.49162   17.538
 6326.00    0.53256   0.49195   18.777
 6327.00    0.41663   0.49213   24.002
 6328.00    0.36735   0.49213   27.222
 6329.00    0.41810   0.49216   23.918
 6330.00    0.49702   0.49174   20.120
 6331.00    0.54666   0.49127   18.293
 6332.00    0.55351   0.49084   18.066
 6333.00    0.55236   0.49052   18.104
 6334.00    0.58185   0.48990   17.187
 6335.00    0.60679   0.48902   16.480
 6336.00    0.57331   0.48844   17.443
 6337.00    0.51907   0.48785   19.265
 6338.00    0.50366   0.48757   19.855
 6339.00    0.48020   0.48714   20.825
 6340.00    0.39914   0.48663   25.054
 6341.00    0.37173   0.48661   26.901
 6342.00    0.50064   0.48623   19.974
 6343.00    0.64392   0.48607   15.530
 6344.00    0.63184   0.48608   15.827
 6345.00    0.55132   0.48598   18.138
 6346.00    0.55595   0.48619   17.987
 6347.00    0.62352   0.48590   16.038
 6348.00    0.64779   0.48588   15.437
 6349.00    0.56625   0.48597   17.660
 6350.00    0.41787   0.48568   23.931
 6351.00    0.36469   0.48565   27.421
 6352.00    0.47874   0.48522   20.888
 6353.00    0.58414   0.48476   17.119
 6354.00    0.55260   0.48425   18.096
 6355.00    0.51989   0.48358   19.235
 6356.00    0.57971   0.48317   17.250
 6357.00    0.58162   0.48253   17.193
 6358.00    0.45189   0.48177   22.129
 6359.00    0.37670   0.48122   26.547
 6360.00    0.44563   0.48087   22.440
 6361.00    0.46979   0.48069   21.286
 6362.00    0.34195   0.48053   -1.000
 6363.00    0.21379   0.48041   -1.000
 6364.00    0.22903   0.48080   -1.000
 6365.00    0.37858   0.48110   26.414
 6366.00    0.55696   0.48160   17.955
 6367.00    0.62678   0.48237   15.955
 6368.00    0.56406   0.48300   17.728
 6369.00    0.48579   0.48394   20.585
 6370.00    0.47239   0.48443   21.169
 6371.00    0.50671   0.48502   19.735
 6372.00    0.54859   0.48601   18.228
 6373.00    0.56900   0.48666   17.575
 6374.00    0.55800   0.48724   17.921
 6375.00    0.52734   0.48746   18.963
 6376.00    0.50951   0.48770   19.627
 6377.00    0.53856   0.48823   18.568
 6378.00    0.59360   0.48835   16.846
 6379.00    0.61397   0.48838   16.287
 6380.00    0.59279   0.48833   16.869
 6381.00    0.56809   0.48824   17.603
 6382.00    0.52791   0.48850   18.943
 6383.00    0.43580   0.48828   22.947
 6384.00    0.35316   0.48795   28.316
 6385.00    0.37851   0.48788   26.419
 6386.00    0.44783   0.48768   22.330
 6387.00    0.43660   0.48773   22.904
 6388.00    0.45777   0.48724   21.845
 6389.00    0.69634   0.48672   -1.000
 6390.00    0.98349   0.48662   -1.000
 6391.00    1.00213   0.48636   -1.000
 6392.00    0.78802   0.48619   -1.000
 6393.00    0.59254   0.48562   16.877
 6394.00    0.51296   0.48500   19.495
 6395.00    0.50638   0.48483   19.748
 6396.00    0.50600   0.48477   19.763
 6397.00    0.47250   0.48483   21.164
 6398.00    0.43720   0.48462   22.873
 6399.00    0.44750   0.48420   22.346
 6400.00    0.49162   0.48394   20.341
 6401.00    0.53932   0.48401   18.542
 6402.00    0.59901   0.48434   16.694
 6403.00    0.67716   0.48426   -1.000
 6404.00    0.73010   0.48411   -1.000
 6405.00    0.70879   0.48398   -1.000
 6406.00    0.61115   0.48367   16.363
 6407.00    0.49319   0.48371   20.276
 6408.00    0.46105   0.48359   21.689
 6409.00    0.53828   0.48343   18.578
 6410.00    0.57581   0.48344   17.367
 6411.00    0.47507   0.48282   21.049
 6412.00    0.34834   0.48267   28.707
 6413.00    0.30378   0.48287   -1.000
 6414.00    0.29678   0.48269   -1.000
 6415.00    0.29220   0.48266   -1.000
 6416.00    0.35839   0.48232   27.903
 6417.00    0.49627   0.48240   20.150
 6418.00    0.56539   0.48297   17.687
 6419.00    0.52356   0.48310   19.100
 6420.00    0.51626   0.48296   19.370
 6421.00    0.56733   0.48293   17.627
 6422.00    0.48277   0.48335   20.714
 6423.00    0.24054   0.48394   -1.000
 6424.00    0.10514   0.48422   -1.000
 6425.00    0.22319   0.48386   -1.000
 6426.00    0.47839   0.48369   20.903
 6427.00    0.70447   0.48400   -1.000
 6428.00    0.79699   0.48414   -1.000
 6429.00    0.77076   0.48411   -1.000
 6430.00    0.73138   0.48363   -1.000
 6431.00    0.69718   0.48329   -1.000
 6432.00    0.58934   0.48341   16.968
 6433.00    0.41775   0.48333   23.938
 6434.00    0.29249   0.48306   -1.000
 6435.00    0.26335   0.48301   -1.000
 6436.00    0.30564   0.48315   -1.000
 6437.00    0.42422   0.48332   23.573
 6438.00    0.62999   0.48336   15.873
 6439.00    0.80309   0.48292   -1.000
 6440.00    0.77836   0.48305   -1.000
 6441.00    0.63158   0.48353   15.833
 6442.00    0.58131   0.48347   17.203
 6443.00    0.62070   0.48334   16.111
 6444.00    0.59313   0.48245   16.860
 6445.00    0.51436   0.48177   19.442
 6446.00    0.50756   0.48179   19.702
 6447.00    0.55650   0.48131   17.969
 6448.00    0.57153   0.48081   17.497
 6449.00    0.58253   0.47965   17.167
 6450.00    0.64554   0.47837   -1.000
 6451.00    0.64699   0.47794   -1.000
 6452.00    0.47997   0.47752   20.834
 6453.00    0.33737   0.47728   -1.000
 6454.00    0.43983   0.47674   22.736
 6455.00    0.61982   0.47598   16.134
 6456.00    0.59987   0.47563   16.670
 6457.00    0.40933   0.47547   24.430
 6458.00    0.24071   0.47574   -1.000
 6459.00    0.21507   0.47606   -1.000
 6460.00    0.33493   0.47602   -1.000
 6461.00    0.47708   0.47597   20.961
 6462.00    0.56438   0.47589   17.719
 6463.00    0.71292   0.47623   -1.000
 6464.00    0.94807   0.47690   -1.000
 6465.00    0.97567   0.47713   -1.000
 6466.00    0.65623   0.47716   -1.000
 6467.00    0.36560   0.47712   27.352
 6468.00    0.40907   0.47732   24.446
 6469.00    0.58563   0.47770   17.076
 6470.00    0.64911   0.47776   -1.000
 6471.00    0.64202   0.47757   -1.000
 6472.00    0.65659   0.47739   -1.000
 6473.00    0.67015   0.47737   -1.000
 6474.00    0.64475   0.47727   -1.000
 6475.00    0.59360   0.47706   16.846
 6476.00    0.55995   0.47648   17.859
 6477.00    0.59023   0.47603   16.942
 6478.00    0.66893   0.47568   -1.000
 6479.00    0.70676   0.47526   -1.000
 6480.00    0.65512   0.47484   -1.000
 6481.00    0.55024   0.47386   18.174
 6482.00    0.44691   0.47305   22.376
 6483.00    0.38812   0.47226   25.765
 6484.00    0.41232   0.47138   24.253
 6485.00    0.53841   0.47043   18.573
 6486.00    0.69625   0.46894   -1.000
 6487.00    0.74538   0.46760   -1.000
 6488.00    0.63745   0.46628   -1.000
 6489.00    0.45229   0.46458   22.110
 6490.00    0.31705   0.46308   -1.000
 6491.00    0.33035   0.46144   -1.000
 6492.00    0.42438   0.46009   23.564
 6493.00    0.42884   0.45920   23.319
 6494.00    0.36215   0.45776   27.613
 6495.00    0.39159   0.45703   25.537
 6496.00    0.51900   0.45686   19.268
 6497.00    0.59778   0.45686   -1.000
 6498.00    0.57061   0.45768   17.525
 6499.00    0.48778   0.45796   20.501
 6500.00    0.41771   0.45880   23.940
 6501.00    0.41284   0.46031   24.223
 6502.00    0.48252   0.46148   20.725
 6503.00    0.58639   0.46298   17.054
 6504.00    0.63585   0.46399   -1.000
 6505.00    0.57312   0.46505   17.448
 6506.00    0.49867   0.46627   20.053
 6507.00    0.53007   0.46695   18.865
 6508.00    0.55387   0.46749   18.055
 6509.00    0.42073   0.46764   23.768
 6510.00    0.27584   0.46775   -1.000
 6511.00    0.32224   0.46774   -1.000
 6512.00    0.44920   0.46743   22.262
 6513.00    0.46527   0.46703   21.493
 6514.00    0.43950   0.46651   22.753
 6515.00    0.49896   0.46607   20.042
 6516.00    0.55779   0.46557   17.928
 6517.00    0.48861   0.46507   20.466
 6518.00    0.33328   0.46453   30.005
 6519.00    0.22503   0.46410   -1.000
 6520.00    0.27755   0.46386   -1.000
 6521.00    0.47097   0.46352   21.233
 6522.00    0.58800   0.46310   17.007
 6523.00    0.51059   0.46260   19.585
 6524.00    0.43527   0.46233   22.974
 6525.00    0.50434   0.46218   19.828
 6526.00    0.54727   0.46170   18.273
 6527.00    0.44678   0.46103   22.382
 6528.00    0.37084   0.46038    0.000
 6529.00    0.41733   0.45993    0.000
 6530.00    0.42461   0.45959    0.000
 6531.00    0.37040   0.45891    0.000
 6532.00    0.53184   0.45786    0.000
 6533.00    0.91426   0.45692    0.000
 6534.00    1.05403   0.45620    0.000
 6535.00    0.77072   0.45548    0.000
 6536.00    0.44472   0.45441    0.000
 6537.00    0.35683   0.45282    0.000
 6538.00    0.41928   0.45131    0.000
 6539.00    0.48638   0.45005    0.000
 6540.00    0.50075   0.44842    0.000
 6541.00    0.47878   0.44632    0.000
 6542.00    0.47853   0.44389    0.000
 6543.00    0.51109   0.44146    0.000
 6544.00    0.53373   0.43910    0.000
 6545.00    0.54675   0.43613    0.000
 6546.00    0.59494   0.43263    0.000
 6547.00    0.65929   0.42899    0.000
 6548.00    0.66432   0.42529    0.000
 6549.00    0.60705   0.42131    0.000
 6550.00    0.55995   0.41665    0.000
 6551.00    0.56887   0.41169    0.000
 6552.00    0.60731   0.40626    0.000
 6553.00    0.54045   0.40083    0.000
 6554.00    0.26667   0.39537    0.000
 6555.00    0.05594   0.38956    0.000
 6556.00    0.29585   0.38403    0.000
 6557.00    0.78563   0.37789    0.000
 6558.00    0.99566   0.37239    0.000
 6559.00    0.88639   0.36851    0.000
 6560.00    0.81602   0.36520    0.000
 6561.00    1.05702   0.36266    0.000
 6562.00    1.64647   0.35981    0.000
 6563.00    2.30030   0.35834    0.000
 6564.00    2.63618   0.35998    0.000
 6565.00    2.54234   0.36250    0.000
 6566.00    2.13610   0.36526    0.000
 6567.00    1.61313   0.36822    0.000
 6568.00    1.15631   0.37206    0.000
 6569.00    0.84399   0.37736    0.000
 6570.00    0.66153   0.38293    0.000
 6571.00    0.53628   0.38839    0.000
 6572.00    0.40490   0.39366    0.000
 6573.00    0.28288   0.39874    0.000
 6574.00    0.23024   0.40382    0.000
 6575.00    0.29984   0.40857    0.000
 6576.00    0.46182   0.41307    0.000
 6577.00    0.55653   0.41736    0.000
 6578.00    0.51755   0.42093    0.000
 6579.00    0.53955   0.42430    0.000
 6580.00    0.71557   0.42722    0.000
 6581.00    0.77895   0.42977    0.000
 6582.00    0.60578   0.43233    0.000
 6583.00    0.54118   0.43432    0.000
 6584.00    0.77243   0.43617    0.000
 6585.00    0.94912   0.43760    0.000
 6586.00    0.81675   0.43891    0.000
 6587.00    0.58686   0.44002    0.000
 6588.00    0.47950   0.44071    0.000
 6589.00    0.45967   0.44177    0.000
 6590.00    0.44162   0.44246    0.000
 6591.00    0.41139   0.44324    0.000
 6592.00    0.40833   0.44375    0.000
 6593.00    0.49042   0.44376    0.000
 6594.00    0.63109   0.44461    0.000
 6595.00    0.70588   0.44545    0.000
 6596.00    0.65556   0.44619    0.000
 6597.00    0.53984   0.44679    0.000
 6598.00    0.44980   0.44701    0.000
 6599.00    0.45003   0.44771    0.000
 6600.00    0.50688   0.44844    0.000
 6601.00    0.51147   0.44917    0.000
 6602.00    0.45072   0.44979    0.000
 6603.00    0.41459   0.45003    0.000
 6604.00    0.42500   0.45037    0.000
 6605.00    0.42643   0.45076    0.000
 6606.00    0.42462   0.45132    0.000
 6607.00    0.47774   0.45187    0.000
 6608.00    0.55898   0.45200    0.000
 6609.00    0.57487   0.45212   17.395
 6610.00    0.50647   0.45266   19.745
 6611.00    0.41589   0.45323   24.045
 6612.00    0.37548   0.45379   26.632
 6613.00    0.42386   0.45396   23.593
 6614.00    0.51159   0.45409   19.547
 6615.00    0.53890   0.45480   18.556
 6616.00    0.45384   0.45516   22.034
 6617.00    0.29677   0.45538   -1.000
 6618.00    0.23734   0.45556   -1.000
 6619.00    0.41882   0.45535   23.877
 6620.00    0.69618   0.45562   -1.000
 6621.00    0.80634   0.45555   -1.000
 6622.00    0.69780   0.45524   -1.000
 6623.00    0.49747   0.45516   20.102
 6624.00    0.38110   0.45450   26.240
 6625.00    0.44089   0.45409   22.681
 6626.00    0.54709   0.45381   18.278
 6627.00    0.52708   0.45331   18.973
 6628.00    0.40172   0.45294   24.893
 6629.00    0.31091   0.45228   -1.000
 6630.00    0.38589   0.45180   25.914
 6631.00    0.61917   0.45161   -1.000
 6632.00    0.77074   0.45136   -1.000
 6633.00    0.67865   0.45102   -1.000
 6634.00    0.53566   0.45059   18.669
 6635.00    0.53954   0.45051   18.534
 6636.00    0.58422   0.45076   17.117
 6637.00    0.52728   0.45083   18.965
 6638.00    0.41762   0.45071   23.945
 6639.00    0.35146   0.45077   28.453
 6640.00    0.35027   0.45080   28.550
 6641.00    0.38256   0.45125   26.140
 6642.00    0.39894   0.45160   25.067
 6643.00    0.42180   0.45132   23.708
 6644.00    0.56396   0.45166   17.732
 6645.00    0.78616   0.45190   -1.000
 6646.00    0.82348   0.45203   -1.000
 6647.00    0.61413   0.45240   -1.000
 6648.00    0.45170   0.45216   22.138
 6649.00    0.49604   0.45236   20.160
 6650.00    0.58431   0.45254   17.114
 6651.00    0.58223   0.45232   17.175
 6652.00    0.52850   0.45238   18.922
 6653.00    0.49653   0.45217   20.140
 6654.00    0.51938   0.45200   19.254
 6655.00    0.55141   0.45180   18.135
 6656.00    0.49565   0.45138   20.175
 6657.00    0.35797   0.45114   27.935
 6658.00    0.26594   0.45068   -1.000
 6659.00    0.33138   0.45033   30.177
 6660.00    0.55909   0.45000   17.886
 6661.00    0.72291   0.44957   -1.000
 6662.00    0.53486   0.44941   18.696
 6663.00    0.23319   0.44887   -1.000
 6664.00    0.35765   0.44869   27.960
 6665.00    0.70028   0.44879   -1.000
 6666.00    0.57391   0.44855   17.424
 6667.00    0.16648   0.44864   -1.000
 6668.00    0.23066   0.44841   -1.000
 6669.00    0.61506   0.44843   -1.000
 6670.00    0.60046   0.44864   16.654
 6671.00    0.30880   0.44855   -1.000
 6672.00    0.36920   0.44858   27.086
 6673.00    0.69752   0.44830   -1.000
 6674.00    0.77625   0.44836   -1.000
 6675.00    0.57987   0.44858   17.245
 6676.00    0.42613   0.44846   23.467
 6677.00    0.44955   0.44849   22.245
 6678.00    0.57886   0.44805   17.275
 6679.00    0.64650   0.44833   -1.000
 6680.00    0.53439   0.44900   18.713
 6681.00    0.34636   0.44888   28.872
 6682.00    0.26088   0.44915   -1.000
 6683.00    0.30930   0.44935   -1.000
 6684.00    0.41155   0.44954   24.298
 6685.00    0.46077   0.45011   21.703
 6686.00    0.41192   0.45009   24.276
 6687.00    0.35971   0.45013   27.800
 6688.00    0.41513   0.45050   24.089
 6689.00    0.57098   0.45031   17.514
 6690.00    0.72952   0.45030   -1.000
 6691.00    0.75556   0.45019   -1.000
 6692.00    0.60839   0.44971   -1.000
 6693.00    0.43301   0.44983   23.094
 6694.00    0.36233   0.44940   27.599
 6695.00    0.36508   0.44897   27.391
 6696.00    0.38713   0.44869    0.000
 6697.00    0.45350   0.44814    0.000
 6698.00    0.56045   0.44808    0.000
 6699.00    0.61572   0.44767    0.000
 6700.00    0.58063   0.44725    0.000
 6701.00    0.53544   0.44716    0.000
 6702.00    0.49546   0.44669    0.000
 6703.00    0.34646   0.44641    0.000
 6704.00    0.11844   0.44604    0.000
 6705.00    0.06662   0.44547    0.000
 6706.00    0.29078   0.44550    0.000
 6707.00    0.59701   0.44500    0.000
 6708.00    0.79011   0.44443    0.000
 6709.00    0.81048   0.44410    0.000
 6710.00    0.69974   0.44342    0.000
 6711.00    0.55419   0.44317    0.000
 6712.00    0.41251   0.44276    0.000
 6713.00    0.26858   0.44215    0.000
 6714.00    0.28047   0.44199    0.000
 6715.00    0.68963   0.44169    0.000
 6716.00    1.29406   0.44147    0.000
 6717.00    1.53429   0.44130    0.000
 6718.00    1.31878   0.44108    0.000
 6719.00    1.04769   0.44146    0.000
 6720.00    0.92066   0.44181    0.000
 6721.00    0.84462   0.44185    0.000
 6722.00    0.74006   0.44203    0.000
 6723.00    0.61224   0.44236    0.000
 6724.00    0.51440   0.44288    0.000
 6725.00    0.49713   0.44325    0.000
 6726.00    0.51994   0.44327    0.000
 6727.00    0.51376   0.44354    0.000
 6728.00    0.54716   0.44387    0.000
 6729.00    0.71512   0.44398    0.000
 6730.00    0.86797   0.44398    0.000
 6731.00    0.79399   0.44389    0.000
 6732.00    0.62338   0.44381    0.000
 6733.00    0.60827   0.44375    0.000
 6734.00    0.65979   0.44341    0.000
 6735.00    0.58308   0.44302    0.000
 6736.00    0.52837   0.44290    0.000
 6737.00    0.67848   0.44262    0.000
 6738.00    0.74694   0.44216    0.000
 6739.00    0.42731   0.44179    0.000
 6740.00    0.02967   0.44140    0.000
 6741.00    0.01203   0.44127    0.000
 6742.00    0.33854   0.44110    0.000
 6743.00    0.67291   0.44056    0.000
 6744.00    0.69530   0.44042    0.000
 6745.00    0.33910   0.44033    0.000
 6746.00   -0.04082   0.44019   -2.000
 6747.00   -0.09486   0.44027   -2.000
 6748.00    0.12210   0.44005    0.000
 6749.00    0.36508   0.44004    0.000
 6750.00    0.43385   0.44027    0.000
 6751.00    0.30066   0.44033    0.000
 6752.00    0.16603   0.44064    0.000
 6753.00    0.19512   0.44071   -1.000
 6754.00    0.33490   0.44092   29.860
 6755.00    0.45879   0.44148   21.796
 6756.00    0.48293   0.44156   20.707
 6757.00    0.40687   0.44173   24.578
 6758.00    0.32705   0.44214   30.576
 6759.00    0.38419   0.44224   26.029
 6760.00    0.68830   0.44257   -1.000
 6761.00    1.08955   0.44269   -1.000
 6762.00    1.17553   0.44247   -1.000
 6763.00    0.88000   0.44269   -1.000
 6764.00    0.62987   0.44267   -1.000
 6765.00    0.58097   0.44256   17.213
 6766.00    0.43133   0.44263   23.184
 6767.00    0.18148   0.44229   -1.000
 6768.00    0.25339   0.44223   -1.000
 6769.00    0.64405   0.44243   -1.000
 6770.00    0.82985   0.44225   -1.000
 6771.00    0.65926   0.44228   -1.000
 6772.00    0.48972   0.44221   20.420
 6773.00    0.52645   0.44213   18.995
 6774.00    0.66568   0.44238   -1.000
 6775.00    0.72634   0.44221   -1.000
 6776.00    0.59231   0.44209   16.883
 6777.00    0.39196   0.44218   25.513
 6778.00    0.38593   0.44174   25.911
 6779.00    0.54864   0.44176   18.227
 6780.00    0.64729   0.44165   -1.000
 6781.00    0.69546   0.44109   -1.000
 6782.00    0.84852   0.44106   -1.000
 6783.00    0.93251   0.44072   -1.000
 6784.00    0.65065   0.44027   -1.000
 6785.00    0.21141   0.44027   -1.000
 6786.00    0.08464   0.43982   -1.000
 6787.00    0.30095   0.43968   -1.000
 6788.00    0.56974   0.43976   17.552
 6789.00    0.72217   0.43942   -1.000
 6790.00    0.74182   0.43933   -1.000
 6791.00    0.68322   0.43927   -1.000
 6792.00    0.61487   0.43918   -1.000
 6793.00    0.55556   0.43914   18.000
 6794.00    0.49148   0.43903   20.347
 6795.00    0.41520   0.43899   24.085
 6796.00    0.36051   0.43896   27.739
 6797.00    0.42790   0.43897   23.370
 6798.00    0.61703   0.43885   -1.000
 6799.00    0.65767   0.43875   -1.000
 6800.00    0.41968   0.43888   23.827
 6801.00    0.32287   0.43873   30.972
 6802.00    0.65574   0.43866   -1.000
 6803.00    0.92185   0.43871   -1.000
 6804.00    0.67057   0.43847   -1.000
 6805.00    0.26021   0.43858   -1.000
 6806.00    0.14621   0.43861   -1.000
 6807.00    0.25205   0.43827   -1.000
 6808.00    0.38068   0.43852   26.268
 6809.00    0.55245   0.43854   18.101
 6810.00    0.74611   0.43831   -1.000
 6811.00    0.74496   0.43856   -1.000
 6812.00    0.53632   0.43848   18.645
 6813.00    0.49337   0.43868   20.269
 6814.00    0.72556   0.43890   -1.000
 6815.00    0.79412   0.43863   -1.000
 6816.00    0.52489   0.43900   19.052
 6817.00    0.34965   0.43933   28.600
 6818.00    0.49781   0.43933   20.088
 6819.00    0.66757   0.43955   -1.000
 6820.00    0.64204   0.43945   -1.000
 6821.00    0.53780   0.43961   18.594
 6822.00    0.47589   0.43993   21.013
 6823.00    0.44909   0.43982   22.267
 6824.00    0.43438   0.43982   23.022
 6825.00    0.44164   0.43978   22.643
 6826.00    0.50380   0.43978   19.849
 6827.00    0.63416   0.43970   -1.000
 6828.00    0.69574   0.43926   -1.000
 6829.00    0.47965   0.43915   20.848
 6830.00    0.10902   0.43903   -1.000
 6831.00   -0.01914   0.43862   -2.000
 6832.00    0.18404   0.43835   -1.000
 6833.00    0.45534   0.43775   21.962
 6834.00    0.56863   0.43737   17.586
 6835.00    0.46350   0.43712   21.575
 6836.00    0.27624   0.43642   -1.000
 6837.00    0.22644   0.43610   -1.000
 6838.00    0.33656   0.43569   29.713
 6839.00    0.46600   0.43509   21.459
 6840.00    0.53499   0.43501   18.692
 6841.00    0.53629   0.43464   18.647
 6842.00    0.45715   0.43434   21.875
 6843.00    0.30523   0.43440   -1.000
 6844.00    0.18336   0.43436   -1.000
 6845.00    0.20625   0.43453   -1.000
 6846.00    0.33737   0.43455   29.641
 6847.00    0.46175   0.43438   21.657
 6848.00    0.54475   0.43463   18.357
 6849.00    0.59695   0.43472   -1.000
 6850.00    0.58922   0.43463   -1.000
 6851.00    0.52421   0.43463   19.076
 6852.00    0.53826   0.43451   18.578
 6853.00    0.71495   0.43450   -1.000
 6854.00    0.85331   0.43436   -1.000
 6855.00    0.74402   0.43378   -1.000
 6856.00    0.50493   0.43374   19.805
 6857.00    0.33608   0.43372   29.755
 6858.00    0.22934   0.43327   -1.000
 6859.00    0.13731   0.43316   -1.000
 6860.00    0.15367   0.43298   -1.000
 6861.00    0.32715   0.43272   30.567
 6862.00    0.49706   0.43268   20.118
 6863.00    0.50976   0.43244   19.617
 6864.00    0.40296   0.43246   24.817
 6865.00    0.28718   0.43255   -1.000
 6866.00    0.23766   0.43233   -1.000
 6867.00    0.27571   0.43225   -1.000
 6868.00    0.36450   0.43217   27.435
 6869.00    0.43727   0.43208   22.869
 6870.00    0.42975   0.43227   23.269
 6871.00    0.36032   0.43226   27.753
 6872.00    0.34806   0.43200   28.731
 6873.00    0.43147   0.43215   23.177
 6874.00    0.49822   0.43219   20.072
 6875.00    0.48039   0.43202   20.816
 6876.00    0.43265   0.43207   23.113
 6877.00    0.38698   0.43226   25.841
 6878.00    0.30794   0.43240   -1.000
 6879.00    0.22545   0.43242   -1.000
 6880.00    0.24567   0.43273   -1.000
 6881.00    0.34106   0.43286   29.321
 6882.00    0.34169   0.43302   29.266
 6883.00    0.24157   0.43357   -1.000
 6884.00    0.22417   0.43368   -1.000
 6885.00    0.32937   0.43430   30.361
 6886.00    0.42240   0.43487   23.674
 6887.00    0.48584   0.43478   20.583
 6888.00    0.60945   0.43577   -1.000
 6889.00    0.67129   0.43602   -1.000
 6890.00    0.44062   0.43615   22.696
 6891.00    0.12008   0.43713   -1.000
 6892.00    0.16563   0.43703   -1.000
 6893.00    0.45605   0.43738   21.928
 6894.00    0.47229   0.43796   21.174
 6895.00    0.21448   0.43783   -1.000
 6896.00    0.10073   0.43821   -1.000
 6897.00    0.27261   0.43817   -1.000
 6898.00    0.56574   0.43843   17.676
 6899.00    0.76590   0.43877   -1.000
 6900.00    0.73785   0.43838   -1.000
 6901.00    0.55773   0.43855   17.930
 6902.00    0.40196   0.43861   24.878
 6903.00    0.32023   0.43852   31.228
 6904.00    0.28654   0.43837   -1.000
 6905.00    0.33535   0.43805   29.819
 6906.00    0.46522   0.43808   21.495
 6907.00    0.48376   0.43786   20.672
 6908.00    0.26865   0.43749   -1.000
 6909.00    0.11930   0.43720   -1.000
 6910.00    0.33159   0.43680   30.158
 6911.00    0.64449   0.43663   -1.000
 6912.00    0.68417   0.43606   -1.000
 6913.00    0.52856   0.43571   18.919
 6914.00    0.41466   0.43543   24.116
 6915.00    0.37171   0.43485   26.903
 6916.00    0.35389   0.43473   28.257
 6917.00    0.39629   0.43434   25.234
 6918.00    0.50225   0.43384   19.910
 6919.00    0.55108   0.43383   18.146
 6920.00    0.51318   0.43346   19.486
 6921.00    0.59477   0.43309   -1.000
 6922.00    0.87312   0.43305   -1.000
 6923.00    1.05862   0.43269   -1.000
 6924.00    0.92559   0.43246   -1.000
 6925.00    0.60438   0.43230   -1.000
 6926.00    0.34661   0.43199   28.851
 6927.00    0.32988   0.43204   30.314
 6928.00    0.50914   0.43204   19.641
 6929.00    0.59925   0.43176   -1.000
 6930.00    0.46555   0.43173   21.480
 6931.00    0.28824   0.43182   -1.000
 6932.00    0.23360   0.43168   -1.000
 6933.00    0.28990   0.43165   -1.000
 6934.00    0.34894   0.43150   28.659
 6935.00    0.29094   0.43165   -1.000
 6936.00    0.16182   0.43173   -1.000
 6937.00    0.16977   0.43137   -1.000
 6938.00    0.35076   0.43133   28.509
 6939.00    0.50909   0.43137   19.643
 6940.00    0.52500   0.43109   19.047
 6941.00    0.44272   0.43108   22.588
 6942.00    0.35312   0.43068   28.319
 6943.00    0.33237   0.43055   30.087
 6944.00    0.38729   0.43052   25.821
 6945.00    0.46527   0.42995   21.493
 6946.00    0.53488   0.43002   18.696
 6947.00    0.58668   0.43000   -1.000
 6948.00    0.56983   0.42978   17.549
 6949.00    0.43934   0.43004   22.761
 6950.00    0.31343   0.42981   31.905
 6951.00    0.37270   0.42988   26.831
 6952.00    0.54084   0.43012   18.490
 6953.00    0.58002   0.43014   -1.000
 6954.00    0.45252   0.43048   22.098
 6955.00    0.30528   0.43061   -1.000
 6956.00    0.27950   0.43096   -1.000
 6957.00    0.41966   0.43143   23.829
 6958.00    0.58715   0.43138   -1.000
 6959.00    0.61931   0.43183   -1.000
 6960.00    0.61138   0.43214   -1.000
 6961.00    0.72258   0.43226   -1.000
 6962.00    0.81494   0.43261   -1.000
 6963.00    0.68549   0.43246   -1.000
 6964.00    0.46575   0.43268   21.471
 6965.00    0.39996   0.43298   25.003
 6966.00    0.48290   0.43248   20.708
 6967.00    0.57031   0.43247   17.534
 6968.00    0.57509   0.43251   17.388
 6969.00    0.49836   0.43199   20.066
 6970.00    0.42889   0.43181   23.316
 6971.00    0.43166   0.43119   23.166
 6972.00    0.44250   0.43068   22.599
 6973.00    0.40025   0.43076   24.984
 6974.00    0.37211   0.43018   26.874
 6975.00    0.41930   0.42950   23.849
 6976.00    0.47944   0.42954   20.857
 6977.00    0.49149   0.42928   20.346
 6978.00    0.49618   0.42892   20.154
 6979.00    0.53667   0.42880   18.633
 6980.00    0.58498   0.42898   -1.000
 6981.00    0.61189   0.42936   -1.000
 6982.00    0.63329   0.42951   -1.000
 6983.00    0.65944   0.42961   -1.000
 6984.00    0.66842   0.43007   -1.000
 6985.00    0.66163   0.43041   -1.000
 6986.00    0.67719   0.43048   -1.000
 6987.00    0.66889   0.43075   -1.000
 6988.00    0.49486   0.43109   20.208
 6989.00    0.21439   0.43106   -1.000
 6990.00    0.14068   0.43111   -1.000
 6991.00    0.34966   0.43119   28.599
 6992.00    0.55025   0.43103   18.173
 6993.00    0.57028   0.43086   17.535
 6994.00    0.51049   0.43057   19.589
 6995.00    0.46958   0.43027   21.296
 6996.00    0.44444   0.42990   22.500
 6997.00    0.39724   0.42950   25.174
 6998.00    0.31080   0.42913   32.175
 6999.00    0.28174   0.42864   -1.000
 7000.00    0.44615   0.42814   22.414
 7001.00    0.65241   0.42773   -2.000
 7002.00    0.56239   0.42752   -2.000
 7003.00    0.24318   0.42720   -2.000
 7004.00    0.09707   0.42663   -2.000
 7005.00    0.20458   0.42646   -2.000
 7006.00    0.32781   0.42630   -2.000
 7007.00    0.36897   0.42593   -2.000
 7008.00    0.40333   0.42571   -2.000
 7009.00    0.48379   0.42559   -2.000
 7010.00    0.59700   0.42556   -2.000
 7011.00    0.67189   0.42526   -2.000
 7012.00    0.63217   0.42501   -2.000
 7013.00    0.49285   0.42507   -2.000
 7014.00    0.35164   0.42486   -2.000
 7015.00    0.33406   0.42476   -2.000
 7016.00    0.47858   0.42450   -2.000
 7017.00    0.57742   0.42432   -2.000
 7018.00    0.43090   0.42466   -2.000
 7019.00    0.25712   0.42457   -2.000
 7020.00    0.35662   0.42448   -2.000
 7021.00    0.56983   0.42473   -2.000
 7022.00    0.59981   0.42477   -2.000
 7023.00    0.51875   0.42479   -2.000
 7024.00    0.53788   0.42478   -2.000
 7025.00    0.65634   0.42507   -2.000
 7026.00    0.75348   0.42538   -2.000
 7027.00    0.74183   0.42544   -2.000
 7028.00    0.60223   0.42574   -2.000
 7029.00    0.39994   0.42607   -2.000
 7030.00    0.24656   0.42624   -2.000
 7031.00    0.24969   0.42658   -2.000
 7032.00    0.39805   0.42688   -2.000
 7033.00    0.49286   0.42714   -2.000
 7034.00    0.41115   0.42757   -2.000
 7035.00    0.29505   0.42780   -2.000
 7036.00    0.28377   0.42820   -2.000
 7037.00    0.32157   0.42887   -2.000
 7038.00    0.33461   0.42891   -2.000
 7039.00    0.34778   0.42917   -2.000
 7040.00    0.36497   0.43000   -2.000
 7041.00    0.31142   0.43023   -2.000
 7042.00    0.18857   0.43030   -2.000
 7043.00    0.13376   0.43070   -2.000
 7044.00    0.21790   0.43072   -2.000
 7045.00    0.35707   0.43044   -2.000
 7046.00    0.45403   0.43031   -2.000
 7047.00    0.47263   0.43001   -2.000
 7048.00    0.42837   0.42965   -2.000
 7049.00    0.37649   0.42908   -2.000
 7050.00    0.38640   0.42814   -2.000
 7051.00    0.50381   0.42752   -2.000
 7052.00    0.64933   0.42668   -2.000
 7053.00    0.65060   0.42530   -2.000
 7054.00    0.50503   0.42447   -2.000
 7055.00    0.39175   0.42365   -2.000
 7056.00    0.37936   0.42249   -2.000
 7057.00    0.38562   0.42171   -2.000
 7058.00    0.37139   0.42092   -2.000
 7059.00    0.36918   0.42004   -2.000
 7060.00    0.38389   0.41939   -2.000
 7061.00    0.38624   0.41873   -2.000
 7062.00    0.37390   0.41824   -2.000
 7063.00    0.37004   0.41793   -2.000
 7064.00    0.37913   0.41757   -2.000
 7065.00    0.39786   0.41720   -2.000
 7066.00    0.46260   0.41720   -2.000
 7067.00    0.60502   0.41706   -2.000
 7068.00    0.74129   0.41666   -2.000
 7069.00    0.74648   0.41688   -2.000
 7070.00    0.63871   0.41691   -2.000
 7071.00    0.53223   0.41684   -2.000
 7072.00    0.48950   0.41711   -2.000
 7073.00    0.48613   0.41667   -2.000
 7074.00    0.40499   0.41668   -2.000
 7075.00    0.18106   0.41686   -2.000
 7076.00    0.00746   0.41599   -2.000
 7077.00    0.10589   0.41583   -2.000
 7078.00    0.37457   0.41562   -2.000
 7079.00    0.56833   0.41451   -2.000
 7080.00    0.59392   0.41415   -2.000
 7081.00    0.50129   0.41334   -2.000
 7082.00    0.41824   0.41213   -2.000
 7083.00    0.42164   0.41165   -2.000
 7084.00    0.41973   0.41027   -2.000
 7085.00    0.34613   0.40909   -2.000
 7086.00    0.34640   0.40875   -2.000
 7087.00    0.50978   0.40745   -2.000
 7088.00    0.63188   0.40666   -2.000
 7089.00    0.54852   0.40640   -2.000
 7090.00    0.41339   0.40534   -2.000
 7091.00    0.39259   0.40506   -2.000
 7092.00    0.42678   0.40490   -2.000
 7093.00    0.46582   0.40432   -2.000
 7094.00    0.61849   0.40460   -2.000
 7095.00    0.86093   0.40443   -2.000
 7096.00    0.89573   0.40435   -2.000
 7097.00    0.61024   0.40489   -2.000
 7098.00    0.30311   0.40472   -2.000
 7099.00    0.22452   0.40508   -2.000
 7100.00    0.32562   0.40545   -2.000
 7101.00    0.44737   0.40529   -2.000
 7102.00    0.45426   0.40572   -2.000
 7103.00    0.34016   0.40572   -2.000
 7104.00    0.23873   0.40563   -2.000
 7105.00    0.23419   0.40596   -2.000
 7106.00    0.29374   0.40570   -2.000
 7107.00    0.36628   0.40558   -2.000
 7108.00    0.41988   0.40548   -2.000
 7109.00    0.41352   0.40526   -2.000
 7110.00    0.30173   0.40520   -2.000
 7111.00    0.09364   0.40484   -2.000
 7112.00   -0.13444   0.40464   -2.000
 7113.00   -0.27176   0.40455   -2.000
 7114.00   -0.22623   0.40442   -2.000
 7115.00   -0.04743   0.40433   -2.000
 7116.00    0.10337   0.40398   -2.000
 7117.00    0.14607   0.40418   -2.000
 7118.00    0.12054   0.40410   -2.000
 7119.00    0.13629   0.40362   -2.000
 7120.00    0.27454   0.40398   -2.000
 7121.00    0.39545   0.40392   -2.000
 7122.00    0.29528   0.40361   -2.000
 7123.00    0.14815   0.40389   -2.000
 7124.00    0.30033   0.40384   -2.000
 7125.00    0.65384   0.40397   -2.000
 7126.00    0.83324   0.40411   -2.000
 7127.00    0.74339   0.40391   -2.000
 7128.00    0.56842   0.40436   -2.000
 7129.00    0.57020   0.40469   -2.000
 7130.00    0.86621   0.40453   -2.000
 7131.00    1.15101   0.40489   -2.000
 7132.00    1.05464   0.40548   -2.000
 7133.00    0.72459   0.40554   -2.000
 7134.00    0.52631   0.40590   -2.000
 7135.00    0.51903   0.40655   -2.000
 7136.00    0.57846   0.40655   -2.000
 7137.00    0.64214   0.40684   -2.000
 7138.00    0.67302   0.40731   -2.000
 7139.00    0.59100   0.40719   -2.000
 7140.00    0.40833   0.40737   -2.000
 7141.00    0.35418   0.40763   -2.000
 7142.00    0.51208   0.40730   -2.000
 7143.00    0.50191   0.40755   -2.000
 7144.00    0.12743   0.40762   -2.000
 7145.00   -0.08487   0.40693   -2.000
 7146.00    0.19809   0.40739   -2.000
 7147.00    0.39981   0.40747   -2.000
 7148.00    0.07171   0.40662   -2.000
 7149.00   -0.34113   0.40710   -2.000
 7150.00   -0.40461   0.40721   -2.000
 7151.00   -0.32386   0.40676   -2.000
 7152.00   -0.31435   0.40719   -2.000
 7153.00   -0.20173   0.40705   -2.000
 7154.00    0.16940   0.40691   -2.000
 7155.00    0.67641   0.40727   -2.000
 7156.00    1.02781   0.40677   -2.000
 7157.00    0.91257   0.40682   -2.000
 7158.00    0.40342   0.40713   -2.000
 7159.00    0.03602   0.40654   -2.000
 7160.00    0.12534   0.40645   -2.000
 7161.00    0.49481   0.40655   -2.000
 7162.00    0.84161   0.40622   -2.000
 7163.00    0.94715   0.40624   -2.000
 7164.00    0.80934   0.40617   -2.000
 7165.00    0.62646   0.40574   -2.000
 7166.00    0.52760   0.40596   -2.000
 7167.00    0.49388   0.40616   -2.000
 7168.00    0.46579   0.40585   -2.000
 7169.00    0.40462   0.40618   -2.000
 7170.00    0.35686   0.40623   -2.000
 7171.00    0.41916   0.40580   -2.000
 7172.00    0.57072   0.40637   -2.000
 7173.00    0.67857   0.40604   -2.000
 7174.00    0.65839   0.40562   -2.000
 7175.00    0.51753   0.40614   -2.000
 7176.00    0.34226   0.40529   -2.000
 7177.00    0.24569   0.40489   -2.000
 7178.00    0.25562   0.40518   -2.000
 7179.00    0.32720   0.40440   -2.000
 7180.00    0.43048   0.40410   -2.000
 7181.00    0.55706   0.40373   -2.000
 7182.00    0.69188   0.40289   -2.000
 7183.00    0.77687   0.40312   -2.000
 7184.00    0.66232   0.40258   -2.000
 7185.00    0.28511   0.40189   -2.000
 7186.00   -0.02863   0.40220   -2.000
 7187.00    0.06166   0.40154   -2.000
 7188.00    0.25870   0.40119   -2.000
 7189.00    0.11250   0.40148   -2.000
 7190.00   -0.14023   0.40125   -2.000
 7191.00   -0.03627   0.40127   -2.000
 7192.00    0.33991   0.40140   -2.000
 7193.00    0.66167   0.40143   -2.000
 7194.00    0.86526   0.40152   -2.000
 7195.00    0.98764   0.40177   -2.000
 7196.00    0.92052   0.40208   -2.000
 7197.00    0.60658   0.40213   -2.000
 7198.00    0.25861   0.40207   -2.000
 7199.00    0.10199   0.40264   -2.000
 7200.00    0.10957   0.40277   -2.000
 7201.00    0.15939   0.40244   -2.000
 7202.00    0.20151   0.40294   -2.000
 7203.00    0.23229   0.40302   -2.000
 7204.00    0.26143   0.40266   -2.000
 7205.00    0.32149   0.40322   -2.000
 7206.00    0.46119   0.40317   -2.000
 7207.00    0.62367   0.40268   -2.000
 7208.00    0.60299   0.40311   -2.000
 7209.00    0.36284   0.40314   -2.000
 7210.00    0.17882   0.40305   -2.000
 7211.00    0.14362   0.40343   -2.000
 7212.00   -0.03812   0.40346   -2.000
 7213.00   -0.39469   0.40352   -2.000
 7214.00   -0.44764   0.40380   -2.000
 7215.00   -0.00943   0.40393   -2.000
 7216.00    0.51727   0.40409   -2.000
 7217.00    0.82320   0.40449   -2.000
 7218.00    0.97337   0.40475   -2.000
