###################################################################
## OUTPUT of StarlightChains_v04.for    [Cid@UFSC - 01/Apr/2007] ##
###################################################################

## Some input info
2014V.txt                                [arq_obs]
Base.CB07.vall.4m                        [arq_base]
Masks.EmLines.NEW.gm                     [arq_masks]
StCv04.C11.config                        [arq_config]
   66                                    [N_base]
    0                                    [N_YAV_components = # of components with extra extinction!]
    0                                    [i_FitPowerLaw (1/0 = Yes/No)]
-9.99                                    [alpha_PowerLaw]
CCM                                      [red_law_option]
 1.458241                                [q_norm = A(l_norm)/A(V)]

## (Re)Sampling Parameters
 3741.00                                 [l_ini (A)]
 7218.00                                 [l_fin (A)]
    1.00                                 [dl    (A)]     (OBS: dl_cushion =    50.00 A)

## Normalization info
 4020.00                                 [l_norm (A) - for base]
 4010.00                                 [llow_norm (A) - window for f_obs]
 4060.00                                 [lupp_norm (A) - window for f_obs]
9.780945E-17                             [fobs_norm (in input units)]

## S/N
 3691.00                                 [llow_SN (A) - window for S/N]
 7268.00                                 [lupp_SN (A) - window for S/N]
   4.330                                 [S/N in S/N window]
   6.265                                 [S/N in norm. window]
  15.149                                 [S/N_err in S/N window]
  21.916                                 [S/N_err in norm. window]
  1.0000                                 [fscale_chi2]

## etc...
    -2007423                             [idum_orig]
  2384                                   [NOl_eff]
  2380                                   [Nl_eff]
     4    NSIGMA                         [Ntot_cliped & clip_method]
  2270310                                [Nglobal_steps]
   7                                     [N_chains]
  30                                     [NEX0s_base = N_base in EX0s-fits]
 0   0   1        0   2.0   4.385E+01    [Clip-Bug, RC-Crash & Burn-In warning-flags, n_censored_weights, wei_nsig_threshold & wei_limit]
    17     16.971     16.475      0.497  [idt_all, wdt_TotTime, wdt_UsrTime & wdt_SysTime (sec)]

## Synthesis Results - Best model ##

 3.72892E-01                             [chi2/Nl_eff]
     3.05486                             [adev (%)]

   105.05968                             [sum-of-x (%)]
 1.05181E-16                             [Flux_tot (units of input spectrum!)]
 7.99055E-13                             [Mini_tot (???)]
 4.15593E-13                             [Mcor_tot (???)]

 -25.75                                  [v0_min  (km/s)]
 138.45                                  [vd_min  (km/s)]
 0.0174                                  [AV_min  (mag)]
 0.0000                                  [YAV_min (mag)]

# j     x_j(%)      Mini_j(%)     Mcor_j(%)     age_j(yr)     Z_j      (L/M)_j    YAV?  Mstars   component_j        a/Fe...       SSP_chi2r SSP_adev(%)   SSP_AV   SSP_x(%)
  1      1.9795     2.2670E-02    4.3588E-02    1.000000E+06  0.00400  1.094E-02    0   1.0000   age020_m42            0.0000     1.7087E+00     6.3765   2.0577    87.5726
  2      0.0065     2.0294E-05    3.9015E-05    3.160000E+06  0.00400  4.007E-02    0   0.9999   age045_m42            0.0000     1.3692E+00     5.9009   1.3542    92.7923
  3      0.0000     0.0000E+00    0.0000E+00    5.010000E+06  0.00400  2.539E-02    0   0.9488   age055_m42            0.0000     1.4451E+00     5.9418   1.6622    90.9666
  4      0.0000     0.0000E+00    0.0000E+00    6.610000E+06  0.00400  2.620E-02    0   0.9220   age061_m42            0.0000     1.2505E+00     5.6704   1.2780    93.1738
  5      0.0000     0.0000E+00    0.0000E+00    1.000000E+07  0.00400  1.322E-02    0   0.8862   age070_m42            0.0000     7.4288E-01     4.2333   0.9555    97.2839
  6      0.0000     0.0000E+00    0.0000E+00    1.445000E+07  0.00400  7.883E-03    0   0.8571   age078_m42            0.0000     8.7780E-01     4.5238   1.2822    94.7491
  7      0.0000     0.0000E+00    0.0000E+00    2.512000E+07  0.00400  5.251E-03    0   0.8174   age090_m42            0.0000     6.7151E-01     4.0410   0.8195    98.1907
  8      0.0000     0.0000E+00    0.0000E+00    4.000000E+07  0.00400  3.649E-03    0   0.7851   age104_m42            0.0000     6.6043E-01     4.0732   0.5987    98.6965
  9      0.0000     0.0000E+00    0.0000E+00    5.500000E+07  0.00400  3.098E-03    0   0.7629   age110_m42            0.0000     8.2878E-01     4.6903   0.7751    97.5467
 10      0.0000     0.0000E+00    0.0000E+00    1.015200E+08  0.00400  2.228E-03    0   0.7207   age116_m42            0.0000     9.4588E-01     5.1161   0.8099    97.0218
 11      0.0000     0.0000E+00    0.0000E+00    2.861200E+08  0.00400  1.093E-03    0   0.6648   age125_m42            0.0000     7.3842E-01     4.5458   0.2337   100.4526
 12      0.0000     0.0000E+00    0.0000E+00    5.088000E+08  0.00400  6.597E-04    0   0.6365   age130_m42            0.0000     9.0292E-01     5.1530   0.2471   100.1003
 13      0.0000     0.0000E+00    0.0000E+00    1.434000E+09  0.00400  2.132E-04    0   0.5798   age139_m42            0.0000     9.0345E-01     5.3130  -0.7082   101.3610
 14      0.0000     0.0000E+00    0.0000E+00    4.250000E+09  0.00400  5.895E-05    0   0.5377   age158_m42            0.0000     1.4297E+00     6.7777  -1.0000    91.3892
 15      0.0000     0.0000E+00    0.0000E+00    7.500000E+09  0.00400  3.510E-05    0   0.5212   age171_m42            0.0000     2.1888E+00     8.2685  -1.0000    83.8168
 16      0.0000     0.0000E+00    0.0000E+00    1.300000E+10  0.00400  2.005E-05    0   0.5034   age193_m42            0.0000     3.2017E+00     9.9157  -1.0000    77.5817
 17      0.0000     0.0000E+00    0.0000E+00    1.800000E+10  0.00400  1.525E-05    0   0.4967   age213_m42            0.0000     3.3430E+00    10.1636  -1.0000    76.4709
 18      0.0000     0.0000E+00    0.0000E+00    1.000000E+06  0.00800  1.238E-02    0   1.0000   age020_m52            0.0000     1.7094E+00     6.3805   2.0546    87.7209
 19      0.0000     0.0000E+00    0.0000E+00    3.160000E+06  0.00800  3.074E-02    0   0.9966   age045_m52            0.0000     1.6930E+00     6.3697   1.9801    88.4083
 20      0.0109     5.1138E-05    9.2845E-05    5.010000E+06  0.00800  2.668E-02    0   0.9443   age055_m52            0.0000     1.4457E+00     5.9346   1.7407    90.3126
 21      0.0000     0.0000E+00    0.0000E+00    6.610000E+06  0.00800  2.136E-02    0   0.9177   age061_m52            0.0000     7.0341E-01     4.1239   0.4572    98.2622
 22      0.8847     9.1234E-03    1.5484E-02    1.000000E+07  0.00800  1.215E-02    0   0.8827   age070_m52            0.0000     6.6531E-01     3.9461   1.1213    97.7550
 23      0.0000     0.0000E+00    0.0000E+00    1.445000E+07  0.00800  8.717E-03    0   0.8552   age078_m52            0.0000     8.0340E-01     4.3537   1.2475    96.1004
 24      0.0000     0.0000E+00    0.0000E+00    2.512000E+07  0.00800  5.592E-03    0   0.8162   age090_m52            0.0000     6.0535E-01     3.8614   0.8824    99.4414
 25      0.0000     0.0000E+00    0.0000E+00    4.000000E+07  0.00800  3.896E-03    0   0.7841   age104_m52            0.0000     6.3459E-01     4.0261   0.8079    99.5786
 26      0.0000     0.0000E+00    0.0000E+00    1.015200E+08  0.00800  2.148E-03    0   0.7226   age116_m52            0.0000     7.9027E-01     4.6024   0.7683    98.2873
 27      0.0216     2.7263E-03    3.5031E-03    2.861200E+08  0.00800  9.925E-04    0   0.6683   age125_m52            0.0000     8.5074E-01     5.0133   0.3112   101.0959
 28      0.0000     0.0000E+00    0.0000E+00    9.047900E+08  0.00800  3.141E-04    0   0.6138   age135_m52            0.0000     1.0972E+00     5.8633  -0.4466   103.2947
 29      0.0000     0.0000E+00    0.0000E+00    1.434000E+09  0.00800  1.719E-04    0   0.5853   age139_m52            0.0000     1.1256E+00     5.9361  -1.0000   100.0697
 30      0.0000     0.0000E+00    0.0000E+00    2.500000E+09  0.00800  7.872E-05    0   0.5600   age150_m52            0.0000     2.1159E+00     8.1916  -1.0000    86.8660
 31      0.0000     0.0000E+00    0.0000E+00    4.250000E+09  0.00800  4.336E-05    0   0.5426   age158_m52            0.0000     2.2320E+00     8.3463  -1.0000    85.4746
 32      0.0000     0.0000E+00    0.0000E+00    6.250000E+09  0.00800  3.159E-05    0   0.5319   age166_m52            0.0000     3.4941E+00    10.3743  -1.0000    78.2583
 33      1.4676     1.3511E+01    1.3178E+01    1.300000E+10  0.00800  1.361E-05    0   0.5073   age193_m52            0.0000     7.7417E+00    15.9445  -1.0000    62.9150
 34      1.7336     2.1972E+01    2.1080E+01    1.800000E+10  0.00800  9.886E-06    0   0.4990   age213_m52            0.0000     8.9496E+00    17.1357  -1.0000    59.5373
 35      2.4532     1.9907E-02    3.8276E-02    1.000000E+06  0.02000  1.544E-02    0   1.0000   age020_m62            0.0000     1.7212E+00     6.4059   2.0504    87.9292
 36      2.7580     9.1854E-03    1.7410E-02    3.160000E+06  0.02000  3.762E-02    0   0.9858   age045_m62            0.0000     1.7241E+00     6.4364   1.9911    88.6197
 37      0.0000     0.0000E+00    0.0000E+00    5.010000E+06  0.02000  3.296E-02    0   0.9342   age055_m62            0.0000     1.4354E+00     6.0420   1.6311    91.7064
 38     46.7370     5.0743E-01    8.6451E-01    8.710000E+06  0.02000  1.154E-02    0   0.8861   age067_m62            0.0000     5.8003E-01     4.0325   0.4911   105.1121
 39      0.5672     9.2732E-03    1.5105E-02    1.445000E+07  0.02000  7.663E-03    0   0.8472   age078_m62            0.0000     4.8618E-01     3.4451   0.7453   101.2690
 40      0.0253     6.9957E-04    1.0894E-03    2.512000E+07  0.02000  4.532E-03    0   0.8099   age090_m62            0.0000     4.8798E-01     3.5000   0.7354   101.1655
 41      0.0000     0.0000E+00    0.0000E+00    5.500000E+07  0.02000  2.733E-03    0   0.7595   age110_m62            0.0000     6.2402E-01     3.9838   0.7884    98.9387
 42      0.0000     0.0000E+00    0.0000E+00    1.609000E+08  0.02000  1.369E-03    0   0.6985   age120_m62            0.0000     8.0080E-01     4.7885   0.6596   100.0713
 43      0.0000     0.0000E+00    0.0000E+00    2.861200E+08  0.02000  9.013E-04    0   0.6714   age125_m62            0.0000     9.0969E-01     5.2318   0.4263   102.1189
 44      0.0000     0.0000E+00    0.0000E+00    5.088000E+08  0.02000  5.028E-04    0   0.6449   age130_m62            0.0000     1.2151E+00     6.2048   0.0863   102.9223
 45      0.0000     0.0000E+00    0.0000E+00    9.047900E+08  0.02000  2.428E-04    0   0.6179   age135_m62            0.0000     1.3246E+00     6.5133  -0.4815   101.4206
 46      1.9523     1.9367E+00    2.1999E+00    1.434000E+09  0.02000  1.263E-04    0   0.5908   age139_m62            0.0000     1.5043E+00     6.8653  -0.9180    99.5386
 47      0.0000     0.0000E+00    0.0000E+00    2.500000E+09  0.02000  5.985E-05    0   0.5673   age150_m62            0.0000     2.4694E+00     8.8243  -1.0000    87.0955
 48      0.0000     0.0000E+00    0.0000E+00    4.250000E+09  0.02000  3.271E-05    0   0.5468   age158_m62            0.0000     4.4792E+00    11.7385  -1.0000    75.5767
 49      0.2858     2.6328E+00    2.6155E+00    1.000000E+10  0.02000  1.360E-05    0   0.5167   age181_m62            0.0000     7.7081E+00    15.6612  -1.0000    64.3030
 50      0.8418     1.4805E+01    1.4270E+01    1.800000E+10  0.02000  7.124E-06    0   0.5013   age213_m62            0.0000     1.0025E+01    18.0122  -1.0000    57.8820
 51      5.6042     2.7090E-02    5.2074E-02    1.000000E+06  0.05000  2.592E-02    0   0.9998   age020_m72            0.0000     1.7408E+00     6.4518   2.0385    88.0870
 52      0.0054     1.4055E-05    2.5880E-05    3.160000E+06  0.05000  4.845E-02    0   0.9577   age045_m72            0.0000     1.6691E+00     6.3888   1.8846    89.3798
 53      0.1521     6.2029E-04    1.0909E-03    5.010000E+06  0.05000  3.072E-02    0   0.9147   age055_m72            0.0000     8.3079E-01     4.3305   1.3593    95.9036
 54      8.8473     7.6185E-02    1.3003E-01    6.610000E+06  0.05000  1.455E-02    0   0.8877   age061_m72            0.0000     1.3816E+00     6.1581   0.5192   107.4960
 55      0.0039     5.3377E-05    8.7480E-05    1.000000E+07  0.05000  9.074E-03    0   0.8524   age070_m72            0.0000     1.1217E+00     5.0233   1.5529    95.3050
 56      0.0000     0.0000E+00    0.0000E+00    2.512000E+07  0.05000  4.250E-03    0   0.7902   age090_m72            0.0000     8.1078E-01     4.3837   1.2497    97.2324
 57      0.0000     0.0000E+00    0.0000E+00    4.000000E+07  0.05000  3.087E-03    0   0.7618   age104_m72            0.0000     7.2801E-01     4.2713   1.0171    99.1577
 58      0.0000     0.0000E+00    0.0000E+00    1.015200E+08  0.05000  1.700E-03    0   0.7096   age116_m72            0.0000     7.1746E-01     4.4534   0.7879   100.3942
 59      5.8087     9.8563E-01    1.2570E+00    2.861200E+08  0.05000  7.384E-04    0   0.6633   age125_m72            0.0000     1.0275E+00     5.6527   0.3140   102.5382
 60     14.6745     4.8143E+00    5.8982E+00    5.088000E+08  0.05000  3.819E-04    0   0.6372   age130_m72            0.0000     1.2956E+00     6.5339  -0.1493   102.7016
 61      4.7686     3.5648E+00    4.1878E+00    9.047900E+08  0.05000  1.676E-04    0   0.6110   age135_m72            0.0000     1.9330E+00     7.8990  -0.8015    98.7673
 62      2.0969     2.9730E+00    3.3576E+00    1.434000E+09  0.05000  8.837E-05    0   0.5874   age139_m72            0.0000     2.5760E+00     9.0147  -1.0000    88.3428
 63      0.0000     0.0000E+00    0.0000E+00    2.500000E+09  0.05000  4.233E-05    0   0.5598   age150_m72            0.0000     4.6078E+00    11.8909  -1.0000    76.1745
 64      0.0000     0.0000E+00    0.0000E+00    6.250000E+09  0.05000  1.435E-05    0   0.5249   age166_m72            0.0000     8.7786E+00    16.8176  -1.0000    61.2313
 65      0.6974     1.3417E+01    1.2991E+01    1.300000E+10  0.05000  6.513E-06    0   0.5036   age193_m72            0.0000     1.2066E+01    19.8806  -1.0000    54.2116
 66      0.6758     1.8704E+01    1.7783E+01    1.800000E+10  0.05000  4.527E-06    0   0.4945   age213_m72            0.0000     1.4114E+01    21.5411  -1.0000    50.1196


## Synthesis Results - Average & Chains ##

# j      x_j: min, <> & last-chain-values for 1 ...  7 chains
  1      1.9795      0.7914      0.6509      0.8291      0.7155      0.9711      2.4385      0.5666      1.0555
  2      0.0065      0.2377      0.5765      0.0693      0.0000      0.0000      0.0000      0.0000      0.0000
  3      0.0000      0.6518      0.0000      1.0168      0.5729      0.2824      0.5511      0.6781      0.0000
  4      0.0000      0.4584      0.2950      0.3035      0.0000      0.0668      1.3417      0.0000      0.0000
  5      0.0000      0.5212      0.0000      0.0000      0.3290      0.0000      0.0000      1.3012      2.7166
  6      0.0000      0.3627      0.6074      0.3594      0.0000      1.6460      0.0000      0.0000      0.0000
  7      0.0000      0.4958      0.3854      0.0000      0.0000      0.0000      0.3179      0.0000      0.0000
  8      0.0000      0.5360      0.0086      0.8524      0.0000      0.0000      0.4909      0.0000      0.0000
  9      0.0000      0.4686      0.3519      0.0000      0.0000      0.0000      0.0000      0.0000      0.8401
 10      0.0000      0.5717      0.3590      0.8149      0.3671      0.0000      0.0000      0.0000      0.0000
 11      0.0000      0.5930      0.1804      0.0000      0.0000      0.0000      0.0000      0.1228      0.0000
 12      0.0000      0.5037      0.0000      0.0000      0.0000      0.0000      0.0000      0.0000      0.3911
 13      0.0000      0.1389      0.0000      0.0000      0.0000      0.0000      0.0000      0.0000      0.0000
 14      0.0000      0.2084      1.1448      0.0000      0.5323      0.1907      0.0000      0.0000      0.0261
 15      0.0000      0.1845      0.0000      0.0000      0.0000      0.7841      0.0000      0.0000      0.0000
 16      0.0000      0.0334      0.0000      0.0000      0.0596      0.0000      0.2476      0.0000      0.0000
 17      0.0000      0.0567      0.0000      0.0000      0.0692      0.0000      0.0000      0.8272      0.0000
 18      0.0000      0.3575      0.0000      0.7427      0.9248      0.0000      0.6818      1.9931      0.0000
 19      0.0000      0.3092      0.0000      0.0000      1.2716      0.0115      0.0000      0.7401      2.9018
 20      0.0109      0.3223      0.4250      0.0000      0.9378      0.4829      0.0000      0.0000      0.0000
 21      0.0000      1.3631      0.0000      0.0000      3.8646      1.8799      1.3154      0.0000      0.0000
 22      0.8847      0.5505      1.2805      0.0000      2.4528      0.6136      0.0000      0.4211      0.0000
 23      0.0000      0.6639      0.0000      0.8412      0.0000      1.0194      1.3884      1.4876      0.0000
 24      0.0000      0.5132      0.0000      1.6842      0.8159      1.0223      0.5141      0.0000      0.0000
 25      0.0000      0.6266      0.0813      2.2285      0.0000      0.0000      0.0000      1.2191      0.0478
 26      0.0000      0.6308      2.7531      0.5000      1.1613      0.0000      1.6155      0.9399      0.6891
 27      0.0216      0.7792      0.8377      0.0000      0.0000      0.0000      0.0000      0.8417      0.0615
 28      0.0000      0.3546      0.0000      0.4347      0.0000      1.0924      0.4548      0.0832      0.0000
 29      0.0000      0.1182      0.0000      0.0000      0.9255      0.0000      0.0000      0.0000      0.3916
 30      0.0000      0.1535      0.6137      0.0000      0.0000      0.0000      0.0000      0.0000      0.0000
 31      0.0000      0.1623      0.0000      0.0000      0.0000      0.0000      0.0000      0.0000      0.8411
 32      0.0000      0.0219      0.2360      0.0000      0.2996      0.0000      0.0000      0.0000      0.0000
 33      1.4676      0.3788      1.0894      0.5367      0.2622      0.4512      0.4940      0.1347      0.0000
 34      1.7336      0.1204      0.8084      0.0000      0.0000      0.2595      0.2618      0.0000      0.0000
 35      2.4532      0.6833      1.7617      1.7352      1.1333      1.1388      0.0000      0.5716      0.5233
 36      2.7580      0.3044      0.6593      0.0000      0.0000      0.0000      0.0000      0.4761      0.0000
 37      0.0000      0.3006      0.0000      0.0000      0.0000      0.0000      0.0000      0.1961      0.8777
 38     46.7370     47.4133     43.8664     49.9828     45.6832     49.6584     49.0526     50.4678     50.5714
 39      0.5672      1.8690      3.8576      1.2742      1.7893      0.2692      1.6003      0.8686      2.7761
 40      0.0253      1.0795      1.7035      1.9301      1.2382      0.0490      0.0000      0.0000      0.2608
 41      0.0000      0.8937      0.0000      0.0000      0.0000      0.0087      0.0000      1.2295      2.2427
 42      0.0000      0.4639      0.0000      0.0000      0.0324      0.9129      0.0000      0.0000      0.0000
 43      0.0000      0.9090      0.0000      0.3615      2.0842      2.4666      0.0000      1.3119      0.0000
 44      0.0000      1.0944      0.0963      2.5979      0.5169      0.6555      3.3571      1.8811      0.0000
 45      0.0000      0.5772      0.0000      0.0000      0.0000      1.4443      1.0467      0.0000      0.5022
 46      1.9523      2.4993      1.6359      3.4210      2.4494      2.6396      2.2779      4.1630      3.3721
 47      0.0000      0.0876      0.0000      0.0000      0.1871      0.3025      0.0000      0.0000      0.0000
 48      0.0000      0.0755      0.0000      0.0000      0.0000      0.0000      0.0000      0.0000      0.5959
 49      0.2858      0.0908      0.4788      0.0000      0.0000      0.0000      0.3242      0.0000      0.0000
 50      0.8418      0.0614      0.7428      0.0000      0.0000      0.0000      0.0000      0.0000      0.0000
 51      5.6042      0.8766      3.3425      0.5524      1.3168      2.2968      0.6476      1.6872      0.1382
 52      0.0054      0.1816      0.8179      0.1538      0.0000      0.0000      0.9689      0.0000      0.0000
 53      0.1521      0.4014      1.2893      0.0000      1.2990      0.6926      1.1538      0.0000      0.0000
 54      8.8473      8.6213      8.0522      8.6385      9.5927      9.0726     10.0380      8.0275      9.5784
 55      0.0039      0.2601      1.1902      0.1694      0.0219      0.3454      0.0000      0.2848      0.0000
 56      0.0000      0.4719      0.0000      0.0000      0.0000      0.0000      0.8263      0.0000      0.0000
 57      0.0000      0.4442      0.0000      0.0000      0.0000      0.0000      0.0000      0.8593      0.0000
 58      0.0000      0.5916      0.0000      0.0000      0.0000      1.6802      0.0000      0.1784      0.0000
 59      5.8087      1.7402      4.5776      2.7230      4.7583      1.5031      2.3685      2.4304      3.3704
 60     14.6745     11.2643     12.7794     10.9229      8.6030     11.3850     12.1709     10.2764     11.7760
 61      4.7686      3.7059      2.6771      5.3601      4.2748      3.9345      3.5982      4.6720      3.7706
 62      2.0969      2.4887      1.3833      2.6902      2.9180      2.7054      2.4532      2.7195      3.9874
 63      0.0000      0.0491      0.0000      0.0000      0.0000      0.0000      0.0000      0.0000      0.0000
 64      0.0000      0.0095      0.0000      0.0000      0.0000      0.0000      0.0000      0.0000      0.0000
 65      0.6974      0.1262      0.8683      0.0000      0.4085      0.0000      0.0000      0.2543      0.0000
 66      0.6758      0.5142      0.4131      0.6184      0.7247      0.3761      0.6133      0.6132      0.1268

# j      m_j: min, <> & last-chain-values for 1 ...  7 chains
  1  4.3588E-02  3.9479E-02  1.7384E-02  4.3878E-02  3.0806E-02  5.3086E-02  1.1512E-01  2.5507E-02  7.8673E-02
  2  3.9015E-05  3.2370E-03  4.2037E-03  1.0007E-03  0.0000E+00  0.0000E+00  0.0000E+00  0.0000E+00  0.0000E+00
  3  0.0000E+00  1.3292E-02  0.0000E+00  2.1999E-02  1.0085E-02  6.3098E-03  1.0635E-02  1.2480E-02  0.0000E+00
  4  0.0000E+00  8.8024E-03  3.0337E-03  6.1837E-03  0.0000E+00  1.4048E-03  2.4384E-02  0.0000E+00  0.0000E+00
  5  0.0000E+00  1.9065E-02  0.0000E+00  0.0000E+00  1.0389E-02  0.0000E+00  0.0000E+00  4.2962E-02  1.4849E-01
  6  0.0000E+00  2.1520E-02  1.9298E-02  2.2625E-02  0.0000E+00  1.0703E-01  0.0000E+00  0.0000E+00  0.0000E+00
  7  0.0000E+00  4.2118E-02  1.7531E-02  0.0000E+00  0.0000E+00  0.0000E+00  2.5554E-02  0.0000E+00  0.0000E+00
  8  0.0000E+00  6.2939E-02  5.4267E-04  1.0618E-01  0.0000E+00  0.0000E+00  5.4543E-02  0.0000E+00  0.0000E+00
  9  0.0000E+00  6.2978E-02  2.5322E-02  0.0000E+00  0.0000E+00  0.0000E+00  0.0000E+00  0.0000E+00  1.6869E-01
 10  0.0000E+00  1.0093E-01  3.3934E-02  1.5262E-01  5.5928E-02  0.0000E+00  0.0000E+00  0.0000E+00  0.0000E+00
 11  0.0000E+00  1.9684E-01  3.2070E-02  0.0000E+00  0.0000E+00  0.0000E+00  0.0000E+00  3.6791E-02  0.0000E+00
 12  0.0000E+00  2.6519E-01  0.0000E+00  0.0000E+00  0.0000E+00  0.0000E+00  0.0000E+00  0.0000E+00  3.0769E-01
 13  0.0000E+00  2.0617E-01  0.0000E+00  0.0000E+00  0.0000E+00  0.0000E+00  0.0000E+00  0.0000E+00  0.0000E+00
 14  0.0000E+00  1.0373E+00  3.0512E+00  0.0000E+00  2.2871E+00  1.0404E+00  0.0000E+00  0.0000E+00  1.9437E-01
 15  0.0000E+00  1.4951E+00  0.0000E+00  0.0000E+00  0.0000E+00  6.9628E+00  0.0000E+00  0.0000E+00  0.0000E+00
 16  0.0000E+00  4.5769E-01  0.0000E+00  0.0000E+00  7.0429E-01  0.0000E+00  3.2108E+00  0.0000E+00  0.0000E+00
 17  0.0000E+00  1.0083E+00  0.0000E+00  0.0000E+00  1.0616E+00  0.0000E+00  0.0000E+00  1.3270E+01  0.0000E+00
 18  0.0000E+00  1.5759E-02  0.0000E+00  3.4734E-02  3.5184E-02  0.0000E+00  2.8441E-02  7.9293E-02  0.0000E+00
 19  0.0000E+00  5.4707E-03  0.0000E+00  0.0000E+00  1.9418E-02  2.2306E-04  0.0000E+00  1.1818E-02  7.6711E-02
 20  9.2845E-05  6.2244E-03  4.3956E-03  0.0000E+00  1.5634E-02  1.0222E-02  0.0000E+00  0.0000E+00  0.0000E+00
 21  0.0000E+00  3.1960E-02  0.0000E+00  0.0000E+00  7.8205E-02  4.8301E-02  2.9186E-02  0.0000E+00  0.0000E+00
 22  1.5484E-02  2.1826E-02  2.7183E-02  0.0000E+00  8.3934E-02  2.6660E-02  0.0000E+00  1.5068E-02  0.0000E+00
 23  0.0000E+00  3.5542E-02  0.0000E+00  4.7780E-02  0.0000E+00  5.9806E-02  7.0347E-02  7.1879E-02  0.0000E+00
 24  0.0000E+00  4.0875E-02  0.0000E+00  1.4232E-01  5.6094E-02  8.9232E-02  3.8754E-02  0.0000E+00  0.0000E+00
 25  0.0000E+00  6.8825E-02  4.7800E-03  2.5966E-01  0.0000E+00  0.0000E+00  0.0000E+00  1.2084E-01  7.8400E-03
 26  0.0000E+00  1.1581E-01  2.7062E-01  9.7378E-02  1.8402E-01  0.0000E+00  2.8068E-01  1.5572E-01  1.8904E-01
 27  3.5031E-03  2.8633E-01  1.6481E-01  0.0000E+00  0.0000E+00  0.0000E+00  0.0000E+00  2.7914E-01  3.3751E-02
 28  0.0000E+00  3.7820E-01  0.0000E+00  4.9184E-01  0.0000E+00  1.2767E+00  4.5904E-01  8.0079E-02  0.0000E+00
 29  0.0000E+00  2.1963E-01  0.0000E+00  0.0000E+00  1.4842E+00  0.0000E+00  0.0000E+00  0.0000E+00  1.0872E+00
 30  0.0000E+00  5.9576E-01  1.2756E+00  0.0000E+00  0.0000E+00  0.0000E+00  0.0000E+00  0.0000E+00  0.0000E+00
 31  0.0000E+00  1.1080E+00  0.0000E+00  0.0000E+00  0.0000E+00  0.0000E+00  0.0000E+00  0.0000E+00  8.5824E+00
 32  0.0000E+00  2.0102E-01  1.1612E+00  0.0000E+00  2.3758E+00  0.0000E+00  0.0000E+00  0.0000E+00  0.0000E+00
 33  1.3178E+01  7.7062E+00  1.1865E+01  1.1581E+01  4.6037E+00  1.0057E+01  9.5095E+00  2.4724E+00  0.0000E+00
 34  2.1080E+01  3.3169E+00  1.1923E+01  0.0000E+00  0.0000E+00  7.8324E+00  6.8237E+00  0.0000E+00  0.0000E+00
 35  3.8276E-02  2.4152E-02  3.3340E-02  6.5067E-02  3.4574E-02  4.4108E-02  0.0000E+00  1.8233E-02  2.7636E-02
 36  1.7410E-02  4.3523E-03  5.0481E-03  0.0000E+00  0.0000E+00  0.0000E+00  0.0000E+00  6.1442E-03  0.0000E+00
 37  0.0000E+00  4.6494E-03  0.0000E+00  0.0000E+00  0.0000E+00  0.0000E+00  0.0000E+00  2.7369E-03  2.0284E-02
 38  8.6451E-01  1.9868E+00  9.8420E-01  2.2220E+00  1.6522E+00  2.2803E+00  1.9452E+00  1.9086E+00  3.1663E+00
 39  1.5105E-02  1.1276E-01  1.2462E-01  8.1557E-02  9.3175E-02  1.7795E-02  9.1372E-02  4.7299E-02  2.5026E-01
 40  1.0894E-03  1.0528E-01  8.8953E-02  1.9970E-01  1.0422E-01  5.2418E-03  0.0000E+00  0.0000E+00  3.8000E-02
 41  0.0000E+00  1.3554E-01  0.0000E+00  0.0000E+00  0.0000E+00  1.4413E-03  0.0000E+00  1.6828E-01  5.0819E-01
 42  0.0000E+00  1.2916E-01  0.0000E+00  0.0000E+00  7.7856E-03  2.7855E-01  0.0000E+00  0.0000E+00  0.0000E+00
 43  0.0000E+00  3.6952E-01  0.0000E+00  1.5592E-01  7.3127E-01  1.0988E+00  0.0000E+00  4.8134E-01  0.0000E+00
 44  0.0000E+00  7.6600E-01  3.6102E-02  1.9291E+00  3.1226E-01  5.0283E-01  2.2237E+00  1.1884E+00  0.0000E+00
 45  0.0000E+00  8.0168E-01  0.0000E+00  0.0000E+00  0.0000E+00  2.1981E+00  1.3757E+00  0.0000E+00  1.0421E+00
 46  2.1999E+00  6.3801E+00  2.2360E+00  9.2648E+00  5.3968E+00  7.3840E+00  5.5029E+00  9.5911E+00  1.2862E+01
 47  0.0000E+00  4.5323E-01  0.0000E+00  0.0000E+00  8.3528E-01  1.7146E+00  0.0000E+00  0.0000E+00  0.0000E+00
 48  0.0000E+00  6.8896E-01  0.0000E+00  0.0000E+00  0.0000E+00  0.0000E+00  0.0000E+00  0.0000E+00  8.1220E+00
 49  2.6155E+00  1.8827E+00  5.3157E+00  0.0000E+00  0.0000E+00  0.0000E+00  6.3616E+00  0.0000E+00  0.0000E+00
 50  1.4270E+01  2.3586E+00  1.5272E+01  0.0000E+00  0.0000E+00  0.0000E+00  0.0000E+00  0.0000E+00  0.0000E+00
 51  5.2074E-02  1.8452E-02  3.7673E-02  1.2335E-02  2.3924E-02  5.2982E-02  1.2900E-02  3.2053E-02  4.3453E-03
 52  2.5880E-05  1.9586E-03  4.7239E-03  1.7599E-03  0.0000E+00  0.0000E+00  9.8916E-03  0.0000E+00  0.0000E+00
 53  1.0909E-03  6.5219E-03  1.1217E-02  0.0000E+00  1.8218E-02  1.2333E-02  1.7743E-02  0.0000E+00  0.0000E+00
 54  1.3003E-01  2.8704E-01  1.4355E-01  3.0514E-01  2.7566E-01  3.3102E-01  3.1629E-01  2.4122E-01  4.7651E-01
 55  8.7480E-05  1.3335E-02  3.2669E-02  9.2111E-03  9.6699E-04  1.9403E-02  0.0000E+00  1.3178E-02  0.0000E+00
 56  0.0000E+00  4.7877E-02  0.0000E+00  0.0000E+00  0.0000E+00  0.0000E+00  7.9341E-02  0.0000E+00  0.0000E+00
 57  0.0000E+00  5.9824E-02  0.0000E+00  0.0000E+00  0.0000E+00  0.0000E+00  0.0000E+00  1.0445E-01  0.0000E+00
 58  0.0000E+00  1.3477E-01  0.0000E+00  0.0000E+00  0.0000E+00  4.1941E-01  0.0000E+00  3.6671E-02  0.0000E+00
 59  1.2570E+00  8.5306E-01  1.2015E+00  1.4162E+00  2.0133E+00  8.0745E-01  1.0988E+00  1.0753E+00  2.4687E+00
 60  5.8982E+00  1.0256E+01  6.2303E+00  1.0552E+01  6.7609E+00  1.1360E+01  1.0488E+01  8.4450E+00  1.6021E+01
 61  4.1878E+00  7.3727E+00  2.8517E+00  1.1313E+01  7.3404E+00  8.5778E+00  6.7746E+00  8.3888E+00  1.1209E+01
 62  3.3576E+00  9.0274E+00  2.6868E+00  1.0353E+01  9.1358E+00  1.0754E+01  8.4214E+00  8.9033E+00  2.1612E+01
 63  0.0000E+00  3.5425E-01  0.0000E+00  0.0000E+00  0.0000E+00  0.0000E+00  0.0000E+00  0.0000E+00  0.0000E+00
 64  0.0000E+00  1.8896E-01  0.0000E+00  0.0000E+00  0.0000E+00  0.0000E+00  0.0000E+00  0.0000E+00  0.0000E+00
 65  1.2991E+01  5.3241E+00  1.9618E+01  0.0000E+00  1.4879E+01  0.0000E+00  0.0000E+00  9.6832E+00  0.0000E+00
 66  1.7783E+01  3.0654E+01  1.3185E+01  3.9110E+01  3.7288E+01  2.4568E+01  3.4600E+01  3.2991E+01  1.1297E+01

# AV, chi2 & Mass for <> & i_chain = 1 ...  7 solutions
AV       0.0174      0.1731      0.0927      0.1656      0.1585      0.1612      0.1694      0.1590      0.1627
chi2 3.7289E-01  3.8502E-01  3.7866E-01  3.8284E-01  3.8297E-01  3.8301E-01  3.8294E-01  3.8236E-01  3.8290E-01
Mass 4.1559E-13  2.2614E-13  3.7911E-13  2.1102E-13  2.5691E-13  2.0310E-13  2.3777E-13  2.4587E-13  1.4925E-13
 -25.75                                  [v0_min (km/s) before EX0s...]
 138.45                                  [vd_min (km/s) before EX0s...]


## Synthetic spectrum (Best Model) ##l_obs f_obs f_syn wei
 3478    [Nl_obs]
 3741.00    0.88331   0.93010    0.000
 3742.00    0.89074   0.92876    0.000
 3743.00    0.89461   0.91586    0.000
 3744.00    0.89557   0.89312    0.000
 3745.00    0.87110   0.86174    5.490
 3746.00    0.81328   0.82312    5.795
 3747.00    0.75402   0.78045    6.129
 3748.00    0.72689   0.74158    6.262
 3749.00    0.73853   0.71814    6.268
 3750.00    0.77202   0.71952    6.287
 3751.00    0.79568   0.74631    6.316
 3752.00    0.79615   0.79005    6.325
 3753.00    0.79291   0.83817    6.313
 3754.00    0.80817   0.87967    6.274
 3755.00    0.84774   0.90875    6.180
 3756.00    0.89301   0.92449    6.065
 3757.00    0.90758   0.93092    6.030
 3758.00    0.88397   0.93345    6.120
 3759.00    0.85496   0.93636    6.288
 3760.00    0.84802   0.94054    6.418
 3761.00    0.86614   0.94368    6.378
 3762.00    0.89218   0.94302    6.228
 3763.00    0.89951   0.93615    6.186
 3764.00    0.88210   0.92121    6.325
 3765.00    0.85659   0.89662    6.541
 3766.00    0.83387   0.86260    6.681
 3767.00    0.81324   0.82176    6.641
 3768.00    0.79350   0.77969    6.530
 3769.00    0.77845   0.74558    6.562
 3770.00    0.78165   0.73017    6.736
 3771.00    0.81405   0.73931    6.875
 3772.00    0.85117   0.76982    6.952
 3773.00    0.85105   0.81234    7.093
 3774.00    0.81294   0.85667    7.307
 3775.00    0.77179   0.89648    7.488
 3776.00    0.75816   0.93022    7.625
 3777.00    0.78618   0.95856    7.757
 3778.00    0.84767   0.98292    7.749
 3779.00    0.91771   1.00381    7.484
 3780.00    0.96710   1.02034    7.224
 3781.00    0.97582   1.03145    7.265
 3782.00    0.95055   1.03659    7.539
 3783.00    0.91647   1.03556    7.788
 3784.00    0.90033   1.02868    7.923
 3785.00    0.91548   1.01702    7.968
 3786.00    0.94643   1.00289    7.840
 3787.00    0.96670   0.98827    7.539
 3788.00    0.96376   0.97403    7.332
 3789.00    0.94149   0.95935    7.384
 3790.00    0.91748   0.94229    7.468
 3791.00    0.89821   0.92047    7.394
 3792.00    0.85780   0.89124    7.470
 3793.00    0.78633   0.85281    7.904
 3794.00    0.73128   0.80599    8.172
 3795.00    0.72871   0.75545    7.818
 3796.00    0.74642   0.71037    7.445
 3797.00    0.75010   0.68330    7.518
 3798.00    0.75505   0.68400    7.819
 3799.00    0.77826   0.71307    7.989
 3800.00    0.80365   0.76175    7.970
 3801.00    0.81174   0.81684    7.909
 3802.00    0.80133   0.86671    7.979
 3803.00    0.78692   0.90484    8.177
 3804.00    0.79218   0.93012    8.250
 3805.00    0.82654   0.94618    8.092
 3806.00    0.87633   0.95997    7.939
 3807.00    0.92943   0.97657    7.955
 3808.00    0.98532   0.99599    8.086
 3809.00    1.03892   1.01428    8.231
 3810.00    1.07641   1.02610    8.318
 3811.00    1.09316   1.02860    8.298
 3812.00    1.09698   1.02284    8.176
 3813.00    1.08867   1.01277    8.084
 3814.00    1.06019   1.00198    8.213
 3815.00    1.01757   0.99146    8.521
 3816.00    0.98094   0.97915    8.699
 3817.00    0.95547   0.96212    8.658
 3818.00    0.93004   0.94189    8.628
 3819.00    0.90381   0.92692    8.695
 3820.00    0.88835   0.92452    8.754
 3821.00    0.88963   0.93393    8.751
 3822.00    0.90229   0.94715    8.738
 3823.00    0.90932   0.95452    8.799
 3824.00    0.89536   0.95251    8.955
 3825.00    0.87693   0.94313    8.975
 3826.00    0.88166   0.92974    8.619
 3827.00    0.88918   0.91375    8.221
 3828.00    0.85880   0.89383    8.223
 3829.00    0.80849   0.86757    8.496
 3830.00    0.79008   0.83256    8.555
 3831.00    0.81542   0.78826    8.248
 3832.00    0.85949   0.73809    7.819
 3833.00    0.88923   0.68950    7.551
 3834.00    0.88353   0.65331    7.584
 3835.00    0.85490   0.63962    7.799
 3836.00    0.82854   0.65139    7.963
 3837.00    0.80908   0.68409    8.013
 3838.00    0.79187   0.72932    8.040
 3839.00    0.78272   0.77814    8.152
 3840.00    0.78883   0.82497    8.397
 3841.00    0.80575   0.86690    8.689
 3842.00    0.82791   0.90224    8.862
 3843.00    0.86025   0.93055    8.806
 3844.00    0.90300   0.95226    8.597
 3845.00    0.93761   0.96840    8.509
 3846.00    0.95151   0.98025    8.687
 3847.00    0.95962   0.98836    0.000
 3848.00    0.98079   0.99344    0.000
 3849.00    1.01644   0.99707    0.000
 3850.00    1.05200   1.00142    0.000
 3851.00    1.06276   1.00687    0.000
 3852.00    1.03972   1.01146    0.000
 3853.00    1.00381   1.01326    0.000
 3854.00    0.97799   1.01148    0.000
 3855.00    0.96874   1.00778    0.000
 3856.00    0.96887   1.00497    0.000
 3857.00    0.96278   1.00344    0.000
 3858.00    0.94170   1.00299    0.000
 3859.00    0.91181   1.00392    0.000
 3860.00    0.89259   1.00648    0.000
 3861.00    0.90897   1.01006    0.000
 3862.00    0.96143   1.01310    0.000
 3863.00    1.02029   1.01417    0.000
 3864.00    1.06044   1.01313    0.000
 3865.00    1.07461   1.01094    0.000
 3866.00    1.06567   1.00881    0.000
 3867.00    1.04127   1.00778    0.000
 3868.00    1.00682   1.00645    0.000
 3869.00    0.96638   1.00190    0.000
 3870.00    0.93329   0.99319    0.000
 3871.00    0.92703   0.98256    0.000
 3872.00    0.95388   0.97478    0.000
 3873.00    1.00176   0.97163    0.000
 3874.00    1.04283   0.97046    0.000
 3875.00    1.04914   0.96736    0.000
 3876.00    1.02783   0.96058    0.000
 3877.00    1.00889   0.95101    0.000
 3878.00    0.99811   0.94120    0.000
 3879.00    0.98107   0.93136    0.000
 3880.00    0.95399   0.91895    0.000
 3881.00    0.92406   0.90200    9.846
 3882.00    0.89758   0.87951   10.017
 3883.00    0.87956   0.85016    9.929
 3884.00    0.87665   0.81236    9.777
 3885.00    0.89364   0.76627    9.824
 3886.00    0.92706   0.71607   10.045
 3887.00    0.96697   0.67080   -1.000
 3888.00    1.00102   0.64318   -1.000
 3889.00    1.01340   0.64289   -1.000
 3890.00    0.98419   0.66977   -1.000
 3891.00    0.91193   0.71503   11.278
 3892.00    0.83855   0.76594   12.079
 3893.00    0.80979   0.81214   12.338
 3894.00    0.82842   0.84947   12.164
 3895.00    0.87034   0.87831   11.980
 3896.00    0.90819   0.90035   11.784
 3897.00    0.92689   0.91700   11.502
 3898.00    0.93392   0.93048   11.309
 3899.00    0.93650   0.94331   11.305
 3900.00    0.92411   0.95647   11.298
 3901.00    0.89808   0.96850   11.166
 3902.00    0.89137   0.97744   11.095
 3903.00    0.92708   0.98269   11.143
 3904.00    0.98910   0.98517   11.011
 3905.00    1.04126   0.98802   10.647
 3906.00    1.04761   0.99412   10.489
 3907.00    1.00824   1.00356   10.711
 3908.00    0.97079   1.01441   10.951
 3909.00    0.97066   1.02346   10.917
 3910.00    1.00064   1.02837   10.766
 3911.00    1.03655   1.02936   10.635
 3912.00    1.05478   1.02799   10.459
 3913.00    1.04623   1.02565   10.292
 3914.00    1.01939   1.02263   10.357
 3915.00    0.98490   1.01762   10.668
 3916.00    0.94895   1.00939   10.945
 3917.00    0.91496   0.99769   11.040
 3918.00    0.88565   0.98449   11.096
 3919.00    0.86729   0.97387   11.166
 3920.00    0.86962   0.96927   11.122
 3921.00    0.89996   0.97069   10.882
 3922.00    0.95696   0.97432   10.503
 3923.00    1.01847   0.97571   10.165
 3924.00    1.05059   0.97176   10.055
 3925.00    1.04287   0.96240   10.198
 3926.00    1.00954   0.95039   10.477
 3927.00    0.96650   0.93744   10.714
 3928.00    0.92581   0.92387   10.748
 3929.00    0.89721   0.90865   10.602
 3930.00    0.88195   0.89050   10.445
 3931.00    0.85960   0.87022   10.443
 3932.00    0.80913   0.85164   10.662
 3933.00    0.75428   0.84110   10.924
 3934.00    0.73685   0.84324   10.982
 3935.00    0.75334   0.85811   10.992
 3936.00    0.77471   0.88170   11.228
 3937.00    0.79754   0.90781   11.454
 3938.00    0.83162   0.93147   11.304
 3939.00    0.86893   0.94967   11.129
 3940.00    0.89531   0.96102   11.389
 3941.00    0.91284   0.96620   11.772
 3942.00    0.93090   0.96704   11.694
 3943.00    0.95091   0.96649   11.325
 3944.00    0.96851   0.96790   11.132
 3945.00    0.97858   0.97199   11.210
 3946.00    0.97671   0.97674   11.471
 3947.00    0.96065   0.98049   11.814
 3948.00    0.93626   0.98266   12.089
 3949.00    0.92151   0.98344   12.091
 3950.00    0.92969   0.98304   11.799
 3951.00    0.95492   0.98106   11.510
 3952.00    0.98438   0.97756   11.456
 3953.00    1.00951   0.97280   11.580
 3954.00    1.02487   0.96699   11.714
 3955.00    1.02688   0.96049   11.705
 3956.00    1.01555   0.95373   11.563
 3957.00    0.99501   0.94623   11.494
 3958.00    0.96827   0.93615   11.568
 3959.00    0.93464   0.92067   11.592
 3960.00    0.89517   0.89803    0.000
 3961.00    0.85516   0.86942    0.000
 3962.00    0.81920   0.83660    0.000
 3963.00    0.78890   0.80030    0.000
 3964.00    0.76562   0.76092    0.000
 3965.00    0.75213   0.71745    0.000
 3966.00    0.75339   0.66975    0.000
 3967.00    0.77524   0.62170    0.000
 3968.00    0.81739   0.58099    0.000
 3969.00    0.86922   0.55795    0.000
 3970.00    0.90568   0.56059    0.000
 3971.00    0.89793   0.58860    0.000
 3972.00    0.85451   0.63479    0.000
 3973.00    0.81867   0.68942    0.000
 3974.00    0.81379   0.74349    0.000
 3975.00    0.83208   0.79178    0.000
 3976.00    0.85537   0.83284    0.000
 3977.00    0.86808   0.86670    0.000
 3978.00    0.87420   0.89375    0.000
 3979.00    0.89029   0.91420    0.000
 3980.00    0.91765   0.92810    0.000
 3981.00    0.94350   0.93681   11.534
 3982.00    0.95951   0.94351   11.902
 3983.00    0.96453   0.95123   11.938
 3984.00    0.96117   0.96107   11.693
 3985.00    0.95499   0.97213   11.605
 3986.00    0.95413   0.98281   11.672
 3987.00    0.96688   0.99158   11.656
 3988.00    0.99749   0.99778   11.595
 3989.00    1.04317   1.00226   11.638
 3990.00    1.09092   1.00595   11.636
 3991.00    1.12275   1.00897   11.426
 3992.00    1.12449   1.01045   11.301
 3993.00    1.09365   1.00911   11.584
 3994.00    1.04726   1.00527   12.090
 3995.00    1.00920   1.00085   12.373
 3996.00    0.99337   0.99814   12.298
 3997.00    1.00199   0.99928   12.015
 3998.00    1.02634   1.00470   11.684
 3999.00    1.05188   1.01213   11.422
 4000.00    1.06451   1.01849   11.297
 4001.00    1.06149   1.02122   11.326
 4002.00    1.05891   1.01880   11.460
 4003.00    1.06977   1.01136   11.639
 4004.00    1.08593   1.00135   11.838
 4005.00    1.09398   0.99262   12.031
 4006.00    1.08914   0.98729   12.160
 4007.00    1.07460   0.98546   12.186
 4008.00    1.05928   0.98710   12.129
 4009.00    1.05075   0.99215   12.046
 4010.00    1.05128   0.99966   11.997
 4011.00    1.06337   1.00851   11.964
 4012.00    1.08992   1.01740   11.850
 4013.00    1.11534   1.02455   11.730
 4014.00    1.10489   1.02954   11.873
 4015.00    1.05725   1.03262   12.234
 4016.00    1.01786   1.03434   12.293
 4017.00    1.00979   1.03582   11.971
 4018.00    1.01215   1.03700   11.844
 4019.00    1.01355   1.03612   12.050
 4020.00    1.02671   1.03099   12.112
 4021.00    1.04966   1.01985   11.887
 4022.00    1.05825   1.00229   11.770
 4023.00    1.03702   0.98054   11.915
 4024.00    0.98895   0.95993   12.112
 4025.00    0.92820   0.94744   12.195
 4026.00    0.87543   0.94717   12.168
 4027.00    0.85122   0.95644   12.066
 4028.00    0.86819   0.96809   11.930
 4029.00    0.91557   0.97551   11.871
 4030.00    0.96545   0.97672   11.992
 4031.00    1.00000   0.97460   12.164
 4032.00    1.01488   0.97383   12.140
 4033.00    1.01068   0.97791   12.025
 4034.00    0.99225   0.98764   12.122
 4035.00    0.97171   1.00165   12.382
 4036.00    0.96480   1.01651   12.508
 4037.00    0.98236   1.02817   12.435
 4038.00    1.02142   1.03391   12.332
 4039.00    1.05373   1.03313   12.345
 4040.00    1.04906   1.02761   12.517
 4041.00    1.01571   1.01937   12.724
 4042.00    0.98344   1.00879   12.788
 4043.00    0.96767   0.99650   12.705
 4044.00    0.96934   0.98531   12.569
 4045.00    0.98240   0.97954   12.403
 4046.00    0.99708   0.98193   12.243
 4047.00    1.00318   0.99097   12.243
 4048.00    0.99791   1.00266   12.457
 4049.00    0.99323   1.01247   12.569
 4050.00    1.00034   1.01699   12.336
 4051.00    1.01288   1.01571   12.091
 4052.00    1.01635   1.01020   12.163
 4053.00    1.00003   1.00266   12.409
 4054.00    0.96517   0.99570   12.606
 4055.00    0.92983   0.99088   12.820
 4056.00    0.91317   0.98825   13.079
 4057.00    0.92186   0.98759   13.076
 4058.00    0.94884   0.98799   12.722
 4059.00    0.97571   0.98764   12.466
 4060.00    0.98993   0.98492   12.555
 4061.00    0.99480   0.97912   12.706
 4062.00    0.99454   0.97195   12.714
 4063.00    0.98606   0.96709   12.790
 4064.00    0.97015   0.96621   13.064
 4065.00    0.95665   0.96786   13.305
 4066.00    0.95449   0.96981   13.317
 4067.00    0.96610   0.96986   13.178
 4068.00    0.98790   0.96654   13.064
 4069.00    1.01135   0.96050   13.106
 4070.00    1.02630   0.95383   13.235
 4071.00    1.02386   0.94899   13.214
 4072.00    1.00193   0.94667   13.081
 4073.00    0.96686   0.94434   13.170
 4074.00    0.93098   0.93946   13.491
 4075.00    0.90793   0.93230   13.650
 4076.00    0.90058   0.92588   13.517
 4077.00    0.90256   0.92480   13.347
 4078.00    0.91621   0.93152   13.219
 4079.00    0.94904   0.94373   13.013
 4080.00    0.98714   0.95591   12.784
 4081.00    1.00317   0.96300   12.711
 4082.00    0.99784   0.96307   12.736
 4083.00    0.99498   0.95788   12.667
 4084.00    1.00225   0.95133   12.623
 4085.00    1.00918   0.94669   12.873
 4086.00    1.00476   0.94466   13.251
 4087.00    0.98419   0.94395   13.303
 4088.00    0.95369   0.94296   13.079
 4089.00    0.92530   0.94036   12.970
 4090.00    0.90538   0.93485   13.051
 4091.00    0.89472   0.92570   13.170
 4092.00    0.89237   0.91247    0.000
 4093.00    0.89275   0.89381    0.000
 4094.00    0.88106   0.86867    0.000
 4095.00    0.84988   0.83781    0.000
 4096.00    0.82271   0.80238    0.000
 4097.00    0.83020   0.76307    0.000
 4098.00    0.87497   0.72069    0.000
 4099.00    0.94148   0.67777    0.000
 4100.00    1.01323   0.64131    0.000
 4101.00    1.07043   0.62168    0.000
 4102.00    1.08655   0.62559    0.000
 4103.00    1.04655   0.65222    0.000
 4104.00    0.96464   0.69446    0.000
 4105.00    0.87108   0.74131    0.000
 4106.00    0.79642   0.78322    0.000
 4107.00    0.75760   0.81598    0.000
 4108.00    0.74882   0.83955    0.000
 4109.00    0.75830   0.85628    0.000
 4110.00    0.78188   0.86970    0.000
 4111.00    0.82055   0.88257    0.000
 4112.00    0.87578   0.89569    0.000
 4113.00    0.93465   0.90809   10.652
 4114.00    0.96634   0.91809   10.373
 4115.00    0.96142   0.92420   10.506
 4116.00    0.94849   0.92509   10.465
 4117.00    0.94858   0.92067   10.253
 4118.00    0.95378   0.91342   10.790
 4119.00    0.95456   0.90718   12.448
 4120.00    0.95185   0.90547   13.867
 4121.00    0.94389   0.91033   13.753
 4122.00    0.92529   0.92074   13.452
 4123.00    0.91108   0.93318   13.694
 4124.00    0.93244   0.94336   13.694
 4125.00    0.97908   0.94792   13.258
 4126.00    0.99807   0.94615   13.172
 4127.00    0.97294   0.94004   13.572
 4128.00    0.93590   0.93225   13.779
 4129.00    0.91078   0.92468   13.522
 4130.00    0.89855   0.91873   13.228
 4131.00    0.89371   0.91595   13.188
 4132.00    0.89128   0.91765   13.405
 4133.00    0.89127   0.92441   13.722
 4134.00    0.89875   0.93522   13.896
 4135.00    0.92033   0.94723   13.838
 4136.00    0.95661   0.95750   13.661
 4137.00    0.98731   0.96439   13.571
 4138.00    0.98550   0.96637   13.726
 4139.00    0.95431   0.96185   14.032
 4140.00    0.92044   0.94961   14.205
 4141.00    0.90568   0.93036   14.065
 4142.00    0.91564   0.90983   13.699
 4143.00    0.93103   0.89691   13.491
 4144.00    0.92961   0.89630   13.731
 4145.00    0.92330   0.90630   14.100
 4146.00    0.93419   0.92133   14.077
 4147.00    0.95095   0.93414   13.874
 4148.00    0.95171   0.94040   13.950
 4149.00    0.94311   0.94120   14.193
 4150.00    0.94116   0.93909   14.268
 4151.00    0.94152   0.93562   14.216
 4152.00    0.93330   0.93216   14.240
 4153.00    0.91898   0.92966   14.352
 4154.00    0.90739   0.92855   14.460
 4155.00    0.90358   0.92967   14.494
 4156.00    0.90648   0.93381   14.462
 4157.00    0.90871   0.94022   14.459
 4158.00    0.90722   0.94700   14.485
 4159.00    0.91107   0.95257   14.330
 4160.00    0.92307   0.95631   14.003
 4161.00    0.92735   0.95832   13.950
 4162.00    0.91520   0.95886   14.329
 4163.00    0.90204   0.95821   14.578
 4164.00    0.90219   0.95644   14.302
 4165.00    0.91220   0.95323   13.952
 4166.00    0.92453   0.94887   13.873
 4167.00    0.93650   0.94438   13.877
 4168.00    0.94726   0.93991   13.809
 4169.00    0.95556   0.93429   13.802
 4170.00    0.95966   0.92654   13.941
 4171.00    0.95752   0.91757   14.110
 4172.00    0.94850   0.90986   14.178
 4173.00    0.93372   0.90557   14.115
 4174.00    0.91460   0.90517   14.012
 4175.00    0.89332   0.90741   14.025
 4176.00    0.87767   0.91046   14.167
 4177.00    0.87886   0.91370   14.282
 4178.00    0.89607   0.91759   14.273
 4179.00    0.91483   0.92200   14.196
 4180.00    0.92212   0.92600   14.195
 4181.00    0.91347   0.92900   14.388
 4182.00    0.89794   0.93067   14.588
 4183.00    0.89182   0.93094   14.410
 4184.00    0.89663   0.92996   13.937
 4185.00    0.89970   0.92763   13.629
 4186.00    0.89254   0.92470   13.725
 4187.00    0.87698   0.92293   14.201
 4188.00    0.86710   0.92335   14.763
 4189.00    0.87999   0.92628   14.960
 4190.00    0.91468   0.93168   14.771
 4191.00    0.95423   0.93820   14.533
 4192.00    0.97972   0.94320   14.380
 4193.00    0.98039   0.94402   14.275
 4194.00    0.96625   0.93964   14.231
 4195.00    0.95758   0.93085   14.263
 4196.00    0.96304   0.91940   14.241
 4197.00    0.97627   0.90825   14.062
 4198.00    0.97775   0.90047   13.936
 4199.00    0.95271   0.89680   14.104
 4200.00    0.91547   0.89635   14.449
 4201.00    0.89309   0.89881   14.650
 4202.00    0.89908   0.90362   14.533
 4203.00    0.92915   0.90967   14.199
 4204.00    0.96140   0.91681   14.006
 4205.00    0.97456   0.92472   14.164
 4206.00    0.96766   0.93202   14.427
 4207.00    0.95269   0.93740   14.470
 4208.00    0.94420   0.94049   14.375
 4209.00    0.94936   0.94170   14.394
 4210.00    0.96080   0.94173   14.649
 4211.00    0.96749   0.94058   15.027
 4212.00    0.96473   0.93768   15.117
 4213.00    0.95476   0.93272   14.815
 4214.00    0.94534   0.92727   14.697
 4215.00    0.94129   0.92459   15.035
 4216.00    0.93961   0.92647   15.295
 4217.00    0.93907   0.93189   15.124
 4218.00    0.94519   0.93839   15.012
 4219.00    0.96002   0.94264   15.214
 4220.00    0.97646   0.94136   15.273
 4221.00    0.98308   0.93346   15.021
 4222.00    0.96946   0.91974   14.983
 4223.00    0.93811   0.90176   15.356
 4224.00    0.90710   0.88241   15.661
 4225.00    0.89387   0.86688   15.534
 4226.00    0.90484   0.86064   15.171
 4227.00    0.92543   0.86580   14.984
 4228.00    0.92689   0.87956   15.300
 4229.00    0.90862   0.89623   15.883
 4230.00    0.90127   0.90945   15.903
 4231.00    0.91749   0.91499   15.270
 4232.00    0.94158   0.91380   14.765
 4233.00    0.95583   0.90948   14.728
 4234.00    0.95157   0.90468   14.984
 4235.00    0.93419   0.90157   15.182
 4236.00    0.91724   0.90131   15.039
 4237.00    0.90253   0.90306   14.878
 4238.00    0.88489   0.90627   15.266
 4239.00    0.87741   0.91120   15.928
 4240.00    0.90095   0.91718   15.933
 4241.00    0.94567   0.92363   15.423
 4242.00    0.98026   0.93025   15.267
 4243.00    0.98996   0.93530   15.485
 4244.00    0.97698   0.93645   15.574
 4245.00    0.94533   0.93319   15.533
 4246.00    0.90299   0.92672   15.680
 4247.00    0.87041   0.91845   15.906
 4248.00    0.86684   0.90972   15.900
 4249.00    0.88636   0.90231   15.782
 4250.00    0.90758   0.89729   15.838
 4251.00    0.91420   0.89362   15.985
 4252.00    0.90197   0.89072   16.022
 4253.00    0.88304   0.89023   16.074
 4254.00    0.87368   0.89302   16.303
 4255.00    0.87833   0.89758   16.469
 4256.00    0.89187   0.90164   16.296
 4257.00    0.90508   0.90326   15.981
 4258.00    0.90996   0.90167   15.834
 4259.00    0.90511   0.89886   15.881
 4260.00    0.89816   0.89877   15.948
 4261.00    0.90590   0.90378   15.768
 4262.00    0.93788   0.91252   15.299
 4263.00    0.98276   0.92127   14.890
 4264.00    1.01810   0.92559   14.765
 4265.00    1.02195   0.92290   14.772
 4266.00    0.99195   0.91489   14.765
 4267.00    0.95464   0.90476   14.850
 4268.00    0.93251   0.89372   -2.000
 4269.00    0.92237   0.88222   -2.000
 4270.00    0.90743   0.87171   -2.000
 4271.00    0.87048   0.86345   -2.000
 4272.00    0.81945   0.85803   -2.000
 4273.00    0.79244   0.85652   -2.000
 4274.00    0.80625   0.86029   -2.000
 4275.00    0.83695   0.86904   -2.000
 4276.00    0.86322   0.88044   -2.000
 4277.00    0.88434   0.89178   -2.000
 4278.00    0.90163   0.90029   -2.000
 4279.00    0.91109   0.90404   -2.000
 4280.00    0.90946   0.90296   -2.000
 4281.00    0.89772   0.89869   -2.000
 4282.00    0.88408   0.89360   -2.000
 4283.00    0.88005   0.88926   -2.000
 4284.00    0.88417   0.88585   14.682
 4285.00    0.88379   0.88247   15.001
 4286.00    0.87826   0.87737   15.380
 4287.00    0.87774   0.86950   15.404
 4288.00    0.87893   0.86071   15.171
 4289.00    0.86782   0.85478   15.185
 4290.00    0.84558   0.85430   15.538
 4291.00    0.82739   0.85876   15.894
 4292.00    0.82318   0.86506   15.909
 4293.00    0.83179   0.87023   15.540
 4294.00    0.83948   0.87215   15.268
 4295.00    0.83138   0.86972   15.601
 4296.00    0.81448   0.86306   16.278
 4297.00    0.80712   0.85313   16.538
 4298.00    0.81148   0.84147   16.330
 4299.00    0.81879   0.83042   16.177
 4300.00    0.82675   0.82172   16.262
 4301.00    0.83703   0.81629   16.415
 4302.00    0.84701   0.81482   16.264
 4303.00    0.85167   0.81599   15.682
 4304.00    0.84815   0.81697   15.223
 4305.00    0.83820   0.81624   15.371
 4306.00    0.82965   0.81406   15.855
 4307.00    0.82663   0.81224   16.142
 4308.00    0.81875   0.81345   16.213
 4309.00    0.79706   0.81905   16.321
 4310.00    0.77187   0.82789   16.510
 4311.00    0.75910   0.83760   16.658
 4312.00    0.76496   0.84647   16.610
 4313.00    0.79097   0.85486   16.391
 4314.00    0.83887   0.86429   16.309
 4315.00    0.89975   0.87486   16.445
 4316.00    0.94716   0.88496   16.328
 4317.00    0.96076   0.89233   15.817
 4318.00    0.94409   0.89524   15.590
 4319.00    0.91387   0.89331   15.982
 4320.00    0.88904   0.88746   16.421
 4321.00    0.87608   0.87796   16.342
 4322.00    0.86307   0.86434   15.959
 4323.00    0.84154   0.84753   15.691
 4324.00    0.81770   0.83158   15.737
 4325.00    0.79887   0.82185   16.042
 4326.00    0.78687   0.82097   16.303
 4327.00    0.78509   0.82702   16.285
 4328.00    0.79928   0.83522   16.034
 4329.00    0.82349   0.84081   15.787
 4330.00    0.83904   0.84094    0.000
 4331.00    0.83898   0.83535    0.000
 4332.00    0.83424   0.82532    0.000
 4333.00    0.83642   0.81095    0.000
 4334.00    0.85323   0.78960    0.000
 4335.00    0.89738   0.75814    0.000
 4336.00    0.98453   0.71705    0.000
 4337.00    1.11616   0.67051    0.000
 4338.00    1.27267   0.62593    0.000
 4339.00    1.41050   0.59420    0.000
 4340.00    1.47757   0.58408    0.000
 4341.00    1.45648   0.59610    0.000
 4342.00    1.36662   0.62466    0.000
 4343.00    1.23891   0.66250    0.000
 4344.00    1.10403   0.70167    0.000
 4345.00    0.98093   0.73612    0.000
 4346.00    0.87919   0.76419    0.000
 4347.00    0.80906   0.78589    0.000
 4348.00    0.77541   0.79995    0.000
 4349.00    0.76265   0.80594    0.000
 4350.00    0.75139   0.80707    0.000
 4351.00    0.75142   0.80848   13.393
 4352.00    0.78124   0.81368   12.383
 4353.00    0.82678   0.82405   11.912
 4354.00    0.86213   0.83880   13.374
 4355.00    0.88891   0.85431   16.157
 4356.00    0.91787   0.86611   17.073
 4357.00    0.93762   0.87290   16.343
 4358.00    0.93470   0.87675   16.605
 4359.00    0.92249   0.88028   17.531
 4360.00    0.92212   0.88507   17.553
 4361.00    0.93672   0.89154   16.864
 4362.00    0.95509   0.89882   16.476
 4363.00    0.95985   0.90472   16.683
 4364.00    0.94268   0.90651   17.300
 4365.00    0.91646   0.90328   17.784
 4366.00    0.89806   0.89678   17.725
 4367.00    0.89208   0.88974   17.444
 4368.00    0.89246   0.88411   17.400
 4369.00    0.88681   0.88082   17.710
 4370.00    0.87057   0.87917   18.179
 4371.00    0.85512   0.87696   18.342
 4372.00    0.85098   0.87252   18.060
 4373.00    0.85693   0.86718   17.836
 4374.00    0.86862   0.86433   17.927
 4375.00    0.88394   0.86621   17.984
 4376.00    0.90016   0.87208   17.796
 4377.00    0.91201   0.87898   17.652
 4378.00    0.91118   0.88321   17.763
 4379.00    0.88929   0.88128   18.032
 4380.00    0.85322   0.87085   18.260
 4381.00    0.82611   0.85269   18.296
 4382.00    0.81921   0.83171   18.239
 4383.00    0.82339   0.81430   18.376
 4384.00    0.82778   0.80416   18.642
 4385.00    0.82777   0.80128   18.586
 4386.00    0.82560   0.80469   18.199
 4387.00    0.82758   0.81297   17.965
 4388.00    0.83479   0.82327   18.000
 4389.00    0.84245   0.83382   18.028
 4390.00    0.84810   0.84468   17.996
 4391.00    0.85392   0.85463   18.093
 4392.00    0.86561   0.86154   18.228
 4393.00    0.88674   0.86561   18.121
 4394.00    0.90546   0.86947   17.954
 4395.00    0.90336   0.87438   18.159
 4396.00    0.88407   0.87921   18.581
 4397.00    0.86804   0.88227   18.672
 4398.00    0.86603   0.88235   18.520
 4399.00    0.87530   0.87970   18.581
 4400.00    0.88434   0.87549   18.642
 4401.00    0.88063   0.86979   18.257
 4402.00    0.86288   0.86231   17.887
 4403.00    0.83935   0.85455   18.184
 4404.00    0.82108   0.84852   18.771
 4405.00    0.81647   0.84497   18.824
 4406.00    0.82503   0.84476   18.556
 4407.00    0.84050   0.84926   18.575
 4408.00    0.85659   0.85777   18.639
 4409.00    0.86765   0.86741   18.299
 4410.00    0.86858   0.87560   17.902
 4411.00    0.85742   0.87967   17.960
 4412.00    0.83826   0.87671   18.444
 4413.00    0.81968   0.86726   19.007
 4414.00    0.81207   0.85596   19.267
 4415.00    0.82012   0.84798   19.055
 4416.00    0.83634   0.84693   18.621
 4417.00    0.85012   0.85362   18.313
 4418.00    0.85646   0.86485   18.303
 4419.00    0.85485   0.87531   18.470
 4420.00    0.84779   0.88128   18.343
 4421.00    0.84232   0.88270   17.759
 4422.00    0.84932   0.88157   17.226
 4423.00    0.86950   0.87969   17.069
 4424.00    0.88647   0.87808   17.069
 4425.00    0.88859   0.87713   16.966
 4426.00    0.88166   0.87662   16.748
 4427.00    0.87560   0.87558   16.463
 4428.00    0.87581   0.87344   16.120
 4429.00    0.88303   0.87106   15.837
 4430.00    0.89390   0.86879   15.833
 4431.00    0.90347   0.86552   16.071
 4432.00    0.90715   0.86070   16.192
 4433.00    0.90406   0.85559   16.125
 4434.00    0.89728   0.85259   16.249
 4435.00    0.88863   0.85380   16.664
 4436.00    0.87831   0.85998   17.019
 4437.00    0.87222   0.86931   17.151
 4438.00    0.88054   0.87743   17.275
 4439.00    0.90294   0.88009   17.428
 4440.00    0.92658   0.87613   17.398
 4441.00    0.93755   0.86832   17.227
 4442.00    0.92814   0.86180   17.202
 4443.00    0.90673   0.86052   17.392
 4444.00    0.89196   0.86463   17.616
 4445.00    0.88941   0.87160   17.723
 4446.00    0.89147   0.87873   17.692
 4447.00    0.89322   0.88357   17.641
 4448.00    0.89429   0.88485   17.712
 4449.00    0.89393   0.88337   17.844
 4450.00    0.89129   0.88016   17.863
 4451.00    0.88841   0.87495   17.791
 4452.00    0.88775   0.86718   17.806
 4453.00    0.88647   0.85772   18.044
 4454.00    0.88075   0.84872   18.484
 4455.00    0.87506   0.84175   18.781
 4456.00    0.87599   0.83718   18.577
 4457.00    0.88037   0.83479   18.136
 4458.00    0.87960   0.83380   17.948
 4459.00    0.86905   0.83324   18.127
 4460.00    0.85045   0.83345   18.522
 4461.00    0.83274   0.83588    0.000
 4462.00    0.82497   0.84033    0.000
 4463.00    0.82756   0.84506    0.000
 4464.00    0.83556   0.84831    0.000
 4465.00    0.84380   0.84850    0.000
 4466.00    0.84803   0.84446    0.000
 4467.00    0.84586   0.83648    0.000
 4468.00    0.83958   0.82652    0.000
 4469.00    0.83766   0.81780    0.000
 4470.00    0.84533   0.81463    0.000
 4471.00    0.85685   0.81982    0.000
 4472.00    0.86374   0.83251    0.000
 4473.00    0.86228   0.84935    0.000
 4474.00    0.85607   0.86655    0.000
 4475.00    0.85551   0.88029    0.000
 4476.00    0.86325   0.88706    0.000
 4477.00    0.86727   0.88499    0.000
 4478.00    0.86093   0.87492    0.000
 4479.00    0.85301   0.86079    0.000
 4480.00    0.85053   0.84867    0.000
 4481.00    0.85003   0.84391    0.000
 4482.00    0.84643   0.84836   19.617
 4483.00    0.83862   0.85996   19.567
 4484.00    0.83233   0.87356   20.053
 4485.00    0.83844   0.88320   20.329
 4486.00    0.85981   0.88532   20.010
 4487.00    0.88713   0.88069   19.534
 4488.00    0.90632   0.87329   19.252
 4489.00    0.90530   0.86723   19.172
 4490.00    0.88691   0.86448   19.254
 4491.00    0.86692   0.86425   19.494
 4492.00    0.85145   0.86442   19.865
 4493.00    0.83465   0.86383   20.298
 4494.00    0.81575   0.86295   20.668
 4495.00    0.80256   0.86332   20.832
 4496.00    0.80553   0.86623   20.774
 4497.00    0.83128   0.87136   20.586
 4498.00    0.87100   0.87701   20.313
 4499.00    0.90570   0.88191   19.968
 4500.00    0.92565   0.88677   19.645
 4501.00    0.93126   0.89278   19.482
 4502.00    0.92487   0.89980   19.556
 4503.00    0.91080   0.90643   19.855
 4504.00    0.89877   0.91080   20.230
 4505.00    0.89790   0.91163   20.470
 4506.00    0.90469   0.90929   20.508
 4507.00    0.91035   0.90566   20.432
 4508.00    0.91612   0.90245   20.407
 4509.00    0.92716   0.89977   20.503
 4510.00    0.93952   0.89660   20.492
 4511.00    0.94460   0.89203   20.177
 4512.00    0.93819   0.88606   19.854
 4513.00    0.92225   0.87988   19.873
 4514.00    0.90499   0.87514   20.123
 4515.00    0.89378   0.87263   20.307
 4516.00    0.88713   0.87236   20.354
 4517.00    0.87941   0.87389   20.345
 4518.00    0.86714   0.87630   20.354
 4519.00    0.85043   0.87813   20.447
 4520.00    0.83348   0.87786   20.685
 4521.00    0.82158   0.87495   21.038
 4522.00    0.81801   0.86964   21.306
 4523.00    0.82135   0.86208   21.343
 4524.00    0.82457   0.85273   21.258
 4525.00    0.82457   0.84230   21.146
 4526.00    0.82766   0.83188   20.919
 4527.00    0.83474   0.82303   20.646
 4528.00    0.83323   0.81742   20.696
 4529.00    0.81660   0.81589   21.134
 4530.00    0.79505   0.81759   21.433
 4531.00    0.77959   0.82033   21.375
 4532.00    0.77290   0.82259   21.504
 4533.00    0.77430   0.82497   21.999
 4534.00    0.78274   0.82938   22.208
 4535.00    0.79678   0.83698   21.791
 4536.00    0.81458   0.84646   21.243
 4537.00    0.83438   0.85503   20.987
 4538.00    0.85449   0.86010   21.071
 4539.00    0.87260   0.86108   21.348
 4540.00    0.88604   0.85962   21.564
 4541.00    0.89373   0.85779   21.545
 4542.00    0.89599   0.85667   21.302
 4543.00    0.89129   0.85631   21.013
 4544.00    0.87753   0.85604   20.914
 4545.00    0.85957   0.85473   21.092
 4546.00    0.84811   0.85150   21.407
 4547.00    0.84885   0.84678   21.420
 4548.00    0.85877   0.84213   20.767
 4549.00    0.86529   0.83835   20.110
 4550.00    0.85489   0.83515    0.000
 4551.00    0.83420   0.83239    0.000
 4552.00    0.82279   0.83036    0.000
 4553.00    0.82558   0.82990    0.000
 4554.00    0.83430   0.83234    0.000
 4555.00    0.84404   0.83835    0.000
 4556.00    0.85545   0.84738    0.000
 4557.00    0.87211   0.85761    0.000
 4558.00    0.89440   0.86676    0.000
 4559.00    0.91039   0.87299    0.000
 4560.00    0.90589   0.87504    0.000
 4561.00    0.88257   0.87270    0.000
 4562.00    0.85409   0.86744    0.000
 4563.00    0.83561   0.86178    0.000
 4564.00    0.83487   0.85818    0.000
 4565.00    0.84322   0.85801    0.000
 4566.00    0.84868   0.86087    0.000
 4567.00    0.85275   0.86492    0.000
 4568.00    0.86056   0.86753    0.000
 4569.00    0.86803   0.86731    0.000
 4570.00    0.86986   0.86529    0.000
 4571.00    0.86857   0.86337    0.000
 4572.00    0.86657   0.86269    0.000
 4573.00    0.85897   0.86346    0.000
 4574.00    0.84465   0.86497    0.000
 4575.00    0.83484   0.86584    0.000
 4576.00    0.83771   0.86451    0.000
 4577.00    0.84672   0.86021    0.000
 4578.00    0.85145   0.85385    0.000
 4579.00    0.84693   0.84710    0.000
 4580.00    0.83847   0.84128    0.000
 4581.00    0.84123   0.83729    0.000
 4582.00    0.85964   0.83559    0.000
 4583.00    0.87846   0.83606    0.000
 4584.00    0.88574   0.83825    0.000
 4585.00    0.88413   0.84176    0.000
 4586.00    0.87771   0.84600    0.000
 4587.00    0.86683   0.84986    0.000
 4588.00    0.85757   0.85192    0.000
 4589.00    0.86242   0.85136    0.000
 4590.00    0.88226   0.84860    0.000
 4591.00    0.90277   0.84472    0.000
 4592.00    0.91212   0.84081    0.000
 4593.00    0.90783   0.83775    0.000
 4594.00    0.89424   0.83619    0.000
 4595.00    0.87938   0.83629    0.000
 4596.00    0.86803   0.83760    0.000
 4597.00    0.86003   0.83915    0.000
 4598.00    0.85258   0.84005    0.000
 4599.00    0.84251   0.84011    0.000
 4600.00    0.83059   0.83965    0.000
 4601.00    0.82109   0.83917    0.000
 4602.00    0.81743   0.83922    0.000
 4603.00    0.82172   0.84020    0.000
 4604.00    0.83620   0.84266    0.000
 4605.00    0.86102   0.84700    0.000
 4606.00    0.88913   0.85293    0.000
 4607.00    0.90955   0.85944    0.000
 4608.00    0.91614   0.86502    0.000
 4609.00    0.91010   0.86839    0.000
 4610.00    0.90077   0.86900    0.000
 4611.00    0.89712   0.86756    0.000
 4612.00    0.89408   0.86555    0.000
 4613.00    0.88303   0.86401    0.000
 4614.00    0.87048   0.86322    0.000
 4615.00    0.86784   0.86254    0.000
 4616.00    0.87356   0.86104    0.000
 4617.00    0.87873   0.85887    0.000
 4618.00    0.87755   0.85713    0.000
 4619.00    0.87063   0.85673    0.000
 4620.00    0.86639   0.85818    0.000
 4621.00    0.87053   0.86088    0.000
 4622.00    0.87531   0.86347    0.000
 4623.00    0.86966   0.86477    0.000
 4624.00    0.85053   0.86433    0.000
 4625.00    0.82404   0.86229    0.000
 4626.00    0.80418   0.85921    0.000
 4627.00    0.80065   0.85598    0.000
 4628.00    0.80989   0.85355    0.000
 4629.00    0.82522   0.85221    0.000
 4630.00    0.84472   0.85138    0.000
 4631.00    0.86779   0.85023    0.000
 4632.00    0.89194   0.84832    0.000
 4633.00    0.90967   0.84558    0.000
 4634.00    0.90913   0.84205    0.000
 4635.00    0.88903   0.83776    0.000
 4636.00    0.86430   0.83307    0.000
 4637.00    0.84832   0.82854    0.000
 4638.00    0.84353   0.82492    0.000
 4639.00    0.84498   0.82292    0.000
 4640.00    0.84437   0.82271    0.000
 4641.00    0.83918   0.82354    0.000
 4642.00    0.83433   0.82372    0.000
 4643.00    0.83206   0.82122    0.000
 4644.00    0.82973   0.81525    0.000
 4645.00    0.82807   0.80691    0.000
 4646.00    0.83206   0.79865    0.000
 4647.00    0.84234   0.79328    0.000
 4648.00    0.85424   0.79265    0.000
 4649.00    0.86433   0.79692    0.000
 4650.00    0.87119   0.80445    0.000
 4651.00    0.87140   0.81240    0.000
 4652.00    0.86130   0.81839    0.000
 4653.00    0.84451   0.82177    0.000
 4654.00    0.82987   0.82365    0.000
 4655.00    0.82133   0.82630    0.000
 4656.00    0.81864   0.83138    0.000
 4657.00    0.82451   0.83863    0.000
 4658.00    0.84205   0.84593    0.000
 4659.00    0.86644   0.85050    0.000
 4660.00    0.88774   0.85046    0.000
 4661.00    0.89931   0.84575    0.000
 4662.00    0.89872   0.83750    0.000
 4663.00    0.88638   0.82690    0.000
 4664.00    0.86559   0.81507    0.000
 4665.00    0.84272   0.80361    0.000
 4666.00    0.82394   0.79459    0.000
 4667.00    0.81062   0.79007    0.000
 4668.00    0.80138   0.79118    0.000
 4669.00    0.79559   0.79712    0.000
 4670.00    0.79357   0.80546    0.000
 4671.00    0.79603   0.81350    0.000
 4672.00    0.80355   0.81952    0.000
 4673.00    0.81576   0.82331    0.000
 4674.00    0.83019   0.82548    0.000
 4675.00    0.84137   0.82647    0.000
 4676.00    0.84491   0.82629    0.000
 4677.00    0.84122   0.82477    0.000
 4678.00    0.83434   0.82197    0.000
 4679.00    0.82983   0.81866    0.000
 4680.00    0.82830   0.81603    0.000
 4681.00    0.82201   0.81469    0.000
 4682.00    0.80808   0.81449    0.000
 4683.00    0.79640   0.81496    0.000
 4684.00    0.79577   0.81554    0.000
 4685.00    0.80482   0.81598    0.000
 4686.00    0.81710   0.81644    0.000
 4687.00    0.82572   0.81695    0.000
 4688.00    0.82979   0.81740    0.000
 4689.00    0.83558   0.81787    0.000
 4690.00    0.84409   0.81853    0.000
 4691.00    0.84779   0.81970    0.000
 4692.00    0.84634   0.82169    0.000
 4693.00    0.84971   0.82417    0.000
 4694.00    0.85842   0.82591    0.000
 4695.00    0.85996   0.82533    0.000
 4696.00    0.84959   0.82172    0.000
 4697.00    0.83556   0.81568    0.000
 4698.00    0.82694   0.80863    0.000
 4699.00    0.82746   0.80206    0.000
 4700.00    0.83094   0.79713    0.000
 4701.00    0.82506   0.79431    0.000
 4702.00    0.80729   0.79338    0.000
 4703.00    0.78598   0.79367    0.000
 4704.00    0.76959   0.79440    0.000
 4705.00    0.76246   0.79493    0.000
 4706.00    0.76233   0.79510    0.000
 4707.00    0.76283   0.79530    0.000
 4708.00    0.76074   0.79602    0.000
 4709.00    0.75696   0.79699    0.000
 4710.00    0.75485   0.79761    0.000
 4711.00    0.75706   0.79751    0.000
 4712.00    0.76044   0.79708    0.000
 4713.00    0.75991   0.79751    0.000
 4714.00    0.75705   0.80026    0.000
 4715.00    0.75828   0.80592    0.000
 4716.00    0.76897   0.81397    0.000
 4717.00    0.78923   0.82282    0.000
 4718.00    0.80950   0.83061    0.000
 4719.00    0.81998   0.83603    0.000
 4720.00    0.82394   0.83891    0.000
 4721.00    0.82898   0.83987    0.000
 4722.00    0.83403   0.83952    0.000
 4723.00    0.83484   0.83776    0.000
 4724.00    0.83210   0.83386    0.000
 4725.00    0.82744   0.82728    0.000
 4726.00    0.81854   0.81840    0.000
 4727.00    0.80344   0.80869    0.000
 4728.00    0.78501   0.80032    0.000
 4729.00    0.76901   0.79527    0.000
 4730.00    0.76136   0.79427    0.000
 4731.00    0.76404   0.79670    0.000
 4732.00    0.77257   0.80105    0.000
 4733.00    0.78233   0.80546    0.000
 4734.00    0.79280   0.80885    0.000
 4735.00    0.80195   0.81122    0.000
 4736.00    0.80353   0.81287    0.000
 4737.00    0.79645   0.81412    0.000
 4738.00    0.78929   0.81515    0.000
 4739.00    0.78953   0.81597    0.000
 4740.00    0.79782   0.81656    0.000
 4741.00    0.81233   0.81708    0.000
 4742.00    0.83099   0.81782    0.000
 4743.00    0.84928   0.81905    0.000
 4744.00    0.86117   0.82069    0.000
 4745.00    0.86773   0.82244    0.000
 4746.00    0.87729   0.82399    0.000
 4747.00    0.88961   0.82498    0.000
 4748.00    0.89336   0.82502    0.000
 4749.00    0.88216   0.82381    0.000
 4750.00    0.85988   0.82132    0.000
 4751.00    0.83686   0.81771    0.000
 4752.00    0.82495   0.81354    0.000
 4753.00    0.82645   0.80962    0.000
 4754.00    0.83403   0.80665    0.000
 4755.00    0.84063   0.80506    0.000
 4756.00    0.84250   0.80482    0.000
 4757.00    0.83913   0.80526    0.000
 4758.00    0.83237   0.80522    0.000
 4759.00    0.82432   0.80357    0.000
 4760.00    0.81648   0.79975    0.000
 4761.00    0.80921   0.79396   25.019
 4762.00    0.80240   0.78717   25.541
 4763.00    0.79714   0.78096   25.931
 4764.00    0.79578   0.77686   25.951
 4765.00    0.80141   0.77581   25.738
 4766.00    0.81476   0.77794   25.600
 4767.00    0.82959   0.78236   25.597
 4768.00    0.83665   0.78746   25.637
 4769.00    0.83137   0.79191   25.722
 4770.00    0.81666   0.79520   25.862
 4771.00    0.80449   0.79767   25.915
 4772.00    0.80507   0.80000   25.753
 4773.00    0.81296   0.80267   25.523
 4774.00    0.81838   0.80555   25.438
 4775.00    0.82258   0.80789   25.521
 4776.00    0.83014   0.80893   25.694
 4777.00    0.83883   0.80836   25.897
 4778.00    0.84348   0.80625   26.056
 4779.00    0.84123   0.80286   26.055
 4780.00    0.83196   0.79873   25.898
 4781.00    0.81821   0.79451   25.829
 4782.00    0.80407   0.79061   25.995
 4783.00    0.79426   0.78727   26.194
 4784.00    0.79277   0.78479   26.106
 4785.00    0.80149   0.78316   25.569
 4786.00    0.81594   0.78229   24.808
 4787.00    0.82431   0.78230   24.379
 4788.00    0.82031   0.78345   24.522
 4789.00    0.81030   0.78602   24.919
 4790.00    0.80209   0.79027   25.167
 4791.00    0.79800   0.79609   25.133
 4792.00    0.79682   0.80266   25.071
 4793.00    0.79591   0.80861   25.482
 4794.00    0.79565   0.81244   26.260
 4795.00    0.79981   0.81307   26.415
 4796.00    0.80728   0.81054   25.688
 4797.00    0.81068   0.80613   25.063
 4798.00    0.80786   0.80176   25.145
 4799.00    0.80461   0.79898   25.808
 4800.00    0.80501   0.79826   26.526
 4801.00    0.80861   0.79881   26.601
 4802.00    0.81427   0.79922   26.009
 4803.00    0.82067   0.79835   25.427
 4804.00    0.82314   0.79594   25.228
 4805.00    0.81600   0.79274   25.368
 4806.00    0.80237   0.78986   25.695
 4807.00    0.79221   0.78811   26.043
 4808.00    0.78873   0.78766   26.283
 4809.00    0.78853   0.78818   26.327
 4810.00    0.79140   0.78915   26.069
 4811.00    0.79931   0.79018   25.560
 4812.00    0.80815   0.79130   25.339
 4813.00    0.81080   0.79284   25.926
 4814.00    0.80774   0.79503   26.715
 4815.00    0.80426   0.79779   26.526
 4816.00    0.80072   0.80066   25.795
 4817.00    0.79485   0.80290   25.676
 4818.00    0.78908   0.80362   25.989
 4819.00    0.78764   0.80199   25.940
 4820.00    0.78997   0.79781   25.737
 4821.00    0.79202   0.79184   25.996
 4822.00    0.79023   0.78552   26.508
 4823.00    0.78393   0.78047   26.717
 4824.00    0.77762   0.77769   26.727
 4825.00    0.77668   0.77705   26.952
 4826.00    0.78162   0.77748   27.438
 4827.00    0.78943   0.77764   27.820
 4828.00    0.79611   0.77684   27.445
 4829.00    0.79825   0.77531   26.320
 4830.00    0.79452   0.77377   25.655
 4831.00    0.78549   0.77286   26.188
 4832.00    0.77336   0.77289   27.150
 4833.00    0.76060   0.77376   27.498
 4834.00    0.74895   0.77476   27.421
 4835.00    0.74029   0.77495   27.430
 4836.00    0.73714   0.77372   27.402
 4837.00    0.73954   0.77110   27.133
 4838.00    0.74343   0.76755   26.773
 4839.00    0.74615   0.76375   26.560
 4840.00    0.74962   0.76047   26.603
 4841.00    0.75567   0.75824   26.742
 4842.00    0.76324   0.75704   26.562
 4843.00    0.77025   0.75640   26.060
 4844.00    0.77463   0.75553   25.834
 4845.00    0.77275   0.75366   26.206
 4846.00    0.76041   0.75038   26.917
 4847.00    0.74131   0.74581   27.493
 4848.00    0.72775   0.74061    0.000
 4849.00    0.72454   0.73521    0.000
 4850.00    0.72449   0.72912    0.000
 4851.00    0.72047   0.72113    0.000
 4852.00    0.71124   0.71029    0.000
 4853.00    0.70373   0.69635    0.000
 4854.00    0.71382   0.67962    0.000
 4855.00    0.76625   0.66048    0.000
 4856.00    0.89256   0.63869    0.000
 4857.00    1.12456   0.61397    0.000
 4858.00    1.47280   0.58741    0.000
 4859.00    1.87292   0.56245    0.000
 4860.00    2.20117   0.54430    0.000
 4861.00    2.35621   0.53795    0.000
 4862.00    2.29037   0.54548    0.000
 4863.00    2.02934   0.56477    0.000
 4864.00    1.65811   0.59075    0.000
 4865.00    1.27925   0.61779    0.000
 4866.00    0.98108   0.64151    0.000
 4867.00    0.79413   0.65942    0.000
 4868.00    0.70061   0.67112    0.000
 4869.00    0.66885   0.67784    0.000
 4870.00    0.66670   0.68178    0.000
 4871.00    0.67294   0.68545    0.000
 4872.00    0.67842   0.69078    0.000
 4873.00    0.68423   0.69837    0.000
 4874.00    0.69511   0.70765    0.000
 4875.00    0.71051   0.71758   25.720
 4876.00    0.72687   0.72716   25.525
 4877.00    0.74223   0.73552   25.349
 4878.00    0.75599   0.74198   25.207
 4879.00    0.76791   0.74593   25.158
 4880.00    0.77735   0.74714   25.204
 4881.00    0.78269   0.74589   25.202
 4882.00    0.78091   0.74298   25.019
 4883.00    0.76799   0.73934   24.695
 4884.00    0.74522   0.73579   24.378
 4885.00    0.72380   0.73279   24.242
 4886.00    0.71274   0.73038   24.435
 4887.00    0.70929   0.72840   25.020
 4888.00    0.70993   0.72689   25.676
 4889.00    0.71842   0.72655   25.515
 4890.00    0.73585   0.72877   24.396
 4891.00    0.75445   0.73501   23.480
 4892.00    0.76828   0.74548   23.476
 4893.00    0.77925   0.75861   24.125
 4894.00    0.78866   0.77154   24.829
 4895.00    0.79269   0.78139   25.013
 4896.00    0.78716   0.78649   24.747
 4897.00    0.77121   0.78683   24.817
 4898.00    0.75093   0.78358   25.485
 4899.00    0.73830   0.77862   26.085
 4900.00    0.73819   0.77386   26.165
 4901.00    0.74469   0.77064   26.053
 4902.00    0.75262   0.76948   26.032
 4903.00    0.76114   0.77017   26.039
 4904.00    0.76823   0.77186   26.043
 4905.00    0.76996   0.77317   26.137
 4906.00    0.76636   0.77275   26.327
 4907.00    0.76144   0.77000   26.508
 4908.00    0.75648   0.76559   26.642
 4909.00    0.75003   0.76122   26.777
 4910.00    0.74446   0.75876   26.869
 4911.00    0.74515   0.75922   26.811
 4912.00    0.75287   0.76212   26.653
 4913.00    0.76306   0.76559   26.593
 4914.00    0.76988   0.76697   26.793
 4915.00    0.76892   0.76379   27.301
 4916.00    0.76123   0.75476   27.931
 4917.00    0.75183   0.74053   28.338
 4918.00    0.74488   0.72380   28.344
 4919.00    0.74148   0.70844   28.051
 4920.00    0.73782   0.69812   27.771
 4921.00    0.72996   0.69502   27.783
 4922.00    0.72243   0.69926   27.998
 4923.00    0.72242   0.70935   28.122
 4924.00    0.72787   0.72319   28.022
 4925.00    0.73131   0.73865   27.805
 4926.00    0.72838   0.75375   27.802
 4927.00    0.72063   0.76670   28.183
 4928.00    0.71680   0.77593   28.487
 4929.00    0.72339   0.78042   28.258
 4930.00    0.73326   0.78006   27.970
 4931.00    0.73595   0.77573   28.222
 4932.00    0.73090   0.76901   28.820
 4933.00    0.72400   0.76168   29.166
 4934.00    0.72188   0.75496   28.888
 4935.00    0.72629   0.74920   28.234
 4936.00    0.73024   0.74438   28.093
 4937.00    0.72914   0.74086   28.816
 4938.00    0.72986   0.73969   29.386
 4939.00    0.73905   0.74186   28.984
 4940.00    0.75369   0.74730    0.000
 4941.00    0.76676   0.75471    0.000
 4942.00    0.77256   0.76228    0.000
 4943.00    0.76980   0.76857    0.000
 4944.00    0.76293   0.77306    0.000
 4945.00    0.75823   0.77614    0.000
 4946.00    0.76080   0.77854    0.000
 4947.00    0.77301   0.78077    0.000
 4948.00    0.79363   0.78281    0.000
 4949.00    0.81854   0.78411    0.000
 4950.00    0.84119   0.78392    0.000
 4951.00    0.85307   0.78143    0.000
 4952.00    0.84664   0.77606    0.000
 4953.00    0.82707   0.76773    0.000
 4954.00    0.81230   0.75711    0.000
 4955.00    0.81217   0.74585    0.000
 4956.00    0.82258   0.73651    0.000
 4957.00    0.83684   0.73170    0.000
 4958.00    0.84990   0.73271    0.000
 4959.00    0.85764   0.73850    0.000
 4960.00    0.85657   0.74617    0.000
 4961.00    0.84407   0.75252    0.000
 4962.00    0.81945   0.75546    0.000
 4963.00    0.78667   0.75462    0.000
 4964.00    0.75390   0.75109    0.000
 4965.00    0.73013   0.74664    0.000
 4966.00    0.72152   0.74301    0.000
 4967.00    0.72508   0.74136    0.000
 4968.00    0.73217   0.74210    0.000
 4969.00    0.73927   0.74496    0.000
 4970.00    0.74745   0.74927    0.000
 4971.00    0.75650   0.75414    0.000
 4972.00    0.76430   0.75856    0.000
 4973.00    0.76804   0.76153    0.000
 4974.00    0.76547   0.76229    0.000
 4975.00    0.75674   0.76041    0.000
 4976.00    0.74392   0.75586    0.000
 4977.00    0.72982   0.74891    0.000
 4978.00    0.71731   0.74002    0.000
 4979.00    0.70872   0.72982    0.000
 4980.00    0.70567   0.71925    0.000
 4981.00    0.70890   0.70980    0.000
 4982.00    0.71663   0.70330    0.000
 4983.00    0.72286   0.70129    0.000
 4984.00    0.72156   0.70414    0.000
 4985.00    0.71155   0.71071    0.000
 4986.00    0.69713   0.71879    0.000
 4987.00    0.68761   0.72603    0.000
 4988.00    0.68995   0.73093    0.000
 4989.00    0.70233   0.73323    0.000
 4990.00    0.71742   0.73372    0.000
 4991.00    0.72660   0.73358    0.000
 4992.00    0.72726   0.73370    0.000
 4993.00    0.72663   0.73436    0.000
 4994.00    0.72900   0.73515    0.000
 4995.00    0.72810   0.73520    0.000
 4996.00    0.72039   0.73349    0.000
 4997.00    0.71234   0.72938    0.000
 4998.00    0.70907   0.72305    0.000
 4999.00    0.70887   0.71555    0.000
 5000.00    0.71323   0.70829    0.000
 5001.00    0.73153   0.70234    0.000
 5002.00    0.77508   0.69799    0.000
 5003.00    0.85130   0.69497    0.000
 5004.00    0.95156   0.69318    0.000
 5005.00    1.04935   0.69297    0.000
 5006.00    1.11607   0.69469    0.000
 5007.00    1.13091   0.69796    0.000
 5008.00    1.09110   0.70125    0.000
 5009.00    1.01288   0.70256    0.000
 5010.00    0.92050   0.70046    0.000
 5011.00    0.83799   0.69497    0.000
 5012.00    0.77613   0.68750    0.000
 5013.00    0.73247   0.68023    0.000
 5014.00    0.70408   0.67512    0.000
 5015.00    0.68983   0.67320    0.000
 5016.00    0.68573   0.67441    0.000
 5017.00    0.68535   0.67794    0.000
 5018.00    0.68373   0.68274    0.000
 5019.00    0.67922   0.68786    0.000
 5020.00    0.67488   0.69275    0.000
 5021.00    0.67565   0.69722    0.000
 5022.00    0.68174   0.70127    0.000
 5023.00    0.68953   0.70481    0.000
 5024.00    0.69594   0.70764    0.000
 5025.00    0.69925   0.70960    0.000
 5026.00    0.69903   0.71104    0.000
 5027.00    0.69658   0.71273    0.000
 5028.00    0.69547   0.71546    0.000
 5029.00    0.69906   0.71942   30.136
 5030.00    0.70685   0.72394   30.218
 5031.00    0.71602   0.72772   30.758
 5032.00    0.72416   0.72930   31.171
 5033.00    0.73004   0.72770   30.728
 5034.00    0.73388   0.72286   29.947
 5035.00    0.73469   0.71551   29.628
 5036.00    0.72770   0.70664   29.804
 5037.00    0.71076   0.69718   30.149
 5038.00    0.69074   0.68812   30.406
 5039.00    0.67727   0.68102   30.537
 5040.00    0.67593   0.67788   30.775
 5041.00    0.68783   0.68023   30.999
 5042.00    0.70978   0.68793   30.344
 5043.00    0.73453   0.69867   28.967
 5044.00    0.75213   0.70896   28.663
 5045.00    0.75828   0.71562   30.035
 5046.00    0.75908   0.71719   31.000
 5047.00    0.76043   0.71438   29.956
 5048.00    0.76112   0.70940   28.677
 5049.00    0.75781   0.70484   28.565
 5050.00    0.74899   0.70258   29.227
 5051.00    0.73797   0.70329   29.796
 5052.00    0.73245   0.70650   29.659
 5053.00    0.73385   0.71112   29.054
 5054.00    0.73433   0.71615   28.913
 5055.00    0.73022   0.72097   29.356
 5056.00    0.72719   0.72548   29.396
 5057.00    0.73340   0.72970   28.717
 5058.00    0.75366   0.73337   28.152
 5059.00    0.77923   0.73583   28.133
 5060.00    0.79030   0.73614   28.417
 5061.00    0.78015   0.73355   28.818
 5062.00    0.75945   0.72805   29.349
 5063.00    0.73948   0.72061   29.761
 5064.00    0.72578   0.71295   29.641
 5065.00    0.71712   0.70677   29.317
 5066.00    0.70849   0.70300   29.597
 5067.00    0.70021   0.70157   30.427
 5068.00    0.69744   0.70167   30.923
 5069.00    0.70213   0.70233   30.731
 5070.00    0.71131   0.70283   30.300
 5071.00    0.71842   0.70295   30.199
 5072.00    0.71763   0.70279   30.686
 5073.00    0.71216   0.70241   31.146
 5074.00    0.70925   0.70158   30.726
 5075.00    0.70685   0.69969   30.079
 5076.00    0.69837   0.69615   30.316
 5077.00    0.68596   0.69089   30.916
 5078.00    0.67677   0.68471   30.671
 5079.00    0.67259   0.67914   30.077
 5080.00    0.67238   0.67576   30.220
 5081.00    0.67861   0.67546   30.694
 5082.00    0.69318   0.67811   30.529
 5083.00    0.71062   0.68279   29.997
 5084.00    0.72306   0.68833   29.873
 5085.00    0.72779   0.69379   30.232
 5086.00    0.72657   0.69861   30.708
 5087.00    0.72341   0.70266   30.898
 5088.00    0.72138   0.70610   30.617
 5089.00    0.71974   0.70914   30.112
 5090.00    0.71748   0.71186   29.771
 5091.00    0.71688   0.71397   29.828
 5092.00    0.71971   0.71483   30.191
 5093.00    0.72382   0.71364   30.327
 5094.00    0.72696   0.70988   30.038
 5095.00    0.72982   0.70374   30.017
 5096.00    0.73199   0.69633   30.652
 5097.00    0.72955   0.68936   31.204
 5098.00    0.72100   0.68456   30.909
 5099.00    0.71087   0.68288   29.990
 5100.00    0.70415   0.68409   29.114
 5101.00    0.70221   0.68690   28.830
 5102.00    0.70255   0.68962   29.105
 5103.00    0.69972   0.69093   29.250
 5104.00    0.69113   0.69034   29.026
 5105.00    0.67964   0.68820   29.088
 5106.00    0.67034   0.68536   29.804
 5107.00    0.66798   0.68281   30.788
 5108.00    0.67346   0.68144   31.525
 5109.00    0.68290   0.68176   31.761
 5110.00    0.69056   0.68389   31.590
 5111.00    0.69149   0.68751   31.348
 5112.00    0.68642   0.69211   31.231
 5113.00    0.68173   0.69711   31.244
 5114.00    0.68261   0.70198   31.516
 5115.00    0.68990   0.70614   32.207
 5116.00    0.69821   0.70890   32.776
 5117.00    0.69920   0.70951   32.269
 5118.00    0.69291   0.70739   31.232
 5119.00    0.68732   0.70243   31.069
 5120.00    0.68805   0.69516   31.659
 5121.00    0.69513   0.68663   31.708
 5122.00    0.70259   0.67819   31.015
 5123.00    0.70257   0.67104   30.437
 5124.00    0.69472   0.66593   30.324
 5125.00    0.68438   0.66297   30.557
 5126.00    0.67434   0.66190   31.112
 5127.00    0.66542   0.66235   31.950
 5128.00    0.66074   0.66411   32.556
 5129.00    0.66449   0.66702   32.318
 5130.00    0.67827   0.67086   31.530
 5131.00    0.69929   0.67521   30.912
 5132.00    0.71890   0.67943   30.707
 5133.00    0.72751   0.68282   30.810
 5134.00    0.72237   0.68469   31.035
 5135.00    0.70738   0.68457   31.222
 5136.00    0.69106   0.68255   31.350
 5137.00    0.68073   0.67928   31.328
 5138.00    0.67605   0.67575   30.773
 5139.00    0.67275   0.67274   29.757
 5140.00    0.66793   0.67050   29.330
 5141.00    0.66136   0.66888   30.050
 5142.00    0.65589   0.66757   30.781
 5143.00    0.65402   0.66638   30.468
 5144.00    0.65471   0.66531   30.225
 5145.00    0.65596   0.66442   30.985
 5146.00    0.65707   0.66378   31.591
 5147.00    0.65689   0.66335   31.005
 5148.00    0.65273   0.66294   30.343
 5149.00    0.64375   0.66225   30.510
 5150.00    0.63329   0.66121   30.858
 5151.00    0.62637   0.66022   30.715
 5152.00    0.62746   0.66013   30.405
 5153.00    0.63762   0.66187   30.267
 5154.00    0.65333   0.66591   30.115
 5155.00    0.66895   0.67197   29.805
 5156.00    0.67886   0.67891   29.511
 5157.00    0.68043   0.68528   29.450
 5158.00    0.67523   0.68968   29.728
 5159.00    0.66750   0.69123   30.245
 5160.00    0.66229   0.68947   30.689
 5161.00    0.66093   0.68415   30.896
 5162.00    0.65979   0.67506   30.994
 5163.00    0.65349   0.66221   31.198
 5164.00    0.63763   0.64625   31.677
 5165.00    0.61377   0.62889   32.455
 5166.00    0.58931   0.61268   33.366
 5167.00    0.57105   0.60003   34.092
 5168.00    0.56279   0.59214   34.284
 5169.00    0.56479   0.58867   33.931
 5170.00    0.57402   0.58855   33.352
 5171.00    0.58555   0.59121   32.805
 5172.00    0.59477   0.59695   32.429
 5173.00    0.60213   0.60613   32.384
 5174.00    0.61182   0.61808   32.680
 5175.00    0.62572   0.63076   32.685
 5176.00    0.64155   0.64149   31.780
 5177.00    0.65227   0.64792   30.948
 5178.00    0.65042   0.64874   31.496
 5179.00    0.63682   0.64389   32.797
 5180.00    0.61813   0.63464   33.156
 5181.00    0.59952   0.62362   33.016
 5182.00    0.58513   0.61443   33.845
 5183.00    0.58098   0.61044   34.901
 5184.00    0.59087   0.61335   34.438
 5185.00    0.60983   0.62223   33.168
 5186.00    0.62834   0.63403   32.624
 5187.00    0.63988   0.64504   32.653
 5188.00    0.64322   0.65240   32.570
 5189.00    0.64354   0.65505   32.658
 5190.00    0.64544   0.65374    0.000
 5191.00    0.64521   0.65042    0.000
 5192.00    0.63932   0.64737    0.000
 5193.00    0.63381   0.64634    0.000
 5194.00    0.63638   0.64803    0.000
 5195.00    0.64770   0.65210    0.000
 5196.00    0.66485   0.65755    0.000
 5197.00    0.68488   0.66313    0.000
 5198.00    0.70271   0.66760    0.000
 5199.00    0.70984   0.66979    0.000
 5200.00    0.70201   0.66882    0.000
 5201.00    0.68423   0.66425    0.000
 5202.00    0.66448   0.65632    0.000
 5203.00    0.64881   0.64601    0.000
 5204.00    0.64024   0.63501    0.000
 5205.00    0.63841   0.62534    0.000
 5206.00    0.64043   0.61889    0.000
 5207.00    0.64206   0.61692    0.000
 5208.00    0.64159   0.61986    0.000
 5209.00    0.64139   0.62718    0.000
 5210.00    0.64560   0.63749    0.000
 5211.00    0.65735   0.64871   30.789
 5212.00    0.67233   0.65869   30.253
 5213.00    0.67927   0.66600   30.242
 5214.00    0.67412   0.67052   30.787
 5215.00    0.66363   0.67333   31.156
 5216.00    0.65552   0.67599   31.032
 5217.00    0.65414   0.67951   30.828
 5218.00    0.65970   0.68371   30.755
 5219.00    0.66891   0.68727   30.637
 5220.00    0.67815   0.68843   30.362
 5221.00    0.68421   0.68570   30.032
 5222.00    0.68332   0.67865   29.948
 5223.00    0.67291   0.66823   30.426
 5224.00    0.65691   0.65679   31.297
 5225.00    0.64350   0.64746   32.009
 5226.00    0.63611   0.64293   32.454
 5227.00    0.63368   0.64424   32.871
 5228.00    0.63627   0.65019   32.881
 5229.00    0.64375   0.65794   31.968
 5230.00    0.65082   0.66451   30.875
 5231.00    0.65149   0.66833   30.672
 5232.00    0.64941   0.66979   31.254
 5233.00    0.65267   0.67065   31.792
 5234.00    0.66152   0.67273   31.811
 5235.00    0.67079   0.67677   31.450
 5236.00    0.67723   0.68225   31.338
 5237.00    0.68005   0.68788   31.913
 5238.00    0.68005   0.69250   32.580
 5239.00    0.67912   0.69558   32.382
 5240.00    0.67978   0.69722   31.389
 5241.00    0.68379   0.69770   30.292
 5242.00    0.69066   0.69709   29.557
 5243.00    0.69879   0.69513   29.226
 5244.00    0.70680   0.69147   28.842
 5245.00    0.71236   0.68612   28.120
 5246.00    0.71121   0.67974   27.485
 5247.00    0.70143   0.67346   27.257
 5248.00    0.68704   0.66843   27.086
 5249.00    0.67277   0.66538   26.706
 5250.00    0.65935   0.66441   26.493
 5251.00    0.64590   0.66522   26.590
 5252.00    0.63235   0.66738   26.386
 5253.00    0.62170   0.67059   25.695
 5254.00    0.62062   0.67477   25.365
 5255.00    0.63344   0.67970   25.758
 5256.00    0.65784   0.68461   26.081
 5257.00    0.68465   0.68799   25.884
 5258.00    0.69990   0.68801   25.890
 5259.00    0.69612   0.68335   26.517
 5260.00    0.67753   0.67380   27.198
 5261.00    0.65268   0.66056   27.436
 5262.00    0.62991   0.64575   27.431
 5263.00    0.61515   0.63179   27.474
 5264.00    0.61076   0.62050   27.624
 5265.00    0.61483   0.61261   27.823
 5266.00    0.62176   0.60779   27.978
 5267.00    0.62548   0.60536   28.088
 5268.00    0.62217   0.60504   28.221
 5269.00    0.61491   0.60719   28.242
 5270.00    0.61206   0.61228   27.897
 5271.00    0.61634   0.62009   27.406
 5272.00    0.62354   0.62957   27.316
 5273.00    0.63003   0.63945   27.682
 5274.00    0.63513   0.64898   28.059
 5275.00    0.64071   0.65797   28.112
 5276.00    0.64971   0.66617   27.854
 5277.00    0.66278   0.67284   27.653
 5278.00    0.67778   0.67692   27.905
 5279.00    0.69067   0.67781   28.412
 5280.00    0.69726   0.67605   28.590
 5281.00    0.69641   0.67336   28.407
 5282.00    0.69052   0.67196   28.245
 5283.00    0.68517   0.67355   28.173
 5284.00    0.68557   0.67855   28.067
 5285.00    0.69084   0.68597   28.070
 5286.00    0.69630   0.69398   28.383
 5287.00    0.69919   0.70083   28.812
 5288.00    0.69924   0.70550   29.061
 5289.00    0.69815   0.70777   29.359
 5290.00    0.69841   0.70782   30.015
 5291.00    0.70175   0.70582   30.612
 5292.00    0.70761   0.70175   30.596
 5293.00    0.71170   0.69555   30.344
 5294.00    0.70878   0.68745   30.428
 5295.00    0.69641   0.67831   30.677
 5296.00    0.67671   0.66961   30.783
 5297.00    0.65728   0.66314   31.028
 5298.00    0.64564   0.66021   31.746
 5299.00    0.64376   0.66122   32.695
 5300.00    0.65030   0.66557   33.359
 5301.00    0.66310   0.67215   33.400
 5302.00    0.67888   0.67974   32.758
 5303.00    0.69314   0.68718   31.659
 5304.00    0.70231   0.69356   30.707
 5305.00    0.70538   0.69831   30.749
 5306.00    0.70333   0.70144   31.871
 5307.00    0.69864   0.70334   32.777
 5308.00    0.69466   0.70447   32.514
 5309.00    0.69478   0.70495   31.865
 5310.00    0.69902   0.70463   31.384
 5311.00    0.70306   0.70323   30.584
 5312.00    0.70368   0.70071   29.610
 5313.00    0.70121   0.69732   29.507
 5314.00    0.69629   0.69363   30.357
 5315.00    0.68874   0.69028   30.837
 5316.00    0.67954   0.68777   30.513
 5317.00    0.67115   0.68626   30.584
 5318.00    0.66450   0.68539   31.343
 5319.00    0.65848   0.68440   31.640
 5320.00    0.65285   0.68241   31.179
 5321.00    0.64902   0.67875   30.950
 5322.00    0.64867   0.67307   31.084
 5323.00    0.65261   0.66544   30.770
 5324.00    0.65886   0.65624   30.178
 5325.00    0.66321   0.64632   30.304
 5326.00    0.66263   0.63716   31.090
 5327.00    0.65660   0.63076   31.450
 5328.00    0.64755   0.62902   31.007
 5329.00    0.64008   0.63270   30.371
 5330.00    0.63851   0.64092   30.150
 5331.00    0.64461   0.65149   30.546
 5332.00    0.65390   0.66196   30.945
 5333.00    0.65900   0.67045   30.483
 5334.00    0.65786   0.67596   29.630
 5335.00    0.65287   0.67822   29.418
 5336.00    0.64581   0.67741   29.837
 5337.00    0.63761   0.67423   30.335
 5338.00    0.62957   0.66988   30.963
 5339.00    0.62440   0.66584   32.000
 5340.00    0.62712   0.66342   32.837
 5341.00    0.64010   0.66316   32.624
 5342.00    0.65616   0.66458   31.850
 5343.00    0.66554   0.66655   31.433
 5344.00    0.66630   0.66797   31.388
 5345.00    0.66243   0.66840   31.346
 5346.00    0.65954   0.66820   31.233
 5347.00    0.66058   0.66829   31.172
 5348.00    0.66230   0.66963   31.289
 5349.00    0.66074   0.67285   31.655
 5350.00    0.65721   0.67803   -2.000
 5351.00    0.65583   0.68463   -2.000
 5352.00    0.66043   0.69181   -2.000
 5353.00    0.67297   0.69867   -2.000
 5354.00    0.69241   0.70454   -2.000
 5355.00    0.71547   0.70891   -2.000
 5356.00    0.73742   0.71146   -2.000
 5357.00    0.75276   0.71196   -2.000
 5358.00    0.75643   0.71030   -2.000
 5359.00    0.74926   0.70661   -2.000
 5360.00    0.73951   0.70136   -2.000
 5361.00    0.73024   0.69523   -2.000
 5362.00    0.71405   0.68902   -2.000
 5363.00    0.68943   0.68330   -2.000
 5364.00    0.66742   0.67821   -2.000
 5365.00    0.65684   0.67342   30.749
 5366.00    0.65721   0.66839   31.064
 5367.00    0.66321   0.66278   31.112
 5368.00    0.66813   0.65694   30.895
 5369.00    0.66900   0.65208   30.735
 5370.00    0.66785   0.64989   31.157
 5371.00    0.66780   0.65166   31.835
 5372.00    0.67084   0.65744   31.605
 5373.00    0.67592   0.66590   30.692
 5374.00    0.67963   0.67487   30.537
 5375.00    0.68116   0.68242   31.075
 5376.00    0.68235   0.68748   30.865
 5377.00    0.68293   0.68991   29.990
 5378.00    0.68050   0.69016   29.863
 5379.00    0.67440   0.68889   30.515
 5380.00    0.66576   0.68680   30.798
 5381.00    0.65475   0.68461   30.575
 5382.00    0.64239   0.68293   30.634
 5383.00    0.63600   0.68204   30.852
 5384.00    0.64361   0.68175   30.549
 5385.00    0.65970   0.68145   30.141
 5386.00    0.67060   0.68038   30.509
 5387.00    0.67116   0.67808   31.299
 5388.00    0.66402   0.67453   31.464
 5389.00    0.65240   0.67019   31.141
 5390.00    0.63895   0.66567   31.205
 5391.00    0.62592   0.66137   31.864
 5392.00    0.61578   0.65733   32.692
 5393.00    0.61175   0.65342   32.932
 5394.00    0.61507   0.64963   32.293
 5395.00    0.62142   0.64639   31.830
 5396.00    0.62611   0.64447   32.485
 5397.00    0.63109   0.64440   33.540
 5398.00    0.64006   0.64603   33.778
 5399.00    0.65197   0.64827   33.483
 5400.00    0.66149   0.64956   33.401
 5401.00    0.66110   0.64854   33.309
 5402.00    0.64787   0.64481   32.911
 5403.00    0.62935   0.63911   32.722
 5404.00    0.61617   0.63302   33.154
 5405.00    0.61457   0.62826   33.764
 5406.00    0.62421   0.62592   33.971
 5407.00    0.63780   0.62623   33.794
 5408.00    0.64907   0.62883   33.528
 5409.00    0.65823   0.63323   33.383
 5410.00    0.66720   0.63909   33.362
 5411.00    0.67601   0.64603   33.250
 5412.00    0.68345   0.65350   33.021
 5413.00    0.68773   0.66083   32.983
 5414.00    0.68789   0.66736   33.205
 5415.00    0.68435   0.67261   33.294
 5416.00    0.67816   0.67624   33.065
 5417.00    0.67074   0.67811   32.828
 5418.00    0.66449   0.67831   32.859
 5419.00    0.66248   0.67719   33.153
 5420.00    0.66553   0.67528   33.442
 5421.00    0.67121   0.67317   33.331
 5422.00    0.67554   0.67130   32.942
 5423.00    0.67480   0.66993   32.851
 5424.00    0.66960   0.66896   32.989
 5425.00    0.66443   0.66784   32.642
 5426.00    0.66094   0.66580   31.832
 5427.00    0.65660   0.66229   31.332
 5428.00    0.64801   0.65746   31.456
 5429.00    0.63335   0.65208   31.957
 5430.00    0.61595   0.64715   32.464
 5431.00    0.60291   0.64338   32.633
 5432.00    0.59866   0.64114   32.314
 5433.00    0.60342   0.64075   31.662
 5434.00    0.61366   0.64264   31.180
 5435.00    0.62463   0.64712   31.251
 5436.00    0.63535   0.65406   31.265
 5437.00    0.64709   0.66261   30.376
 5438.00    0.65799   0.67136   29.366
 5439.00    0.66521   0.67871   29.496
 5440.00    0.67071   0.68329   30.605
 5441.00    0.67788   0.68418   31.612
 5442.00    0.68413   0.68111   31.966
 5443.00    0.68394   0.67459   31.911
 5444.00    0.67571   0.66606   32.035
 5445.00    0.66255   0.65761   32.632
 5446.00    0.65153   0.65138   32.968
 5447.00    0.64829   0.64863   32.387
 5448.00    0.65038   0.64913   31.948
 5449.00    0.65266   0.65133   32.742
 5450.00    0.65463   0.65315   34.045
 5451.00    0.65688   0.65302   34.470
 5452.00    0.65649   0.65061   34.044
 5453.00    0.65064   0.64690   33.547
 5454.00    0.64074   0.64366   33.307
 5455.00    0.63104   0.64246   33.235
 5456.00    0.62665   0.64389   32.999
 5457.00    0.63033   0.64723   32.499
 5458.00    0.64018   0.65089   32.163
 5459.00    0.65201   0.65332   32.329
 5460.00    0.66157   0.65385   -2.000
 5461.00    0.66535   0.65292   -2.000
 5462.00    0.66144   0.65161   -2.000
 5463.00    0.65170   0.65099   -2.000
 5464.00    0.64202   0.65155   -2.000
 5465.00    0.63498   0.65305   -2.000
 5466.00    0.62670   0.65482   -2.000
 5467.00    0.61521   0.65605   -2.000
 5468.00    0.60535   0.65619   -2.000
 5469.00    0.60852   0.65497   -2.000
 5470.00    0.63842   0.65240   -2.000
 5471.00    0.69204   0.64868   -2.000
 5472.00    0.74574   0.64412   -2.000
 5473.00    0.77726   0.63918   -2.000
 5474.00    0.77630   0.63453   -2.000
 5475.00    0.74670   0.63094   -2.000
 5476.00    0.70405   0.62908   -2.000
 5477.00    0.66436   0.62918   -2.000
 5478.00    0.63799   0.63089   -2.000
 5479.00    0.62403   0.63357   -2.000
 5480.00    0.61336   0.63669   -2.000
 5481.00    0.60326   0.64003   -2.000
 5482.00    0.59899   0.64355   -2.000
 5483.00    0.60556   0.64700   -2.000
 5484.00    0.62367   0.64985   30.596
 5485.00    0.64554   0.65159   30.212
 5486.00    0.65829   0.65214   30.402
 5487.00    0.65399   0.65191   31.140
 5488.00    0.63328   0.65157   31.502
 5489.00    0.60754   0.65159   31.573
 5490.00    0.59263   0.65202   32.094
 5491.00    0.59593   0.65258   32.747
 5492.00    0.61552   0.65290   32.637
 5493.00    0.64349   0.65279   32.056
 5494.00    0.67038   0.65229   31.847
 5495.00    0.69127   0.65161   31.954
 5496.00    0.70423   0.65096   31.922
 5497.00    0.70666   0.65037   31.870
 5498.00    0.69704   0.64967   32.088
 5499.00    0.67813   0.64857   32.334
 5500.00    0.65649   0.64687   32.313
 5501.00    0.64092   0.64466   32.416
 5502.00    0.63711   0.64224   33.022
 5503.00    0.64208   0.64000   33.639
 5504.00    0.64940   0.63822   33.734
 5505.00    0.65540   0.63710   33.823
 5506.00    0.65832   0.63662   34.333
 5507.00    0.65695   0.63657   34.454
 5508.00    0.65067   0.63646   33.679
 5509.00    0.63983   0.63582   33.104
 5510.00    0.62633   0.63448   33.425
 5511.00    0.61401   0.63279   33.700
 5512.00    0.60661   0.63154   33.056
 5513.00    0.60603   0.63164   32.045
 5514.00    0.61076   0.63364   31.349
 5515.00    0.61574   0.63754   31.030
 5516.00    0.61803   0.64275   30.901
 5517.00    0.61960   0.64836   30.766
 5518.00    0.62200   0.65339   30.648
 5519.00    0.62394   0.65710   30.838
 5520.00    0.62605   0.65909   31.456
 5521.00    0.63218   0.65931   32.231
 5522.00    0.64241   0.65786   32.675
 5523.00    0.65092   0.65493   32.342
 5524.00    0.65177   0.65087   31.451
 5525.00    0.64270   0.64631   30.776
 5526.00    0.62888   0.64214   30.653
 5527.00    0.62117   0.63929   30.861
 5528.00    0.62385   0.63833   31.115
 5529.00    0.63236   0.63918   31.228
 5530.00    0.64156   0.64106   31.115
 5531.00    0.64871   0.64301   30.835
 5532.00    0.65337   0.64435   30.704
 5533.00    0.65624   0.64500   31.061
 5534.00    0.65634   0.64539   31.573
 5535.00    0.65149   0.64613   31.487
 5536.00    0.64187   0.64759   31.115
 5537.00    0.63049   0.64973   31.434
 5538.00    0.62200   0.65213   32.318
 5539.00    0.62067   0.65417   32.754
 5540.00    0.62684   0.65534   32.546
 5541.00    0.63715   0.65544   32.327
 5542.00    0.64687   0.65469   32.467
 5543.00    0.65224   0.65371   32.919
 5544.00    0.65372   0.65320   33.301
 5545.00    0.65418   0.65369   33.263
 5546.00    0.65466   0.65527   33.151
 5547.00    0.65495   0.65757   33.412
 5548.00    0.65537   0.65991   33.559
 5549.00    0.65598   0.66156   32.996
 5550.00    0.65515   0.66204   32.392
 5551.00    0.65122   0.66124   32.577
 5552.00    0.64505   0.65946   33.190
 5553.00    0.63881   0.65721   33.358
 5554.00    0.63427   0.65502   32.831
 5555.00    0.63257   0.65320   31.961
 5556.00    0.63429   0.65185   31.304
 5557.00    0.63911   0.65081   31.146
 5558.00    0.64564   0.64982   31.238
 5559.00    0.65133   0.64860   31.234
 5560.00    0.65295   0.64699   31.097
 5561.00    0.64991   0.64497   30.853
 5562.00    0.64646   0.64266   30.399
 5563.00    0.64556   0.64030   29.753
 5564.00    0.64446   0.63811   29.194
 5565.00    0.63929   0.63631   28.980
 5566.00    0.62868   0.63505   29.179
 5567.00    0.61446   0.63439   29.535
 5568.00    0.60172   0.63429   29.462
 5569.00    0.59771   0.63463   28.846
 5570.00    0.60949   0.63526   28.312
 5571.00    0.63528   0.63610   28.039
 5572.00    0.66203   0.63717   27.461
 5573.00    0.67771   0.63850   26.460
 5574.00    0.67826   0.64007   25.623
 5575.00    0.66932   0.64176   25.257
 5576.00    0.66364   0.64336   25.189
 5577.00    0.66707   0.64463   25.151
 5578.00    0.67466   0.64539   24.939
 5579.00    0.67925   0.64544   24.538
 5580.00    0.67648   0.64456   24.123
 5581.00    0.66958   0.64250   23.953
 5582.00    0.66693   0.63903   24.258
 5583.00    0.66894   0.63405   24.975
 5584.00    0.66770   0.62778   25.787
 5585.00    0.65917   0.62082   26.657
 5586.00    0.64573   0.61421   27.844
 5587.00    0.63262   0.60908   29.146
 5588.00    0.62493   0.60627   29.871
 5589.00    0.62293   0.60601   29.970
 5590.00    0.62302   0.60796   30.087
 5591.00    0.62276   0.61138   30.572
 5592.00    0.62169   0.61545   31.304
 5593.00    0.62042   0.61948   31.791
 5594.00    0.61994   0.62284   31.552
 5595.00    0.62049   0.62499   30.907
 5596.00    0.62135   0.62552   30.570
 5597.00    0.62064   0.62438   30.836
 5598.00    0.61705   0.62204   31.536
 5599.00    0.61250   0.61943   32.013
 5600.00    0.60965   0.61770   31.691
 5601.00    0.60793   0.61783   31.066
 5602.00    0.60636   0.62035   30.855
 5603.00    0.60796   0.62513   30.872
 5604.00    0.61569   0.63142   30.703
 5605.00    0.62687   0.63812   30.605
 5606.00    0.63716   0.64410   30.866
 5607.00    0.64578   0.64861   31.021
 5608.00    0.65282   0.65126   30.704
 5609.00    0.65612   0.65198   30.569
 5610.00    0.65352   0.65073   31.058
 5611.00    0.64533   0.64748   31.300
 5612.00    0.63346   0.64242   30.672
 5613.00    0.62048   0.63615   30.192
 5614.00    0.60943   0.62981   30.630
 5615.00    0.60358   0.62468   31.315
 5616.00    0.60437   0.62169   31.454
 5617.00    0.61008   0.62100   31.292
 5618.00    0.61750   0.62198   31.411
 5619.00    0.62323   0.62359   32.071
 5620.00    0.62439   0.62478   32.736
 5621.00    0.61939   0.62492   32.167
 5622.00    0.61062   0.62399   31.505
 5623.00    0.60463   0.62259   34.221
 5624.00    0.60481   0.62162   37.450
 5625.00    0.60857   0.62194   28.835
 5626.00    0.61325   0.62393   19.045
 5627.00    0.61859   0.62733   15.474
 5628.00    0.62453   0.63139   15.458
 5629.00    0.63025   0.63518   16.121
 5630.00    0.63475   0.63791   15.940
 5631.00    0.63729   0.63914   15.601
 5632.00    0.63835   0.63876   15.609
 5633.00    0.63909   0.63699   15.675
 5634.00    0.63887   0.63427   15.660
 5635.00    0.63556   0.63112   15.744
 5636.00    0.62956   0.62805   15.913
 5637.00    0.62376   0.62543   15.964
 5638.00    0.62003   0.62346   16.034
 5639.00    0.61874   0.62223   16.382
 5640.00    0.62053   0.62173   16.371
 5641.00    0.62630   0.62193   15.353
 5642.00    0.63624   0.62276   15.083
 5643.00    0.64883   0.62406   18.232
 5644.00    0.65963   0.62562   26.751
 5645.00    0.66301   0.62720   34.243
 5646.00    0.65647   0.62868   32.524
 5647.00    0.64157   0.63004   30.905
 5648.00    0.62395   0.63132   31.458
 5649.00    0.61053   0.63253   31.057
 5650.00    0.60471   0.63348   29.981
 5651.00    0.60626   0.63385   30.128
 5652.00    0.61229   0.63320   30.818
 5653.00    0.61737   0.63120   30.432
 5654.00    0.61393   0.62778   29.668
 5655.00    0.59787   0.62327   29.704
 5656.00    0.57550   0.61832   29.656
 5657.00    0.55697   0.61377   28.471
 5658.00    0.54748   0.61039   27.251
 5659.00    0.54834   0.60867   27.052
 5660.00    0.55928   0.60864   27.246
 5661.00    0.57805   0.61000   27.158
 5662.00    0.60009   0.61226   27.594
 5663.00    0.62064   0.61486   29.210
 5664.00    0.63660   0.61734   30.749
 5665.00    0.64540   0.61937   30.916
 5666.00    0.64423   0.62091   31.046
 5667.00    0.63366   0.62217   32.344
 5668.00    0.62012   0.62357   33.589
 5669.00    0.61214   0.62547   33.404
 5670.00    0.61671   0.62799   32.594
 5671.00    0.63360   0.63094   32.084
 5672.00    0.65329   0.63388   31.681
 5673.00    0.66613   0.63636   31.253
 5674.00    0.66805   0.63801   31.184
 5675.00    0.65984   0.63864   31.320
 5676.00    0.64600   0.63824   30.701
 5677.00    0.63143   0.63689   29.228
 5678.00    0.61982   0.63475   27.919
 5679.00    0.61402   0.63206   27.135
 5680.00    0.61547   0.62915   26.466
 5681.00    0.62061   0.62634   25.899
 5682.00    0.62190   0.62392   25.944
 5683.00    0.61699   0.62201   26.810
 5684.00    0.61038   0.62065   28.197
 5685.00    0.60606   0.61984   29.436
 5686.00    0.60523   0.61971   29.738
 5687.00    0.60771   0.62045   29.181
 5688.00    0.61281   0.62225   28.660
 5689.00    0.62019   0.62500   28.724
 5690.00    0.62963   0.62827   29.378
 5691.00    0.63933   0.63137   30.121
 5692.00    0.64622   0.63362   30.229
 5693.00    0.64764   0.63454   29.868
 5694.00    0.64287   0.63402   29.784
 5695.00    0.63537   0.63221   29.978
 5696.00    0.63042   0.62943   29.959
 5697.00    0.62916   0.62608   29.854
 5698.00    0.62931   0.62257   30.128
 5699.00    0.62907   0.61927   30.640
 5700.00    0.62728   0.61650   30.940
 5701.00    0.62247   0.61439   31.218
 5702.00    0.61433   0.61278   31.883
 5703.00    0.60622   0.61127   32.536
 5704.00    0.60199   0.60938   32.495
 5705.00    0.60094   0.60684   32.060
 5706.00    0.60041   0.60375   31.839
 5707.00    0.60016   0.60068   31.669
 5708.00    0.60127   0.59841   31.194
 5709.00    0.60405   0.59771   30.664
 5710.00    0.60810   0.59900   30.497
 5711.00    0.61287   0.60225   30.771
 5712.00    0.61855   0.60701   31.192
 5713.00    0.62675   0.61255   31.121
 5714.00    0.63747   0.61811   30.400
 5715.00    0.64657   0.62311   29.936
 5716.00    0.65079   0.62730   30.279
 5717.00    0.65194   0.63071   30.689
 5718.00    0.65308   0.63355   30.365
 5719.00    0.65525   0.63598   29.612
 5720.00    0.65796   0.63801   29.065
 5721.00    0.65994   0.63947   29.040
 5722.00    0.66068   0.64011   29.323
 5723.00    0.66122   0.63976   29.139
 5724.00    0.66236   0.63847   28.309
 5725.00    0.66354   0.63651   27.678
 5726.00    0.66269   0.63435   27.712
 5727.00    0.65720   0.63242   28.058
 5728.00    0.64882   0.63103   28.314
 5729.00    0.64431   0.63030   28.421
 5730.00    0.64586   0.63024   28.446
 5731.00    0.64849   0.63076   28.464
 5732.00    0.64964   0.63173   28.555
 5733.00    0.65177   0.63289   28.792
 5734.00    0.65510   0.63389   29.194
 5735.00    0.65629   0.63445   29.705
 5736.00    0.65450   0.63441   30.256
 5737.00    0.65286   0.63387   30.725
 5738.00    0.65529   0.63308   30.738
 5739.00    0.66363   0.63238   29.986
 5740.00    0.67224   0.63199    0.000
 5741.00    0.67097   0.63205    0.000
 5742.00    0.65792   0.63246    0.000
 5743.00    0.64051   0.63300    0.000
 5744.00    0.62839   0.63338    0.000
 5745.00    0.62824   0.63335    0.000
 5746.00    0.63652   0.63282    0.000
 5747.00    0.64371   0.63184    0.000
 5748.00    0.64716   0.63055    0.000
 5749.00    0.65022   0.62902    0.000
 5750.00    0.65479   0.62732    0.000
 5751.00    0.66028   0.62567    0.000
 5752.00    0.66476   0.62442    0.000
 5753.00    0.66678   0.62405    0.000
 5754.00    0.66803   0.62477    0.000
 5755.00    0.67185   0.62632    0.000
 5756.00    0.68006   0.62797    0.000
 5757.00    0.69066   0.62881    0.000
 5758.00    0.69567   0.62826    0.000
 5759.00    0.68761   0.62644    0.000
 5760.00    0.66804   0.62411    0.000
 5761.00    0.64457   0.62238    0.000
 5762.00    0.62570   0.62214    0.000
 5763.00    0.61640   0.62369    0.000
 5764.00    0.61436   0.62662    0.000
 5765.00    0.61530   0.63009    0.000
 5766.00    0.61847   0.63318    0.000
 5767.00    0.62385   0.63522    0.000
 5768.00    0.62945   0.63599    0.000
 5769.00    0.63336   0.63561    0.000
 5770.00    0.63544   0.63446    0.000
 5771.00    0.63409   0.63294    0.000
 5772.00    0.62459   0.63139   -2.000
 5773.00    0.60638   0.63000   -2.000
 5774.00    0.58731   0.62872   -2.000
 5775.00    0.57640   0.62726   -2.000
 5776.00    0.57850   0.62518   -2.000
 5777.00    0.59224   0.62205   -2.000
 5778.00    0.61011   0.61773   -2.000
 5779.00    0.62477   0.61247   -2.000
 5780.00    0.63224   0.60691   -2.000
 5781.00    0.63012   0.60193   -2.000
 5782.00    0.61741   0.59833   -2.000
 5783.00    0.59788   0.59661   -2.000
 5784.00    0.58009   0.59692   -2.000
 5785.00    0.57068   0.59899   -2.000
 5786.00    0.57182   0.60226   -2.000
 5787.00    0.58328   0.60607   -2.000
 5788.00    0.60265   0.60985   -2.000
 5789.00    0.62369   0.61328   -2.000
 5790.00    0.63834   0.61631   -2.000
 5791.00    0.64480   0.61907   -2.000
 5792.00    0.64748   0.62159    0.000
 5793.00    0.64875   0.62379    0.000
 5794.00    0.64795   0.62548    0.000
 5795.00    0.64541   0.62665    0.000
 5796.00    0.64337   0.62751    0.000
 5797.00    0.64552   0.62844    0.000
 5798.00    0.65411   0.62973    0.000
 5799.00    0.66426   0.63135    0.000
 5800.00    0.66794   0.63289    0.000
 5801.00    0.66485   0.63382    0.000
 5802.00    0.66006   0.63378    0.000
 5803.00    0.65521   0.63283    0.000
 5804.00    0.64896   0.63139    0.000
 5805.00    0.64088   0.63003    0.000
 5806.00    0.63182   0.62918    0.000
 5807.00    0.62358   0.62900    0.000
 5808.00    0.61813   0.62928    0.000
 5809.00    0.61672   0.62965    0.000
 5810.00    0.62003   0.62972    0.000
 5811.00    0.62843   0.62923    0.000
 5812.00    0.63929   0.62817    0.000
 5813.00    0.64428   0.62680    0.000
 5814.00    0.63796   0.62559    0.000
 5815.00    0.62725   0.62504    0.000
 5816.00    0.62277   0.62545    0.000
 5817.00    0.62871   0.62680    0.000
 5818.00    0.64316   0.62874    0.000
 5819.00    0.65970   0.63071    0.000
 5820.00    0.67118   0.63226    0.000
 5821.00    0.67310   0.63316    0.000
 5822.00    0.66581   0.63347    0.000
 5823.00    0.65534   0.63345    0.000
 5824.00    0.64854   0.63339    0.000
 5825.00    0.64915   0.63346    0.000
 5826.00    0.65660   0.63368    0.000
 5827.00    0.66584   0.63394    0.000
 5828.00    0.67030   0.63408    0.000
 5829.00    0.66483   0.63393    0.000
 5830.00    0.65154   0.63340    0.000
 5831.00    0.64085   0.63248    0.000
 5832.00    0.63962   0.63129    0.000
 5833.00    0.64592   0.63002    0.000
 5834.00    0.65457   0.62893    0.000
 5835.00    0.66049   0.62820    0.000
 5836.00    0.66091   0.62798    0.000
 5837.00    0.65665   0.62833    0.000
 5838.00    0.65317   0.62917    0.000
 5839.00    0.65782   0.63032    0.000
 5840.00    0.66820   0.63144    0.000
 5841.00    0.67266   0.63216    0.000
 5842.00    0.66634   0.63214    0.000
 5843.00    0.65378   0.63121    0.000
 5844.00    0.64008   0.62942    0.000
 5845.00    0.62858   0.62704    0.000
 5846.00    0.62258   0.62437    0.000
 5847.00    0.62402   0.62163    0.000
 5848.00    0.62900   0.61890    0.000
 5849.00    0.63061   0.61611    0.000
 5850.00    0.62805   0.61316    0.000
 5851.00    0.62546   0.61001    0.000
 5852.00    0.62445   0.60675    0.000
 5853.00    0.62344   0.60356    0.000
 5854.00    0.61973   0.60063    0.000
 5855.00    0.61238   0.59822    0.000
 5856.00    0.60656   0.59658    0.000
 5857.00    0.60828   0.59594    0.000
 5858.00    0.61477   0.59640    0.000
 5859.00    0.61859   0.59782    0.000
 5860.00    0.61623   0.59983    0.000
 5861.00    0.60875   0.60198    0.000
 5862.00    0.60053   0.60386    0.000
 5863.00    0.59673   0.60528    0.000
 5864.00    0.60015   0.60633    0.000
 5865.00    0.60914   0.60723    0.000
 5866.00    0.61617   0.60822    0.000
 5867.00    0.61573   0.60937    0.000
 5868.00    0.61251   0.61049    0.000
 5869.00    0.61473   0.61119    0.000
 5870.00    0.62678   0.61103    0.000
 5871.00    0.64910   0.60973    0.000
 5872.00    0.67890   0.60735    0.000
 5873.00    0.71074   0.60425    0.000
 5874.00    0.73728   0.60103    0.000
 5875.00    0.75127   0.59823    0.000
 5876.00    0.74738   0.59620    0.000
 5877.00    0.72443   0.59499    0.000
 5878.00    0.68697   0.59438    0.000
 5879.00    0.64524   0.59408    0.000
 5880.00    0.61315   0.59369    0.000
 5881.00    0.59729   0.59274    0.000
 5882.00    0.59196   0.59062    0.000
 5883.00    0.58920   0.58648    0.000
 5884.00    0.58457   0.57947    0.000
 5885.00    0.57745   0.56906    0.000
 5886.00    0.57008   0.55548    0.000
 5887.00    0.56301   0.54003    0.000
 5888.00    0.55426   0.52483    0.000
 5889.00    0.54476   0.51215    0.000
 5890.00    0.53905   0.50354    0.000
 5891.00    0.53910   0.49936    0.000
 5892.00    0.54341   0.49881    0.000
 5893.00    0.55218   0.50065    0.000
 5894.00    0.56693   0.50410    0.000
 5895.00    0.58318   0.50913    0.000
 5896.00    0.59198   0.51616    0.000
 5897.00    0.59111   0.52550    0.000
 5898.00    0.58673   0.53676    0.000
 5899.00    0.58835   0.54890    0.000
 5900.00    0.60282   0.56060    0.000
 5901.00    0.62356   0.57072   16.970
 5902.00    0.63557   0.57870   15.046
 5903.00    0.63234   0.58454   15.612
 5904.00    0.61753   0.58864   16.403
 5905.00    0.60007   0.59156   16.686
 5906.00    0.58822   0.59377   17.112
 5907.00    0.58064   0.59548   17.345
 5908.00    0.57109   0.59668   16.887
 5909.00    0.55919   0.59722   17.488
 5910.00    0.54998   0.59692   21.910
 5911.00    0.55000   0.59578   30.857
 5912.00    0.56270   0.59403   34.805
 5913.00    0.58301   0.59214   31.546
 5914.00    0.60162   0.59064   30.717
 5915.00    0.61167   0.58995   32.335
 5916.00    0.60975   0.59021   32.865
 5917.00    0.59590   0.59128   32.147
 5918.00    0.57424   0.59277   31.867
 5919.00    0.55307   0.59432   32.096
 5920.00    0.53984   0.59564   32.122
 5921.00    0.53606   0.59664   31.566
 5922.00    0.53980   0.59733   30.661
 5923.00    0.54871   0.59775   30.149
 5924.00    0.56044   0.59788   30.319
 5925.00    0.57277   0.59769   30.475
 5926.00    0.58282   0.59718   30.170
 5927.00    0.58695   0.59639   30.106
 5928.00    0.58449   0.59552   30.637
 5929.00    0.57989   0.59477   30.859
 5930.00    0.57735   0.59429   30.282
 5931.00    0.57753   0.59413   29.841
 5932.00    0.57962   0.59424   30.192
 5933.00    0.58282   0.59460   30.947
 5934.00    0.58676   0.59513   31.448
 5935.00    0.59144   0.59575   31.345
 5936.00    0.59619   0.59634   31.006
 5937.00    0.59971   0.59674   31.311
 5938.00    0.60269   0.59679   32.220
 5939.00    0.60769   0.59652   32.455
 5940.00    0.61322   0.59614   31.803
 5941.00    0.61298   0.59594   31.638
 5942.00    0.60324   0.59607   32.384
 5943.00    0.58577   0.59654   33.111
 5944.00    0.56724   0.59711   33.314
 5945.00    0.55682   0.59745   33.435
 5946.00    0.55935   0.59726   33.626
 5947.00    0.57321   0.59647   33.538
 5948.00    0.59120   0.59524   33.181
 5949.00    0.60375   0.59383   32.963
 5950.00    0.60690   0.59250   33.109
 5951.00    0.60283   0.59137   33.524
 5952.00    0.59534   0.59048   33.795
 5953.00    0.58793   0.58983   33.495
 5954.00    0.58210   0.58945   32.953
 5955.00    0.57836   0.58947   32.824
 5956.00    0.57909   0.59001   32.989
 5957.00    0.58687   0.59118   32.850
 5958.00    0.59994   0.59296   32.303
 5959.00    0.61315   0.59514   31.643
 5960.00    0.62117   0.59734   31.013
 5961.00    0.62027   0.59919   30.502
 5962.00    0.61004   0.60049   30.399
 5963.00    0.59394   0.60122   30.955
 5964.00    0.57913   0.60158   31.962
 5965.00    0.57220   0.60187   32.852
 5966.00    0.57334   0.60237   33.071
 5967.00    0.57932   0.60319   32.610
 5968.00    0.58830   0.60421   32.368
 5969.00    0.59828   0.60516   32.978
 5970.00    0.60492   0.60563   33.620
 5971.00    0.60458   0.60532   33.343
 5972.00    0.59782   0.60404   32.835
 5973.00    0.58859   0.60185   33.002
 5974.00    0.58263   0.59904   33.603
 5975.00    0.58316   0.59612   33.972
 5976.00    0.58748   0.59355   33.829
 5977.00    0.58974   0.59163   33.465
 5978.00    0.58421   0.59037   33.617
 5979.00    0.57043   0.58952   34.405
 5980.00    0.55598   0.58878   34.675
 5981.00    0.54939   0.58793   33.769
 5982.00    0.55465   0.58695   32.707
 5983.00    0.56982   0.58611   32.234
 5984.00    0.58724   0.58575   32.031
 5985.00    0.59917   0.58612   31.785
 5986.00    0.60176   0.58720   31.637
 5987.00    0.59751   0.58882   31.604
 5988.00    0.59466   0.59070   31.379
 5989.00    0.59755   0.59259   30.909
 5990.00    0.60329   0.59433   30.525
 5991.00    0.60853   0.59576   30.296
 5992.00    0.61245   0.59678   29.941
 5993.00    0.61550   0.59727   29.480
 5994.00    0.61838   0.59713   29.272
 5995.00    0.62033   0.59637   29.295
 5996.00    0.61954   0.59513   29.133
 5997.00    0.61691   0.59366   28.794
 5998.00    0.61574   0.59221   28.730
 5999.00    0.61678   0.59099   29.067
 6000.00    0.61751   0.59005   29.534
 6001.00    0.61506   0.58925   29.901
 6002.00    0.60797   0.58841   30.169
 6003.00    0.59842   0.58736   30.666
 6004.00    0.59115   0.58617   31.763
 6005.00    0.58941   0.58502   32.985
 6006.00    0.59352   0.58413   33.241
 6007.00    0.60014   0.58366   32.627
 6008.00    0.60386   0.58367   32.191
 6009.00    0.60099   0.58406   32.414
 6010.00    0.59078   0.58455   33.147
 6011.00    0.57633   0.58484   33.780
 6012.00    0.56256   0.58475   33.717
 6013.00    0.55279   0.58427   33.312
 6014.00    0.54854   0.58349   33.203
 6015.00    0.55036   0.58254   33.103
 6016.00    0.55780   0.58162   32.464
 6017.00    0.56908   0.58089   31.596
 6018.00    0.58075   0.58044   31.044
 6019.00    0.58751   0.58031   30.790
 6020.00    0.58621   0.58062   30.658
 6021.00    0.58049   0.58144   30.790
 6022.00    0.57649   0.58278   31.211
 6023.00    0.57737   0.58461   31.329
 6024.00    0.58297   0.58682   30.785
 6025.00    0.59043   0.58922   30.317
 6026.00    0.59814   0.59164   30.538
 6027.00    0.60876   0.59392   31.016
 6028.00    0.62310   0.59597   31.286
 6029.00    0.63531   0.59775   31.751
 6030.00    0.64002   0.59926   32.600
 6031.00    0.63785   0.60050   32.914
 6032.00    0.63095   0.60151   32.297
 6033.00    0.61984   0.60229   31.955
 6034.00    0.60685   0.60277   32.537
 6035.00    0.59748   0.60289   33.124
 6036.00    0.59431   0.60270   33.035
 6037.00    0.59396   0.60223   32.937
 6038.00    0.59266   0.60165   33.217
 6039.00    0.58919   0.60120   33.255
 6040.00    0.58388   0.60106   32.670
 6041.00    0.57818   0.60138   31.877
 6042.00    0.57610   0.60215   31.300
 6043.00    0.58299   0.60322   31.050
 6044.00    0.59740   0.60439   30.995
 6045.00    0.61001   0.60545   30.858
 6046.00    0.61312   0.60621   30.523
 6047.00    0.60499   0.60651   30.161
 6048.00    0.59090   0.60630   30.232
 6049.00    0.58080   0.60555   31.214
 6050.00    0.58051   0.60431   32.551
 6051.00    0.58968   0.60264   32.622
 6052.00    0.60500   0.60065   31.232
 6053.00    0.62142   0.59859   29.768
 6054.00    0.63305   0.59676   28.995
 6055.00    0.63426   0.59543   28.986
 6056.00    0.62215   0.59471   29.650
 6057.00    0.59859   0.59455   30.822
 6058.00    0.57331   0.59471   32.223
 6059.00    0.55906   0.59475   33.454
 6060.00    0.55968   0.59428   34.146
 6061.00    0.56994   0.59325   34.229
 6062.00    0.58042   0.59196   34.209
 6063.00    0.58305   0.59086   34.641
 6064.00    0.57902   0.59049   35.192
 6065.00    0.57499   0.59127   35.157
 6066.00    0.57474   0.59331   34.754
 6067.00    0.57860   0.59635   34.600
 6068.00    0.58504   0.59985   34.650
 6069.00    0.59286   0.60320   34.491
 6070.00    0.60367   0.60591   33.941
 6071.00    0.61763   0.60765   33.173
 6072.00    0.62816   0.60822   32.659
 6073.00    0.62905   0.60765   32.663
 6074.00    0.62299   0.60609   32.787
 6075.00    0.61591   0.60378   32.543
 6076.00    0.61006   0.60088   32.023
 6077.00    0.60523   0.59763   31.608
 6078.00    0.60097   0.59437   31.598
 6079.00    0.59807   0.59146   31.971
 6080.00    0.59922   0.58908   32.209
 6081.00    0.60384   0.58735   31.908
 6082.00    0.60500   0.58631   31.314
 6083.00    0.59932   0.58592   30.791
 6084.00    0.59337   0.58596   30.457
 6085.00    0.59274   0.58607   30.472
 6086.00    0.59490   0.58607   31.180
 6087.00    0.59503   0.58587   32.574
 6088.00    0.59056   0.58542   33.885
 6089.00    0.58407   0.58488   34.420
 6090.00    0.58289   0.58461   34.333
 6091.00    0.58851   0.58482   34.007
 6092.00    0.59327   0.58553   33.626
 6093.00    0.59271   0.58666   33.385
 6094.00    0.59016   0.58802   33.545
 6095.00    0.58896   0.58929   34.144
 6096.00    0.58920   0.58996   34.889
 6097.00    0.58986   0.58946   35.307
 6098.00    0.58967   0.58759   35.012
 6099.00    0.58709   0.58465   34.314
 6100.00    0.58127   0.58123   33.936
 6101.00    0.57532   0.57807   33.695
 6102.00    0.57515   0.57584   32.777
 6103.00    0.58216   0.57502   31.638
 6104.00    0.59252   0.57574   31.485
 6105.00    0.60198   0.57779   32.145
 6106.00    0.60764   0.58055   32.351
 6107.00    0.60836   0.58344   32.028
 6108.00    0.60465   0.58601   32.152
 6109.00    0.59789   0.58795   32.681
 6110.00    0.59025   0.58931   32.814
 6111.00    0.58485   0.59024   32.755
 6112.00    0.58408   0.59084   33.084
 6113.00    0.58620   0.59108   32.604
 6114.00    0.58679   0.59077   30.055
 6115.00    0.58285   0.58962   27.331
 6116.00    0.57469   0.58748   26.340
 6117.00    0.56751   0.58425   26.808
 6118.00    0.56685   0.58018   27.704
 6119.00    0.57104   0.57598   28.606
 6120.00    0.57443   0.57235   29.554
 6121.00    0.57364   0.56984   30.412
 6122.00    0.56897   0.56872   30.964
 6123.00    0.56472   0.56894   31.289
 6124.00    0.56496   0.57026   31.641
 6125.00    0.56850   0.57237   32.203
 6126.00    0.57135   0.57487   32.967
 6127.00    0.57044   0.57745   33.632
 6128.00    0.56631   0.57975   33.859
 6129.00    0.56491   0.58142   33.636
 6130.00    0.57089   0.58210   33.219
 6131.00    0.58151   0.58122   32.951
 6132.00    0.59084   0.57834   32.936
 6133.00    0.59430   0.57368   32.842
 6134.00    0.59144   0.56822   32.302
 6135.00    0.58719   0.56314   31.260
 6136.00    0.58493   0.55942   29.914
 6137.00    0.58231   0.55774   28.569
 6138.00    0.57741   0.55842   27.496
 6139.00    0.57248   0.56130   26.895
 6140.00    0.56960   0.56565   26.959
 6141.00    0.56840   0.57054   27.887
 6142.00    0.56869   0.57511   29.459
 6143.00    0.57133   0.57864   30.712
 6144.00    0.57488   0.58070   31.128
 6145.00    0.57495   0.58139   31.412
 6146.00    0.56969   0.58102   31.845
 6147.00    0.56172   0.57994   31.773
 6148.00    0.55499   0.57845   31.480
 6149.00    0.55261   0.57698   32.360
 6150.00    0.55430   0.57578   34.551
 6151.00    0.55614   0.57494   36.153
 6152.00    0.55371   0.57428   35.952
 6153.00    0.54434   0.57345   34.967
 6154.00    0.53084   0.57206   34.293
 6155.00    0.52003   0.56972   34.278
 6156.00    0.51472   0.56594   34.595
 6157.00    0.51255   0.56045   34.582
 6158.00    0.50972   0.55356   34.295
 6159.00    0.50346   0.54614   34.325
 6160.00    0.49512   0.53915   34.609
 6161.00    0.48859   0.53351   34.623
 6162.00    0.48486   0.52996   34.527
 6163.00    0.48295   0.52884   34.684
 6164.00    0.48439   0.52968   34.118
 6165.00    0.49161   0.53160   31.839
 6166.00    0.50301   0.53397   29.373
 6167.00    0.51443   0.53638   28.354
 6168.00    0.52363   0.53847   28.460
 6169.00    0.53035   0.54025   28.751
 6170.00    0.53508   0.54217   29.352
 6171.00    0.53855   0.54453   30.880
 6172.00    0.54117   0.54725   32.979
 6173.00    0.54280   0.55019   34.534
 6174.00    0.54259   0.55323   35.082
 6175.00    0.53975   0.55601   34.664
 6176.00    0.53469   0.55825   -2.000
 6177.00    0.52902   0.56015   -2.000
 6178.00    0.52542   0.56191   -2.000
 6179.00    0.52715   0.56343   -2.000
 6180.00    0.53718   0.56455   -2.000
 6181.00    0.55440   0.56509   -2.000
 6182.00    0.57066   0.56477   -2.000
 6183.00    0.57774   0.56342   -2.000
 6184.00    0.57391   0.56115   -2.000
 6185.00    0.56446   0.55808   -2.000
 6186.00    0.56018   0.55427   -2.000
 6187.00    0.56492   0.54994   26.887
 6188.00    0.56831   0.54585   26.445
 6189.00    0.56083   0.54279   27.119
 6190.00    0.54432   0.54115   29.207
 6191.00    0.52874   0.54116   32.261
 6192.00    0.52708   0.54275   34.186
 6193.00    0.54091   0.54547   33.699
 6194.00    0.55543   0.54856   32.707
 6195.00    0.55878   0.55127   32.687
 6196.00    0.55143   0.55323   33.366
 6197.00    0.53953   0.55433   34.075
 6198.00    0.53045   0.55479   34.346
 6199.00    0.52887   0.55510   34.038
 6200.00    0.53511   0.55567   33.385
 6201.00    0.54566   0.55670   32.843
 6202.00    0.55455   0.55819   32.886
 6203.00    0.55758   0.55995   33.646
 6204.00    0.55410   0.56162   34.787
 6205.00    0.54749   0.56271   35.440
 6206.00    0.54384   0.56283   34.642
 6207.00    0.54735   0.56187   32.870
 6208.00    0.55829   0.55982   31.415
 6209.00    0.57130   0.55658   30.467
 6210.00    0.57798   0.55226   29.615
 6211.00    0.57493   0.54728   29.291
 6212.00    0.56423   0.54221   30.380
 6213.00    0.54959   0.53770   32.802
 6214.00    0.53546   0.53415   35.229
 6215.00    0.52737   0.53161   36.169
 6216.00    0.52885   0.53011   35.310
 6217.00    0.53551   0.52958   34.116
 6218.00    0.53945   0.52989   34.091
 6219.00    0.53959   0.53066   34.915
 6220.00    0.53972   0.53157   35.340
 6221.00    0.54193   0.53252   35.220
 6222.00    0.54493   0.53347   35.121
 6223.00    0.54372   0.53433   34.928
 6224.00    0.53543   0.53490   34.375
 6225.00    0.52723   0.53469   33.995
 6226.00    0.52759   0.53332   34.305
 6227.00    0.53372   0.53103   34.777
 6228.00    0.53719   0.52849   34.726
 6229.00    0.53280   0.52633   34.619
 6230.00    0.52154   0.52519   35.087
 6231.00    0.51182   0.52548   35.729
 6232.00    0.51078   0.52707   35.737
 6233.00    0.51581   0.52946   34.856
 6234.00    0.52139   0.53193   33.545
 6235.00    0.52608   0.53366   32.683
 6236.00    0.52953   0.53401   32.660
 6237.00    0.52987   0.53303   32.977
 6238.00    0.52628   0.53089   33.064
 6239.00    0.52109   0.52792   32.892
 6240.00    0.51845   0.52495   32.396
 6241.00    0.52249   0.52262   31.210
 6242.00    0.53218   0.52117   29.695
 6243.00    0.53946   0.52086   29.016
 6244.00    0.53893   0.52176   29.724
 6245.00    0.53300   0.52348   31.404
 6246.00    0.52664   0.52556   33.151
 6247.00    0.52367   0.52756   33.955
 6248.00    0.52354   0.52883   33.978
 6249.00    0.52137   0.52896   34.737
 6250.00    0.51538   0.52799   36.437
 6251.00    0.50876   0.52604   37.073
 6252.00    0.50275   0.52324   36.110
 6253.00    0.49526   0.51993   35.615
 6254.00    0.48741   0.51667   36.435
 6255.00    0.48456   0.51413   37.568
 6256.00    0.49095   0.51291   37.910
 6257.00    0.50681   0.51311   37.178
 6258.00    0.52584   0.51473   35.960
 6259.00    0.53787   0.51767   35.141
 6260.00    0.53912   0.52145   35.000
 6261.00    0.53354   0.52541   35.213
 6262.00    0.52814   0.52919   35.078
 6263.00    0.52889   0.53242   34.059
 6264.00    0.53452   0.53465   32.851
 6265.00    0.53878   0.53592   32.566
 6266.00    0.53913   0.53663   33.173
 6267.00    0.53727   0.53707   33.889
 6268.00    0.53571   0.53754   34.428
 6269.00    0.53675   0.53831   34.929
 6270.00    0.54199   0.53925   35.081
 6271.00    0.55149   0.54015   34.515
 6272.00    0.56276   0.54092   33.812
 6273.00    0.57132   0.54155   33.760
 6274.00    0.57219   0.54189   34.208
 6275.00    0.56312   0.54179   34.633
 6276.00    0.54861   0.54114   35.189
 6277.00    0.53585   0.54014   36.163
 6278.00    0.52831   0.53919   36.890
 6279.00    0.52602   0.53859   36.747
 6280.00    0.52705   0.53853    0.000
 6281.00    0.52917   0.53906    0.000
 6282.00    0.53148   0.54022    0.000
 6283.00    0.53378   0.54205    0.000
 6284.00    0.53582   0.54442    0.000
 6285.00    0.53822   0.54695    0.000
 6286.00    0.54320   0.54907    0.000
 6287.00    0.55166   0.55041    0.000
 6288.00    0.56088   0.55085    0.000
 6289.00    0.56681   0.55046    0.000
 6290.00    0.56636   0.54943    0.000
 6291.00    0.55876   0.54779    0.000
 6292.00    0.54641   0.54555    0.000
 6293.00    0.53451   0.54296    0.000
 6294.00    0.52985   0.54048    0.000
 6295.00    0.53530   0.53847    0.000
 6296.00    0.54752   0.53691    0.000
 6297.00    0.56408   0.53565    0.000
 6298.00    0.58625   0.53465    0.000
 6299.00    0.61130   0.53412    0.000
 6300.00    0.63003   0.53428    0.000
 6301.00    0.63527   0.53503    0.000
 6302.00    0.62635   0.53621    0.000
 6303.00    0.60942   0.53789    0.000
 6304.00    0.59491   0.54006    0.000
 6305.00    0.58722   0.54250    0.000
 6306.00    0.58252   0.54481    0.000
 6307.00    0.57643   0.54647    0.000
 6308.00    0.56758   0.54726    0.000
 6309.00    0.55947   0.54727    0.000
 6310.00    0.55755   0.54649    0.000
 6311.00    0.55847   0.54481    0.000
 6312.00    0.55203   0.54257    0.000
 6313.00    0.53614   0.54019    0.000
 6314.00    0.51776   0.53783    0.000
 6315.00    0.50364   0.53584    0.000
 6316.00    0.49748   0.53463    0.000
 6317.00    0.49924   0.53428    0.000
 6318.00    0.50624   0.53480    0.000
 6319.00    0.51575   0.53629    0.000
 6320.00    0.52509   0.53854    0.000
 6321.00    0.53046   0.54122   35.736
 6322.00    0.53013   0.54413   35.499
 6323.00    0.53016   0.54689   35.348
 6324.00    0.53876   0.54917   35.098
 6325.00    0.55522   0.55096   34.727
 6326.00    0.57197   0.55227   34.414
 6327.00    0.58090   0.55310   34.514
 6328.00    0.57760   0.55356   35.228
 6329.00    0.56558   0.55372   36.131
 6330.00    0.55148   0.55340   36.718
 6331.00    0.53809   0.55227   37.382
 6332.00    0.52692   0.55029   38.558
 6333.00    0.52191   0.54789   39.354
 6334.00    0.52513   0.54570   38.861
 6335.00    0.53222   0.54395   38.008
 6336.00    0.53813   0.54279   37.697
 6337.00    0.54306   0.54238   37.166
 6338.00    0.54866   0.54256   35.591
 6339.00    0.55409   0.54305   33.467
 6340.00    0.55785   0.54340   31.662
 6341.00    0.55961   0.54328   30.690
 6342.00    0.55995   0.54270   30.476
 6343.00    0.55969   0.54204   30.310
 6344.00    0.55782   0.54166   29.825
 6345.00    0.55084   0.54188   29.524
 6346.00    0.53867   0.54286   29.715
 6347.00    0.52748   0.54454   30.003
 6348.00    0.52275   0.54656   30.096
 6349.00    0.52518   0.54829   30.273
 6350.00    0.53190   0.54916   30.951
 6351.00    0.53815   0.54897   32.383
 6352.00    0.54169   0.54778   34.156
 6353.00    0.54406   0.54571   34.972
 6354.00    0.54642   0.54280   34.660
 6355.00    0.54790   0.53922   34.788
 6356.00    0.54723   0.53538   35.944
 6357.00    0.54359   0.53161   37.103
 6358.00    0.53729   0.52819   37.777
 6359.00    0.53003   0.52541   38.687
 6360.00    0.52511   0.52352   39.667
 6361.00    0.52622   0.52280   39.427
 6362.00    0.53324   0.52352   38.295
 6363.00    0.54236   0.52566   37.914
 6364.00    0.55006   0.52883   38.192
 6365.00    0.55463   0.53262   37.665
 6366.00    0.55656   0.53654   36.395
 6367.00    0.55778   0.54018   35.667
 6368.00    0.55948   0.54345   35.739
 6369.00    0.56170   0.54638   35.940
 6370.00    0.56351   0.54891   35.527
 6371.00    0.56398   0.55091   34.099
 6372.00    0.56373   0.55238   31.907
 6373.00    0.56408   0.55340   29.590
 6374.00    0.56454   0.55389   27.754
 6375.00    0.56307   0.55366   26.790
 6376.00    0.55746   0.55271   26.877
 6377.00    0.54807   0.55125   28.041
 6378.00    0.54149   0.54969   29.935
 6379.00    0.54404   0.54842   31.832
 6380.00    0.55180   0.54746   33.125
 6381.00    0.55651   0.54683   33.732
 6382.00    0.55552   0.54679   34.290
 6383.00    0.55178   0.54732   35.401
 6384.00    0.55169   0.54803   36.627
 6385.00    0.55896   0.54867   37.143
 6386.00    0.56829   0.54907   37.005
 6387.00    0.57183   0.54903   36.771
 6388.00    0.56647   0.54840   36.751
 6389.00    0.55376   0.54695   36.898
 6390.00    0.53874   0.54483   36.833
 6391.00    0.52675   0.54279   36.457
 6392.00    0.52069   0.54143   36.351
 6393.00    0.52155   0.54080   36.644
 6394.00    0.52887   0.54070   36.315
 6395.00    0.53984   0.54074   34.965
 6396.00    0.54942   0.54061   33.769
 6397.00    0.55533   0.54065   33.355
 6398.00    0.56043   0.54121   33.073
 6399.00    0.56522   0.54203   32.571
 6400.00    0.56432   0.54298   32.484
 6401.00    0.55452   0.54418   33.321
 6402.00    0.53924   0.54554   34.947
 6403.00    0.52656   0.54688   36.700
 6404.00    0.52607   0.54798   37.463
 6405.00    0.53938   0.54839   36.660
 6406.00    0.55775   0.54799   34.869
 6407.00    0.57182   0.54696   33.009
 6408.00    0.57622   0.54547   31.732
 6409.00    0.57026   0.54406   31.177
 6410.00    0.55726   0.54312   31.204
 6411.00    0.54148   0.54271   31.996
 6412.00    0.52708   0.54283   33.995
 6413.00    0.51852   0.54303   36.510
 6414.00    0.51937   0.54306   37.277
 6415.00    0.52835   0.54303   35.906
 6416.00    0.53930   0.54270   34.352
 6417.00    0.54488   0.54190   33.322
 6418.00    0.54020   0.54115   32.399
 6419.00    0.52903   0.54106   31.619
 6420.00    0.52106   0.54175   31.424
 6421.00    0.52132   0.54306   32.024
 6422.00    0.52858   0.54489   33.299
 6423.00    0.53750   0.54717   34.632
 6424.00    0.54202   0.54952   35.089
 6425.00    0.54102   0.55122   34.400
 6426.00    0.53749   0.55147   33.078
 6427.00    0.53471   0.55003   31.788
 6428.00    0.53431   0.54777   30.903
 6429.00    0.53438   0.54571   30.258
 6430.00    0.53180   0.54415   29.792
 6431.00    0.52634   0.54316   30.347
 6432.00    0.52068   0.54283   32.736
 6433.00    0.51940   0.54315   35.868
 6434.00    0.52495   0.54381   37.296
 6435.00    0.53301   0.54427   37.155
 6436.00    0.53860   0.54438   37.131
 6437.00    0.54347   0.54465   37.207
 6438.00    0.55149   0.54539   36.712
 6439.00    0.56247   0.54661   35.842
 6440.00    0.57235   0.54826   35.066
 6441.00    0.57467   0.55025   34.463
 6442.00    0.56819   0.55246   33.879
 6443.00    0.56234   0.55432   33.134
 6444.00    0.56381   0.55478   32.359
 6445.00    0.56604   0.55309   32.105
 6446.00    0.56035   0.54944   32.636
 6447.00    0.54527   0.54493   33.485
 6448.00    0.52600   0.54091   33.907
 6449.00    0.51230   0.53794   33.408
 6450.00    0.51027   0.53619   32.209
 6451.00    0.51743   0.53556   31.140
 6452.00    0.52661   0.53596   30.722
 6453.00    0.52964   0.53764   30.958
 6454.00    0.52431   0.54042   31.810
 6455.00    0.51695   0.54331   33.347
 6456.00    0.51647   0.54558   35.332
 6457.00    0.52937   0.54692   36.952
 6458.00    0.55190   0.54708   37.678
 6459.00    0.57043   0.54621   37.849
 6460.00    0.57814   0.54503   37.766
 6461.00    0.57959   0.54401   37.353
 6462.00    0.58030   0.54321   36.762
 6463.00    0.58229   0.54288   36.394
 6464.00    0.58355   0.54329   36.270
 6465.00    0.57987   0.54449   36.048
 6466.00    0.57108   0.54626   35.656
 6467.00    0.56138   0.54797   35.324
 6468.00    0.55420   0.54888   35.136
 6469.00    0.55084   0.54911   34.963
 6470.00    0.55120   0.54902   34.631
 6471.00    0.55421   0.54858   34.119
 6472.00    0.55825   0.54798   33.889
 6473.00    0.56102   0.54769   34.486
 6474.00    0.55901   0.54776   35.565
 6475.00    0.54982   0.54787   36.126
 6476.00    0.53711   0.54772   35.918
 6477.00    0.52799   0.54696   35.411
 6478.00    0.52615   0.54544   34.838
 6479.00    0.52993   0.54343   34.308
 6480.00    0.53174   0.54143   34.285
 6481.00    0.52475   0.53981   35.168
 6482.00    0.51328   0.53879   36.476
 6483.00    0.50663   0.53840   37.349
 6484.00    0.50764   0.53856   37.893
 6485.00    0.51405   0.53909   38.572
 6486.00    0.52249   0.53945   38.849
 6487.00    0.52940   0.53881   38.099
 6488.00    0.53159   0.53668   37.030
 6489.00    0.52862   0.53290   36.466
 6490.00    0.52491   0.52726   36.201
 6491.00    0.52433   0.51994   35.732
 6492.00    0.52477   0.51211   35.026
 6493.00    0.52317   0.50511   34.494
 6494.00    0.52062   0.49983   34.809
 6495.00    0.51943   0.49676   36.098
 6496.00    0.52014   0.49601   37.190
 6497.00    0.52082   0.49791   37.108
 6498.00    0.51762   0.50237   36.700
 6499.00    0.51120   0.50837   36.855
 6500.00    0.51021   0.51486   37.266
 6501.00    0.52122   0.52106   37.348
 6502.00    0.54202   0.52655   36.956
 6503.00    0.56401   0.53117   36.390
 6504.00    0.57582   0.53462   36.191
 6505.00    0.57334   0.53685   36.499
 6506.00    0.56352   0.53827   36.848
 6507.00    0.55346   0.53928   36.799
 6508.00    0.54514   0.53996   36.348
 6509.00    0.53803   0.54025   35.867
 6510.00    0.53115   0.54023   35.842
 6511.00    0.52555   0.53993   36.148
 6512.00    0.52407   0.53928   36.048
 6513.00    0.52613   0.53830   35.559
 6514.00    0.52708   0.53706   35.549
 6515.00    0.52384   0.53573   36.189
 6516.00    0.51721   0.53476   36.786
 6517.00    0.51187   0.53451   37.114
 6518.00    0.51377   0.53495   37.587
 6519.00    0.52209   0.53593   37.966
 6520.00    0.52978   0.53721   37.513
 6521.00    0.53192   0.53859   36.752
 6522.00    0.52854   0.53981   36.905
 6523.00    0.52509   0.54039   37.685
 6524.00    0.52867   0.54024   37.746
 6525.00    0.53908   0.53977   37.286
 6526.00    0.54976   0.53929   37.554
 6527.00    0.55465   0.53876   38.408
 6528.00    0.55172   0.53801    0.000
 6529.00    0.54657   0.53714    0.000
 6530.00    0.54717   0.53658    0.000
 6531.00    0.55307   0.53654    0.000
 6532.00    0.55772   0.53686    0.000
 6533.00    0.55572   0.53722    0.000
 6534.00    0.54586   0.53750    0.000
 6535.00    0.53355   0.53798    0.000
 6536.00    0.52605   0.53877    0.000
 6537.00    0.52538   0.53944    0.000
 6538.00    0.52997   0.53938    0.000
 6539.00    0.53813   0.53839    0.000
 6540.00    0.54852   0.53663    0.000
 6541.00    0.56069   0.53434    0.000
 6542.00    0.58166   0.53140    0.000
 6543.00    0.63143   0.52782    0.000
 6544.00    0.72629   0.52432    0.000
 6545.00    0.86164   0.52145    0.000
 6546.00    1.01367   0.51917    0.000
 6547.00    1.14392   0.51713    0.000
 6548.00    1.21375   0.51508    0.000
 6549.00    1.19777   0.51306    0.000
 6550.00    1.09614   0.51085    0.000
 6551.00    0.94086   0.50785    0.000
 6552.00    0.77801   0.50385    0.000
 6553.00    0.65177   0.49910    0.000
 6554.00    0.58623   0.49378    0.000
 6555.00    0.58258   0.48766    0.000
 6556.00    0.67070   0.48034    0.000
 6557.00    0.93466   0.47162    0.000
 6558.00    1.47995   0.46106    0.000
 6559.00    2.38736   0.44865    0.000
 6560.00    3.58089   0.43677    0.000
 6561.00    4.79052   0.42894    0.000
 6562.00    5.68667   0.42610    0.000
 6563.00    5.98083   0.42757    0.000
 6564.00    5.57178   0.43308    0.000
 6565.00    4.59101   0.44231    0.000
 6566.00    3.33826   0.45424    0.000
 6567.00    2.18801   0.46670    0.000
 6568.00    1.36182   0.47715    0.000
 6569.00    0.87828   0.48454    0.000
 6570.00    0.65627   0.48939    0.000
 6571.00    0.57573   0.49259    0.000
 6572.00    0.55037   0.49514    0.000
 6573.00    0.54153   0.49780    0.000
 6574.00    0.53622   0.50062    0.000
 6575.00    0.53750   0.50349    0.000
 6576.00    0.55644   0.50641    0.000
 6577.00    0.61441   0.50925    0.000
 6578.00    0.75183   0.51177    0.000
 6579.00    1.01132   0.51400    0.000
 6580.00    1.39869   0.51595    0.000
 6581.00    1.86600   0.51752    0.000
 6582.00    2.29737   0.51889    0.000
 6583.00    2.55378   0.52011    0.000
 6584.00    2.55520   0.52153    0.000
 6585.00    2.30127   0.52307    0.000
 6586.00    1.87862   0.52415    0.000
 6587.00    1.41859   0.52448    0.000
 6588.00    1.03256   0.52382    0.000
 6589.00    0.78175   0.52197    0.000
 6590.00    0.65201   0.51928    0.000
 6591.00    0.59094   0.51672    0.000
 6592.00    0.55806   0.51489    0.000
 6593.00    0.53243   0.51376    0.000
 6594.00    0.51329   0.51324    0.000
 6595.00    0.50626   0.51358    0.000
 6596.00    0.50929   0.51513    0.000
 6597.00    0.51654   0.51774    0.000
 6598.00    0.52338   0.52048    0.000
 6599.00    0.52613   0.52260    0.000
 6600.00    0.52192   0.52396    0.000
 6601.00    0.51234   0.52459    0.000
 6602.00    0.50531   0.52454    0.000
 6603.00    0.50565   0.52381    0.000
 6604.00    0.50922   0.52241    0.000
 6605.00    0.51089   0.52050    0.000
 6606.00    0.51000   0.51856    0.000
 6607.00    0.50788   0.51744    0.000
 6608.00    0.50583   0.51752    0.000
 6609.00    0.50359   0.51836   36.905
 6610.00    0.49938   0.51949   37.294
 6611.00    0.49454   0.52100   36.833
 6612.00    0.49455   0.52318   36.828
 6613.00    0.50216   0.52553   37.609
 6614.00    0.51455   0.52729   37.893
 6615.00    0.52569   0.52838   37.350
 6616.00    0.52927   0.52920   37.268
 6617.00    0.52611   0.52987   38.052
 6618.00    0.52416   0.53010   38.689
 6619.00    0.52792   0.52960   38.328
 6620.00    0.53531   0.52839   37.131
 6621.00    0.54068   0.52664   36.140
 6622.00    0.53830   0.52471   36.423
 6623.00    0.52959   0.52303   37.533
 6624.00    0.52218   0.52160   37.691
 6625.00    0.52095   0.52027   36.433
 6626.00    0.52543   0.51912   34.999
 6627.00    0.52970   0.51824   34.574
 6628.00    0.52678   0.51760   35.656
 6629.00    0.51845   0.51680   37.103
 6630.00    0.51302   0.51556   36.862
 6631.00    0.51557   0.51426   35.716
 6632.00    0.52534   0.51352   35.805
 6633.00    0.53501   0.51349   36.758
 6634.00    0.53617   0.51397   36.873
 6635.00    0.52900   0.51473   36.613
 6636.00    0.51978   0.51563   37.434
 6637.00    0.51368   0.51670   38.685
 6638.00    0.51301   0.51779   38.725
 6639.00    0.51653   0.51835   38.084
 6640.00    0.52161   0.51802   38.105
 6641.00    0.52728   0.51732   38.421
 6642.00    0.53237   0.51696   38.082
 6643.00    0.53308   0.51695   37.365
 6644.00    0.52707   0.51689   36.870
 6645.00    0.51838   0.51678   36.378
 6646.00    0.51231   0.51701   35.651
 6647.00    0.50970   0.51754   35.194
 6648.00    0.50978   0.51787   35.250
 6649.00    0.51339   0.51780   35.014
 6650.00    0.52057   0.51758   34.161
 6651.00    0.52834   0.51736   33.933
 6652.00    0.53338   0.51710   35.014
 6653.00    0.53453   0.51667   36.083
 6654.00    0.53371   0.51616   35.979
 6655.00    0.53561   0.51571   35.799
 6656.00    0.54153   0.51514   36.510
 6657.00    0.54580   0.51427   37.408
 6658.00    0.54139   0.51305   37.646
 6659.00    0.52430   0.51146   37.436
 6660.00    0.49693   0.50957   37.450
 6661.00    0.46873   0.50777   38.211
 6662.00    0.44928   0.50642   39.373
 6663.00    0.44388   0.50551   39.532
 6664.00    0.45077   0.50505   38.574
 6665.00    0.46193   0.50528   38.160
 6666.00    0.47223   0.50645   38.450
 6667.00    0.48230   0.50836   37.719
 6668.00    0.49235   0.51036   36.066
 6669.00    0.50061   0.51202   35.506
 6670.00    0.50737   0.51324   36.178
 6671.00    0.51513   0.51384   36.254
 6672.00    0.52375   0.51357   35.362
 6673.00    0.52999   0.51205   34.958
 6674.00    0.53182   0.50902   35.373
 6675.00    0.53008   0.50520   35.713
 6676.00    0.52920   0.50194   35.738
 6677.00    0.53410   0.49992   36.038
 6678.00    0.54168   0.49880   36.769
 6679.00    0.54382   0.49842   37.528
 6680.00    0.53997   0.49927   37.995
 6681.00    0.53543   0.50151   38.143
 6682.00    0.53062   0.50432   38.238
 6683.00    0.52215   0.50668   38.576
 6684.00    0.51006   0.50835   38.962
 6685.00    0.49792   0.50958   38.925
 6686.00    0.49019   0.51052   38.385
 6687.00    0.49024   0.51114   37.573
 6688.00    0.49789   0.51139   36.632
 6689.00    0.50924   0.51134   35.717
 6690.00    0.51745   0.51108   35.211
 6691.00    0.51708   0.51066   35.446
 6692.00    0.51017   0.50990   36.334
 6693.00    0.50377   0.50872   37.104
 6694.00    0.50509   0.50747   36.111
 6695.00    0.51563   0.50652   32.804
 6696.00    0.52555   0.50598    0.000
 6697.00    0.52602   0.50585    0.000
 6698.00    0.52265   0.50605    0.000
 6699.00    0.52326   0.50650    0.000
 6700.00    0.52470   0.50700    0.000
 6701.00    0.52258   0.50733    0.000
 6702.00    0.52097   0.50756    0.000
 6703.00    0.52448   0.50768    0.000
 6704.00    0.53103   0.50762    0.000
 6705.00    0.53533   0.50741    0.000
 6706.00    0.53269   0.50715    0.000
 6707.00    0.52305   0.50680    0.000
 6708.00    0.51355   0.50630    0.000
 6709.00    0.51590   0.50546    0.000
 6710.00    0.54440   0.50409    0.000
 6711.00    0.61433   0.50222    0.000
 6712.00    0.73839   0.49994    0.000
 6713.00    0.91177   0.49745    0.000
 6714.00    1.10522   0.49495    0.000
 6715.00    1.27353   0.49285    0.000
 6716.00    1.36628   0.49171    0.000
 6717.00    1.35581   0.49150    0.000
 6718.00    1.24862   0.49186    0.000
 6719.00    1.07657   0.49277    0.000
 6720.00    0.88729   0.49437    0.000
 6721.00    0.72330   0.49638    0.000
 6722.00    0.61178   0.49804    0.000
 6723.00    0.55827   0.49906    0.000
 6724.00    0.55084   0.49985    0.000
 6725.00    0.58036   0.50069    0.000
 6726.00    0.64444   0.50146    0.000
 6727.00    0.73815   0.50203    0.000
 6728.00    0.84967   0.50250    0.000
 6729.00    0.95694   0.50296    0.000
 6730.00    1.03260   0.50329    0.000
 6731.00    1.05895   0.50341    0.000
 6732.00    1.03186   0.50336    0.000
 6733.00    0.96072   0.50316    0.000
 6734.00    0.86377   0.50264    0.000
 6735.00    0.75854   0.50176    0.000
 6736.00    0.66114   0.50073    0.000
 6737.00    0.58875   0.49983    0.000
 6738.00    0.55437   0.49909    0.000
 6739.00    0.55656   0.49819    0.000
 6740.00    0.58053   0.49710    0.000
 6741.00    0.60350   0.49626    0.000
 6742.00    0.60782   0.49580    0.000
 6743.00    0.59823   0.49537    0.000
 6744.00    0.58786   0.49467    0.000
 6745.00    0.57583   0.49384    0.000
 6746.00    0.55647   0.49315    0.000
 6747.00    0.53451   0.49254    0.000
 6748.00    0.51978   0.49200    0.000
 6749.00    0.51844   0.49158    0.000
 6750.00    0.52845   0.49133    0.000
 6751.00    0.53684   0.49159    0.000
 6752.00    0.53252   0.49250    0.000
 6753.00    0.51844   0.49390   30.897
 6754.00    0.50459   0.49557   31.364
 6755.00    0.50028   0.49746   30.330
 6756.00    0.51117   0.49958   27.959
 6757.00    0.53684   0.50157   25.700
 6758.00    0.56675   0.50307   24.435
 6759.00    0.58041   0.50395   24.229
 6760.00    0.56964   0.50430   24.970
 6761.00    0.55075   0.50418   26.517
 6762.00    0.54142   0.50354   28.434
 6763.00    0.54553   0.50229   29.752
 6764.00    0.55559   0.50063   30.129
 6765.00    0.55771   0.49912   30.596
 6766.00    0.54760   0.49805   31.391
 6767.00    0.53557   0.49726   31.088
 6768.00    0.52827   0.49665   29.572
 6769.00    0.52258   0.49662   28.606
 6770.00    0.51989   0.49753   28.611
 6771.00    0.52802   0.49910   28.496
 6772.00    0.54188   0.50084   28.199
 6773.00    0.54335   0.50256   28.995
 6774.00    0.53182   0.50424   30.932
 6775.00    0.52610   0.50567   32.078
 6776.00    0.53082   0.50657   31.478
 6777.00    0.53372   0.50671   30.272
 6778.00    0.53462   0.50593   28.744
 6779.00    0.54445   0.50420   26.535
 6780.00    0.55549   0.50171   24.699
 6781.00    0.54717   0.49887   24.538
 6782.00    0.52400   0.49608   25.869
 6783.00    0.50931   0.49370   27.464
 6784.00    0.50579   0.49204   29.070
 6785.00    0.49953   0.49124   31.574
 6786.00    0.49067   0.49118   34.331
 6787.00    0.48917   0.49166   34.718
 6788.00    0.49276   0.49251   32.289
 6789.00    0.49327   0.49342   29.099
 6790.00    0.49650   0.49398   26.497
 6791.00    0.51323   0.49407   24.904
 6792.00    0.53790   0.49405   24.409
 6793.00    0.55542   0.49417   25.000
 6794.00    0.55774   0.49439   26.501
 6795.00    0.54636   0.49466   28.538
 6796.00    0.53174   0.49511   30.578
 6797.00    0.52381   0.49585   32.024
 6798.00    0.52031   0.49674   32.585
 6799.00    0.51543   0.49758   32.420
 6800.00    0.51161   0.49819   31.964
 6801.00    0.51274   0.49853   31.739
 6802.00    0.51556   0.49874   32.220
 6803.00    0.51607   0.49878   33.214
 6804.00    0.51636   0.49856   33.152
 6805.00    0.51830   0.49820   31.369
 6806.00    0.51788   0.49784   29.822
 6807.00    0.51368   0.49746   29.626
 6808.00    0.51300   0.49703   29.701
 6809.00    0.51777   0.49668   29.380
 6810.00    0.51577   0.49646   30.037
 6811.00    0.50135   0.49615   32.256
 6812.00    0.48830   0.49569   33.397
 6813.00    0.48960   0.49551   31.071
 6814.00    0.50419   0.49572   27.256
 6815.00    0.52318   0.49606   24.136
 6816.00    0.53618   0.49624   22.288
 6817.00    0.54231   0.49643   21.574
 6818.00    0.55188   0.49700   21.672
 6819.00    0.56349   0.49787   22.536
 6820.00    0.55902   0.49863   24.492
 6821.00    0.53595   0.49914   27.503
 6822.00    0.51559   0.49952   30.310
 6823.00    0.51098   0.49987   31.709
 6824.00    0.51643   0.49994   32.236
 6825.00    0.52258   0.49945   32.639
 6826.00    0.52383   0.49866   32.969
 6827.00    0.52195   0.49804   33.310
 6828.00    0.52327   0.49767   33.920
 6829.00    0.52577   0.49729   34.612
 6830.00    0.51991   0.49694   34.828
 6831.00    0.50436   0.49698   34.780
 6832.00    0.48735   0.49736   35.179
 6833.00    0.47718   0.49748   35.449
 6834.00    0.47808   0.49696   34.227
 6835.00    0.48696   0.49595   32.107
 6836.00    0.49612   0.49465   30.597
 6837.00    0.50138   0.49295   29.729
 6838.00    0.50189   0.49089   28.930
 6839.00    0.49592   0.48891   28.599
 6840.00    0.48441   0.48757   29.419
 6841.00    0.47921   0.48712   30.722
 6842.00    0.49207   0.48746   30.819
 6843.00    0.51305   0.48837   29.278
 6844.00    0.52317   0.48971   27.116
 6845.00    0.52063   0.49138   25.424
 6846.00    0.51528   0.49296   24.818
 6847.00    0.51367   0.49400   25.510
 6848.00    0.51666   0.49438   27.488
 6849.00    0.51967   0.49435   30.181
 6850.00    0.51774   0.49401   32.524
 6851.00    0.51174   0.49313   34.168
 6852.00    0.50591   0.49169   35.356
 6853.00    0.50373   0.49014   35.787
 6854.00    0.50372   0.48887   35.362
 6855.00    0.49671   0.48777   35.113
 6856.00    0.47914   0.48677   35.618
 6857.00    0.46462   0.48601   35.722
 6858.00    0.46593   0.48561   34.559
 6859.00    0.47906   0.48554   33.336
 6860.00    0.49440   0.48595   33.005
 6861.00    0.50671   0.48681   33.041
 6862.00    0.51340   0.48762   32.850
 6863.00    0.51288   0.48807   32.681
 6864.00    0.50719   0.48834   32.799
 6865.00    0.50264   0.48848   32.983
 6866.00    0.50205   0.48844   33.122
 6867.00    0.50120   0.48821   33.509
 6868.00    0.49790   0.48777   34.107
 6869.00    0.49603   0.48713   34.235
 6870.00    0.49746   0.48681   33.662
 6871.00    0.49887   0.48718   33.053
 6872.00    0.49780   0.48786   32.952
 6873.00    0.49505   0.48843   33.393
 6874.00    0.49125   0.48916   33.939
 6875.00    0.48600   0.49023   33.757
 6876.00    0.48064   0.49125   32.319
 6877.00    0.47839   0.49179   29.986
 6878.00    0.48041   0.49186   28.087
 6879.00    0.48411   0.49152   27.896
 6880.00    0.48299   0.49092   29.257
 6881.00    0.47165   0.49041   30.700
 6882.00    0.46097   0.49022   31.458
 6883.00    0.47115   0.49027   32.142
 6884.00    0.49837   0.49071   32.829
 6885.00    0.51864   0.49188   32.876
 6886.00    0.52303   0.49357   32.537
 6887.00    0.52039   0.49524   32.746
 6888.00    0.52041   0.49664   33.565
 6889.00    0.52710   0.49785   34.325
 6890.00    0.53392   0.49872   34.811
 6891.00    0.53110   0.49917   35.270
 6892.00    0.52182   0.49927   35.600
 6893.00    0.51613   0.49899   35.468
 6894.00    0.51370   0.49854   34.911
 6895.00    0.50782   0.49829   34.224
 6896.00    0.49729   0.49816   33.560
 6897.00    0.48600   0.49784   32.981
 6898.00    0.47879   0.49762   32.606
 6899.00    0.47749   0.49793   32.534
 6900.00    0.47681   0.49849   32.720
 6901.00    0.47187   0.49882   32.998
 6902.00    0.46824   0.49910   33.124
 6903.00    0.47334   0.49970   32.940
 6904.00    0.48493   0.50051   32.555
 6905.00    0.49614   0.50109   32.220
 6906.00    0.50266   0.50135   32.154
 6907.00    0.50463   0.50142   32.304
 6908.00    0.50691   0.50124   32.193
 6909.00    0.51055   0.50065   31.722
 6910.00    0.50640   0.49965   31.741
 6911.00    0.49032   0.49841   32.570
 6912.00    0.47471   0.49720   32.888
 6913.00    0.47154   0.49628   31.830
 6914.00    0.47915   0.49567   30.687
 6915.00    0.48918   0.49538   30.501
 6916.00    0.49332   0.49555   30.992
 6917.00    0.48963   0.49614   31.524
 6918.00    0.48484   0.49676   31.673
 6919.00    0.48352   0.49712   31.404
 6920.00    0.48277   0.49726   31.079
 6921.00    0.47977   0.49693   31.103
 6922.00    0.47544   0.49611   31.707
 6923.00    0.47041   0.49520   32.643
 6924.00    0.46401   0.49459   33.126
 6925.00    0.45953   0.49428   32.988
 6926.00    0.46400   0.49412   33.008
 6927.00    0.47651   0.49431   33.398
 6928.00    0.48679   0.49494   33.515
 6929.00    0.48930   0.49568   33.373
 6930.00    0.48714   0.49611   33.757
 6931.00    0.48554   0.49632   34.362
 6932.00    0.48850   0.49671   33.818
 6933.00    0.49628   0.49718   32.466
 6934.00    0.50605   0.49749   31.954
 6935.00    0.51601   0.49777   32.351
 6936.00    0.52459   0.49835   32.417
 6937.00    0.52479   0.49904   31.889
 6938.00    0.50996   0.49938   31.524
 6939.00    0.49156   0.49933   31.491
 6940.00    0.49039   0.49895   31.384
 6941.00    0.50666   0.49827   31.017
 6942.00    0.52332   0.49734   30.527
 6943.00    0.52797   0.49642   30.175
 6944.00    0.51827   0.49581   30.181
 6945.00    0.50285   0.49554   30.519
 6946.00    0.49310   0.49544   31.004
 6947.00    0.48887   0.49548   31.493
 6948.00    0.48367   0.49562   31.879
 6949.00    0.47695   0.49566   32.034
 6950.00    0.47233   0.49550   31.968
 6951.00    0.47177   0.49523   32.055
 6952.00    0.47541   0.49497   32.523
 6953.00    0.48231   0.49500   32.753
 6954.00    0.49076   0.49557   32.147
 6955.00    0.49853   0.49639   31.361
 6956.00    0.50239   0.49726   31.185
 6957.00    0.49812   0.49833   31.440
 6958.00    0.48614   0.49948   31.679
 6959.00    0.47650   0.50039   31.927
 6960.00    0.47848   0.50100   32.123
 6961.00    0.49048   0.50153   31.605
 6962.00    0.50503   0.50197   30.400
 6963.00    0.51443   0.50218   29.876
 6964.00    0.51435   0.50226   30.657
 6965.00    0.50604   0.50253   31.495
 6966.00    0.49275   0.50289   31.371
 6967.00    0.47755   0.50288   31.339
 6968.00    0.46660   0.50246   32.186
 6969.00    0.46960   0.50201   32.980
 6970.00    0.48690   0.50151   33.043
 6971.00    0.50436   0.50034   33.258
 6972.00    0.51162   0.49823   33.993
 6973.00    0.51091   0.49563   34.125
 6974.00    0.50606   0.49302   33.359
 6975.00    0.49662   0.49018   33.037
 6976.00    0.48024   0.48715   33.540
 6977.00    0.45679   0.48511   33.628
 6978.00    0.44115   0.48479   32.556
 6979.00    0.45758   0.48560   30.980
 6980.00    0.49462   0.48714   29.832
 6981.00    0.50656   0.48967   29.689
 6982.00    0.48741   0.49290   30.255
 6983.00    0.47720   0.49578   30.498
 6984.00    0.48757   0.49786   30.171
 6985.00    0.49352   0.49924   30.002
 6986.00    0.48931   0.49985   30.305
 6987.00    0.49253   0.49980   30.797
 6988.00    0.50486   0.49959   31.183
 6989.00    0.51124   0.49951   31.368
 6990.00    0.50767   0.49945   31.527
 6991.00    0.50305   0.49923   31.886
 6992.00    0.50554   0.49901   32.140
 6993.00    0.51665   0.49893   31.795
 6994.00    0.52634   0.49881   31.253
 6995.00    0.52121   0.49834   31.236
 6996.00    0.50260   0.49746   31.403
 6997.00    0.48238   0.49633   30.985
 6998.00    0.46840   0.49535   30.383
 6999.00    0.46192   0.49473   30.313
 7000.00    0.45817   0.49428   30.180
 7001.00    0.45213   0.49360   -2.000
 7002.00    0.44678   0.49301   -2.000
 7003.00    0.44783   0.49301   -2.000
 7004.00    0.45442   0.49336   -2.000
 7005.00    0.46118   0.49358   -2.000
 7006.00    0.46291   0.49379   -2.000
 7007.00    0.45828   0.49429   -2.000
 7008.00    0.45304   0.49473   -2.000
 7009.00    0.45305   0.49475   -2.000
 7010.00    0.45671   0.49457   -2.000
 7011.00    0.46152   0.49426   -2.000
 7012.00    0.47065   0.49339   -2.000
 7013.00    0.48409   0.49182   -2.000
 7014.00    0.49115   0.49041   -2.000
 7015.00    0.48309   0.49003   -2.000
 7016.00    0.46419   0.49034   -2.000
 7017.00    0.44920   0.49060   -2.000
 7018.00    0.45734   0.49098   -2.000
 7019.00    0.48650   0.49201   -2.000
 7020.00    0.50238   0.49301   -2.000
 7021.00    0.48848   0.49308   -2.000
 7022.00    0.47185   0.49266   -2.000
 7023.00    0.47363   0.49252   -2.000
 7024.00    0.48332   0.49254   -2.000
 7025.00    0.48918   0.49252   -2.000
 7026.00    0.49324   0.49292   -2.000
 7027.00    0.49677   0.49400   -2.000
 7028.00    0.49486   0.49535   -2.000
 7029.00    0.48753   0.49647   -2.000
 7030.00    0.48270   0.49731   -2.000
 7031.00    0.48571   0.49792   -2.000
 7032.00    0.49518   0.49824   -2.000
 7033.00    0.50495   0.49846   -2.000
 7034.00    0.50820   0.49862   -2.000
 7035.00    0.50858   0.49850   -2.000
 7036.00    0.51717   0.49833   -2.000
 7037.00    0.53002   0.49908   -2.000
 7038.00    0.53173   0.50086   -2.000
 7039.00    0.52762   0.50267   -2.000
 7040.00    0.53863   0.50432   -2.000
 7041.00    0.56145   0.50636   -2.000
 7042.00    0.57183   0.50850   -2.000
 7043.00    0.56023   0.50999   -2.000
 7044.00    0.53643   0.51093   -2.000
 7045.00    0.51864   0.51148   -2.000
 7046.00    0.52008   0.51133   -2.000
 7047.00    0.52747   0.51038   -2.000
 7048.00    0.51767   0.50880   -2.000
 7049.00    0.49706   0.50646   -2.000
 7050.00    0.48751   0.50310   -2.000
 7051.00    0.48921   0.49904   -2.000
 7052.00    0.49074   0.49486   -2.000
 7053.00    0.49525   0.49099   -2.000
 7054.00    0.50833   0.48767   -2.000
 7055.00    0.51537   0.48504   -2.000
 7056.00    0.50376   0.48301   -2.000
 7057.00    0.49482   0.48137   -2.000
 7058.00    0.50709   0.48021   -2.000
 7059.00    0.50962   0.47946   -2.000
 7060.00    0.47669   0.47870   -2.000
 7061.00    0.45098   0.47779   -2.000
 7062.00    0.47307   0.47705   -2.000
 7063.00    0.50677   0.47654   -2.000
 7064.00    0.50883   0.47593   -2.000
 7065.00    0.49798   0.47529   -2.000
 7066.00    0.50136   0.47497   -2.000
 7067.00    0.50592   0.47524   -2.000
 7068.00    0.49700   0.47614   -2.000
 7069.00    0.48953   0.47749   -2.000
 7070.00    0.49897   0.47910   -2.000
 7071.00    0.51933   0.48111   -2.000
 7072.00    0.53432   0.48332   -2.000
 7073.00    0.52866   0.48508   -2.000
 7074.00    0.50444   0.48627   -2.000
 7075.00    0.48515   0.48720   -2.000
 7076.00    0.48098   0.48776   -2.000
 7077.00    0.47567   0.48769   -2.000
 7078.00    0.46493   0.48707   -2.000
 7079.00    0.46878   0.48595   -2.000
 7080.00    0.48948   0.48403   -2.000
 7081.00    0.50002   0.48109   -2.000
 7082.00    0.48585   0.47747   -2.000
 7083.00    0.45866   0.47387   -2.000
 7084.00    0.43436   0.47039   -2.000
 7085.00    0.42287   0.46676   -2.000
 7086.00    0.42547   0.46334   -2.000
 7087.00    0.43595   0.46091   -2.000
 7088.00    0.44707   0.45942   -2.000
 7089.00    0.45304   0.45829   -2.000
 7090.00    0.44963   0.45751   -2.000
 7091.00    0.43597   0.45725   -2.000
 7092.00    0.41922   0.45747   -2.000
 7093.00    0.41095   0.45802   -2.000
 7094.00    0.41455   0.45874   -2.000
 7095.00    0.42375   0.45948   -2.000
 7096.00    0.42763   0.46039   -2.000
 7097.00    0.42260   0.46143   -2.000
 7098.00    0.43442   0.46236   -2.000
 7099.00    0.48794   0.46304   -2.000
 7100.00    0.54059   0.46345   -2.000
 7101.00    0.53485   0.46384   -2.000
 7102.00    0.51442   0.46428   -2.000
 7103.00    0.55417   0.46458   -2.000
 7104.00    0.61250   0.46440   -2.000
 7105.00    0.60746   0.46404   -2.000
 7106.00    0.56694   0.46394   -2.000
 7107.00    0.55713   0.46382   -2.000
 7108.00    0.55369   0.46311   -2.000
 7109.00    0.50484   0.46220   -2.000
 7110.00    0.43262   0.46193   -2.000
 7111.00    0.38964   0.46220   -2.000
 7112.00    0.39272   0.46244   -2.000
 7113.00    0.42562   0.46276   -2.000
 7114.00    0.45341   0.46358   -2.000
 7115.00    0.45608   0.46455   -2.000
 7116.00    0.45641   0.46516   -2.000
 7117.00    0.47429   0.46545   -2.000
 7118.00    0.48701   0.46557   -2.000
 7119.00    0.47452   0.46521   -2.000
 7120.00    0.45629   0.46428   -2.000
 7121.00    0.45444   0.46326   -2.000
 7122.00    0.46505   0.46204   -2.000
 7123.00    0.47590   0.46007   -2.000
 7124.00    0.48057   0.45758   -2.000
 7125.00    0.47814   0.45548   -2.000
 7126.00    0.47107   0.45369   -2.000
 7127.00    0.45721   0.45157   -2.000
 7128.00    0.43020   0.44952   -2.000
 7129.00    0.40755   0.44845   -2.000
 7130.00    0.43029   0.44848   -2.000
 7131.00    0.48321   0.44895   -2.000
 7132.00    0.48577   0.44966   -2.000
 7133.00    0.43666   0.45080   -2.000
 7134.00    0.43816   0.45241   -2.000
 7135.00    0.51303   0.45409   -2.000
 7136.00    0.57037   0.45525   -2.000
 7137.00    0.57928   0.45587   -2.000
 7138.00    0.59586   0.45655   -2.000
 7139.00    0.61523   0.45734   -2.000
 7140.00    0.56597   0.45760   -2.000
 7141.00    0.46402   0.45739   -2.000
 7142.00    0.40983   0.45718   -2.000
 7143.00    0.43108   0.45699   -2.000
 7144.00    0.47309   0.45643   -2.000
 7145.00    0.50237   0.45538   -2.000
 7146.00    0.51985   0.45433   -2.000
 7147.00    0.52201   0.45400   -2.000
 7148.00    0.50075   0.45428   -2.000
 7149.00    0.46525   0.45471   -2.000
 7150.00    0.43681   0.45574   -2.000
 7151.00    0.42767   0.45767   -2.000
 7152.00    0.43729   0.45959   -2.000
 7153.00    0.45417   0.46095   -2.000
 7154.00    0.46488   0.46237   -2.000
 7155.00    0.46861   0.46379   -2.000
 7156.00    0.47267   0.46427   -2.000
 7157.00    0.48074   0.46385   -2.000
 7158.00    0.48436   0.46330   -2.000
 7159.00    0.45594   0.46283   -2.000
 7160.00    0.39205   0.46204   -2.000
 7161.00    0.36615   0.46081   -2.000
 7162.00    0.43143   0.45951   -2.000
 7163.00    0.50229   0.45885   -2.000
 7164.00    0.48589   0.45914   -2.000
 7165.00    0.43728   0.45996   -2.000
 7166.00    0.44049   0.46096   -2.000
 7167.00    0.47371   0.46238   -2.000
 7168.00    0.48388   0.46439   -2.000
 7169.00    0.46792   0.46655   -2.000
 7170.00    0.44477   0.46824   -2.000
 7171.00    0.42466   0.46934   -2.000
 7172.00    0.41271   0.47002   -2.000
 7173.00    0.41381   0.47020   -2.000
 7174.00    0.43342   0.46974   -2.000
 7175.00    0.47527   0.46904   -2.000
 7176.00    0.52362   0.46832   -2.000
 7177.00    0.54018   0.46724   -2.000
 7178.00    0.52075   0.46579   -2.000
 7179.00    0.51477   0.46474   -2.000
 7180.00    0.53054   0.46441   -2.000
 7181.00    0.50352   0.46414   -2.000
 7182.00    0.42233   0.46344   -2.000
 7183.00    0.36773   0.46269   -2.000
 7184.00    0.37389   0.46207   -2.000
 7185.00    0.38653   0.46111   -2.000
 7186.00    0.38124   0.45976   -2.000
 7187.00    0.39487   0.45859   -2.000
 7188.00    0.43513   0.45794   -2.000
 7189.00    0.46224   0.45785   -2.000
 7190.00    0.45974   0.45804   -2.000
 7191.00    0.44733   0.45861   -2.000
 7192.00    0.43338   0.45974   -2.000
 7193.00    0.41199   0.46116   -2.000
 7194.00    0.40385   0.46199   -2.000
 7195.00    0.44014   0.46228   -2.000
 7196.00    0.48307   0.46281   -2.000
 7197.00    0.45972   0.46353   -2.000
 7198.00    0.40398   0.46375   -2.000
 7199.00    0.41776   0.46348   -2.000
 7200.00    0.49473   0.46325   -2.000
 7201.00    0.54332   0.46320   -2.000
 7202.00    0.52772   0.46295   -2.000
 7203.00    0.47597   0.46217   -2.000
 7204.00    0.43303   0.46092   -2.000
 7205.00    0.43069   0.45971   -2.000
 7206.00    0.45235   0.45899   -2.000
 7207.00    0.45912   0.45862   -2.000
 7208.00    0.44319   0.45851   -2.000
 7209.00    0.42271   0.45897   -2.000
 7210.00    0.41923   0.45993   -2.000
 7211.00    0.43732   0.46105   -2.000
 7212.00    0.44397   0.46232   -2.000
 7213.00    0.41479   0.46359   -2.000
 7214.00    0.39169   0.46454   -2.000
 7215.00    0.41322   0.46547   -2.000
 7216.00    0.43097   0.46656   -2.000
 7217.00    0.39688   0.46738   -2.000
 7218.00    0.36014   0.46792   -2.000
