###################################################################
## OUTPUT of StarlightChains_v04.for    [Cid@UFSC - 01/Apr/2007] ##
###################################################################

## Some input info
2014as.txt                               [arq_obs]
Base.CB07.vall.4m                        [arq_base]
Masks.EmLines.NEW.gm                     [arq_masks]
StCv04.C11.config                        [arq_config]
   66                                    [N_base]
    0                                    [N_YAV_components = # of components with extra extinction!]
    0                                    [i_FitPowerLaw (1/0 = Yes/No)]
-9.99                                    [alpha_PowerLaw]
CCM                                      [red_law_option]
 1.458241                                [q_norm = A(l_norm)/A(V)]

## (Re)Sampling Parameters
 3741.00                                 [l_ini (A)]
 7218.00                                 [l_fin (A)]
    1.00                                 [dl    (A)]     (OBS: dl_cushion =    50.00 A)

## Normalization info
 4020.00                                 [l_norm (A) - for base]
 4010.00                                 [llow_norm (A) - window for f_obs]
 4060.00                                 [lupp_norm (A) - window for f_obs]
1.462664E-16                             [fobs_norm (in input units)]

## S/N
 3691.00                                 [llow_SN (A) - window for S/N]
 7268.00                                 [lupp_SN (A) - window for S/N]
   3.848                                 [S/N in S/N window]
   5.783                                 [S/N in norm. window]
  11.819                                 [S/N_err in S/N window]
  17.764                                 [S/N_err in norm. window]
  1.0000                                 [fscale_chi2]

## etc...
    -2007417                             [idum_orig]
  2383                                   [NOl_eff]
  2383                                   [Nl_eff]
     0    NSIGMA                         [Ntot_cliped & clip_method]
  1469230                                [Nglobal_steps]
   7                                     [N_chains]
  25                                     [NEX0s_base = N_base in EX0s-fits]
 0   0   1        0   2.0   3.249E+01    [Clip-Bug, RC-Crash & Burn-In warning-flags, n_censored_weights, wei_nsig_threshold & wei_limit]
    12     11.872     11.365      0.506  [idt_all, wdt_TotTime, wdt_UsrTime & wdt_SysTime (sec)]

## Synthesis Results - Best model ##

 3.33217E-01                             [chi2/Nl_eff]
     3.69881                             [adev (%)]

   102.58611                             [sum-of-x (%)]
 1.80467E-16                             [Flux_tot (units of input spectrum!)]
 2.88172E-13                             [Mini_tot (???)]
 1.71601E-13                             [Mcor_tot (???)]

 -56.49                                  [v0_min  (km/s)]
 270.51                                  [vd_min  (km/s)]
 0.1374                                  [AV_min  (mag)]
 0.0000                                  [YAV_min (mag)]

# j     x_j(%)      Mini_j(%)     Mcor_j(%)     age_j(yr)     Z_j      (L/M)_j    YAV?  Mstars   component_j        a/Fe...       SSP_chi2r SSP_adev(%)   SSP_AV   SSP_x(%)
  1      2.7852     1.5541E-01    2.6099E-01    1.000000E+06  0.00400  1.094E-02    0   1.0000   age020_m42            0.0000     6.5694E-01     5.4361   1.9180    88.5064
  2      7.7113     1.1748E-01    1.9727E-01    3.160000E+06  0.00400  4.007E-02    0   0.9999   age045_m42            0.0000     5.0652E-01     4.6094   1.1665    95.8705
  3      0.0000     0.0000E+00    0.0000E+00    5.010000E+06  0.00400  2.539E-02    0   0.9488   age055_m42            0.0000     5.3711E-01     4.8366   1.4959    93.0652
  4      0.0199     4.6321E-04    7.1719E-04    6.610000E+06  0.00400  2.620E-02    0   0.9220   age061_m42            0.0000     4.9106E-01     4.4663   1.0897    96.2828
  5      0.0000     0.0000E+00    0.0000E+00    1.000000E+07  0.00400  1.322E-02    0   0.8862   age070_m42            0.0000     3.8284E-01     3.8398   0.8017    98.9042
  6      0.0000     0.0000E+00    0.0000E+00    1.445000E+07  0.00400  7.883E-03    0   0.8571   age078_m42            0.0000     4.1339E-01     4.0650   1.1368    95.9653
  7      0.0139     1.6152E-03    2.2172E-03    2.512000E+07  0.00400  5.251E-03    0   0.8174   age090_m42            0.0000     3.8180E-01     3.8062   0.6676    99.7159
  8      0.0000     0.0000E+00    0.0000E+00    4.000000E+07  0.00400  3.649E-03    0   0.7851   age104_m42            0.0000     3.7417E-01     3.7655   0.4367   100.7076
  9      0.0000     0.0000E+00    0.0000E+00    5.500000E+07  0.00400  3.098E-03    0   0.7629   age110_m42            0.0000     4.2697E-01     3.9774   0.5900   100.6304
 10      0.0000     0.0000E+00    0.0000E+00    1.015200E+08  0.00400  2.228E-03    0   0.7207   age116_m42            0.0000     4.9938E-01     4.2441   0.6092   100.8204
 11      0.0000     0.0000E+00    0.0000E+00    2.861200E+08  0.00400  1.093E-03    0   0.6648   age125_m42            0.0000     5.0817E-01     4.2421   0.0317   104.4475
 12      0.0000     0.0000E+00    0.0000E+00    5.088000E+08  0.00400  6.597E-04    0   0.6365   age130_m42            0.0000     6.2911E-01     4.6450   0.0228   105.1470
 13      0.0000     0.0000E+00    0.0000E+00    1.434000E+09  0.00400  2.132E-04    0   0.5798   age139_m42            0.0000     6.6815E-01     4.9544  -0.9469   107.1013
 14      2.0894     2.1637E+01    1.9537E+01    4.250000E+09  0.00400  5.895E-05    0   0.5377   age158_m42            0.0000     1.3819E+00     7.4695  -1.0000    87.7230
 15      0.0000     0.0000E+00    0.0000E+00    7.500000E+09  0.00400  3.510E-05    0   0.5212   age171_m42            0.0000     2.2221E+00     9.7478  -1.0000    80.3541
 16      0.0000     0.0000E+00    0.0000E+00    1.300000E+10  0.00400  2.005E-05    0   0.5034   age193_m42            0.0000     3.1419E+00    11.9257  -1.0000    74.2837
 17      0.0000     0.0000E+00    0.0000E+00    1.800000E+10  0.00400  1.525E-05    0   0.4967   age213_m42            0.0000     3.2623E+00    12.2742  -1.0000    73.1954
 18      3.4267     1.6897E-01    2.8376E-01    1.000000E+06  0.00800  1.238E-02    0   1.0000   age020_m52            0.0000     6.5637E-01     5.4426   1.9143    88.6776
 19      8.3650     1.6612E-01    2.7802E-01    3.160000E+06  0.00800  3.074E-02    0   0.9966   age045_m52            0.0000     6.3897E-01     5.3783   1.8353    89.5641
 20      0.4932     1.1285E-02    1.7896E-02    5.010000E+06  0.00800  2.668E-02    0   0.9443   age055_m52            0.0000     5.4412E-01     4.8972   1.5817    92.0841
 21     39.2216     1.1209E+00    1.7275E+00    6.610000E+06  0.00800  2.136E-02    0   0.9177   age061_m52            0.0000     3.5519E-01     3.8486   0.3093    99.6030
 22      0.0000     0.0000E+00    0.0000E+00    1.000000E+07  0.00800  1.215E-02    0   0.8827   age070_m52            0.0000     3.9176E-01     3.9060   0.9824    98.6757
 23      0.0000     0.0000E+00    0.0000E+00    1.445000E+07  0.00800  8.717E-03    0   0.8552   age078_m52            0.0000     3.9550E-01     3.9580   1.0984    97.4852
 24      0.0000     0.0000E+00    0.0000E+00    2.512000E+07  0.00800  5.592E-03    0   0.8162   age090_m52            0.0000     3.8143E-01     3.7976   0.7289   101.0543
 25      0.0000     0.0000E+00    0.0000E+00    4.000000E+07  0.00800  3.896E-03    0   0.7841   age104_m52            0.0000     3.8569E-01     3.8074   0.6389   101.9426
 26      0.7147     2.0312E-01    2.4648E-01    1.015200E+08  0.00800  2.148E-03    0   0.7226   age116_m52            0.0000     4.3603E-01     3.9872   0.5759   101.7430
 27      0.0061     3.7786E-03    4.2407E-03    2.861200E+08  0.00800  9.925E-04    0   0.6683   age125_m52            0.0000     6.3692E-01     4.6204   0.0865   106.1950
 28      3.6649     7.1228E+00    7.3419E+00    9.047900E+08  0.00800  3.141E-04    0   0.6138   age135_m52            0.0000     8.4557E-01     5.5066  -0.7056   110.1975
 29      2.5681     9.1199E+00    8.9640E+00    1.434000E+09  0.00800  1.719E-04    0   0.5853   age139_m52            0.0000     1.1517E+00     6.6054  -1.0000    96.1574
 30      0.0000     0.0000E+00    0.0000E+00    2.500000E+09  0.00800  7.872E-05    0   0.5600   age150_m52            0.0000     2.2281E+00     9.6144  -1.0000    83.3275
 31      0.0000     0.0000E+00    0.0000E+00    4.250000E+09  0.00800  4.336E-05    0   0.5426   age158_m52            0.0000     2.2984E+00     9.7539  -1.0000    81.9798
 32      0.0000     0.0000E+00    0.0000E+00    6.250000E+09  0.00800  3.159E-05    0   0.5319   age166_m52            0.0000     3.4916E+00    12.3928  -1.0000    74.9406
 33      0.0000     0.0000E+00    0.0000E+00    1.300000E+10  0.00800  1.361E-05    0   0.5073   age193_m52            0.0000     6.8643E+00    18.5707  -1.0000    59.9534
 34      0.0000     0.0000E+00    0.0000E+00    1.800000E+10  0.00800  9.886E-06    0   0.4990   age213_m52            0.0000     7.7840E+00    19.7393  -1.0000    56.6813
 35      0.0000     0.0000E+00    0.0000E+00    1.000000E+06  0.02000  1.544E-02    0   1.0000   age020_m62            0.0000     6.6015E-01     5.4691   1.9106    88.8661
 36      0.0000     0.0000E+00    0.0000E+00    3.160000E+06  0.02000  3.762E-02    0   0.9858   age045_m62            0.0000     6.5623E-01     5.4744   1.8485    89.6860
 37      0.2717     5.0329E-03    7.8957E-03    5.010000E+06  0.02000  3.296E-02    0   0.9342   age055_m62            0.0000     5.3841E-01     4.7881   1.4507    94.4373
 38      7.4398     3.9356E-01    5.8563E-01    8.710000E+06  0.02000  1.154E-02    0   0.8861   age067_m62            0.0000     8.5395E-01     5.7147   0.4305   102.0835
 39      0.9630     7.6717E-02    1.0915E-01    1.445000E+07  0.02000  7.663E-03    0   0.8472   age078_m62            0.0000     4.3993E-01     4.1500   0.6265   101.2322
 40      0.0000     0.0000E+00    0.0000E+00    2.512000E+07  0.02000  4.532E-03    0   0.8099   age090_m62            0.0000     4.7274E-01     4.2792   0.6151   101.1878
 41      0.0000     0.0000E+00    0.0000E+00    5.500000E+07  0.02000  2.733E-03    0   0.7595   age110_m62            0.0000     3.8846E-01     3.8014   0.6235   101.0883
 42      0.0000     0.0000E+00    0.0000E+00    1.609000E+08  0.02000  1.369E-03    0   0.6985   age120_m62            0.0000     5.4596E-01     4.2781   0.4534   104.2400
 43      0.0000     0.0000E+00    0.0000E+00    2.861200E+08  0.02000  9.013E-04    0   0.6714   age125_m62            0.0000     7.3194E-01     4.8225   0.1973   107.4815
 44     10.6142     1.2887E+01    1.3956E+01    5.088000E+08  0.02000  5.028E-04    0   0.6449   age130_m62            0.0000     9.4657E-01     5.5936  -0.1746   109.9110
 45      7.4944     1.8843E+01    1.9552E+01    9.047900E+08  0.02000  2.428E-04    0   0.6179   age135_m62            0.0000     9.1982E-01     5.8312  -0.7500   108.6522
 46      0.0000     0.0000E+00    0.0000E+00    1.434000E+09  0.02000  1.263E-04    0   0.5908   age139_m62            0.0000     1.1381E+00     6.3813  -1.0000    98.9875
 47      2.5122     2.5624E+01    2.4411E+01    2.500000E+09  0.02000  5.985E-05    0   0.5673   age150_m62            0.0000     2.4666E+00     9.9425  -1.0000    83.5735
 48      0.0000     0.0000E+00    0.0000E+00    4.250000E+09  0.02000  3.271E-05    0   0.5468   age158_m62            0.0000     4.3157E+00    13.7628  -1.0000    72.3203
 49      0.0000     0.0000E+00    0.0000E+00    1.000000E+10  0.02000  1.360E-05    0   0.5167   age181_m62            0.0000     6.9343E+00    18.1284  -1.0000    61.3102
 50      0.0000     0.0000E+00    0.0000E+00    1.800000E+10  0.02000  7.124E-06    0   0.5013   age213_m62            0.0000     8.6688E+00    20.5204  -1.0000    55.0682
 51      0.0000     0.0000E+00    0.0000E+00    1.000000E+06  0.05000  2.592E-02    0   0.9998   age020_m72            0.0000     6.7395E-01     5.5360   1.9047    88.7874
 52      0.0000     0.0000E+00    0.0000E+00    3.160000E+06  0.05000  4.845E-02    0   0.9577   age045_m72            0.0000     6.1483E-01     5.2613   1.7238    91.2276
 53      0.5405     1.0741E-02    1.6498E-02    5.010000E+06  0.05000  3.072E-02    0   0.9147   age055_m72            0.0000     4.6316E-01     4.3808   1.2305    96.3979
 54      0.2174     9.1209E-03    1.3597E-02    6.610000E+06  0.05000  1.455E-02    0   0.8877   age061_m72            0.0000     1.5189E+00     7.8177   0.4839   103.1542
 55      0.0000     0.0000E+00    0.0000E+00    1.000000E+07  0.05000  9.074E-03    0   0.8524   age070_m72            0.0000     6.0288E-01     4.9488   1.4214    95.9669
 56      0.0000     0.0000E+00    0.0000E+00    2.512000E+07  0.05000  4.250E-03    0   0.7902   age090_m72            0.0000     4.8182E-01     4.3459   1.1004    98.6855
 57      0.0000     0.0000E+00    0.0000E+00    4.000000E+07  0.05000  3.087E-03    0   0.7618   age104_m72            0.0000     5.0280E-01     4.3779   0.8624   100.8661
 58      0.0000     0.0000E+00    0.0000E+00    1.015200E+08  0.05000  1.700E-03    0   0.7096   age116_m72            0.0000     5.1114E-01     4.1931   0.5933   104.0115
 59      0.0000     0.0000E+00    0.0000E+00    2.861200E+08  0.05000  7.384E-04    0   0.6633   age125_m72            0.0000     8.5354E-01     5.2276   0.0663   108.8343
 60      1.4528     2.3223E+00    2.4850E+00    5.088000E+08  0.05000  3.819E-04    0   0.6372   age130_m72            0.0000     9.4853E-01     5.8244  -0.4173   109.9932
 61      0.0000     0.0000E+00    0.0000E+00    9.047900E+08  0.05000  1.676E-04    0   0.6110   age135_m72            0.0000     1.2660E+00     6.8987  -1.0000   102.9803
 62      0.0000     0.0000E+00    0.0000E+00    1.434000E+09  0.05000  8.837E-05    0   0.5874   age139_m72            0.0000     2.5879E+00    10.1625  -1.0000    84.7734
 63      0.0000     0.0000E+00    0.0000E+00    2.500000E+09  0.05000  4.233E-05    0   0.5598   age150_m72            0.0000     4.4225E+00    13.8144  -1.0000    72.8995
 64      0.0000     0.0000E+00    0.0000E+00    6.250000E+09  0.05000  1.435E-05    0   0.5249   age166_m72            0.0000     7.7097E+00    19.3048  -1.0000    58.3201
 65      0.0000     0.0000E+00    0.0000E+00    1.300000E+10  0.05000  6.513E-06    0   0.5036   age193_m72            0.0000     1.0075E+01    22.3729  -1.0000    51.4840
 66      0.0000     0.0000E+00    0.0000E+00    1.800000E+10  0.05000  4.527E-06    0   0.4945   age213_m72            0.0000     1.1480E+01    24.0172  -1.0000    47.5188


## Synthesis Results - Average & Chains ##

# j      x_j: min, <> & last-chain-values for 1 ...  7 chains
  1      2.7852      0.6054      2.6940      1.8268      1.5795      0.3810      0.0000      0.0000      0.0000
  2      7.7113      0.6924      2.2822      0.0000      0.4259      0.0000      0.0000      0.0000      0.0000
  3      0.0000      0.2373      0.0000      0.0000      0.0000      0.0000      0.4566      0.0000      0.0000
  4      0.0199      0.4859      1.1695      0.2723      0.5933      0.0000      4.0503      0.0000      3.0063
  5      0.0000      0.8768      0.0000      0.4827      2.5212      0.0000      0.0000      0.0000      0.0000
  6      0.0000      0.5729      0.0000      0.0000      0.0370      1.0161      0.8982      2.9698      0.6947
  7      0.0139      1.0657      3.0212      1.3692      0.0000      0.0000      0.0000      0.0000      0.0000
  8      0.0000      1.9838      0.0000      4.0303      2.1388      0.1420      0.0000      0.0000      0.0000
  9      0.0000      0.9407      0.9153      0.0000      2.6757      0.0000      0.0000      0.0000      0.4840
 10      0.0000      0.6431      0.0000      0.0000      0.6194      0.2672      0.0000      0.5272      0.0000
 11      0.0000      1.6903      0.0000      0.8514      0.0000      0.0000      2.1559      2.4327      0.8082
 12      0.0000      1.1474      0.0000      0.0962      0.0000      0.0000      1.6053      2.7311      0.0000
 13      0.0000      0.3273      0.0000      0.0000      1.0553      0.7762      0.0000      0.3125      0.0000
 14      2.0894      0.4194      1.2093      0.0000      0.0000      1.2807      0.9339      2.1649      0.4995
 15      0.0000      0.0635      0.0000      0.0000      0.0000      0.7223      0.0000      0.0000      0.4655
 16      0.0000      0.0560      0.0000      0.0000      0.0000      0.0000      0.0000      0.0000      0.0000
 17      0.0000      0.0268      0.0000      0.0000      0.0000      0.0000      0.0000      0.0000      0.0000
 18      3.4267      0.3486      1.3258      0.3698      1.4632      0.0000      0.0430      0.0000      3.3465
 19      8.3650      4.0585      4.8428      7.4178      4.5562      6.0165      4.7099      5.3632      6.4850
 20      0.4932      2.1897      3.7391      0.0000      2.5943      2.1304      0.0000      1.5432      4.1311
 21     39.2216     40.0644     39.9419     45.3007     39.5493     41.0353     40.7728     40.5250     42.3658
 22      0.0000      0.6856      0.0000      1.3437      0.5272      0.0000      3.4233      2.8526      0.0000
 23      0.0000      0.4776      0.0000      0.0000      0.0000      0.0000      1.2236      0.6239      0.0000
 24      0.0000      0.8474      0.0000      1.2772      0.0000      2.9293      0.0000      0.5741      0.5429
 25      0.0000      0.9182      0.0989      0.0000      1.1162      0.0000      0.0000      0.0523      0.0000
 26      0.7147      0.7987      0.8842      0.0000      0.9642      0.0000      0.0398      0.0472      1.9455
 27      0.0061      1.3948      1.3070      1.0766      0.0000      1.5019      1.6249      0.0000      0.0000
 28      3.6649      0.9360      1.5806      2.1001      0.0000      0.0000      2.4288      0.0000      3.2123
 29      2.5681      0.9362      2.1163      1.5676      0.1651      1.3660      0.4880      2.5906      3.0175
 30      0.0000      0.0965      0.0000      0.3813      0.0000      0.0219      0.0000      0.0000      0.8978
 31      0.0000      0.0326      0.0000      0.0000      0.0000      0.0000      0.5565      0.0000      0.0000
 32      0.0000      0.1014      0.0000      0.4392      0.0000      0.0000      0.0000      0.0000      0.0000
 33      0.0000      0.0214      0.0000      0.3718      0.2506      0.0000      0.0000      0.0000      0.0000
 34      0.0000      0.0185      0.0000      0.0000      0.0000      0.0000      0.1133      0.0885      0.0000
 35      0.0000      0.2638      0.0000      0.0000      0.2733      0.1782      0.6613      0.8326      1.6026
 36      0.0000      0.4117      0.3717      1.8617      1.9633      0.0000      2.1774      0.0000      0.0000
 37      0.2717      0.7444      0.9088      0.0000      0.0000      1.9944      2.1982      0.0000      0.0000
 38      7.4398      4.6134      4.7761      3.3738      4.4208      5.8383      5.9283      0.0000      4.8973
 39      0.9630      2.7743      0.7894      2.3343      0.0000      3.0765      2.2469      9.3481      0.0000
 40      0.0000      1.4950      2.0837      0.0000      0.0000      2.2534      0.0000      0.0000      1.3417
 41      0.0000      0.6685      0.0000      0.2814      0.1723      0.0000      0.0000      0.0000      0.0000
 42      0.0000      0.7967      0.0000      2.1390      0.0000      1.4228      0.2770      0.0000      3.3085
 43      0.0000      0.9563      0.0000      0.0000      0.0000      0.0000      0.0000      0.8637      0.9127
 44     10.6142      6.2677      7.4905      5.7742     12.3532     12.3239      7.5505      3.9210      5.0575
 45      7.4944      4.4928      4.7942      5.1239      4.9891      5.6472      5.7880      7.4042      5.0548
 46      0.0000      0.7202      0.5690      0.0000      1.1448      0.0000      0.0000      1.9092      0.0000
 47      2.5122      0.5657      3.0092      0.0000      1.3836      0.0000      0.9296      0.0000      0.0000
 48      0.0000      0.3226      0.0000      0.0000      0.6638      1.1687      0.0000      0.0000      0.6214
 49      0.0000      0.0091      0.0000      0.0000      0.0000      0.0000      0.0000      0.0000      0.0000
 50      0.0000      0.0658      0.0000      0.0000      0.1262      0.0000      0.0000      0.0000      0.0000
 51      0.0000      0.7074      0.0000      0.4157      1.8872      3.1490      1.9096      2.9312      1.3318
 52      0.0000      0.6268      0.0000      0.0000      0.0000      0.5639      0.0000      1.8980      0.0000
 53      0.5405      0.5583      1.4317      0.0000      0.2299      1.9308      0.6621      0.0000      0.0000
 54      0.2174      2.0212      1.7682      3.2738      4.7762      0.0000      0.0000      0.0000      0.0000
 55      0.0000      0.3353      0.0000      0.0000      0.0000      0.0946      0.0000      0.0000      0.0000
 56      0.0000      0.5958      0.0000      0.2568      1.3979      0.0000      0.0000      3.9555      1.4887
 57      0.0000      0.5299      2.4223      0.3379      0.0000      0.0000      0.6263      0.0000      0.0000
 58      0.0000      0.5850      0.0000      0.4080      0.0000      1.5869      1.9430      0.0000      0.0000
 59      0.0000      1.3239      0.0000      0.0000      0.0000      0.0000      0.0000      0.0000      1.0001
 60      1.4528      4.0311      4.6691      5.7495      4.0217      1.5758      3.7164      3.7924      3.6424
 61      0.0000      0.2597      0.3097      0.4119      0.0000      0.0000      0.2343      0.0000      0.0000
 62      0.0000      0.0520      0.0000      0.0000      0.0246      0.0000      0.0000      0.0647      0.0000
 63      0.0000      0.0329      0.0000      0.0000      0.0000      0.0000      0.0000      0.0000      0.0000
 64      0.0000      0.0098      0.0000      0.0000      0.0000      0.0000      0.0000      0.0000      0.0000
 65      0.0000      0.0085      0.0000      0.0000      0.0000      0.0000      0.0000      0.0000      0.0000
 66      0.0000      0.0240      0.0000      0.0000      0.0000      0.0000      0.1637      0.0000      0.0000

# j      m_j: min, <> & last-chain-values for 1 ...  7 chains
  1  2.6099E-01  6.9794E-02  2.7608E-01  2.3088E-01  1.5687E-01  3.9468E-02  0.0000E+00  0.0000E+00  0.0000E+00
  2  1.9727E-01  2.1792E-02  6.3848E-02  0.0000E+00  1.1548E-02  0.0000E+00  0.0000E+00  0.0000E+00  0.0000E+00
  3  0.0000E+00  1.1185E-02  0.0000E+00  0.0000E+00  0.0000E+00  0.0000E+00  1.8088E-02  0.0000E+00  0.0000E+00
  4  7.1719E-04  2.1569E-02  4.6139E-02  1.3247E-02  2.2687E-02  0.0000E+00  1.5109E-01  0.0000E+00  1.3475E-01
  5  0.0000E+00  7.4139E-02  0.0000E+00  4.4739E-02  1.8363E-01  0.0000E+00  0.0000E+00  0.0000E+00  0.0000E+00
  6  0.0000E+00  7.8565E-02  0.0000E+00  0.0000E+00  4.3734E-03  1.2518E-01  1.0353E-01  3.8896E-01  9.6213E-02
  7  2.2172E-03  2.0925E-01  5.2725E-01  2.9469E-01  0.0000E+00  0.0000E+00  0.0000E+00  0.0000E+00  0.0000E+00
  8  0.0000E+00  5.3836E-01  0.0000E+00  1.1989E+00  4.9998E-01  3.4618E-02  0.0000E+00  0.0000E+00  0.0000E+00
  9  0.0000E+00  2.9220E-01  2.5269E-01  0.0000E+00  7.1592E-01  0.0000E+00  0.0000E+00  0.0000E+00  1.5181E-01
 10  0.0000E+00  2.6241E-01  0.0000E+00  0.0000E+00  2.1771E-01  9.7949E-02  0.0000E+00  2.0544E-01  0.0000E+00
 11  0.0000E+00  1.2968E+00  0.0000E+00  7.1597E-01  0.0000E+00  0.0000E+00  1.3901E+00  1.7824E+00  6.2617E-01
 12  0.0000E+00  1.3963E+00  0.0000E+00  1.2834E-01  0.0000E+00  0.0000E+00  1.6418E+00  3.1742E+00  0.0000E+00
 13  0.0000E+00  1.1228E+00  0.0000E+00  0.0000E+00  3.1183E+00  2.3918E+00  0.0000E+00  1.0236E+00  0.0000E+00
 14  1.9537E+01  4.8250E+00  1.2366E+01  0.0000E+00  0.0000E+00  1.3237E+01  9.0299E+00  2.3787E+01  5.8031E+00
 15  0.0000E+00  1.1896E+00  0.0000E+00  0.0000E+00  0.0000E+00  1.2154E+01  0.0000E+00  0.0000E+00  8.8039E+00
 16  0.0000E+00  1.7748E+00  0.0000E+00  0.0000E+00  0.0000E+00  0.0000E+00  0.0000E+00  0.0000E+00  0.0000E+00
 17  0.0000E+00  1.1029E+00  0.0000E+00  0.0000E+00  0.0000E+00  0.0000E+00  0.0000E+00  0.0000E+00  0.0000E+00
 18  2.8376E-01  3.5520E-02  1.2006E-01  4.1295E-02  1.2841E-01  0.0000E+00  3.6778E-03  0.0000E+00  3.4432E-01
 19  2.7802E-01  1.6596E-01  1.7602E-01  3.3250E-01  1.6049E-01  2.2103E-01  1.6187E-01  2.0945E-01  2.6780E-01
 20  1.7896E-02  9.7757E-02  1.4837E-01  0.0000E+00  9.9765E-02  8.5440E-02  0.0000E+00  6.5794E-02  1.8624E-01
 21  1.7275E+00  2.1711E+00  1.9239E+00  2.6910E+00  1.8462E+00  1.9978E+00  1.8569E+00  2.0973E+00  2.3185E+00
 22  0.0000E+00  6.2823E-02  0.0000E+00  1.3497E-01  4.1616E-02  0.0000E+00  2.6364E-01  2.4964E-01  0.0000E+00
 23  0.0000E+00  5.9107E-02  0.0000E+00  0.0000E+00  0.0000E+00  0.0000E+00  1.2725E-01  7.3732E-02  0.0000E+00
 24  0.0000E+00  1.5600E-01  0.0000E+00  2.5775E-01  0.0000E+00  4.8449E-01  0.0000E+00  1.0094E-01  1.0094E-01
 25  0.0000E+00  2.3309E-01  2.2325E-02  0.0000E+00  2.4408E-01  0.0000E+00  0.0000E+00  1.2685E-02  0.0000E+00
 26  2.4648E-01  3.3889E-01  3.3348E-01  0.0000E+00  3.5243E-01  0.0000E+00  1.4205E-02  1.9141E-02  8.3363E-01
 27  4.2407E-03  1.1847E+00  9.8667E-01  1.0023E+00  0.0000E+00  1.1460E+00  1.1598E+00  0.0000E+00  0.0000E+00
 28  7.3419E+00  2.3071E+00  3.4629E+00  5.6743E+00  0.0000E+00  0.0000E+00  5.0312E+00  0.0000E+00  7.9958E+00
 29  8.9640E+00  4.0208E+00  8.0783E+00  7.3798E+00  6.1082E-01  5.2704E+00  1.7613E+00  1.0625E+01  1.3087E+01
 30  0.0000E+00  8.6599E-01  0.0000E+00  3.7508E+00  0.0000E+00  1.7659E-01  0.0000E+00  0.0000E+00  8.1350E+00
 31  0.0000E+00  5.1435E-01  0.0000E+00  0.0000E+00  0.0000E+00  0.0000E+00  7.3819E+00  0.0000E+00  0.0000E+00
 32  0.0000E+00  2.1526E+00  0.0000E+00  1.0223E+01  0.0000E+00  0.0000E+00  0.0000E+00  0.0000E+00  0.0000E+00
 33  0.0000E+00  1.0075E+00  0.0000E+00  1.9162E+01  1.0149E+01  0.0000E+00  0.0000E+00  0.0000E+00  0.0000E+00
 34  0.0000E+00  1.1786E+00  0.0000E+00  0.0000E+00  0.0000E+00  0.0000E+00  6.0641E+00  5.3780E+00  0.0000E+00
 35  0.0000E+00  2.1553E-02  0.0000E+00  0.0000E+00  1.9235E-02  1.3078E-02  4.5401E-02  6.4959E-02  1.3221E-01
 36  0.0000E+00  1.3607E-02  1.0921E-02  6.7449E-02  5.5898E-02  0.0000E+00  6.0483E-02  0.0000E+00  0.0000E+00
 37  7.8957E-03  2.6612E-02  2.8877E-02  0.0000E+00  0.0000E+00  6.4055E-02  6.6047E-02  0.0000E+00  0.0000E+00
 38  5.8563E-01  4.4682E-01  4.1115E-01  3.5818E-01  3.6883E-01  5.0798E-01  4.8254E-01  0.0000E+00  4.7898E-01
 39  1.0915E-01  3.8688E-01  9.7839E-02  3.5682E-01  0.0000E+00  3.8541E-01  2.6333E-01  1.2449E+00  0.0000E+00
 40  0.0000E+00  3.3699E-01  4.1747E-01  0.0000E+00  0.0000E+00  4.5632E-01  0.0000E+00  0.0000E+00  3.0541E-01
 41  0.0000E+00  2.3432E-01  0.0000E+00  1.0812E-01  5.2013E-02  0.0000E+00  0.0000E+00  0.0000E+00  0.0000E+00
 42  0.0000E+00  5.1275E-01  0.0000E+00  1.5090E+00  0.0000E+00  8.2259E-01  1.4984E-01  0.0000E+00  2.1502E+00
 43  0.0000E+00  8.9853E-01  0.0000E+00  0.0000E+00  0.0000E+00  0.0000E+00  0.0000E+00  7.7501E-01  8.6598E-01
 44  1.3956E+01  1.0140E+01  1.0771E+01  1.0240E+01  1.7215E+01  1.7911E+01  1.0266E+01  6.0581E+00  8.2625E+00
 45  1.9552E+01  1.4422E+01  1.3678E+01  1.8029E+01  1.3795E+01  1.6285E+01  1.5615E+01  2.2698E+01  1.6386E+01
 46  0.0000E+00  4.2491E+00  2.9842E+00  0.0000E+00  5.8187E+00  0.0000E+00  0.0000E+00  1.0758E+01  0.0000E+00
 47  2.4411E+01  6.7638E+00  3.1978E+01  0.0000E+00  1.4250E+01  0.0000E+00  9.3407E+00  0.0000E+00  0.0000E+00
 48  0.0000E+00  6.8024E+00  0.0000E+00  0.0000E+00  1.2056E+01  2.2137E+01  0.0000E+00  0.0000E+00  1.3230E+01
 49  0.0000E+00  4.3730E-01  0.0000E+00  0.0000E+00  0.0000E+00  0.0000E+00  0.0000E+00  0.0000E+00  0.0000E+00
 50  0.0000E+00  5.8404E+00  0.0000E+00  0.0000E+00  9.6510E+00  0.0000E+00  0.0000E+00  0.0000E+00  0.0000E+00
 51  0.0000E+00  3.4416E-02  0.0000E+00  2.2169E-02  7.9095E-02  1.3764E-01  7.8084E-02  1.3620E-01  6.5436E-02
 52  0.0000E+00  1.5628E-02  0.0000E+00  0.0000E+00  0.0000E+00  1.2631E-02  0.0000E+00  4.5193E-02  0.0000E+00
 53  1.6498E-02  2.0966E-02  4.7792E-02  0.0000E+00  7.4368E-03  6.5145E-02  2.0897E-02  0.0000E+00  0.0000E+00
 54  1.3597E-02  1.5554E-01  1.2094E-01  2.7616E-01  3.1661E-01  0.0000E+00  0.0000E+00  0.0000E+00  0.0000E+00
 55  0.0000E+00  3.9724E-02  0.0000E+00  0.0000E+00  0.0000E+00  1.0066E-02  0.0000E+00  0.0000E+00  0.0000E+00
 56  0.0000E+00  1.3974E-01  0.0000E+00  6.6005E-02  2.8240E-01  0.0000E+00  0.0000E+00  8.8592E-01  3.5257E-01
 57  0.0000E+00  1.6496E-01  6.7016E-01  1.1529E-01  0.0000E+00  0.0000E+00  1.6383E-01  0.0000E+00  0.0000E+00
 58  0.0000E+00  3.0799E-01  0.0000E+00  2.3548E-01  0.0000E+00  7.5058E-01  8.5975E-01  0.0000E+00  0.0000E+00
 59  0.0000E+00  1.5000E+00  0.0000E+00  0.0000E+00  0.0000E+00  0.0000E+00  0.0000E+00  0.0000E+00  1.1444E+00
 60  2.4850E+00  8.4835E+00  8.7339E+00  1.3264E+01  7.2909E+00  2.9792E+00  6.5732E+00  7.6222E+00  7.7411E+00
 61  0.0000E+00  1.1941E+00  1.2659E+00  2.0759E+00  0.0000E+00  0.0000E+00  9.0536E-01  0.0000E+00  0.0000E+00
 62  0.0000E+00  4.3590E-01  0.0000E+00  0.0000E+00  1.7746E-01  0.0000E+00  0.0000E+00  5.1776E-01  0.0000E+00
 63  0.0000E+00  5.4926E-01  0.0000E+00  0.0000E+00  0.0000E+00  0.0000E+00  0.0000E+00  0.0000E+00  0.0000E+00
 64  0.0000E+00  4.5021E-01  0.0000E+00  0.0000E+00  0.0000E+00  0.0000E+00  0.0000E+00  0.0000E+00  0.0000E+00
 65  0.0000E+00  8.3166E-01  0.0000E+00  0.0000E+00  0.0000E+00  0.0000E+00  0.0000E+00  0.0000E+00  0.0000E+00
 66  0.0000E+00  3.3045E+00  0.0000E+00  0.0000E+00  0.0000E+00  0.0000E+00  1.8950E+01  0.0000E+00  0.0000E+00

# AV, chi2 & Mass for <> & i_chain = 1 ...  7 solutions
AV       0.1374      0.2161      0.1675      0.2130      0.2132      0.2093      0.2146      0.1906      0.2136
chi2 3.3322E-01  3.3780E-01  3.3532E-01  3.3608E-01  3.3598E-01  3.3578E-01  3.3636E-01  3.3562E-01  3.3587E-01
Mass 1.7160E-13  1.5501E-13  1.6338E-13  1.4082E-13  1.7925E-13  1.7099E-13  1.8407E-13  1.5686E-13  1.5299E-13
 -56.49                                  [v0_min (km/s) before EX0s...]
 270.51                                  [vd_min (km/s) before EX0s...]


## Synthetic spectrum (Best Model) ##l_obs f_obs f_syn wei
 3478    [Nl_obs]
 3741.00    0.57483   0.81966    0.000
 3742.00    0.65351   0.81699    0.000
 3743.00    0.73771   0.80652    0.000
 3744.00    0.78192   0.79005    0.000
 3745.00    0.80383   0.77145   12.441
 3746.00    0.81594   0.75260   12.256
 3747.00    0.81765   0.73517   12.230
 3748.00    0.80848   0.72390   12.369
 3749.00    0.79261   0.72232   12.617
 3750.00    0.78158   0.72859   12.795
 3751.00    0.77921   0.74056   12.833
 3752.00    0.75644   0.75843   13.220
 3753.00    0.68933   0.78060   14.507
 3754.00    0.62642   0.80236   15.964
 3755.00    0.63883   0.82028   15.654
 3756.00    0.72619   0.83475   13.770
 3757.00    0.83393   0.84632   11.991
 3758.00    0.90236   0.85410   11.082
 3759.00    0.90133   0.85782   11.095
 3760.00    0.86567   0.85814   11.552
 3761.00    0.85352   0.85486   11.716
 3762.00    0.88525   0.84787   11.296
 3763.00    0.94746   0.83712   10.555
 3764.00    1.00934   0.82138    9.907
 3765.00    1.04045   0.80185    9.611
 3766.00    1.02918   0.78235    9.716
 3767.00    0.97982   0.76439   10.206
 3768.00    0.90624   0.74836   11.035
 3769.00    0.82476   0.73897   12.125
 3770.00    0.74767   0.73994   13.375
 3771.00    0.68871   0.74888   14.520
 3772.00    0.66784   0.76370   14.974
 3773.00    0.69713   0.78544   14.345
 3774.00    0.76776   0.81255   13.025
 3775.00    0.86027   0.84038   11.624
 3776.00    0.95400   0.86628   10.482
 3777.00    1.02078   0.89028    9.796
 3778.00    1.02452   0.91178    9.761
 3779.00    0.96838   0.92888   10.327
 3780.00    0.92258   0.94067   10.839
 3781.00    0.94001   0.94834   10.638
 3782.00    0.99718   0.95238   10.028
 3783.00    1.04880   0.95141    9.535
 3784.00    1.06919   0.94559    9.353
 3785.00    1.04414   0.93709    9.577
 3786.00    0.96747   0.92632   10.336
 3787.00    0.86683   0.91199   11.536
 3788.00    0.80750   0.89444   12.384
 3789.00    0.81271   0.87491   12.304
 3790.00    0.82924   0.85299   12.059
 3791.00    0.81421   0.82763   12.282
 3792.00    0.77855   0.79971   12.844
 3793.00    0.74156   0.77198   13.485
 3794.00    0.70577   0.74660   14.169
 3795.00    0.66344   0.72473   15.073
 3796.00    0.60629   0.70958   16.494
 3797.00    0.55300   0.70533   18.083
 3798.00    0.54872   0.71203   18.224
 3799.00    0.60301   0.72690   16.583
 3800.00    0.67413   0.74895   14.834
 3801.00    0.72640   0.77719   13.766
 3802.00    0.75337   0.80767   13.274
 3803.00    0.76682   0.83650   13.041
 3804.00    0.78656   0.86230   12.714
 3805.00    0.82076   0.88540   12.184
 3806.00    0.86173   0.90550   11.605
 3807.00    0.89852   0.92147   11.129
 3808.00    0.91978   0.93331   10.872
 3809.00    0.90757   0.94208   11.018
 3810.00    0.85192   0.94748   11.738
 3811.00    0.80261   0.94889   12.459
 3812.00    0.84261   0.94754   11.868
 3813.00    0.95921   0.94360   10.425
 3814.00    1.05310   0.93684    9.496
 3815.00    1.07845   0.92952    9.273
 3816.00    1.06200   0.92270    9.416
 3817.00    1.04165   0.91440    9.600
 3818.00    1.04002   0.90614    9.615
 3819.00    1.04312   0.90110    9.587
 3820.00    1.01940   0.89707    9.810
 3821.00    0.97758   0.89104   10.229
 3822.00    0.95204   0.88438   10.504
 3823.00    0.93821   0.87800   10.659
 3824.00    0.90462   0.86930   11.054
 3825.00    0.85027   0.85652   11.761
 3826.00    0.79785   0.83971   12.534
 3827.00    0.75466   0.81954   13.251
 3828.00    0.71642   0.79637   13.958
 3829.00    0.68991   0.76985   14.495
 3830.00    0.68894   0.74111   14.515
 3831.00    0.71900   0.71349   13.908
 3832.00    0.77355   0.68909   12.927
 3833.00    0.83293   0.66943   12.006
 3834.00    0.87031   0.65836   11.490
 3835.00    0.86257   0.65781   11.593
 3836.00    0.80680   0.66633   12.395
 3837.00    0.74123   0.68364   13.491
 3838.00    0.71465   0.70910   13.993
 3839.00    0.73820   0.73919   13.546
 3840.00    0.79106   0.77082   12.641
 3841.00    0.83929   0.80238   11.915
 3842.00    0.86187   0.83191   11.603
 3843.00    0.87870   0.85806   11.380
 3844.00    0.91648   0.88029   10.911
 3845.00    0.96450   0.89887   10.368
 3846.00    0.99981   0.91427   10.002
 3847.00    1.02162   0.92608    0.000
 3848.00    1.04053   0.93492    0.000
 3849.00    1.06220   0.94258    0.000
 3850.00    1.08395   0.94861    0.000
 3851.00    1.09453   0.95211    0.000
 3852.00    1.09050   0.95459    0.000
 3853.00    1.08951   0.95647    0.000
 3854.00    1.10140   0.95676    0.000
 3855.00    1.10316   0.95680    0.000
 3856.00    1.06958   0.95736    0.000
 3857.00    1.00208   0.95738    0.000
 3858.00    0.92865   0.95776    0.000
 3859.00    0.89617   0.95998    0.000
 3860.00    0.92353   0.96239    0.000
 3861.00    0.97317   0.96388    0.000
 3862.00    1.01632   0.96535    0.000
 3863.00    1.07612   0.96666    0.000
 3864.00    1.17442   0.96663    0.000
 3865.00    1.29346   0.96472    0.000
 3866.00    1.38757   0.96164    0.000
 3867.00    1.40100   0.95785    0.000
 3868.00    1.32160   0.95320    0.000
 3869.00    1.20299   0.94749    0.000
 3870.00    1.09624   0.94143    0.000
 3871.00    1.01251   0.93599    0.000
 3872.00    0.95069   0.93051    0.000
 3873.00    0.91214   0.92398    0.000
 3874.00    0.89027   0.91713    0.000
 3875.00    0.86864   0.91011    0.000
 3876.00    0.84187   0.90085    0.000
 3877.00    0.82016   0.88936    0.000
 3878.00    0.80094   0.87682    0.000
 3879.00    0.76412   0.86134    0.000
 3880.00    0.71205   0.84144    0.000
 3881.00    0.67659   0.81942   14.780
 3882.00    0.67192   0.79585   14.883
 3883.00    0.68376   0.76847   14.625
 3884.00    0.70753   0.73964   14.134
 3885.00    0.75570   0.71461   13.233
 3886.00    0.82632   0.69400   12.102
 3887.00    0.89675   0.67842   11.151
 3888.00    0.94471   0.67275   10.585
 3889.00    0.95812   0.67822   10.437
 3890.00    0.94138   0.69143   10.623
 3891.00    0.91297   0.71167   10.953
 3892.00    0.89153   0.73846   11.217
 3893.00    0.88755   0.76705   11.267
 3894.00    0.89286   0.79455   11.200
 3895.00    0.88720   0.82104   11.271
 3896.00    0.86493   0.84496   11.562
 3897.00    0.83927   0.86461   11.915
 3898.00    0.83250   0.88142   12.012
 3899.00    0.86190   0.89675   11.602
 3900.00    0.91243   0.90883   10.960
 3901.00    0.94830   0.91815   10.545
 3902.00    0.95594   0.92755   10.461
 3903.00    0.94464   0.93634   10.586
 3904.00    0.92486   0.94327   10.812
 3905.00    0.90567   0.95036   11.042
 3906.00    0.89977   0.95844   11.114
 3907.00    0.91710   0.96543   10.904
 3908.00    0.95051   0.97121   10.521
 3909.00    0.98168   0.97686   10.187
 3910.00    0.99769   0.98130   10.023
 3911.00    0.99674   0.98322   10.033
 3912.00    0.99175   0.98343   10.083
 3913.00    0.99369   0.98259   10.064
 3914.00    0.98418   0.97985   10.161
 3915.00    0.94147   0.97549   10.622
 3916.00    0.88724   0.97094   11.271
 3917.00    0.86108   0.96609   11.613
 3918.00    0.87187   0.96038   11.470
 3919.00    0.90461   0.95509   11.055
 3920.00    0.94096   0.95014   10.627
 3921.00    0.96803   0.94409   10.330
 3922.00    0.98580   0.93752   10.144
 3923.00    0.99980   0.93015   10.002
 3924.00    1.01043   0.92036    9.897
 3925.00    1.00855   0.90833    9.915
 3926.00    0.97357   0.89479   10.272
 3927.00    0.89410   0.87898   11.184
 3928.00    0.79072   0.86149   12.647
 3929.00    0.70218   0.84494   14.241
 3930.00    0.66557   0.83042   15.025
 3931.00    0.68875   0.81849   14.519
 3932.00    0.72908   0.81145   13.716
 3933.00    0.74459   0.81080   13.430
 3934.00    0.74236   0.81611   13.471
 3935.00    0.74865   0.82639   13.357
 3936.00    0.77722   0.84075   12.866
 3937.00    0.82458   0.85782   12.127
 3938.00    0.87073   0.87516   11.485
 3939.00    0.90070   0.89070   11.103
 3940.00    0.91987   0.90444   10.871
 3941.00    0.93517   0.91631   10.693
 3942.00    0.94094   0.92494   10.628
 3943.00    0.92973   0.93119   10.756
 3944.00    0.90133   0.93686   11.095
 3945.00    0.86571   0.94109   11.551
 3946.00    0.84207   0.94338   11.875
 3947.00    0.84164   0.94511   11.882
 3948.00    0.85857   0.94633   11.647
 3949.00    0.88332   0.94615   11.321
 3950.00    0.91073   0.94439   10.980
 3951.00    0.93570   0.94139   10.687
 3952.00    0.95154   0.93764   10.509
 3953.00    0.95614   0.93242   10.459
 3954.00    0.95408   0.92491   10.481
 3955.00    0.94937   0.91564   10.533
 3956.00    0.94195   0.90426   10.616
 3957.00    0.92946   0.88992   10.759
 3958.00    0.90901   0.87229   11.001
 3959.00    0.88070   0.85058   11.355
 3960.00    0.84828   0.82504    0.000
 3961.00    0.81468   0.79644    0.000
 3962.00    0.78215   0.76394    0.000
 3963.00    0.76112   0.72855    0.000
 3964.00    0.76681   0.69328    0.000
 3965.00    0.79234   0.65949    0.000
 3966.00    0.81210   0.62926    0.000
 3967.00    0.83178   0.60613    0.000
 3968.00    0.88585   0.59202    0.000
 3969.00    0.96500   0.58874    0.000
 3970.00    1.01397   0.59727    0.000
 3971.00    1.00730   0.61567    0.000
 3972.00    0.96399   0.64239    0.000
 3973.00    0.91318   0.67589    0.000
 3974.00    0.87953   0.71197    0.000
 3975.00    0.87325   0.74766    0.000
 3976.00    0.88960   0.78203    0.000
 3977.00    0.91536   0.81308    0.000
 3978.00    0.93526   0.83964    0.000
 3979.00    0.94338   0.86228    0.000
 3980.00    0.94352   0.88121    0.000
 3981.00    0.94283   0.89662   10.606
 3982.00    0.94740   0.90978   10.555
 3983.00    0.95631   0.92146   10.457
 3984.00    0.96405   0.93143   10.373
 3985.00    0.96873   0.94026   10.323
 3986.00    0.97271   0.94884   10.281
 3987.00    0.98012   0.95649   10.203
 3988.00    0.99470   0.96262   10.053
 3989.00    1.01699   0.96792    9.833
 3990.00    1.04492   0.97249    9.570
 3991.00    1.07595   0.97565    9.294
 3992.00    1.10505   0.97755    9.049
 3993.00    1.12097   0.97879    8.921
 3994.00    1.11501   0.98000    8.969
 3995.00    1.09592   0.98105    9.125
 3996.00    1.07967   0.98162    9.262
 3997.00    1.07027   0.98278    9.343
 3998.00    1.06393   0.98473    9.399
 3999.00    1.05946   0.98574    9.439
 4000.00    1.05626   0.98566    9.467
 4001.00    1.04993   0.98578    9.524
 4002.00    1.03703   0.98532    9.643
 4003.00    1.02182   0.98321    9.786
 4004.00    1.01226   0.98107    9.879
 4005.00    1.01367   0.98045    9.865
 4006.00    1.02453   0.98029    9.761
 4007.00    1.03368   0.98027    9.674
 4008.00    1.03439   0.98223    9.668
 4009.00    1.03846   0.98572    9.630
 4010.00    1.05273   0.98901    9.499
 4011.00    1.05602   0.99267    9.470
 4012.00    1.03368   0.99677    9.674
 4013.00    1.01051   1.00021    9.896
 4014.00    1.01051   1.00309    9.896
 4015.00    1.01951   1.00512    9.809
 4016.00    1.01742   1.00560    9.829
 4017.00    1.00787   1.00512    9.922
 4018.00    0.99832   1.00329   10.017
 4019.00    0.98335   0.99917   10.169
 4020.00    0.96234   0.99367   10.391
 4021.00    0.95189   0.98752   10.505
 4022.00    0.96509   0.98068   10.362
 4023.00    0.99643   0.97391   10.036
 4024.00    1.03238   0.96827    9.686
 4025.00    1.06057   0.96437    9.429
 4026.00    1.07552   0.96235    9.298
 4027.00    1.08034   0.96181    9.256
 4028.00    1.07492   0.96255    9.303
 4029.00    1.05141   0.96472    9.511
 4030.00    1.01300   0.96792    9.872
 4031.00    0.98047   0.97169   10.199
 4032.00    0.96295   0.97630   10.385
 4033.00    0.94643   0.98182   10.566
 4034.00    0.92383   0.98773   10.824
 4035.00    0.90750   0.99340   11.019
 4036.00    0.90703   0.99822   11.025
 4037.00    0.91944   1.00176   10.876
 4038.00    0.93806   1.00354   10.660
 4039.00    0.95779   1.00305   10.441
 4040.00    0.97777   1.00057   10.227
 4041.00    1.00000   0.99705   10.000
 4042.00    1.01860   0.99305    9.817
 4043.00    1.02057   0.98890    9.798
 4044.00    1.00705   0.98561    9.930
 4045.00    0.99548   0.98439   10.045
 4046.00    0.99513   0.98461   10.049
 4047.00    1.00018   0.98509    9.998
 4048.00    0.99984   0.98663   10.002
 4049.00    0.98587   0.98858   10.143
 4050.00    0.96464   0.98886   10.367
 4051.00    0.95509   0.98820   10.470
 4052.00    0.96941   0.98712   10.316
 4053.00    1.00636   0.98471    9.937
 4054.00    1.05043   0.98195    9.520
 4055.00    1.07870   0.97944    9.270
 4056.00    1.07999   0.97663    9.259
 4057.00    1.05796   0.97420    9.452
 4058.00    1.02423   0.97193    9.763
 4059.00    0.99339   0.96920   10.067
 4060.00    0.97549   0.96688   10.251
 4061.00    0.97390   0.96440   10.268
 4062.00    0.98494   0.96131   10.153
 4063.00    0.99953   0.95922   10.005
 4064.00    1.00719   0.95764    9.929
 4065.00    1.00206   0.95536    9.979
 4066.00    0.99300   0.95365   10.070
 4067.00    0.99313   0.95246   10.069
 4068.00    0.99517   0.95054   10.049
 4069.00    0.98211   0.94808   10.182
 4070.00    0.95628   0.94527   10.457
 4071.00    0.93200   0.94229   10.730
 4072.00    0.91273   0.93914   10.956
 4073.00    0.89785   0.93545   11.138
 4074.00    0.90012   0.93233   11.110
 4075.00    0.92952   0.93038   10.758
 4076.00    0.96373   0.92898   10.376
 4077.00    0.96988   0.92862   10.311
 4078.00    0.94416   0.92951   10.591
 4079.00    0.90801   0.93082   11.013
 4080.00    0.89270   0.93207   11.202
 4081.00    0.91625   0.93275   10.914
 4082.00    0.95693   0.93263   10.450
 4083.00    0.97899   0.93148   10.215
 4084.00    0.97006   0.92893   10.309
 4085.00    0.93958   0.92559   10.643
 4086.00    0.90995   0.92149   10.990
 4087.00    0.89722   0.91563   11.145
 4088.00    0.89189   0.90842   11.212
 4089.00    0.88108   0.89994   11.350
 4090.00    0.87298   0.88836   11.455
 4091.00    0.87440   0.87360   11.435
 4092.00    0.86760   0.85641    0.000
 4093.00    0.83745   0.83541    0.000
 4094.00    0.79845   0.81071    0.000
 4095.00    0.77711   0.78430    0.000
 4096.00    0.79272   0.75643    0.000
 4097.00    0.84968   0.72858    0.000
 4098.00    0.93321   0.70432    0.000
 4099.00    1.01853   0.68489    0.000
 4100.00    1.08036   0.67179    0.000
 4101.00    1.10558   0.66819    0.000
 4102.00    1.10006   0.67341    0.000
 4103.00    1.06847   0.68566    0.000
 4104.00    1.00304   0.70504    0.000
 4105.00    0.91232   0.72890    0.000
 4106.00    0.83594   0.75378    0.000
 4107.00    0.80350   0.77876    0.000
 4108.00    0.80978   0.80239    0.000
 4109.00    0.83485   0.82332    0.000
 4110.00    0.85920   0.84152    0.000
 4111.00    0.87254   0.85690    0.000
 4112.00    0.87693   0.86976    0.000
 4113.00    0.87717   0.88015    8.800
 4114.00    0.87534   0.88790    8.842
 4115.00    0.87074   0.89405    8.835
 4116.00    0.86170   0.89874    8.864
 4117.00    0.85340   0.90175    8.926
 4118.00    0.85733   0.90455    8.899
 4119.00    0.87118   0.90742    8.801
 4120.00    0.87671   0.90998    8.827
 4121.00    0.87247   0.91296    8.997
 4122.00    0.88038   0.91607    9.079
 4123.00    0.91197   0.91867    8.975
 4124.00    0.95637   0.92074    8.846
 4125.00    0.99097   0.92199    8.803
 4126.00    0.99212   0.92219    8.831
 4127.00    0.95733   0.92172    8.892
 4128.00    0.90867   0.92114    8.961
 4129.00    0.87517   0.92062    9.007
 4130.00    0.87822   0.92062    9.006
 4131.00    0.90607   0.92198    8.969
 4132.00    0.92247   0.92443    8.942
 4133.00    0.91898   0.92743    8.921
 4134.00    0.91652   0.93143    8.871
 4135.00    0.92126   0.93512    8.816
 4136.00    0.92108   0.93742    8.818
 4137.00    0.91302   0.93899    8.825
 4138.00    0.90643   0.93850    8.719
 4139.00    0.91037   0.93567    8.515
 4140.00    0.92925   0.93272    8.343
 4141.00    0.96045   0.92909    8.279
 4142.00    0.99478   0.92495    8.323
 4143.00    1.01896   0.92320    8.415
 4144.00    1.02090   0.92293    8.476
 4145.00    0.99983   0.92288    8.535
 4146.00    0.96746   0.92480    8.667
 4147.00    0.94527   0.92740    8.791
 4148.00    0.95127   0.92882    8.765
 4149.00    0.97623   0.93018    8.692
 4150.00    0.99355   0.93122    8.750
 4151.00    0.98644   0.93120    8.797
 4152.00    0.95565   0.93102    8.676
 4153.00    0.92268   0.93122    8.836
 4154.00    0.90502   0.93178    9.583
 4155.00    0.87674   0.93281    9.331
 4156.00    0.81137   0.93456    7.376
 4157.00    0.75551   0.93693    6.404
 4158.00    0.76987   0.93951    7.634
 4159.00    0.82822   0.94190   11.399
 4160.00    0.86687   0.94392   13.380
 4161.00    0.87326   0.94555   11.622
 4162.00    0.86806   0.94608   10.982
 4163.00    0.86495   0.94547   11.512
 4164.00    0.86707   0.94429   11.764
 4165.00    0.86990   0.94192   11.513
 4166.00    0.87143   0.93844   11.332
 4167.00    0.88240   0.93456   11.322
 4168.00    0.90793   0.93003   11.239
 4169.00    0.92791   0.92520   10.786
 4170.00    0.92477   0.92062   10.030
 4171.00    0.91295   0.91638    9.489
 4172.00    0.91272   0.91309    9.429
 4173.00    0.92240   0.91083    9.596
 4174.00    0.93377   0.90945    9.667
 4175.00    0.94842   0.90945    9.672
 4176.00    0.97027   0.91030    9.723
 4177.00    0.99745   0.91145    9.737
 4178.00    1.02104   0.91340    9.664
 4179.00    1.02670   0.91547    9.666
 4180.00    1.01232   0.91693    9.858
 4181.00    0.99812   0.91866   10.115
 4182.00    0.99429   0.92004   10.255
 4183.00    0.98079   0.92051   10.233
 4184.00    0.94668   0.92136   10.126
 4185.00    0.91470   0.92204   10.057
 4186.00    0.90600   0.92230   10.060
 4187.00    0.91666   0.92320   10.026
 4188.00    0.93016   0.92411    9.953
 4189.00    0.92887   0.92477   10.031
 4190.00    0.90937   0.92522   10.288
 4191.00    0.88775   0.92477   10.412
 4192.00    0.87834   0.92353   10.253
 4193.00    0.88292   0.92113   10.085
 4194.00    0.90074   0.91728   10.055
 4195.00    0.93229   0.91324   10.001
 4196.00    0.96848   0.90921    9.823
 4197.00    0.98972   0.90489    9.630
 4198.00    0.98852   0.90213    9.528
 4199.00    0.97584   0.90118    9.542
 4200.00    0.95901   0.90091    9.641
 4201.00    0.93525   0.90260    9.759
 4202.00    0.90862   0.90601    9.854
 4203.00    0.89298   0.90950    9.927
 4204.00    0.89322   0.91377    9.959
 4205.00    0.90248   0.91819    9.904
 4206.00    0.92139   0.92169    9.743
 4207.00    0.95816   0.92479    9.523
 4208.00    1.00186   0.92676    9.381
 4209.00    1.02356   0.92761    9.463
 4210.00    1.01394   0.92797    9.684
 4211.00    0.98906   0.92711    9.744
 4212.00    0.96648   0.92604    9.587
 4213.00    0.95677   0.92541    9.451
 4214.00    0.96247   0.92433    9.447
 4215.00    0.97786   0.92383    9.520
 4216.00    0.98928   0.92400    9.609
 4217.00    0.98325   0.92354    9.687
 4218.00    0.96723   0.92261    9.734
 4219.00    0.96276   0.92084    9.736
 4220.00    0.97382   0.91746    9.694
 4221.00    0.98611   0.91298    9.631
 4222.00    0.98567   0.90753    9.589
 4223.00    0.96630   0.90179    9.607
 4224.00    0.93547   0.89740    9.658
 4225.00    0.91044   0.89401    9.684
 4226.00    0.90691   0.89234    9.705
 4227.00    0.93112   0.89365    9.771
 4228.00    0.96945   0.89557    9.829
 4229.00    0.99739   0.89792    9.808
 4230.00    1.00060   0.90160    9.836
 4231.00    0.97998   0.90370   10.077
 4232.00    0.95257   0.90454   10.341
 4233.00    0.93671   0.90596   10.309
 4234.00    0.92736   0.90606   10.175
 4235.00    0.91216   0.90562   10.313
 4236.00    0.90310   0.90657   10.609
 4237.00    0.91748   0.90752   10.692
 4238.00    0.94218   0.90853   10.552
 4239.00    0.95448   0.91052   10.421
 4240.00    0.95871   0.91239   10.408
 4241.00    0.96906   0.91361   10.499
 4242.00    0.97949   0.91445   10.626
 4243.00    0.97563   0.91426   10.721
 4244.00    0.95531   0.91307   10.810
 4245.00    0.92795   0.91129   10.949
 4246.00    0.90966   0.90850   11.121
 4247.00    0.91027   0.90571   11.270
 4248.00    0.91993   0.90338   11.345
 4249.00    0.92303   0.90096   11.364
 4250.00    0.91501   0.89944   11.450
 4251.00    0.90227   0.89869   11.642
 4252.00    0.89875   0.89817   11.710
 4253.00    0.91152   0.89826   11.515
 4254.00    0.92835   0.89836   11.350
 4255.00    0.93339   0.89857   11.444
 4256.00    0.92243   0.89889   11.586
 4257.00    0.90031   0.89898   11.531
 4258.00    0.87680   0.89968   11.397
 4259.00    0.86172   0.90054   11.337
 4260.00    0.86090   0.90134   11.286
 4261.00    0.87521   0.90290   11.148
 4262.00    0.90020   0.90407   10.958
 4263.00    0.92862   0.90413   10.785
 4264.00    0.95221   0.90361   10.669
 4265.00    0.96172   0.90167   10.638
 4266.00    0.94813   0.89817   10.726
 4267.00    0.91233   0.89354   10.917
 4268.00    0.87002   0.88827   11.123
 4269.00    0.84255   0.88341   11.223
 4270.00    0.84763   0.87880   11.140
 4271.00    0.88067   0.87553   10.968
 4272.00    0.91015   0.87437   10.948
 4273.00    0.91381   0.87421   11.121
 4274.00    0.89624   0.87587   11.211
 4275.00    0.87128   0.87854   11.100
 4276.00    0.85166   0.88091   11.022
 4277.00    0.84721   0.88382   11.083
 4278.00    0.86256   0.88558   11.112
 4279.00    0.89047   0.88594   11.026
 4280.00    0.91265   0.88601   10.953
 4281.00    0.91751   0.88434   11.000
 4282.00    0.90697   0.88165   11.153
 4283.00    0.89048   0.87883   11.288
 4284.00    0.87992   0.87513   11.237
 4285.00    0.88019   0.87132   11.048
 4286.00    0.88710   0.86772   10.970
 4287.00    0.89389   0.86426   11.056
 4288.00    0.89485   0.86160   11.132
 4289.00    0.88912   0.85945   11.119
 4290.00    0.88078   0.85740   11.100
 4291.00    0.87476   0.85600   11.087
 4292.00    0.87460   0.85418   10.998
 4293.00    0.87985   0.85131   10.803
 4294.00    0.88620   0.84818   10.576
 4295.00    0.88837   0.84332   10.495
 4296.00    0.88185   0.83745   10.728
 4297.00    0.86510   0.83198   -2.000
 4298.00    0.84254   0.82528   -2.000
 4299.00    0.82996   0.81919   -2.000
 4300.00    0.84504   0.81473   -2.000
 4301.00    0.88057   0.81015   -2.000
 4302.00    0.91138   0.80721   -2.000
 4303.00    0.92616   0.80561   -2.000
 4304.00    0.92819   0.80400   -2.000
 4305.00    0.91974   0.80407   -2.000
 4306.00    0.90080   0.80500   -2.000
 4307.00    0.87397   0.80625   -2.000
 4308.00    0.84439   0.80924   -2.000
 4309.00    0.81750   0.81345   -2.000
 4310.00    0.80006   0.81836   -2.000
 4311.00    0.80250   0.82467   -2.000
 4312.00    0.82957   0.83203   -2.000
 4313.00    0.86390   0.83912   10.770
 4314.00    0.88239   0.84600   10.913
 4315.00    0.88762   0.85233   11.169
 4316.00    0.89235   0.85642   11.119
 4317.00    0.88764   0.85853   10.971
 4318.00    0.85868   0.85852   11.113
 4319.00    0.81512   0.85550   11.310
 4320.00    0.77652   0.85070   11.168
 4321.00    0.74590   0.84436   11.029
 4322.00    0.71812   0.83681   11.334
 4323.00    0.69588   0.83002   11.748
 4324.00    0.68807   0.82359   11.684
 4325.00    0.70432   0.81776   11.399
 4326.00    0.74392   0.81308   11.395
 4327.00    0.78524   0.80853   11.619
 4328.00    0.80879   0.80373   11.798
 4329.00    0.82277   0.79731   11.891
 4330.00    0.83849   0.78821    0.000
 4331.00    0.84313   0.77658    0.000
 4332.00    0.82510   0.76119    0.000
 4333.00    0.80158   0.74163    0.000
 4334.00    0.80651   0.72008    0.000
 4335.00    0.87431   0.69731    0.000
 4336.00    1.01704   0.67367    0.000
 4337.00    1.20653   0.65345    0.000
 4338.00    1.39087   0.63866    0.000
 4339.00    1.51267   0.62895    0.000
 4340.00    1.53304   0.62696    0.000
 4341.00    1.44956   0.63285    0.000
 4342.00    1.29153   0.64457    0.000
 4343.00    1.11166   0.66146    0.000
 4344.00    0.95865   0.68110    0.000
 4345.00    0.85693   0.70151    0.000
 4346.00    0.80329   0.72182    0.000
 4347.00    0.77050   0.73950    0.000
 4348.00    0.74084   0.75467    0.000
 4349.00    0.72349   0.76878    0.000
 4350.00    0.72601   0.78042    0.000
 4351.00    0.73851   0.79018   11.938
 4352.00    0.74856   0.79989   11.931
 4353.00    0.75122   0.80912   11.861
 4354.00    0.75257   0.81775   11.664
 4355.00    0.76789   0.82597   11.556
 4356.00    0.80341   0.83395   11.615
 4357.00    0.84884   0.84173   11.661
 4358.00    0.88781   0.84855   11.609
 4359.00    0.90660   0.85428   11.598
 4360.00    0.90897   0.85949   11.671
 4361.00    0.91550   0.86405   11.694
 4362.00    0.93154   0.86705   11.594
 4363.00    0.94031   0.86866   11.451
 4364.00    0.93331   0.86973   11.352
 4365.00    0.91853   0.86984   11.339
 4366.00    0.90234   0.86870   11.399
 4367.00    0.88475   0.86703   11.474
 4368.00    0.86904   0.86524   11.513
 4369.00    0.86264   0.86334   11.505
 4370.00    0.86756   0.86119   11.495
 4371.00    0.87775   0.85932   11.554
 4372.00    0.88164   0.85838   11.668
 4373.00    0.86879   0.85790   11.739
 4374.00    0.84706   0.85744   11.727
 4375.00    0.83863   0.85698   11.668
 4376.00    0.85328   0.85620   11.594
 4377.00    0.88234   0.85502   11.520
 4378.00    0.90456   0.85242   11.503
 4379.00    0.89890   0.84782   11.608
 4380.00    0.87206   0.84273   11.813
 4381.00    0.85040   0.83760   11.996
 4382.00    0.84305   0.83240   12.041
 4383.00    0.84105   0.82744   11.922
 4384.00    0.83675   0.82387   11.795
 4385.00    0.82811   0.82325   11.828
 4386.00    0.81773   0.82392   11.832
 4387.00    0.81071   0.82579   11.519
 4388.00    0.81072   0.82987   11.158
 4389.00    0.81906   0.83457   11.163
 4390.00    0.83453   0.83945   11.340
 4391.00    0.85259   0.84399   11.241
 4392.00    0.86433   0.84835   11.080
 4393.00    0.86277   0.85272   11.342
 4394.00    0.85376   0.85558   11.921
 4395.00    0.84928   0.85761   12.291
 4396.00    0.85341   0.85891   12.267
 4397.00    0.86140   0.85934   12.081
 4398.00    0.86236   0.85969   12.001
 4399.00    0.84860   0.85874   12.145
 4400.00    0.82794   0.85683   12.365
 4401.00    0.81204   0.85568   12.444
 4402.00    0.79830   0.85501   12.452
 4403.00    0.78025   0.85406   12.558
 4404.00    0.76376   0.85343   12.706
 4405.00    0.76068   0.85413   12.742
 4406.00    0.77794   0.85583   12.640
 4407.00    0.81373   0.85746   12.457
 4408.00    0.85494   0.85907   12.235
 4409.00    0.88435   0.86087   12.064
 4410.00    0.88964   0.86179   12.136
 4411.00    0.87225   0.86185   12.502
 4412.00    0.85353   0.86190   12.801
 4413.00    0.85123   0.86117   12.687
 4414.00    0.85754   0.86051   12.401
 4415.00    0.86062   0.86068   12.285
 4416.00    0.86521   0.86089   12.336
 4417.00    0.87767   0.86198   12.418
 4418.00    0.89168   0.86327   12.445
 4419.00    0.89457   0.86452   12.407
 4420.00    0.87511   0.86659   12.383
 4421.00    0.83544   0.86778   12.444
 4422.00    0.79717   0.86838   12.595
 4423.00    0.77765   0.86886   12.787
 4424.00    0.77356   0.86881   12.933
 4425.00    0.77550   0.86848   12.988
 4426.00    0.77910   0.86699   12.997
 4427.00    0.78340   0.86573   12.992
 4428.00    0.78927   0.86488   12.944
 4429.00    0.79821   0.86288   12.852
 4430.00    0.81128   0.86115   12.785
 4431.00    0.82611   0.85955   12.794
 4432.00    0.83665   0.85836   12.859
 4433.00    0.84168   0.85810   12.907
 4434.00    0.84741   0.85759   12.851
 4435.00    0.85501   0.85793   12.721
 4436.00    0.85652   0.85884   12.679
 4437.00    0.84911   0.85929   12.754
 4438.00    0.84009   0.85974   12.778
 4439.00    0.83509   0.85979   12.716
 4440.00    0.83382   0.85982   12.746
 4441.00    0.83710   0.86024   12.903
 4442.00    0.84803   0.86027   12.985
 4443.00    0.86280   0.86029   12.891
 4444.00    0.87008   0.86113   12.742
 4445.00    0.86471   0.86193   12.665
 4446.00    0.85205   0.86199   12.707
 4447.00    0.84302   0.86212   12.841
 4448.00    0.84786   0.86177   12.954
 4449.00    0.86185   0.86043   12.849
 4450.00    0.86789   0.85825   12.390
 4451.00    0.86245   0.85489   11.822
 4452.00    0.85724   0.85158   11.552
 4453.00    0.85602   0.84836   11.621
 4454.00    0.85180   0.84450   11.781
 4455.00    0.84120   0.84136   11.909
 4456.00    0.82723   0.83930   12.073
 4457.00    0.81425   0.83753   12.273
 4458.00    0.80611   0.83622   12.412
 4459.00    0.80505   0.83601   12.425
 4460.00    0.81083   0.83602   12.330
 4461.00    0.81929   0.83608    0.000
 4462.00    0.82368   0.83625    0.000
 4463.00    0.81875   0.83588    0.000
 4464.00    0.80418   0.83527    0.000
 4465.00    0.78961   0.83410    0.000
 4466.00    0.78870   0.83266    0.000
 4467.00    0.80420   0.83156    0.000
 4468.00    0.82895   0.83120    0.000
 4469.00    0.85451   0.83203    0.000
 4470.00    0.87459   0.83354    0.000
 4471.00    0.88812   0.83625    0.000
 4472.00    0.89632   0.83997    0.000
 4473.00    0.89663   0.84396    0.000
 4474.00    0.88618   0.84769    0.000
 4475.00    0.86932   0.85009    0.000
 4476.00    0.85429   0.85141    0.000
 4477.00    0.84591   0.85197    0.000
 4478.00    0.84508   0.85181    0.000
 4479.00    0.84985   0.85110    0.000
 4480.00    0.85739   0.85013    0.000
 4481.00    0.86630   0.85016    0.000
 4482.00    0.87512   0.85110   13.195
 4483.00    0.88017   0.85229   13.095
 4484.00    0.87870   0.85354   13.007
 4485.00    0.87321   0.85443   13.075
 4486.00    0.86888   0.85547   13.334
 4487.00    0.86940   0.85627   13.570
 4488.00    0.87335   0.85628   13.570
 4489.00    0.87138   0.85604   13.476
 4490.00    0.85764   0.85549   13.523
 4491.00    0.84142   0.85544   13.718
 4492.00    0.83506   0.85565   13.931
 4493.00    0.84047   0.85592   14.014
 4494.00    0.85152   0.85716   13.929
 4495.00    0.85848   0.85869   13.834
 4496.00    0.85666   0.86067   13.869
 4497.00    0.85275   0.86297   13.983
 4498.00    0.85334   0.86535   14.057
 4499.00    0.85531   0.86833   14.040
 4500.00    0.85423   0.87096   13.943
 4501.00    0.85151   0.87357   13.830
 4502.00    0.85165   0.87618   13.798
 4503.00    0.85902   0.87804   13.942
 4504.00    0.87298   0.87936   14.210
 4505.00    0.88558   0.87982   14.314
 4506.00    0.88970   0.87963   14.165
 4507.00    0.88464   0.87903   14.115
 4508.00    0.87486   0.87754   14.347
 4509.00    0.86745   0.87555   14.566
 4510.00    0.86347   0.87329   14.537
 4511.00    0.85481   0.87059   14.437
 4512.00    0.83762   0.86818   14.460
 4513.00    0.81900   0.86562   14.596
 4514.00    0.80874   0.86315   14.726
 4515.00    0.81302   0.86142   14.707
 4516.00    0.82683   0.85929   14.571
 4517.00    0.83420   0.85747   14.546
 4518.00    0.82775   0.85554   14.694
 4519.00    0.81579   0.85290   14.817
 4520.00    0.80906   0.85076   14.805
 4521.00    0.81381   0.84754   14.760
 4522.00    0.83030   0.84360   14.725
 4523.00    0.85249   0.84000   14.615
 4524.00    0.86922   0.83567   14.488
 4525.00    0.86777   0.83170   14.550
 4526.00    0.84564   0.82824   14.773
 4527.00    0.81323   0.82484   14.876
 4528.00    0.78632   0.82290   14.819
 4529.00    0.77955   0.82162   14.864
 4530.00    0.79429   0.82084   14.980
 4531.00    0.81831   0.82176   14.850
 4532.00    0.83890   0.82294   14.581
 4533.00    0.84870   0.82494   14.631
 4534.00    0.84953   0.82744   15.026
 4535.00    0.85022   0.82968   15.318
 4536.00    0.85679   0.83259   15.239
 4537.00    0.86861   0.83467   14.928
 4538.00    0.87626   0.83620   14.699
 4539.00    0.86775   0.83733   14.803
 4540.00    0.84541   0.83733   15.084
 4541.00    0.82414   0.83736   15.135
 4542.00    0.81568   0.83696   14.995
 4543.00    0.82355   0.83550   15.030
 4544.00    0.84103   0.83389   15.215
 4545.00    0.85522   0.83184   15.236
 4546.00    0.85713   0.82984   15.111
 4547.00    0.84531   0.82846   15.105
 4548.00    0.82829   0.82624   15.251
 4549.00    0.81866   0.82451   15.386
 4550.00    0.82058   0.82400    0.000
 4551.00    0.82998   0.82371    0.000
 4552.00    0.83972   0.82453    0.000
 4553.00    0.84279   0.82589    0.000
 4554.00    0.83626   0.82763    0.000
 4555.00    0.82184   0.83053    0.000
 4556.00    0.80560   0.83366    0.000
 4557.00    0.79484   0.83632    0.000
 4558.00    0.79347   0.83893    0.000
 4559.00    0.80173   0.84073    0.000
 4560.00    0.81686   0.84198    0.000
 4561.00    0.83424   0.84309    0.000
 4562.00    0.84903   0.84315    0.000
 4563.00    0.85863   0.84302    0.000
 4564.00    0.86539   0.84293    0.000
 4565.00    0.87149   0.84266    0.000
 4566.00    0.87251   0.84290    0.000
 4567.00    0.86343   0.84291    0.000
 4568.00    0.84648   0.84287    0.000
 4569.00    0.82815   0.84337    0.000
 4570.00    0.81458   0.84318    0.000
 4571.00    0.80863   0.84292    0.000
 4572.00    0.80760   0.84295    0.000
 4573.00    0.80783   0.84222    0.000
 4574.00    0.80914   0.84134    0.000
 4575.00    0.81112   0.83982    0.000
 4576.00    0.80962   0.83778    0.000
 4577.00    0.80122   0.83585    0.000
 4578.00    0.78743   0.83347    0.000
 4579.00    0.77440   0.83091    0.000
 4580.00    0.77134   0.82863    0.000
 4581.00    0.78193   0.82705    0.000
 4582.00    0.79861   0.82585    0.000
 4583.00    0.81167   0.82530    0.000
 4584.00    0.81664   0.82536    0.000
 4585.00    0.81517   0.82565    0.000
 4586.00    0.81403   0.82639    0.000
 4587.00    0.81644   0.82699    0.000
 4588.00    0.81764   0.82749    0.000
 4589.00    0.81412   0.82779    0.000
 4590.00    0.80927   0.82771    0.000
 4591.00    0.80888   0.82740    0.000
 4592.00    0.81743   0.82710    0.000
 4593.00    0.83361   0.82700    0.000
 4594.00    0.84971   0.82666    0.000
 4595.00    0.86196   0.82657    0.000
 4596.00    0.87411   0.82663    0.000
 4597.00    0.88624   0.82683    0.000
 4598.00    0.89090   0.82763    0.000
 4599.00    0.88270   0.82806    0.000
 4600.00    0.86325   0.82882    0.000
 4601.00    0.84143   0.82999    0.000
 4602.00    0.83036   0.83122    0.000
 4603.00    0.83468   0.83304    0.000
 4604.00    0.84825   0.83461    0.000
 4605.00    0.86747   0.83630    0.000
 4606.00    0.89365   0.83808    0.000
 4607.00    0.92053   0.83950    0.000
 4608.00    0.93451   0.84083    0.000
 4609.00    0.93243   0.84156    0.000
 4610.00    0.92290   0.84166    0.000
 4611.00    0.90828   0.84170    0.000
 4612.00    0.88396   0.84106    0.000
 4613.00    0.85652   0.84033    0.000
 4614.00    0.84258   0.83973    0.000
 4615.00    0.84776   0.83869    0.000
 4616.00    0.86418   0.83824    0.000
 4617.00    0.88252   0.83783    0.000
 4618.00    0.89585   0.83735    0.000
 4619.00    0.89998   0.83749    0.000
 4620.00    0.89436   0.83759    0.000
 4621.00    0.88371   0.83774    0.000
 4622.00    0.87508   0.83793    0.000
 4623.00    0.86989   0.83764    0.000
 4624.00    0.86463   0.83719    0.000
 4625.00    0.85699   0.83658    0.000
 4626.00    0.84703   0.83571    0.000
 4627.00    0.83658   0.83459    0.000
 4628.00    0.82953   0.83311    0.000
 4629.00    0.83247   0.83157    0.000
 4630.00    0.84929   0.83017    0.000
 4631.00    0.87093   0.82865    0.000
 4632.00    0.88200   0.82698    0.000
 4633.00    0.87626   0.82525    0.000
 4634.00    0.85850   0.82350    0.000
 4635.00    0.84239   0.82209    0.000
 4636.00    0.83936   0.82059    0.000
 4637.00    0.84216   0.81900    0.000
 4638.00    0.83716   0.81758    0.000
 4639.00    0.82675   0.81598    0.000
 4640.00    0.82119   0.81435    0.000
 4641.00    0.82217   0.81252    0.000
 4642.00    0.82535   0.81038    0.000
 4643.00    0.82727   0.80827    0.000
 4644.00    0.82711   0.80617    0.000
 4645.00    0.82771   0.80409    0.000
 4646.00    0.83193   0.80255    0.000
 4647.00    0.83827   0.80175    0.000
 4648.00    0.84134   0.80157    0.000
 4649.00    0.83372   0.80233    0.000
 4650.00    0.81569   0.80362    0.000
 4651.00    0.80384   0.80543    0.000
 4652.00    0.81267   0.80798    0.000
 4653.00    0.83539   0.81031    0.000
 4654.00    0.85682   0.81287    0.000
 4655.00    0.86790   0.81506    0.000
 4656.00    0.86777   0.81673    0.000
 4657.00    0.86354   0.81820    0.000
 4658.00    0.86205   0.81872    0.000
 4659.00    0.86297   0.81845    0.000
 4660.00    0.86221   0.81684    0.000
 4661.00    0.85572   0.81418    0.000
 4662.00    0.84478   0.81101    0.000
 4663.00    0.83830   0.80761    0.000
 4664.00    0.84074   0.80444    0.000
 4665.00    0.84449   0.80151    0.000
 4666.00    0.84186   0.79910    0.000
 4667.00    0.83337   0.79781    0.000
 4668.00    0.82446   0.79772    0.000
 4669.00    0.82163   0.79868    0.000
 4670.00    0.82496   0.80048    0.000
 4671.00    0.82577   0.80237    0.000
 4672.00    0.82043   0.80414    0.000
 4673.00    0.81667   0.80577    0.000
 4674.00    0.82138   0.80690    0.000
 4675.00    0.83387   0.80764    0.000
 4676.00    0.84829   0.80771    0.000
 4677.00    0.85644   0.80717    0.000
 4678.00    0.85447   0.80622    0.000
 4679.00    0.84522   0.80492    0.000
 4680.00    0.83309   0.80371    0.000
 4681.00    0.82179   0.80267    0.000
 4682.00    0.81537   0.80195    0.000
 4683.00    0.81732   0.80146    0.000
 4684.00    0.82526   0.80110    0.000
 4685.00    0.83103   0.80114    0.000
 4686.00    0.83048   0.80163    0.000
 4687.00    0.82578   0.80240    0.000
 4688.00    0.81951   0.80336    0.000
 4689.00    0.81290   0.80438    0.000
 4690.00    0.80847   0.80517    0.000
 4691.00    0.80905   0.80589    0.000
 4692.00    0.81185   0.80605    0.000
 4693.00    0.80990   0.80583    0.000
 4694.00    0.80258   0.80533    0.000
 4695.00    0.79571   0.80410    0.000
 4696.00    0.79179   0.80234    0.000
 4697.00    0.78849   0.79993    0.000
 4698.00    0.78300   0.79754    0.000
 4699.00    0.77435   0.79541    0.000
 4700.00    0.76611   0.79333    0.000
 4701.00    0.76404   0.79146    0.000
 4702.00    0.76861   0.78986    0.000
 4703.00    0.77565   0.78881    0.000
 4704.00    0.78245   0.78827    0.000
 4705.00    0.78826   0.78827    0.000
 4706.00    0.79232   0.78821    0.000
 4707.00    0.79378   0.78823    0.000
 4708.00    0.79271   0.78855    0.000
 4709.00    0.78967   0.78928    0.000
 4710.00    0.78462   0.79069    0.000
 4711.00    0.77810   0.79208    0.000
 4712.00    0.77365   0.79372    0.000
 4713.00    0.77651   0.79577    0.000
 4714.00    0.79024   0.79833    0.000
 4715.00    0.81288   0.80120    0.000
 4716.00    0.83199   0.80416    0.000
 4717.00    0.83544   0.80677    0.000
 4718.00    0.82889   0.80921    0.000
 4719.00    0.82491   0.81093    0.000
 4720.00    0.82302   0.81190    0.000
 4721.00    0.81753   0.81192    0.000
 4722.00    0.81231   0.81104    0.000
 4723.00    0.81343   0.80968    0.000
 4724.00    0.81682   0.80761    0.000
 4725.00    0.81401   0.80509    0.000
 4726.00    0.80151   0.80233    0.000
 4727.00    0.78234   0.79968    0.000
 4728.00    0.76601   0.79745    0.000
 4729.00    0.76114   0.79590    0.000
 4730.00    0.76739   0.79474    0.000
 4731.00    0.77839   0.79434    0.000
 4732.00    0.78648   0.79463    0.000
 4733.00    0.78821   0.79512    0.000
 4734.00    0.78877   0.79606    0.000
 4735.00    0.79373   0.79683    0.000
 4736.00    0.80133   0.79785    0.000
 4737.00    0.80919   0.79918    0.000
 4738.00    0.82022   0.80024    0.000
 4739.00    0.83494   0.80135    0.000
 4740.00    0.84541   0.80235    0.000
 4741.00    0.84425   0.80332    0.000
 4742.00    0.83201   0.80422    0.000
 4743.00    0.81498   0.80493    0.000
 4744.00    0.80187   0.80549    0.000
 4745.00    0.79606   0.80587    0.000
 4746.00    0.79171   0.80578    0.000
 4747.00    0.78676   0.80539    0.000
 4748.00    0.78971   0.80470    0.000
 4749.00    0.80429   0.80374    0.000
 4750.00    0.82109   0.80245    0.000
 4751.00    0.83027   0.80091    0.000
 4752.00    0.82944   0.79939    0.000
 4753.00    0.82175   0.79771    0.000
 4754.00    0.81337   0.79614    0.000
 4755.00    0.80720   0.79441    0.000
 4756.00    0.80015   0.79269    0.000
 4757.00    0.78730   0.79102    0.000
 4758.00    0.76535   0.78921    0.000
 4759.00    0.73904   0.78739    0.000
 4760.00    0.72081   0.78539    0.000
 4761.00    0.71552   0.78348   17.391
 4762.00    0.71609   0.78195   17.515
 4763.00    0.71562   0.78079   17.296
 4764.00    0.71334   0.78024   17.383
 4765.00    0.71566   0.78014   17.850
 4766.00    0.73239   0.78078   17.943
 4767.00    0.76111   0.78195   17.482
 4768.00    0.78669   0.78359   17.134
 4769.00    0.80177   0.78556   17.124
 4770.00    0.81093   0.78728   17.111
 4771.00    0.81823   0.78913   16.942
 4772.00    0.82358   0.79078   16.807
 4773.00    0.82571   0.79223   16.864
 4774.00    0.82354   0.79339   17.115
 4775.00    0.81730   0.79393   17.340
 4776.00    0.80857   0.79417   17.245
 4777.00    0.79971   0.79369   17.018
 4778.00    0.79343   0.79279   17.145
 4779.00    0.79218   0.79173   17.576
 4780.00    0.79663   0.79023   17.791
 4781.00    0.80226   0.78864   17.675
 4782.00    0.80186   0.78692   17.563
 4783.00    0.79365   0.78540   17.568
 4784.00    0.78130   0.78431   17.576
 4785.00    0.76946   0.78327   17.571
 4786.00    0.76150   0.78290   17.649
 4787.00    0.75720   0.78316   17.879
 4788.00    0.75397   0.78365   18.244
 4789.00    0.75036   0.78475   18.581
 4790.00    0.74639   0.78598   18.684
 4791.00    0.74297   0.78730   18.603
 4792.00    0.74129   0.78854   18.544
 4793.00    0.74222   0.78949   18.584
 4794.00    0.74697   0.79019   18.692
 4795.00    0.75840   0.79032   18.853
 4796.00    0.77631   0.79001   19.024
 4797.00    0.79010   0.78924   19.025
 4798.00    0.78816   0.78818   18.747
 4799.00    0.77372   0.78697   18.475
 4800.00    0.75877   0.78592   18.512
 4801.00    0.75143   0.78488   18.701
 4802.00    0.75292   0.78377   18.735
 4803.00    0.75656   0.78275   18.704
 4804.00    0.75573   0.78164   18.813
 4805.00    0.75413   0.78089   18.934
 4806.00    0.75991   0.78025   18.878
 4807.00    0.77668   0.77988   18.808
 4808.00    0.80052   0.77987   18.906
 4809.00    0.81844   0.78001   18.975
 4810.00    0.81844   0.78037   18.846
 4811.00    0.80078   0.78087   18.845
 4812.00    0.77700   0.78149   19.225
 4813.00    0.76606   0.78212   19.566
 4814.00    0.77785   0.78263   19.428
 4815.00    0.79877   0.78275   19.154
 4816.00    0.81025   0.78270   19.138
 4817.00    0.80720   0.78196   19.191
 4818.00    0.79506   0.78091   19.078
 4819.00    0.78467   0.77953   18.995
 4820.00    0.78226   0.77772   19.128
 4821.00    0.78262   0.77592   19.304
 4822.00    0.77942   0.77360   19.327
 4823.00    0.77340   0.77164   19.266
 4824.00    0.76766   0.77001   19.288
 4825.00    0.76372   0.76859   19.487
 4826.00    0.76220   0.76744   19.744
 4827.00    0.76317   0.76629   19.692
 4828.00    0.76405   0.76524   19.329
 4829.00    0.75963   0.76427   19.245
 4830.00    0.75061   0.76326   19.691
 4831.00    0.74707   0.76217   20.138
 4832.00    0.75561   0.76114   20.086
 4833.00    0.77220   0.75977   19.669
 4834.00    0.78734   0.75828   19.266
 4835.00    0.79094   0.75643   19.163
 4836.00    0.78117   0.75455   19.369
 4837.00    0.76695   0.75234   19.604
 4838.00    0.75638   0.74989   19.675
 4839.00    0.75113   0.74741   19.668
 4840.00    0.74828   0.74475   19.690
 4841.00    0.74302   0.74205   19.729
 4842.00    0.73552   0.73892   19.651
 4843.00    0.73213   0.73570   19.279
 4844.00    0.73684   0.73206   18.748
 4845.00    0.74779   0.72774   18.437
 4846.00    0.75827   0.72264   18.415
 4847.00    0.75940   0.71636   18.440
 4848.00    0.74839   0.70911    0.000
 4849.00    0.73019   0.70064    0.000
 4850.00    0.71214   0.69069    0.000
 4851.00    0.70057   0.67917    0.000
 4852.00    0.69642   0.66593    0.000
 4853.00    0.70153   0.65100    0.000
 4854.00    0.74267   0.63504    0.000
 4855.00    0.87031   0.61889    0.000
 4856.00    1.13140   0.60341    0.000
 4857.00    1.54006   0.58924    0.000
 4858.00    2.02156   0.57727    0.000
 4859.00    2.43143   0.56834    0.000
 4860.00    2.64893   0.56315    0.000
 4861.00    2.61160   0.56302    0.000
 4862.00    2.33508   0.56766    0.000
 4863.00    1.90439   0.57578    0.000
 4864.00    1.44062   0.58704    0.000
 4865.00    1.06195   0.59976    0.000
 4866.00    0.81638   0.61322    0.000
 4867.00    0.68685   0.62658    0.000
 4868.00    0.63540   0.63941    0.000
 4869.00    0.62289   0.65131    0.000
 4870.00    0.62834   0.66164    0.000
 4871.00    0.64569   0.67128    0.000
 4872.00    0.67016   0.68007    0.000
 4873.00    0.69689   0.68796    0.000
 4874.00    0.72328   0.69525    0.000
 4875.00    0.74662   0.70170   19.325
 4876.00    0.75962   0.70756   19.358
 4877.00    0.75668   0.71234   19.411
 4878.00    0.74448   0.71660   19.383
 4879.00    0.73564   0.71993   19.206
 4880.00    0.73647   0.72211   19.034
 4881.00    0.74507   0.72361   19.047
 4882.00    0.75189   0.72436   19.167
 4883.00    0.74826   0.72451   19.203
 4884.00    0.73743   0.72464   19.102
 4885.00    0.72751   0.72479   18.943
 4886.00    0.72087   0.72537   18.863
 4887.00    0.71627   0.72645   18.951
 4888.00    0.71314   0.72810   19.140
 4889.00    0.71252   0.73053   19.232
 4890.00    0.71718   0.73329   18.973
 4891.00    0.72823   0.73706   18.409
 4892.00    0.74171   0.74113   18.089
 4893.00    0.75233   0.74526   18.411
 4894.00    0.75759   0.74922   19.142
 4895.00    0.75699   0.75226   19.701
 4896.00    0.75082   0.75470   19.602
 4897.00    0.74090   0.75632   19.078
 4898.00    0.73112   0.75724   19.139
 4899.00    0.72612   0.75740   19.701
 4900.00    0.72962   0.75737   18.359
 4901.00    0.74072   0.75688   15.197
 4902.00    0.75203   0.75607   13.174
 4903.00    0.75924   0.75524   12.833
 4904.00    0.76735   0.75443   13.081
 4905.00    0.78028   0.75355   12.951
 4906.00    0.79363   0.75250   12.573
 4907.00    0.80046   0.75138   12.397
 4908.00    0.79629   0.75011   12.597
 4909.00    0.78355   0.74856   12.950
 4910.00    0.77291   0.74697   12.830
 4911.00    0.77424   0.74516   12.428
 4912.00    0.79016   0.74303   13.042
 4913.00    0.81152   0.74026   15.411
 4914.00    0.81883   0.73721   18.148
 4915.00    0.80319   0.73337   18.718
 4916.00    0.77545   0.72927   18.135
 4917.00    0.75125   0.72503   17.991
 4918.00    0.74163   0.72126   18.109
 4919.00    0.74697   0.71857   18.081
 4920.00    0.75648   0.71690   17.933
 4921.00    0.75882   0.71743   17.787
 4922.00    0.74841   0.71895   17.700
 4923.00    0.73003   0.72212   17.754
 4924.00    0.71774   0.72590   18.041
 4925.00    0.72228   0.73047   18.421
 4926.00    0.74506   0.73469   18.513
 4927.00    0.77641   0.73856   18.296
 4928.00    0.79889   0.74163   18.179
 4929.00    0.80189   0.74344   18.344
 4930.00    0.78597   0.74421   18.622
 4931.00    0.75842   0.74403   18.836
 4932.00    0.73043   0.74296   18.933
 4933.00    0.71317   0.74162   19.000
 4934.00    0.71411   0.74051   19.180
 4935.00    0.73029   0.73953   19.409
 4936.00    0.74957   0.73902   19.472
 4937.00    0.76080   0.73895   19.443
 4938.00    0.75851   0.73962   19.635
 4939.00    0.74716   0.74103   20.058
 4940.00    0.73797   0.74319    0.000
 4941.00    0.73801   0.74539    0.000
 4942.00    0.74768   0.74783    0.000
 4943.00    0.76193   0.75013    0.000
 4944.00    0.77307   0.75200    0.000
 4945.00    0.77642   0.75343    0.000
 4946.00    0.77217   0.75443    0.000
 4947.00    0.76631   0.75480    0.000
 4948.00    0.76678   0.75454    0.000
 4949.00    0.77531   0.75349    0.000
 4950.00    0.79013   0.75190    0.000
 4951.00    0.81490   0.74977    0.000
 4952.00    0.86491   0.74719    0.000
 4953.00    0.97423   0.74467    0.000
 4954.00    1.17279   0.74199    0.000
 4955.00    1.44468   0.73990    0.000
 4956.00    1.73154   0.73779    0.000
 4957.00    1.95196   0.73665    0.000
 4958.00    2.03284   0.73647    0.000
 4959.00    1.95291   0.73664    0.000
 4960.00    1.74050   0.73718    0.000
 4961.00    1.45879   0.73762    0.000
 4962.00    1.18265   0.73802    0.000
 4963.00    0.96867   0.73826    0.000
 4964.00    0.84195   0.73821    0.000
 4965.00    0.78583   0.73808    0.000
 4966.00    0.76415   0.73808    0.000
 4967.00    0.75120   0.73808    0.000
 4968.00    0.73587   0.73835    0.000
 4969.00    0.72169   0.73850    0.000
 4970.00    0.71784   0.73875    0.000
 4971.00    0.72891   0.73889    0.000
 4972.00    0.75087   0.73861    0.000
 4973.00    0.76927   0.73789    0.000
 4974.00    0.77226   0.73647    0.000
 4975.00    0.76317   0.73434    0.000
 4976.00    0.75195   0.73166    0.000
 4977.00    0.74564   0.72835    0.000
 4978.00    0.74538   0.72490    0.000
 4979.00    0.74532   0.72152    0.000
 4980.00    0.74091   0.71843    0.000
 4981.00    0.73515   0.71582    0.000
 4982.00    0.73220   0.71409    0.000
 4983.00    0.73208   0.71337    0.000
 4984.00    0.73405   0.71360    0.000
 4985.00    0.73893   0.71460    0.000
 4986.00    0.74555   0.71623    0.000
 4987.00    0.74884   0.71797    0.000
 4988.00    0.74629   0.71963    0.000
 4989.00    0.74161   0.72116    0.000
 4990.00    0.73946   0.72212    0.000
 4991.00    0.74181   0.72298    0.000
 4992.00    0.74699   0.72322    0.000
 4993.00    0.74999   0.72293    0.000
 4994.00    0.74647   0.72229    0.000
 4995.00    0.73539   0.72096    0.000
 4996.00    0.72045   0.71916    0.000
 4997.00    0.71076   0.71696    0.000
 4998.00    0.72113   0.71441    0.000
 4999.00    0.77799   0.71169    0.000
 5000.00    0.94747   0.70914    0.000
 5001.00    1.32992   0.70667    0.000
 5002.00    1.97406   0.70472    0.000
 5003.00    2.82973   0.70293    0.000
 5004.00    3.72005   0.70146    0.000
 5005.00    4.37143   0.70008    0.000
 5006.00    4.57813   0.69910    0.000
 5007.00    4.27708   0.69818    0.000
 5008.00    3.56712   0.69712    0.000
 5009.00    2.67963   0.69573    0.000
 5010.00    1.85085   0.69419    0.000
 5011.00    1.25273   0.69230    0.000
 5012.00    0.92428   0.69049    0.000
 5013.00    0.78358   0.68900    0.000
 5014.00    0.74057   0.68777    0.000
 5015.00    0.73496   0.68749    0.000
 5016.00    0.73541   0.68762    0.000
 5017.00    0.73344   0.68844    0.000
 5018.00    0.72789   0.68986    0.000
 5019.00    0.71976   0.69195    0.000
 5020.00    0.71092   0.69422    0.000
 5021.00    0.70314   0.69669    0.000
 5022.00    0.69654   0.69922    0.000
 5023.00    0.69138   0.70185    0.000
 5024.00    0.69322   0.70414    0.000
 5025.00    0.70759   0.70639    0.000
 5026.00    0.72560   0.70810    0.000
 5027.00    0.73122   0.70964    0.000
 5028.00    0.72372   0.71099    0.000
 5029.00    0.71455   0.71168   21.110
 5030.00    0.71116   0.71190   21.282
 5031.00    0.71442   0.71143   21.430
 5032.00    0.72047   0.71039   21.538
 5033.00    0.72383   0.70863   21.594
 5034.00    0.72237   0.70630   21.683
 5035.00    0.71718   0.70353   21.862
 5036.00    0.71064   0.70109   21.908
 5037.00    0.70528   0.69871   21.623
 5038.00    0.70243   0.69686   21.388
 5039.00    0.70254   0.69562   21.631
 5040.00    0.70580   0.69507   22.026
 5041.00    0.71201   0.69554   22.008
 5042.00    0.72008   0.69686   21.786
 5043.00    0.72755   0.69834   21.850
 5044.00    0.73010   0.70008   22.106
 5045.00    0.72507   0.70166   22.213
 5046.00    0.71572   0.70284   22.160
 5047.00    0.70819   0.70389   22.115
 5048.00    0.70695   0.70465   22.129
 5049.00    0.71383   0.70573   22.147
 5050.00    0.72757   0.70663   22.075
 5051.00    0.74392   0.70804   21.894
 5052.00    0.75615   0.70946   21.757
 5053.00    0.75855   0.71132   21.792
 5054.00    0.75004   0.71287   21.927
 5055.00    0.73470   0.71456   22.064
 5056.00    0.72129   0.71580   22.260
 5057.00    0.71591   0.71688   22.529
 5058.00    0.71578   0.71728   22.663
 5059.00    0.71442   0.71718   22.529
 5060.00    0.70712   0.71653   22.348
 5061.00    0.69410   0.71529   22.356
 5062.00    0.68203   0.71365   22.551
 5063.00    0.67689   0.71160   22.787
 5064.00    0.67866   0.70943   22.864
 5065.00    0.68453   0.70758   22.714
 5066.00    0.69168   0.70576   22.499
 5067.00    0.69847   0.70419   22.355
 5068.00    0.70480   0.70279   22.235
 5069.00    0.70961   0.70164   22.079
 5070.00    0.70990   0.70046   21.899
 5071.00    0.70479   0.69916   21.720
 5072.00    0.69751   0.69793   21.542
 5073.00    0.69114   0.69660   21.433
 5074.00    0.68633   0.69505   21.523
 5075.00    0.68299   0.69358   21.726
 5076.00    0.68122   0.69206   21.673
 5077.00    0.68109   0.69084   21.325
 5078.00    0.68253   0.68954   21.130
 5079.00    0.68573   0.68895   21.247
 5080.00    0.69113   0.68893   21.333
 5081.00    0.69821   0.68964   21.212
 5082.00    0.70495   0.69074   21.111
 5083.00    0.70795   0.69238   21.209
 5084.00    0.70371   0.69435   21.466
 5085.00    0.69355   0.69638   21.687
 5086.00    0.68415   0.69835   21.626
 5087.00    0.68099   0.70008   21.293
 5088.00    0.68558   0.70158   20.972
 5089.00    0.69543   0.70250   20.859
 5090.00    0.70516   0.70296   20.968
 5091.00    0.71048   0.70282   21.161
 5092.00    0.70970   0.70219   21.217
 5093.00    0.70393   0.70098   21.092
 5094.00    0.69637   0.69940   20.946
 5095.00    0.68992   0.69754   20.927
 5096.00    0.68663   0.69563   21.082
 5097.00    0.68852   0.69385   21.278
 5098.00    0.69678   0.69231   21.311
 5099.00    0.70887   0.69126   21.316
 5100.00    0.71993   0.69060   21.623
 5101.00    0.72843   0.69013   22.076
 5102.00    0.73574   0.68983   22.140
 5103.00    0.74116   0.68962   21.867
 5104.00    0.74232   0.68950   21.790
 5105.00    0.73891   0.68956   22.057
 5106.00    0.73226   0.68964   22.456
 5107.00    0.72246   0.69004   22.804
 5108.00    0.70868   0.69075   23.011
 5109.00    0.69130   0.69161   22.991
 5110.00    0.67319   0.69284   22.741
 5111.00    0.66104   0.69425   22.497
 5112.00    0.66111   0.69551   22.512
 5113.00    0.67082   0.69671   22.654
 5114.00    0.68181   0.69745   22.639
 5115.00    0.68821   0.69775   22.581
 5116.00    0.68780   0.69747   22.772
 5117.00    0.68169   0.69650   23.178
 5118.00    0.67390   0.69486   23.542
 5119.00    0.67072   0.69268   23.712
 5120.00    0.67545   0.69003   23.625
 5121.00    0.68114   0.68729   23.195
 5122.00    0.67780   0.68447   22.548
 5123.00    0.66411   0.68195   22.258
 5124.00    0.64593   0.67989   22.699
 5125.00    0.63201   0.67835   23.291
 5126.00    0.62861   0.67735   23.246
 5127.00    0.63376   0.67684   22.917
 5128.00    0.64154   0.67679   22.958
 5129.00    0.64806   0.67699   23.189
 5130.00    0.65257   0.67751   23.115
 5131.00    0.65759   0.67784   22.669
 5132.00    0.66536   0.67816   22.105
 5133.00    0.67419   0.67809   21.719
 5134.00    0.68081   0.67794   21.666
 5135.00    0.68328   0.67732   21.866
 5136.00    0.68198   0.67633   22.138
 5137.00    0.68012   0.67534   22.343
 5138.00    0.68127   0.67404   22.453
 5139.00    0.68710   0.67302   22.592
 5140.00    0.69712   0.67216   22.778
 5141.00    0.70862   0.67116   22.752
 5142.00    0.71602   0.67052   22.500
 5143.00    0.71146   0.67011   22.566
 5144.00    0.69315   0.66982   23.158
 5145.00    0.67032   0.66957   23.554
 5146.00    0.65240   0.66961   23.259
 5147.00    0.64149   0.66961   22.896
 5148.00    0.63684   0.67003   22.896
 5149.00    0.63822   0.67044   22.805
 5150.00    0.64405   0.67103   22.347
 5151.00    0.65079   0.67185   21.975
 5152.00    0.65698   0.67276   22.032
 5153.00    0.66504   0.67382   22.364
 5154.00    0.67733   0.67474   22.542
 5155.00    0.69357   0.67557   22.127
 5156.00    0.70994   0.67573   21.413
 5157.00    0.71986   0.67534   21.340
 5158.00    0.71982   0.67373   22.053
 5159.00    0.71196   0.67123   22.520
 5160.00    0.70147   0.66746   22.226
 5161.00    0.69396   0.66258   21.981
 5162.00    0.68982   0.65685   22.229
 5163.00    0.68353   0.65063   22.550
 5164.00    0.67216   0.64403   22.577
 5165.00    0.65777   0.63780   22.393
 5166.00    0.64165   0.63210   22.189
 5167.00    0.62300   0.62781   22.096
 5168.00    0.60302   0.62509   22.178
 5169.00    0.58631   0.62411   22.430
 5170.00    0.57962   0.62453   22.719
 5171.00    0.58929   0.62601   22.806
 5172.00    0.61427   0.62880   22.569
 5173.00    0.64547   0.63250   22.109
 5174.00    0.67171   0.63636   21.750
 5175.00    0.68378   0.63974   21.850
 5176.00    0.68047   0.64239   22.374
 5177.00    0.66784   0.64414   22.905
 5178.00    0.65158   0.64481   23.140
 5179.00    0.63555   0.64469   23.090
 5180.00    0.62377   0.64392   23.012
 5181.00    0.61943   0.64292   23.188
 5182.00    0.62084   0.64183   23.533
 5183.00    0.62310   0.64135   23.709
 5184.00    0.62476   0.64193   23.738
 5185.00    0.62841   0.64294   23.885
 5186.00    0.63802   0.64447   23.959
 5187.00    0.65520   0.64610   23.537
 5188.00    0.67274   0.64783   22.824
 5189.00    0.68030   0.64973   22.366
 5190.00    0.67872   0.65116    0.000
 5191.00    0.67690   0.65253    0.000
 5192.00    0.68020   0.65385    0.000
 5193.00    0.68979   0.65527    0.000
 5194.00    0.70569   0.65634    0.000
 5195.00    0.72629   0.65743    0.000
 5196.00    0.74662   0.65833    0.000
 5197.00    0.76028   0.65883    0.000
 5198.00    0.76302   0.65913    0.000
 5199.00    0.75472   0.65872    0.000
 5200.00    0.74122   0.65802    0.000
 5201.00    0.72890   0.65661    0.000
 5202.00    0.71668   0.65523    0.000
 5203.00    0.70053   0.65348    0.000
 5204.00    0.68112   0.65207    0.000
 5205.00    0.66247   0.65097    0.000
 5206.00    0.64862   0.65075    0.000
 5207.00    0.64262   0.65092    0.000
 5208.00    0.64571   0.65192    0.000
 5209.00    0.65607   0.65359    0.000
 5210.00    0.66780   0.65556    0.000
 5211.00    0.67455   0.65791   23.144
 5212.00    0.67385   0.66013   23.025
 5213.00    0.66901   0.66229   23.619
 5214.00    0.66978   0.66397   24.109
 5215.00    0.68160   0.66535   23.710
 5216.00    0.69597   0.66633   23.107
 5217.00    0.70128   0.66680   23.091
 5218.00    0.69385   0.66678   23.464
 5219.00    0.67844   0.66598   23.696
 5220.00    0.66655   0.66473   23.552
 5221.00    0.66497   0.66287   23.173
 5222.00    0.66765   0.66073   22.970
 5223.00    0.66703   0.65843   23.119
 5224.00    0.66315   0.65625   23.283
 5225.00    0.65988   0.65443   23.193
 5226.00    0.66106   0.65313   23.061
 5227.00    0.66746   0.65284   23.066
 5228.00    0.67513   0.65323   23.036
 5229.00    0.67910   0.65407   22.883
 5230.00    0.67632   0.65550   22.846
 5231.00    0.66884   0.65721   23.149
 5232.00    0.66409   0.65907   23.743
 5233.00    0.66529   0.66134   23.989
 5234.00    0.66751   0.66358   22.821
 5235.00    0.66870   0.66601   20.716
 5236.00    0.67436   0.66821   19.314
 5237.00    0.68803   0.67020   19.047
 5238.00    0.70638   0.67186   19.263
 5239.00    0.72146   0.67304   19.327
 5240.00    0.72357   0.67383   19.118
 5241.00    0.70877   0.67401   19.115
 5242.00    0.68163   0.67371   20.158
 5243.00    0.65125   0.67299   22.282
 5244.00    0.62799   0.67197   23.812
 5245.00    0.61816   0.67055   23.648
 5246.00    0.62156   0.66904   23.135
 5247.00    0.63127   0.66764   23.159
 5248.00    0.63669   0.66655   23.378
 5249.00    0.63524   0.66551   23.506
 5250.00    0.63405   0.66496   23.662
 5251.00    0.64012   0.66465   23.825
 5252.00    0.65569   0.66451   23.758
 5253.00    0.67527   0.66432   23.498
 5254.00    0.68847   0.66386   23.350
 5255.00    0.69191   0.66312   23.396
 5256.00    0.68982   0.66182   23.484
 5257.00    0.68426   0.65964   23.605
 5258.00    0.67410   0.65670   23.888
 5259.00    0.66069   0.65282   24.254
 5260.00    0.64846   0.64842   24.388
 5261.00    0.64212   0.64348   24.032
 5262.00    0.64419   0.63864   23.209
 5263.00    0.65121   0.63397   22.360
 5264.00    0.65598   0.63004   21.945
 5265.00    0.65540   0.62688   21.831
 5266.00    0.65065   0.62499   21.601
 5267.00    0.64344   0.62417   21.362
 5268.00    0.63553   0.62419   21.546
 5269.00    0.62951   0.62540   22.213
 5270.00    0.62773   0.62777   23.043
 5271.00    0.62998   0.63092   23.578
 5272.00    0.63386   0.63430   23.533
 5273.00    0.63639   0.63808   23.271
 5274.00    0.63644   0.64174   23.329
 5275.00    0.63800   0.64538   23.546
 5276.00    0.64523   0.64889   23.412
 5277.00    0.65339   0.65203   22.927
 5278.00    0.65464   0.65467   22.411
 5279.00    0.64965   0.65703   21.977
 5280.00    0.64509   0.65912   21.557
 5281.00    0.64660   0.66119   21.048
 5282.00    0.65537   0.66319   20.483
 5283.00    0.66495   0.66522   20.182
 5284.00    0.66857   0.66740   20.333
 5285.00    0.66920   0.66952   20.507
 5286.00    0.67292   0.67129   20.199
 5287.00    0.67916   0.67269   19.654
 5288.00    0.68370   0.67350   19.357
 5289.00    0.68400   0.67382   19.414
 5290.00    0.67953   0.67333   19.688
 5291.00    0.67147   0.67231   19.955
 5292.00    0.66207   0.67059   20.087
 5293.00    0.65393   0.66871   20.248
 5294.00    0.64905   0.66657   20.597
 5295.00    0.64788   0.66458   20.956
 5296.00    0.64954   0.66279   21.126
 5297.00    0.65215   0.66163   21.253
 5298.00    0.65336   0.66118   21.483
 5299.00    0.65097   0.66149   21.619
 5300.00    0.64452   0.66219   21.557
 5301.00    0.63660   0.66350   21.639
 5302.00    0.63179   0.66509   22.079
 5303.00    0.63529   0.66700   22.512
 5304.00    0.64891   0.66871   22.576
 5305.00    0.66852   0.67030   22.454
 5306.00    0.68790   0.67146   22.369
 5307.00    0.70188   0.67235   22.222
 5308.00    0.70704   0.67278   22.010
 5309.00    0.70239   0.67279   22.028
 5310.00    0.69080   0.67229   22.352
 5311.00    0.67898   0.67142   22.575
 5312.00    0.67127   0.67022   22.470
 5313.00    0.66665   0.66874   22.360
 5314.00    0.66496   0.66713   22.490
 5315.00    0.66929   0.66520   22.709
 5316.00    0.67919   0.66326   22.798
 5317.00    0.68816   0.66118   22.694
 5318.00    0.69201   0.65899   22.564
 5319.00    0.69231   0.65643   22.719
 5320.00    0.69149   0.65383   23.096
 5321.00    0.69035   0.65090   23.154
 5322.00    0.68812   0.64810   22.819
 5323.00    0.68325   0.64512   22.700
 5324.00    0.67603   0.64274   22.990
 5325.00    0.66872   0.64065   23.242
 5326.00    0.66078   0.63932   23.265
 5327.00    0.64887   0.63845   23.370
 5328.00    0.63454   0.63875   23.611
 5329.00    0.62480   0.63981   23.644
 5330.00    0.62311   0.64138   23.433
 5331.00    0.62747   0.64320   23.325
 5332.00    0.63574   0.64507   23.361
 5333.00    0.64702   0.64692   23.227
 5334.00    0.65972   0.64842   22.875
 5335.00    0.67072   0.64956   22.583
 5336.00    0.67479   0.65023   22.573
 5337.00    0.66691   0.65069   22.902
 5338.00    0.64953   0.65080   23.388
 5339.00    0.63199   0.65087   23.677
 5340.00    0.62308   0.65087   23.618
 5341.00    0.62674   0.65123   23.363
 5342.00    0.63686   0.65151   23.211
 5343.00    0.64182   0.65213   23.377
 5344.00    0.63876   0.65278   23.565
 5345.00    0.63335   0.65376   23.262
 5346.00    0.63076   0.65494   22.728
 5347.00    0.63319   0.65640   22.605
 5348.00    0.63932   0.65798   22.821
 5349.00    0.64595   0.65985   22.866
 5350.00    0.65152   0.66182   22.749
 5351.00    0.65578   0.66380   22.825
 5352.00    0.65765   0.66560   23.044
 5353.00    0.65687   0.66720   23.121
 5354.00    0.65740   0.66841   23.150
 5355.00    0.66391   0.66910   23.387
 5356.00    0.67444   0.66915   23.653
 5357.00    0.68234   0.66859   23.609
 5358.00    0.68169   0.66736   23.435
 5359.00    0.67078   0.66557   23.549
 5360.00    0.65571   0.66322   24.016
 5361.00    0.64458   0.66057   24.583
 5362.00    0.63832   0.65764   24.846
 5363.00    0.63362   0.65478   24.615
 5364.00    0.62897   0.65191   24.371
 5365.00    0.62502   0.64942   24.591
 5366.00    0.62390   0.64731   24.938
 5367.00    0.62665   0.64571   24.863
 5368.00    0.63040   0.64480   24.567
 5369.00    0.63155   0.64441   24.471
 5370.00    0.62979   0.64486   24.501
 5371.00    0.62730   0.64575   24.458
 5372.00    0.62717   0.64731   24.472
 5373.00    0.63185   0.64887   24.622
 5374.00    0.64167   0.65064   24.542
 5375.00    0.65438   0.65214   24.033
 5376.00    0.66530   0.65348   23.612
 5377.00    0.67126   0.65442   23.705
 5378.00    0.67409   0.65504   24.046
 5379.00    0.67686   0.65524   24.183
 5380.00    0.68032   0.65516   24.011
 5381.00    0.68368   0.65481   23.691
 5382.00    0.68544   0.65427   23.480
 5383.00    0.68324   0.65349   23.474
 5384.00    0.67415   0.65261   23.495
 5385.00    0.65872   0.65143   23.486
 5386.00    0.64347   0.65013   -2.000
 5387.00    0.63683   0.64854   -2.000
 5388.00    0.64501   0.64685   -2.000
 5389.00    0.66461   0.64496   -2.000
 5390.00    0.68004   0.64303   -2.000
 5391.00    0.67935   0.64107   -2.000
 5392.00    0.66371   0.63914   -2.000
 5393.00    0.64175   0.63736   -2.000
 5394.00    0.62407   0.63562   -2.000
 5395.00    0.61381   0.63414   -2.000
 5396.00    0.60400   0.63263   -2.000
 5397.00    0.59256   0.63142   -2.000
 5398.00    0.58798   0.63010   -2.000
 5399.00    0.59608   0.62893   -2.000
 5400.00    0.61368   0.62755   -2.000
 5401.00    0.63237   0.62634   22.515
 5402.00    0.64242   0.62503   22.584
 5403.00    0.64133   0.62395   22.994
 5404.00    0.63576   0.62310   23.521
 5405.00    0.63319   0.62266   23.901
 5406.00    0.63754   0.62268   24.023
 5407.00    0.64682   0.62315   23.935
 5408.00    0.65420   0.62420   23.790
 5409.00    0.65512   0.62563   23.687
 5410.00    0.64958   0.62760   23.653
 5411.00    0.63998   0.62974   23.815
 5412.00    0.62977   0.63211   24.328
 5413.00    0.62160   0.63436   24.901
 5414.00    0.61657   0.63656   24.916
 5415.00    0.61387   0.63839   24.721
 5416.00    0.61213   0.63997   25.194
 5417.00    0.61349   0.64101   25.214
 5418.00    0.62235   0.64173   22.735
 5419.00    0.63791   0.64195   19.729
 5420.00    0.65398   0.64186   18.619
 5421.00    0.66413   0.64138   18.936
 5422.00    0.66457   0.64069   19.064
 5423.00    0.65758   0.63974   19.170
 5424.00    0.64964   0.63868   20.864
 5425.00    0.64511   0.63750   24.071
 5426.00    0.64500   0.63625   25.792
 5427.00    0.64779   0.63505   24.993
 5428.00    0.65023   0.63402   24.200
 5429.00    0.64878   0.63320   24.228
 5430.00    0.64152   0.63276   24.439
 5431.00    0.63141   0.63269   24.592
 5432.00    0.62429   0.63306   24.826
 5433.00    0.62363   0.63392   24.944
 5434.00    0.62940   0.63510   24.619
 5435.00    0.63776   0.63666   24.063
 5436.00    0.64379   0.63818   23.718
 5437.00    0.64599   0.63976   23.674
 5438.00    0.64512   0.64092   23.772
 5439.00    0.64099   0.64182   23.845
 5440.00    0.63397   0.64211   23.807
 5441.00    0.62774   0.64199   23.735
 5442.00    0.62605   0.64132   23.767
 5443.00    0.62760   0.64038   23.937
 5444.00    0.62951   0.63915   24.166
 5445.00    0.63297   0.63801   24.283
 5446.00    0.64035   0.63680   24.146
 5447.00    0.65060   0.63582   23.814
 5448.00    0.65947   0.63488   23.505
 5449.00    0.66080   0.63416   23.495
 5450.00    0.65120   0.63350   23.893
 5451.00    0.63481   0.63301   24.381
 5452.00    0.61891   0.63253   24.563
 5453.00    0.60829   0.63220   24.469
 5454.00    0.60410   0.63199   24.369
 5455.00    0.60358   0.63184   24.465
 5456.00    0.60351   0.63178   24.801
 5457.00    0.60364   0.63174   25.194
 5458.00    0.60559   0.63176   25.436
 5459.00    0.61126   0.63176   25.507
 5460.00    0.62017   0.63179   25.489
 5461.00    0.62786   0.63178   25.450
 5462.00    0.63120   0.63180   25.445
 5463.00    0.63237   0.63168   25.523
 5464.00    0.63353   0.63155   25.630
 5465.00    0.63300   0.63125   25.580
 5466.00    0.62935   0.63083   25.350
 5467.00    0.62434   0.63014   25.232
 5468.00    0.62032   0.62929   25.351
 5469.00    0.61804   0.62814   25.409
 5470.00    0.61586   0.62684   25.273
 5471.00    0.61017   0.62535   25.266
 5472.00    0.60170   0.62387   25.429
 5473.00    0.59780   0.62242   25.223
 5474.00    0.60235   0.62120   24.584
 5475.00    0.61097   0.62029   24.266
 5476.00    0.61828   0.61973   24.531
 5477.00    0.62209   0.61961   24.757
 5478.00    0.62244   0.61983   24.611
 5479.00    0.62080   0.62048   24.546
 5480.00    0.61907   0.62135   24.696
 5481.00    0.61895   0.62244   24.549
 5482.00    0.62120   0.62357   24.063
 5483.00    0.62525   0.62472   23.888
 5484.00    0.62946   0.62578   24.182
 5485.00    0.63160   0.62669   24.375
 5486.00    0.63089   0.62746   24.173
 5487.00    0.62853   0.62804   23.903
 5488.00    0.62639   0.62846   23.852
 5489.00    0.62618   0.62871   24.027
 5490.00    0.62827   0.62881   24.150
 5491.00    0.63121   0.62879   23.833
 5492.00    0.63166   0.62861   23.242
 5493.00    0.62560   0.62836   22.975
 5494.00    0.61268   0.62794   23.202
 5495.00    0.59698   0.62746   23.617
 5496.00    0.58495   0.62683   23.932
 5497.00    0.58181   0.62615   -2.000
 5498.00    0.58333   0.62535   -2.000
 5499.00    0.58031   0.62453   -2.000
 5500.00    0.57782   0.62363   -2.000
 5501.00    0.59375   0.62280   -2.000
 5502.00    0.64062   0.62190   -2.000
 5503.00    0.72539   0.62115   -2.000
 5504.00    0.85986   0.62036   -2.000
 5505.00    1.01236   0.61979   -2.000
 5506.00    0.99383   0.61922   -2.000
 5507.00    0.58158   0.61894   -2.000
 5508.00   -0.15205   0.61868   -2.000
 5509.00   -0.86644   0.61877   -2.000
 5510.00   -1.17215   0.61894   -2.000
 5511.00   -0.85268   0.61947   -2.000
 5512.00   -0.19229   0.62009   -2.000
 5513.00    0.29528   0.62102   -2.000
 5514.00    0.48710   0.62195   -2.000
 5515.00    0.55683   0.62305   -2.000
 5516.00    0.59996   0.62397   -2.000
 5517.00    0.62059   0.62484   -2.000
 5518.00    0.62277   0.62535   -2.000
 5519.00    0.61793   0.62563   -2.000
 5520.00    0.61198   0.62546   -2.000
 5521.00    0.60610   0.62500   15.874
 5522.00    0.60097   0.62420   16.378
 5523.00    0.59665   0.62321   19.620
 5524.00    0.59173   0.62211   23.394
 5525.00    0.58531   0.62103   21.169
 5526.00    0.57971   0.62008   17.468
 5527.00    0.57909   0.61932   16.516
 5528.00    0.58695   0.61884   16.987
 5529.00    0.60264   0.61863   16.853
 5530.00    0.61811   0.61869   16.189
 5531.00    0.62512   0.61900   15.913
 5532.00    0.62351   0.61949   16.037
 5533.00    0.61707   0.62014   16.237
 5534.00    0.60820   0.62084   16.442
 5535.00    0.59908   0.62161   16.681
 5536.00    0.59311   0.62235   16.861
 5537.00    0.59188   0.62307   16.897
 5538.00    0.59256   0.62371   16.876
 5539.00    0.59226   0.62430   16.889
 5540.00    0.59194   0.62479   16.893
 5541.00    0.59495   0.62523   16.792
 5542.00    0.60502   0.62562   16.533
 5543.00    0.62259   0.62595   16.106
 5544.00    0.64265   0.62627   15.547
 5545.00    0.65994   0.62653   15.046
 5546.00    0.67286   0.62676   14.904
 5547.00    0.68149   0.62690   14.961
 5548.00    0.68569   0.62697   14.453
 5549.00    0.68327   0.62688   13.880
 5550.00    0.66991   0.62669   15.442
 5551.00    0.64646   0.62633   20.995
 5552.00    0.62212   0.62585   24.985
 5553.00    0.60447   0.62522   19.908
 5554.00    0.59407   0.62451   16.264
 5555.00    0.58977   0.62367   16.190
 5556.00    0.59162   0.62278   17.131
 5557.00    0.59767   0.62179   17.035
 5558.00    0.60314   0.62077   16.474
 5559.00    0.60505   0.61969   16.353
 5560.00    0.60417   0.61859   16.662
 5561.00    0.60271   0.61749   16.864
 5562.00    0.60257   0.61641   16.349
 5563.00    0.60283   0.61540   15.931
 5564.00    0.59984   0.61446   17.602
 5565.00    0.59261   0.61368   22.486
 5566.00    0.58421   0.61303   27.098
 5567.00    0.57747   0.61257   26.387
 5568.00    0.57352   0.61228   24.878
 5569.00    0.57303   0.61218   25.299
 5570.00    0.57670   0.61223   26.098
 5571.00    0.58497   0.61243   25.970
 5572.00    0.59742   0.61271   25.325
 5573.00    0.61111   0.61304   24.709
 5574.00    0.62115   0.61333   24.250
 5575.00    0.62423   0.61354   23.969
 5576.00    0.61969   0.61354   23.883
 5577.00    0.60913   0.61332   23.993
 5578.00    0.59602   0.61276   24.263
 5579.00    0.58527   0.61189   24.564
 5580.00    0.58145   0.61063   24.723
 5581.00    0.58453   0.60909   24.766
 5582.00    0.59020   0.60726   24.863
 5583.00    0.59380   0.60532   25.007
 5584.00    0.59216   0.60331   25.063
 5585.00    0.58522   0.60145   25.123
 5586.00    0.57616   0.59976   25.372
 5587.00    0.57073   0.59847   25.572
 5588.00    0.57401   0.59749   25.298
 5589.00    0.58400   0.59699   24.770
 5590.00    0.59386   0.59677   24.532
 5591.00    0.59918   0.59696   24.598
 5592.00    0.59969   0.59726   24.653
 5593.00    0.59923   0.59783   24.644
 5594.00    0.60184   0.59834   24.724
 5595.00    0.60487   0.59902   24.904
 5596.00    0.60231   0.59958   25.100
 5597.00    0.59271   0.60033   25.320
 5598.00    0.57976   0.60102   25.542
 5599.00    0.57064   0.60203   25.459
 5600.00    0.57117   0.60304   24.897
 5601.00    0.57900   0.60445   24.424
 5602.00    0.58832   0.60581   24.572
 5603.00    0.59800   0.60747   24.882
 5604.00    0.60904   0.60893   24.663
 5605.00    0.61959   0.61042   24.302
 5606.00    0.62693   0.61149   24.370
 5607.00    0.63101   0.61230   24.405
 5608.00    0.63308   0.61258   23.808
 5609.00    0.63354   0.61244   23.052
 5610.00    0.63137   0.61181   22.687
 5611.00    0.62408   0.61083   22.366
 5612.00    0.61064   0.60959   21.722
 5613.00    0.59456   0.60824   21.183
 5614.00    0.58136   0.60690   21.096
 5615.00    0.57531   0.60568   21.019
 5616.00    0.57667   0.60466   20.549
 5617.00    0.57973   0.60387   20.088
 5618.00    0.57922   0.60336   20.041
 5619.00    0.57614   0.60307   20.215
 5620.00    0.57485   0.60308   20.280
 5621.00    0.57962   0.60320   20.197
 5622.00    0.59047   0.60355   20.142
 5623.00    0.60094   0.60393   20.373
 5624.00    0.60572   0.60452   20.970
 5625.00    0.60644   0.60507   21.644
 5626.00    0.60672   0.60573   22.132
 5627.00    0.60802   0.60623   22.577
 5628.00    0.60873   0.60674   23.103
 5629.00    0.60462   0.60703   23.477
 5630.00    0.59491   0.60714   23.562
 5631.00    0.58528   0.60700   23.643
 5632.00    0.58063   0.60661   23.938
 5633.00    0.58100   0.60607   24.315
 5634.00    0.58571   0.60531   24.578
 5635.00    0.59515   0.60457   24.670
 5636.00    0.60614   0.60373   24.633
 5637.00    0.61073   0.60308   24.572
 5638.00    0.60523   0.60246   24.644
 5639.00    0.59387   0.60211   25.017
 5640.00    0.58295   0.60185   25.629
 5641.00    0.57702   0.60184   26.102
 5642.00    0.57613   0.60192   26.178
 5643.00    0.57618   0.60211   25.956
 5644.00    0.57601   0.60232   25.616
 5645.00    0.57896   0.60248   25.285
 5646.00    0.58524   0.60259   25.116
 5647.00    0.59026   0.60248   25.260
 5648.00    0.59099   0.60220   25.563
 5649.00    0.58802   0.60167   25.597
 5650.00    0.58289   0.60087   25.355
 5651.00    0.57721   0.59987   25.279
 5652.00    0.57325   0.59864   25.381
 5653.00    0.57293   0.59733   25.208
 5654.00    0.57406   0.59591   24.763
 5655.00    0.57163   0.59461   24.517
 5656.00    0.56560   0.59337   24.593
 5657.00    0.56130   0.59244   24.720
 5658.00    0.56265   0.59172   24.757
 5659.00    0.57002   0.59142   24.739
 5660.00    0.58019   0.59137   24.552
 5661.00    0.58774   0.59177   24.081
 5662.00    0.58868   0.59232   23.793
 5663.00    0.58275   0.59327   24.300
 5664.00    0.57634   0.59421   25.086
 5665.00    0.57818   0.59545   24.887
 5666.00    0.58752   0.59656   24.132
 5667.00    0.59624   0.59789   24.211
 5668.00    0.59999   0.59898   24.952
 5669.00    0.59992   0.60016   25.119
 5670.00    0.60072   0.60108   24.751
 5671.00    0.60655   0.60196   24.810
 5672.00    0.61392   0.60254   25.239
 5673.00    0.61575   0.60293   25.320
 5674.00    0.61178   0.60302   25.102
 5675.00    0.60672   0.60283   25.129
 5676.00    0.60365   0.60238   25.411
 5677.00    0.60379   0.60166   25.588
 5678.00    0.60805   0.60081   25.516
 5679.00    0.61551   0.59978   25.318
 5680.00    0.62075   0.59876   25.227
 5681.00    0.61793   0.59774   25.418
 5682.00    0.60751   0.59686   25.791
 5683.00    0.59427   0.59614   26.081
 5684.00    0.58287   0.59561   26.082
 5685.00    0.57623   0.59539   25.822
 5686.00    0.57422   0.59530   25.679
 5687.00    0.57563   0.59555   25.895
 5688.00    0.58069   0.59576   26.017
 5689.00    0.58890   0.59623   25.601
 5690.00    0.59626   0.59651   25.109
 5691.00    0.59848   0.59689   25.037
 5692.00    0.59499   0.59694   25.013
 5693.00    0.58835   0.59694   24.488
 5694.00    0.58297   0.59655   23.546
 5695.00    0.58199   0.59601   22.532
 5696.00    0.58455   0.59513   21.635
 5697.00    0.58778   0.59411   21.034
 5698.00    0.58934   0.59287   21.012
 5699.00    0.58936   0.59151   21.603
 5700.00    0.59152   0.59006   22.231
 5701.00    0.59788   0.58860   22.414
 5702.00    0.60465   0.58713   22.560
 5703.00    0.60667   0.58579   23.104
 5704.00    0.60153   0.58457   23.733
 5705.00    0.59159   0.58362   24.021
 5706.00    0.58432   0.58289   24.070
 5707.00    0.58387   0.58253   24.125
 5708.00    0.58596   0.58256   24.219
 5709.00    0.58581   0.58300   24.349
 5710.00    0.58357   0.58388   24.593
 5711.00    0.58184   0.58512   24.890
 5712.00    0.58361   0.58674   24.931
 5713.00    0.59139   0.58847   24.587
 5714.00    0.60597   0.59048   24.108
 5715.00    0.62241   0.59236   23.650
 5716.00    0.62989   0.59427   23.115
 5717.00    0.62384   0.59591   22.568
 5718.00    0.61115   0.59743   22.313
 5719.00    0.60143   0.59856   22.391
 5720.00    0.60124   0.59955   22.471
 5721.00    0.60989   0.60015   22.493
 5722.00    0.61939   0.60057   22.838
 5723.00    0.62342   0.60071   23.542
 5724.00    0.62105   0.60069   24.033
 5725.00    0.61392   0.60052   24.102
 5726.00    0.60434   0.60026   24.245
 5727.00    0.59332   0.59999   24.600
 5728.00    0.58064   0.59967   24.694
 5729.00    0.56863   0.59944   24.410
 5730.00    0.56231   0.59925   24.177
 5731.00    0.56465   0.59910   24.143
 5732.00    0.57466   0.59896   24.065
 5733.00    0.58710   0.59885   23.886
 5734.00    0.59472   0.59878   23.796
 5735.00    0.59521   0.59869   23.818
 5736.00    0.59172   0.59855   23.788
 5737.00    0.58680   0.59841   23.744
 5738.00    0.58141   0.59814   23.893
 5739.00    0.57750   0.59796   24.199
 5740.00    0.57751   0.59758    0.000
 5741.00    0.58083   0.59733    0.000
 5742.00    0.58430   0.59684    0.000
 5743.00    0.58634   0.59647    0.000
 5744.00    0.58722   0.59588    0.000
 5745.00    0.58710   0.59534    0.000
 5746.00    0.58579   0.59471    0.000
 5747.00    0.58352   0.59401    0.000
 5748.00    0.58094   0.59333    0.000
 5749.00    0.57887   0.59256    0.000
 5750.00    0.57805   0.59199    0.000
 5751.00    0.57870   0.59141    0.000
 5752.00    0.58095   0.59095    0.000
 5753.00    0.58571   0.59052    0.000
 5754.00    0.59323   0.59019    0.000
 5755.00    0.60018   0.59002    0.000
 5756.00    0.60206   0.58989    0.000
 5757.00    0.59839   0.58997    0.000
 5758.00    0.59186   0.58994    0.000
 5759.00    0.58527   0.59012    0.000
 5760.00    0.58043   0.59020    0.000
 5761.00    0.57722   0.59049    0.000
 5762.00    0.57508   0.59071    0.000
 5763.00    0.57542   0.59109    0.000
 5764.00    0.58071   0.59141    0.000
 5765.00    0.59246   0.59182    0.000
 5766.00    0.60890   0.59213    0.000
 5767.00    0.62260   0.59224    0.000
 5768.00    0.62617   0.59227    0.000
 5769.00    0.61946   0.59198    0.000
 5770.00    0.60714   0.59163    0.000
 5771.00    0.59451   0.59089    0.000
 5772.00    0.58501   0.59012    0.000
 5773.00    0.57837   0.58896    0.000
 5774.00    0.57373   0.58779    0.000
 5775.00    0.57293   0.58636    0.000
 5776.00    0.57672   0.58487    0.000
 5777.00    0.58107   0.58335    0.000
 5778.00    0.58255   0.58184    0.000
 5779.00    0.58319   0.58043    0.000
 5780.00    0.58527   0.57918    0.000
 5781.00    0.58669   0.57816    0.000
 5782.00    0.58521   0.57746    0.000
 5783.00    0.58213   0.57712    0.000
 5784.00    0.58025   0.57721    0.000
 5785.00    0.58170   0.57752    0.000
 5786.00    0.58603   0.57816    0.000
 5787.00    0.58950   0.57896    0.000
 5788.00    0.59014   0.58005    0.000
 5789.00    0.59074   0.58108    0.000
 5790.00    0.59376   0.58219    0.000
 5791.00    0.59800   0.58325    0.000
 5792.00    0.59987   0.58421    0.000
 5793.00    0.59539   0.58519    0.000
 5794.00    0.58622   0.58605    0.000
 5795.00    0.58118   0.58681    0.000
 5796.00    0.58436   0.58746    0.000
 5797.00    0.58993   0.58800    0.000
 5798.00    0.59208   0.58838    0.000
 5799.00    0.59017   0.58867    0.000
 5800.00    0.58575   0.58894    0.000
 5801.00    0.58086   0.58908    0.000
 5802.00    0.57747   0.58915    0.000
 5803.00    0.57704   0.58910    0.000
 5804.00    0.57966   0.58904    0.000
 5805.00    0.58390   0.58888    0.000
 5806.00    0.58757   0.58877    0.000
 5807.00    0.58878   0.58869    0.000
 5808.00    0.58890   0.58860    0.000
 5809.00    0.59225   0.58858    0.000
 5810.00    0.60076   0.58851    0.000
 5811.00    0.61292   0.58855   -2.000
 5812.00    0.62766   0.58857   -2.000
 5813.00    0.64300   0.58871   -2.000
 5814.00    0.64702   0.58884   -2.000
 5815.00    0.62232   0.58910   -2.000
 5816.00    0.56995   0.58935   -2.000
 5817.00    0.51151   0.58970   -2.000
 5818.00    0.47137   0.59008   -2.000
 5819.00    0.46677   0.59054   -2.000
 5820.00    0.49625   0.59093   -2.000
 5821.00    0.54002   0.59125   -2.000
 5822.00    0.57021   0.59154   -2.000
 5823.00    0.56476   0.59171   -2.000
 5824.00    0.53434   0.59184   -2.000
 5825.00    0.51249   0.59186   -2.000
 5826.00    0.51546   0.59187   -2.000
 5827.00    0.53785   0.59175   -2.000
 5828.00    0.56568   0.59161   -2.000
 5829.00    0.58430   0.59141   -2.000
 5830.00    0.58827   0.59119   -2.000
 5831.00    0.58177   0.59094    0.000
 5832.00    0.57464   0.59068    0.000
 5833.00    0.57613   0.59041    0.000
 5834.00    0.58486   0.59019    0.000
 5835.00    0.59276   0.58991    0.000
 5836.00    0.59577   0.58969    0.000
 5837.00    0.59431   0.58940    0.000
 5838.00    0.59072   0.58916    0.000
 5839.00    0.58752   0.58871    0.000
 5840.00    0.58547   0.58829    0.000
 5841.00    0.58441   0.58769    0.000
 5842.00    0.58501   0.58699    0.000
 5843.00    0.58741   0.58607    0.000
 5844.00    0.58912   0.58504    0.000
 5845.00    0.58760   0.58382    0.000
 5846.00    0.58410   0.58248    0.000
 5847.00    0.58113   0.58102    0.000
 5848.00    0.57850   0.57949    0.000
 5849.00    0.57438   0.57794    0.000
 5850.00    0.56727   0.57641    0.000
 5851.00    0.55768   0.57494    0.000
 5852.00    0.54954   0.57355    0.000
 5853.00    0.54735   0.57231    0.000
 5854.00    0.55279   0.57127    0.000
 5855.00    0.56370   0.57049    0.000
 5856.00    0.57383   0.57005    0.000
 5857.00    0.57700   0.56977    0.000
 5858.00    0.57155   0.56978    0.000
 5859.00    0.56232   0.56994    0.000
 5860.00    0.56098   0.57049    0.000
 5861.00    0.57504   0.57100    0.000
 5862.00    0.59896   0.57168    0.000
 5863.00    0.62214   0.57220    0.000
 5864.00    0.63675   0.57275    0.000
 5865.00    0.64156   0.57314    0.000
 5866.00    0.64343   0.57343    0.000
 5867.00    0.64765   0.57340    0.000
 5868.00    0.65229   0.57331    0.000
 5869.00    0.66006   0.57290    0.000
 5870.00    0.68413   0.57250    0.000
 5871.00    0.72833   0.57171    0.000
 5872.00    0.77629   0.57098    0.000
 5873.00    0.80900   0.57002    0.000
 5874.00    0.81624   0.56898    0.000
 5875.00    0.79598   0.56807    0.000
 5876.00    0.75347   0.56669    0.000
 5877.00    0.70032   0.56579    0.000
 5878.00    0.65196   0.56410    0.000
 5879.00    0.61744   0.56288    0.000
 5880.00    0.59521   0.56055    0.000
 5881.00    0.57971   0.55838    0.000
 5882.00    0.56573   0.55537    0.000
 5883.00    0.55228   0.55229    0.000
 5884.00    0.54263   0.54862    0.000
 5885.00    0.53639   0.54483    0.000
 5886.00    0.52847   0.54097    0.000
 5887.00    0.51974   0.53723    0.000
 5888.00    0.51819   0.53380    0.000
 5889.00    0.52553   0.53086    0.000
 5890.00    0.53441   0.52858    0.000
 5891.00    0.53861   0.52717    0.000
 5892.00    0.53665   0.52699    0.000
 5893.00    0.53031   0.52781    0.000
 5894.00    0.52355   0.52915    0.000
 5895.00    0.52084   0.53128    0.000
 5896.00    0.52531   0.53388    0.000
 5897.00    0.53498   0.53689    0.000
 5898.00    0.54393   0.54054    0.000
 5899.00    0.54927   0.54428    0.000
 5900.00    0.55206   0.54776    0.000
 5901.00    0.55396   0.55107   23.047
 5902.00    0.55592   0.55401   22.835
 5903.00    0.55754   0.55660   22.786
 5904.00    0.55778   0.55866   22.810
 5905.00    0.55713   0.56038   22.867
 5906.00    0.55728   0.56157   22.965
 5907.00    0.55896   0.56246   23.021
 5908.00    0.56215   0.56300   22.949
 5909.00    0.56751   0.56331   22.905
 5910.00    0.57551   0.56340   23.091
 5911.00    0.58407   0.56333   23.238
 5912.00    0.58989   0.56326   22.934
 5913.00    0.59216   0.56311   22.506
 5914.00    0.59231   0.56303   22.564
 5915.00    0.59210   0.56294   23.032
 5916.00    0.59222   0.56302   23.412
 5917.00    0.59045   0.56321   23.573
 5918.00    0.58355   0.56340   23.668
 5919.00    0.57083   0.56367   23.659
 5920.00    0.55489   0.56383   23.452
 5921.00    0.54152   0.56403   23.233
 5922.00    0.53675   0.56411   23.259
 5923.00    0.54234   0.56417   23.518
 5924.00    0.55506   0.56410   23.806
 5925.00    0.56680   0.56407   23.896
 5926.00    0.56906   0.56390   23.748
 5927.00    0.55904   0.56376   23.716
 5928.00    0.54042   0.56358   24.076
 5929.00    0.52300   0.56337   24.455
 5930.00    0.51589   0.56328   24.378
 5931.00    0.51961   0.56314   24.107
 5932.00    0.52900   0.56319   24.084
 5933.00    0.53778   0.56319   24.254
 5934.00    0.54229   0.56320   24.382
 5935.00    0.54462   0.56315   24.457
 5936.00    0.54793   0.56310   24.566
 5937.00    0.55166   0.56309   24.727
 5938.00    0.55449   0.56295   24.863
 5939.00    0.55739   0.56279   24.829
 5940.00    0.56138   0.56249   24.609
 5941.00    0.56536   0.56223   24.441
 5942.00    0.56762   0.56179   24.443
 5943.00    0.56734   0.56147   24.361
 5944.00    0.56499   0.56107   24.090
 5945.00    0.56239   0.56070   24.010
 5946.00    0.56101   0.56031   24.326
 5947.00    0.56079   0.55990   24.648
 5948.00    0.56151   0.55954   24.607
 5949.00    0.56365   0.55920   24.348
 5950.00    0.56726   0.55897   24.152
 5951.00    0.57129   0.55886   24.129
 5952.00    0.57406   0.55890   24.204
 5953.00    0.57366   0.55891   24.163
 5954.00    0.56825   0.55910   24.022
 5955.00    0.55693   0.55938   24.146
 5956.00    0.54428   0.55980   24.630
 5957.00    0.54069   0.56019   25.028
 5958.00    0.54995   0.56064   25.057
 5959.00    0.56449   0.56120   24.980
 5960.00    0.57641   0.56170   24.995
 5961.00    0.58295   0.56225   24.993
 5962.00    0.58374   0.56265   24.983
 5963.00    0.57963   0.56302   25.206
 5964.00    0.57408   0.56327   25.665
 5965.00    0.57262   0.56340   25.982
 5966.00    0.57757   0.56349   25.936
 5967.00    0.58640   0.56336   25.686
 5968.00    0.59456   0.56324   25.453
 5969.00    0.59740   0.56294   25.359
 5970.00    0.59294   0.56251   25.384
 5971.00    0.58243   0.56198   25.403
 5972.00    0.56878   0.56129   25.362
 5973.00    0.55561   0.56060   25.310
 5974.00    0.54634   0.55973   25.288
 5975.00    0.54351   0.55896   25.287
 5976.00    0.54768   0.55806   25.239
 5977.00    0.55684   0.55732   25.075
 5978.00    0.56564   0.55659   24.906
 5979.00    0.56767   0.55604   24.943
 5980.00    0.56215   0.55553   25.169
 5981.00    0.55416   0.55517   25.360
 5982.00    0.54972   0.55489   25.414
 5983.00    0.55275   0.55464   25.381
 5984.00    0.56135   0.55459   25.257
 5985.00    0.56892   0.55453   25.025
 5986.00    0.56960   0.55476   24.884
 5987.00    0.56178   0.55499   25.069
 5988.00    0.55268   0.55532   25.345
 5989.00    0.55254   0.55556   25.264
 5990.00    0.55993   0.55584   25.040
 5991.00    0.56594   0.55602   25.227
 5992.00    0.56918   0.55612   25.708
 5993.00    0.57355   0.55612   25.921
 5994.00    0.57796   0.55607   25.770
 5995.00    0.57723   0.55588   25.603
 5996.00    0.56758   0.55551   25.717
 5997.00    0.55000   0.55509   26.189
 5998.00    0.53404   0.55460   26.718
 5999.00    0.53047   0.55405   26.857
 6000.00    0.53865   0.55355   26.602
 6001.00    0.55019   0.55294   26.251
 6002.00    0.55798   0.55242   25.997
 6003.00    0.55900   0.55181   25.905
 6004.00    0.55607   0.55130   25.977
 6005.00    0.55436   0.55082   26.125
 6006.00    0.55624   0.55046   26.131
 6007.00    0.56190   0.55001   25.832
 6008.00    0.57096   0.54969   25.361
 6009.00    0.58136   0.54935   24.971
 6010.00    0.58788   0.54914   24.810
 6011.00    0.58635   0.54897   24.903
 6012.00    0.57853   0.54869   25.146
 6013.00    0.56909   0.54843   25.351
 6014.00    0.56162   0.54811   25.316
 6015.00    0.55753   0.54791   25.064
 6016.00    0.55554   0.54773   24.999
 6017.00    0.55482   0.54761   25.371
 6018.00    0.55760   0.54751   25.814
 6019.00    0.56508   0.54760   25.918
 6020.00    0.57380   0.54779   25.874
 6021.00    0.58020   0.54804   25.919
 6022.00    0.58453   0.54852   25.830
 6023.00    0.58703   0.54910   25.476
 6024.00    0.58487   0.54984   25.225
 6025.00    0.57658   0.55060   25.352
 6026.00    0.56518   0.55142   25.655
 6027.00    0.55412   0.55233   25.861
 6028.00    0.54427   0.55307   25.947
 6029.00    0.53619   0.55387   25.920
 6030.00    0.53176   0.55454   25.668
 6031.00    0.53259   0.55514   25.225
 6032.00    0.53880   0.55559   24.863
 6033.00    0.54834   0.55596   24.686
 6034.00    0.55701   0.55623   24.485
 6035.00    0.56119   0.55639   24.155
 6036.00    0.55968   0.55648   23.875
 6037.00    0.55491   0.55650   23.741
 6038.00    0.55240   0.55653   23.641
 6039.00    0.55496   0.55646   23.567
 6040.00    0.56035   0.55647   23.712
 6041.00    0.56558   0.55635   24.075
 6042.00    0.56931   0.55636   24.359
 6043.00    0.57207   0.55626   24.523
 6044.00    0.57562   0.55621   24.914
 6045.00    0.57969   0.55611   25.382
 6046.00    0.58134   0.55589   25.196
 6047.00    0.57870   0.55567   24.812
 6048.00    0.57257   0.55530   25.643
 6049.00    0.56641   0.55500   26.452
 6050.00    0.56493   0.55447   23.569
 6051.00    0.56939   0.55406   19.542
 6052.00    0.57682   0.55349   18.185
 6053.00    0.58426   0.55296   18.934
 6054.00    0.58955   0.55242   19.094
 6055.00    0.58908   0.55186   18.454
 6056.00    0.57902   0.55149   19.652
 6057.00    0.56166   0.55100   23.516
 6058.00    0.54458   0.55078   26.945
 6059.00    0.53227   0.55046   26.891
 6060.00    0.52452   0.55037   25.884
 6061.00    0.51966   0.55020   25.564
 6062.00    0.51611   0.55020   25.434
 6063.00    0.51427   0.55026   25.252
 6064.00    0.51600   0.55038   25.258
 6065.00    0.52221   0.55065   25.375
 6066.00    0.53238   0.55093   25.246
 6067.00    0.54514   0.55129   24.834
 6068.00    0.55852   0.55171   24.409
 6069.00    0.57044   0.55196   24.212
 6070.00    0.57869   0.55208   24.347
 6071.00    0.58099   0.55201   24.680
 6072.00    0.57617   0.55177   24.938
 6073.00    0.56651   0.55134   25.001
 6074.00    0.55632   0.55077   24.923
 6075.00    0.54832   0.55000   24.813
 6076.00    0.54312   0.54916   24.787
 6077.00    0.53970   0.54822   24.931
 6078.00    0.53659   0.54728   25.241
 6079.00    0.53367   0.54637   25.508
 6080.00    0.53182   0.54550   25.497
 6081.00    0.53171   0.54482   25.290
 6082.00    0.53315   0.54420   25.106
 6083.00    0.53459   0.54365   24.963
 6084.00    0.53465   0.54323   24.826
 6085.00    0.53433   0.54301   24.850
 6086.00    0.53468   0.54276   25.130
 6087.00    0.53347   0.54267   25.330
 6088.00    0.52760   0.54261   25.184
 6089.00    0.51678   0.54262   25.184
 6090.00    0.50412   0.54259   25.780
 6091.00    0.49596   0.54253   26.356
 6092.00    0.49750   0.54242   26.108
 6093.00    0.50791   0.54229   25.441
 6094.00    0.52168   0.54216   25.062
 6095.00    0.53121   0.54190   24.983
 6096.00    0.53317   0.54165   25.030
 6097.00    0.53396   0.54119   25.325
 6098.00    0.54014   0.54079   25.914
 6099.00    0.54909   0.54035   26.349
 6100.00    0.55458   0.54004   26.260
 6101.00    0.55276   0.53967   25.974
 6102.00    0.54410   0.53943   25.865
 6103.00    0.53406   0.53938   25.818
 6104.00    0.52793   0.53941   25.672
 6105.00    0.52693   0.53991   25.559
 6106.00    0.53102   0.54029   25.616
 6107.00    0.54079   0.54067   25.762
 6108.00    0.55332   0.54104   25.854
 6109.00    0.56038   0.54129   25.818
 6110.00    0.55797   0.54151   25.738
 6111.00    0.55166   0.54153   25.862
 6112.00    0.54682   0.54134   26.304
 6113.00    0.54268   0.54101   26.858
 6114.00    0.53793   0.54067   27.135
 6115.00    0.53397   0.54006   26.784
 6116.00    0.53239   0.53941   26.046
 6117.00    0.53338   0.53863   25.712
 6118.00    0.53578   0.53788   26.039
 6119.00    0.53762   0.53719   26.454
 6120.00    0.53790   0.53655   26.460
 6121.00    0.53714   0.53591   26.157
 6122.00    0.53511   0.53549   25.809
 6123.00    0.53033   0.53516   25.565
 6124.00    0.52345   0.53497   25.359
 6125.00    0.51807   0.53494   24.993
 6126.00    0.51759   0.53463   24.606
 6127.00    0.52326   0.53423   24.654
 6128.00    0.53267   0.53382   25.153
 6129.00    0.54039   0.53333   25.551
 6130.00    0.54331   0.53277   25.579
 6131.00    0.54190   0.53202   25.516
 6132.00    0.53716   0.53126   25.570
 6133.00    0.52997   0.53046   25.694
 6134.00    0.52253   0.52972   25.820
 6135.00    0.51820   0.52909   25.942
 6136.00    0.51878   0.52850   26.069
 6137.00    0.52410   0.52826   26.202
 6138.00    0.53339   0.52819   26.277
 6139.00    0.54529   0.52859   26.197
 6140.00    0.55659   0.52920   25.983
 6141.00    0.56287   0.52977   25.736
 6142.00    0.56129   0.53034   25.439
 6143.00    0.55194   0.53088   25.046
 6144.00    0.53928   0.53154   24.823
 6145.00    0.53005   0.53201   25.144
 6146.00    0.52732   0.53227   25.876
 6147.00    0.53074   0.53227   26.455
 6148.00    0.54061   0.53215   26.617
 6149.00    0.55653   0.53177   26.529
 6150.00    0.57245   0.53121   26.428
 6151.00    0.58011   0.53035   26.427
 6152.00    0.57829   0.52930   26.350
 6153.00    0.57175   0.52800   25.891
 6154.00    0.56536   0.52653   24.989
 6155.00    0.56176   0.52491   23.793
 6156.00    0.55950   0.52311   22.471
 6157.00    0.55442   0.52142   21.236
 6158.00    0.54265   0.51967   20.434
 6159.00    0.52356   0.51796   20.333
 6160.00    0.50339   0.51637   20.903
 6161.00    0.49127   0.51500   21.883
 6162.00    0.49208   0.51390   22.818
 6163.00    0.50451   0.51315   23.270
 6164.00    0.52022   0.51298   23.369
 6165.00    0.52971   0.51306   23.582
 6166.00    0.53062   0.51346   24.166
 6167.00    0.52623   0.51395   25.056
 6168.00    0.52168   0.51462   25.762
 6169.00    0.52043   0.51545   25.849
 6170.00    0.52077   0.51632   25.717
 6171.00    0.52006   0.51738   25.933
 6172.00    0.52016   0.51856   26.364
 6173.00    0.52447   0.51981   26.632
 6174.00    0.53390   0.52081   26.752
 6175.00    0.54683   0.52178   26.714
 6176.00    0.55961   0.52258   26.014
 6177.00    0.56864   0.52329   24.526
 6178.00    0.57230   0.52377   23.042
 6179.00    0.56949   0.52411   22.126
 6180.00    0.55848   0.52427   21.654
 6181.00    0.54072   0.52413   21.494
 6182.00    0.52365   0.52391   21.885
 6183.00    0.51477   0.52343   22.887
 6184.00    0.51621   0.52287   23.842
 6185.00    0.52386   0.52222   24.135
 6186.00    0.52835   0.52158   24.162
 6187.00    0.52492   0.52093   24.391
 6188.00    0.51961   0.52035   24.583
 6189.00    0.51812   0.52000   24.543
 6190.00    0.51847   0.51964   24.636
 6191.00    0.51727   0.51955   25.167
 6192.00    0.51422   0.51958   25.966
 6193.00    0.51066   0.51983   26.635
 6194.00    0.50817   0.52045   26.809
 6195.00    0.50703   0.52097   26.538
 6196.00    0.50574   0.52152   26.333
 6197.00    0.50331   0.52207   26.370
 6198.00    0.50023   0.52260   26.250
 6199.00    0.49645   0.52307   25.914
 6200.00    0.49074   0.52343   25.928
 6201.00    0.48389   0.52374   26.482
 6202.00    0.47965   0.52401   27.055
 6203.00    0.48157   0.52414   27.261
 6204.00    0.49079   0.52403   27.234
 6205.00    0.50389   0.52363   26.876
 6206.00    0.51346   0.52308   25.779
 6207.00    0.51518   0.52235   24.305
 6208.00    0.51006   0.52148   23.328
 6209.00    0.50100   0.52048   22.934
 6210.00    0.49102   0.51936   22.588
 6211.00    0.48246   0.51821   22.411
 6212.00    0.47648   0.51699   23.176
 6213.00    0.47260   0.51592   24.819
 6214.00    0.47035   0.51487   25.996
 6215.00    0.47524   0.51402   26.173
 6216.00    0.49671   0.51336   26.206
 6217.00    0.53507   0.51290   -2.000
 6218.00    0.57897   0.51252   -2.000
 6219.00    0.61088   0.51226   -2.000
 6220.00    0.61266   0.51193   -2.000
 6221.00    0.57597   0.51168   -2.000
 6222.00    0.50629   0.51146   -2.000
 6223.00    0.42475   0.51118   -2.000
 6224.00    0.36124   0.51104   -2.000
 6225.00    0.33547   0.51068   -2.000
 6226.00    0.35055   0.51049   -2.000
 6227.00    0.38994   0.51020   -2.000
 6228.00    0.42777   0.50992   -2.000
 6229.00    0.45335   0.50956   22.248
 6230.00    0.47053   0.50921   22.123
 6231.00    0.48417   0.50900   22.441
 6232.00    0.49653   0.50868   23.711
 6233.00    0.50629   0.50876   25.564
 6234.00    0.51072   0.50861   26.820
 6235.00    0.51000   0.50841   27.143
 6236.00    0.50626   0.50817   27.248
 6237.00    0.50038   0.50771   27.561
 6238.00    0.49329   0.50726   27.962
 6239.00    0.48898   0.50668   27.872
 6240.00    0.49124   0.50633   26.886
 6241.00    0.49769   0.50587   25.616
 6242.00    0.50350   0.50544   24.816
 6243.00    0.50843   0.50508   24.468
 6244.00    0.51475   0.50447   24.350
 6245.00    0.52274   0.50404   24.706
 6246.00    0.53194   0.50363   25.669
 6247.00    0.54341   0.50327   26.239
 6248.00    0.55589   0.50288   25.361
 6249.00    0.56091   0.50257   23.939
 6250.00    0.55043   0.50219   23.105
 6251.00    0.52655   0.50169   22.725
 6252.00    0.49797   0.50147   22.486
 6253.00    0.47418   0.50107   22.814
 6254.00    0.46174   0.50107   24.137
 6255.00    0.46120   0.50120   25.879
 6256.00    0.46895   0.50155   26.980
 6257.00    0.47981   0.50193   27.360
 6258.00    0.48920   0.50252   27.514
 6259.00    0.49502   0.50340   27.509
 6260.00    0.49819   0.50417   27.262
 6261.00    0.50246   0.50526   26.922
 6262.00    0.51013   0.50615   26.684
 6263.00    0.51851   0.50711   26.619
 6264.00    0.52278   0.50795   26.720
 6265.00    0.51893   0.50873   26.935
 6266.00    0.50638   0.50931   27.093
 6267.00    0.48953   0.50985   26.898
 6268.00    0.47530   0.51041   26.302
 6269.00    0.47042   0.51067   25.692
 6270.00    0.47625   0.51088   25.454
 6271.00    0.48647   0.51096   25.748
 6272.00    0.49475   0.51097   26.387
 6273.00    0.49970   0.51094   26.749
 6274.00    0.50199   0.51091   26.377
 6275.00    0.50208   0.51084   25.469
 6276.00    0.49878   0.51077   24.524
 6277.00    0.48967   0.51070   23.991
 6278.00    0.47843   0.51068   23.985
 6279.00    0.47649   0.51067   24.241
 6280.00    0.48967   0.51081    0.000
 6281.00    0.51253   0.51096    0.000
 6282.00    0.53621   0.51113    0.000
 6283.00    0.55259   0.51142    0.000
 6284.00    0.55394   0.51158    0.000
 6285.00    0.53485   0.51175    0.000
 6286.00    0.50120   0.51181    0.000
 6287.00    0.47020   0.51174    0.000
 6288.00    0.45373   0.51155    0.000
 6289.00    0.45259   0.51115    0.000
 6290.00    0.46271   0.51068    0.000
 6291.00    0.47824   0.51012    0.000
 6292.00    0.49369   0.50942    0.000
 6293.00    0.50641   0.50872    0.000
 6294.00    0.52249   0.50795    0.000
 6295.00    0.55438   0.50731    0.000
 6296.00    0.60666   0.50678    0.000
 6297.00    0.67196   0.50621    0.000
 6298.00    0.73415   0.50586    0.000
 6299.00    0.77381   0.50570    0.000
 6300.00    0.78097   0.50568    0.000
 6301.00    0.75724   0.50576    0.000
 6302.00    0.71087   0.50584    0.000
 6303.00    0.65411   0.50605    0.000
 6304.00    0.60028   0.50630    0.000
 6305.00    0.56032   0.50662    0.000
 6306.00    0.53654   0.50673    0.000
 6307.00    0.52451   0.50667    0.000
 6308.00    0.52111   0.50666    0.000
 6309.00    0.52493   0.50639    0.000
 6310.00    0.53276   0.50594    0.000
 6311.00    0.53999   0.50549    0.000
 6312.00    0.54306   0.50512    0.000
 6313.00    0.53953   0.50471    0.000
 6314.00    0.52736   0.50436    0.000
 6315.00    0.50734   0.50411    0.000
 6316.00    0.48764   0.50402    0.000
 6317.00    0.47910   0.50403    0.000
 6318.00    0.48543   0.50439    0.000
 6319.00    0.50213   0.50464    0.000
 6320.00    0.51800   0.50518    0.000
 6321.00    0.52259   0.50587   27.000
 6322.00    0.51718   0.50641   27.194
 6323.00    0.51017   0.50701   27.435
 6324.00    0.50753   0.50746   27.759
 6325.00    0.51076   0.50802   28.171
 6326.00    0.51620   0.50823   28.435
 6327.00    0.51877   0.50826   28.352
 6328.00    0.51685   0.50818   28.191
 6329.00    0.51189   0.50787   28.284
 6330.00    0.50681   0.50762   28.498
 6331.00    0.50342   0.50709   28.507
 6332.00    0.49991   0.50668   28.210
 6333.00    0.49421   0.50621   27.727
 6334.00    0.48791   0.50564   27.276
 6335.00    0.48394   0.50507   27.058
 6336.00    0.48357   0.50442   27.153
 6337.00    0.48656   0.50408   27.430
 6338.00    0.49170   0.50375   27.454
 6339.00    0.49706   0.50366   26.961
 6340.00    0.50041   0.50353   26.295
 6341.00    0.50127   0.50353   25.912
 6342.00    0.50240   0.50353   25.997
 6343.00    0.50667   0.50346   26.456
 6344.00    0.51421   0.50349   26.882
 6345.00    0.52282   0.50349   26.982
 6346.00    0.52876   0.50358   26.951
 6347.00    0.52918   0.50351   27.026
 6348.00    0.52388   0.50346   27.149
 6349.00    0.51505   0.50324   27.265
 6350.00    0.50654   0.50297   27.522
 6351.00    0.50125   0.50245   27.988
 6352.00    0.49930   0.50184   28.456
 6353.00    0.49854   0.50113   28.713
 6354.00    0.49545   0.50029   28.748
 6355.00    0.48918   0.49947   28.647
 6356.00    0.48352   0.49864   28.505
 6357.00    0.48369   0.49799   28.452
 6358.00    0.49386   0.49741   28.618
 6359.00    0.51354   0.49695   28.782
 6360.00    0.53632   0.49665   28.384
 6361.00    0.55341   0.49666   27.681
 6362.00    0.55699   0.49676   27.727
 6363.00    0.54726   0.49707   28.221
 6364.00    0.53346   0.49762   27.188
 6365.00    0.52300   0.49836   24.828
 6366.00    0.51698   0.49917   23.377
 6367.00    0.51369   0.49996   23.239
 6368.00    0.51042   0.50086   23.290
 6369.00    0.50425   0.50157   23.219
 6370.00    0.49305   0.50225   23.939
 6371.00    0.47806   0.50280   25.654
 6372.00    0.46399   0.50332   27.167
 6373.00    0.45563   0.50377   27.580
 6374.00    0.45590   0.50409   27.417
 6375.00    0.46360   0.50429   27.311
 6376.00    0.47451   0.50431   27.423
 6377.00    0.48733   0.50429   27.579
 6378.00    0.50340   0.50414   27.479
 6379.00    0.51975   0.50398   27.184
 6380.00    0.52972   0.50380   27.015
 6381.00    0.53090   0.50369   26.860
 6382.00    0.52641   0.50347   26.289
 6383.00    0.52173   0.50323   25.322
 6384.00    0.52150   0.50296   24.389
 6385.00    0.52365   0.50248   23.845
 6386.00    0.52209   0.50210   23.831
 6387.00    0.51658   0.50162   24.101
 6388.00    0.51187   0.50126   24.201
 6389.00    0.50990   0.50086   24.094
 6390.00    0.50901   0.50042   24.080
 6391.00    0.50643   0.49995   24.265
 6392.00    0.50033   0.49925   24.577
 6393.00    0.49301   0.49882   25.020
 6394.00    0.48882   0.49833   25.620
 6395.00    0.48919   0.49819   26.189
 6396.00    0.49256   0.49826   26.433
 6397.00    0.49618   0.49819   26.350
 6398.00    0.49744   0.49815   26.232
 6399.00    0.49554   0.49792   26.474
 6400.00    0.49162   0.49789   27.270
 6401.00    0.48853   0.49779   28.107
 6402.00    0.48833   0.49795   28.269
 6403.00    0.48880   0.49826   28.113
 6404.00    0.48655   0.49827   28.419
 6405.00    0.48228   0.49816   29.139
 6406.00    0.47880   0.49794   29.700
 6407.00    0.47728   0.49776   29.762
 6408.00    0.47773   0.49757   29.391
 6409.00    0.48034   0.49745   28.982
 6410.00    0.48574   0.49742   28.865
 6411.00    0.49489   0.49734   28.929
 6412.00    0.50685   0.49710   28.805
 6413.00    0.51656   0.49689   28.129
 6414.00    0.52015   0.49690   26.793
 6415.00    0.52070   0.49690   25.075
 6416.00    0.52209   0.49697   23.433
 6417.00    0.52235   0.49720   22.288
 6418.00    0.51820   0.49737   21.808
 6419.00    0.51021   0.49750   21.849
 6420.00    0.50141   0.49768   22.276
 6421.00    0.49537   0.49794   23.165
 6422.00    0.49351   0.49819   24.444
 6423.00    0.49327   0.49840   25.444
 6424.00    0.49109   0.49862   25.643
 6425.00    0.48523   0.49860   25.613
 6426.00    0.47661   0.49860   26.064
 6427.00    0.46885   0.49858   27.047
 6428.00    0.46509   0.49853   28.175
 6429.00    0.46561   0.49839   28.819
 6430.00    0.46840   0.49811   28.771
 6431.00    0.47011   0.49791   28.665
 6432.00    0.46942   0.49765   28.854
 6433.00    0.46867   0.49760   28.843
 6434.00    0.46991   0.49777   28.476
 6435.00    0.47268   0.49793   28.470
 6436.00    0.47623   0.49804   28.978
 6437.00    0.48078   0.49804   29.000
 6438.00    0.48630   0.49808   28.158
 6439.00    0.49197   0.49818   27.411
 6440.00    0.49676   0.49825   27.088
 6441.00    0.49986   0.49837   26.478
 6442.00    0.50084   0.49835   25.618
 6443.00    0.49975   0.49796   25.550
 6444.00    0.49675   0.49746   26.468
 6445.00    0.49201   0.49711   27.254
 6446.00    0.48548   0.49666   27.272
 6447.00    0.47754   0.49615   27.183
 6448.00    0.47188   0.49546   27.080
 6449.00    0.47419   0.49470   26.151
 6450.00    0.48211   0.49400   24.627
 6451.00    0.48496   0.49349   23.654
 6452.00    0.47814   0.49343   23.557
 6453.00    0.46641   0.49335   23.935
 6454.00    0.45567   0.49305   24.638
 6455.00    0.44980   0.49275   25.912
 6456.00    0.45046   0.49237   27.628
 6457.00    0.45709   0.49219   28.946
 6458.00    0.46683   0.49244   29.163
 6459.00    0.47546   0.49265   28.367
 6460.00    0.48005   0.49283   27.196
 6461.00    0.47996   0.49269   26.311
 6462.00    0.47699   0.49261   25.930
 6463.00    0.47442   0.49253   25.929
 6464.00    0.47423   0.49254   26.037
 6465.00    0.47670   0.49293   26.043
 6466.00    0.48142   0.49306   26.241
 6467.00    0.48743   0.49322   26.985
 6468.00    0.49288   0.49312   27.265
 6469.00    0.49539   0.49300   25.619
 6470.00    0.49296   0.49286   23.276
 6471.00    0.48542   0.49277   22.056
 6472.00    0.47708   0.49275   21.945
 6473.00    0.47434   0.49248   22.221
 6474.00    0.48000   0.49227   22.816
 6475.00    0.49200   0.49183   24.093
 6476.00    0.50359   0.49133   25.795
 6477.00    0.50771   0.49086   26.855
 6478.00    0.50459   0.49047   26.292
 6479.00    0.49892   0.49002   24.308
 6480.00    0.49280   0.48933   22.324
 6481.00    0.48614   0.48854   21.369
 6482.00    0.47931   0.48764   21.449
 6483.00    0.47308   0.48662   22.236
 6484.00    0.46786   0.48555   23.496
 6485.00    0.46446   0.48440   24.935
 6486.00    0.46516   0.48299   25.951
 6487.00    0.47038   0.48142   26.072
 6488.00    0.47438   0.47949   25.769
 6489.00    0.47112   0.47773   25.793
 6490.00    0.46208   0.47608   26.283
 6491.00    0.45342   0.47449   26.800
 6492.00    0.45094   0.47334   26.485
 6493.00    0.45725   0.47207   25.050
 6494.00    0.46926   0.47140   23.521
 6495.00    0.48180   0.47098   22.736
 6496.00    0.49164   0.47105   22.624
 6497.00    0.49794   0.47187   22.947
 6498.00    0.50197   0.47271   23.815
 6499.00    0.50525   0.47415   25.274
 6500.00    0.50776   0.47550   26.712
 6501.00    0.50826   0.47699   27.430
 6502.00    0.50509   0.47859   27.685
 6503.00    0.49950   0.47996   28.029
 6504.00    0.49761   0.48141   28.467
 6505.00    0.50296   0.48248   28.776
 6506.00    0.51090   0.48336   28.883
 6507.00    0.51489   0.48400   28.839
 6508.00    0.51183   0.48432   28.755
 6509.00    0.50323   0.48442   28.664
 6510.00    0.49497   0.48430   28.450
 6511.00    0.49173   0.48414   27.973
 6512.00    0.49330   0.48386   27.205
 6513.00    0.49634   0.48347   26.421
 6514.00    0.49646   0.48313   26.137
 6515.00    0.49340   0.48277   26.401
 6516.00    0.49263   0.48242   26.570
 6517.00    0.49633   0.48211   26.312
 6518.00    0.49940   0.48191   26.089
 6519.00    0.49753   0.48184   26.037
 6520.00    0.49119   0.48168   25.616
 6521.00    0.48240   0.48159   24.821
 6522.00    0.47283   0.48158   24.438
 6523.00    0.46363   0.48154   24.884
 6524.00    0.45571   0.48149   25.914
 6525.00    0.45117   0.48133   27.027
 6526.00    0.45303   0.48117   27.708
 6527.00    0.46087   0.48097   27.956
 6528.00    0.47002   0.48076    0.000
 6529.00    0.47615   0.48065    0.000
 6530.00    0.47737   0.48046    0.000
 6531.00    0.47472   0.48014    0.000
 6532.00    0.47158   0.47974    0.000
 6533.00    0.47092   0.47928    0.000
 6534.00    0.47370   0.47884    0.000
 6535.00    0.47725   0.47829    0.000
 6536.00    0.47708   0.47760    0.000
 6537.00    0.47437   0.47675    0.000
 6538.00    0.47546   0.47569    0.000
 6539.00    0.48247   0.47446    0.000
 6540.00    0.49274   0.47297    0.000
 6541.00    0.50611   0.47144    0.000
 6542.00    0.52603   0.46973    0.000
 6543.00    0.55656   0.46773    0.000
 6544.00    0.59967   0.46550    0.000
 6545.00    0.65081   0.46295    0.000
 6546.00    0.69867   0.46024    0.000
 6547.00    0.72757   0.45716    0.000
 6548.00    0.72331   0.45377    0.000
 6549.00    0.68489   0.44989    0.000
 6550.00    0.62492   0.44556    0.000
 6551.00    0.56424   0.44096    0.000
 6552.00    0.52361   0.43592    0.000
 6553.00    0.51011   0.43069    0.000
 6554.00    0.53991   0.42518    0.000
 6555.00    0.68734   0.41940    0.000
 6556.00    1.07635   0.41310    0.000
 6557.00    1.84263   0.40736    0.000
 6558.00    3.03479   0.40343    0.000
 6559.00    4.45928   0.40026    0.000
 6560.00    5.75074   0.39767    0.000
 6561.00    6.53824   0.39578    0.000
 6562.00    6.56450   0.39498    0.000
 6563.00    5.82610   0.39564    0.000
 6564.00    4.55264   0.39769    0.000
 6565.00    3.13387   0.40162    0.000
 6566.00    1.95172   0.40616    0.000
 6567.00    1.16392   0.41061    0.000
 6568.00    0.74125   0.41519    0.000
 6569.00    0.56158   0.42001    0.000
 6570.00    0.48930   0.42540    0.000
 6571.00    0.45778   0.43062    0.000
 6572.00    0.44780   0.43538    0.000
 6573.00    0.44969   0.43958    0.000
 6574.00    0.45952   0.44324    0.000
 6575.00    0.47957   0.44649    0.000
 6576.00    0.51966   0.44950    0.000
 6577.00    0.59730   0.45241    0.000
 6578.00    0.72439   0.45476    0.000
 6579.00    0.89360   0.45675    0.000
 6580.00    1.07563   0.45824    0.000
 6581.00    1.22043   0.45963    0.000
 6582.00    1.28279   0.46090    0.000
 6583.00    1.24556   0.46190    0.000
 6584.00    1.12217   0.46285    0.000
 6585.00    0.95423   0.46334    0.000
 6586.00    0.78703   0.46364    0.000
 6587.00    0.64964   0.46362    0.000
 6588.00    0.55415   0.46387    0.000
 6589.00    0.49724   0.46434    0.000
 6590.00    0.46824   0.46450    0.000
 6591.00    0.45566   0.46461    0.000
 6592.00    0.45179   0.46449    0.000
 6593.00    0.45483   0.46461    0.000
 6594.00    0.46425   0.46489    0.000
 6595.00    0.47751   0.46535    0.000
 6596.00    0.48989   0.46591    0.000
 6597.00    0.49554   0.46626    0.000
 6598.00    0.49358   0.46650    0.000
 6599.00    0.48989   0.46674    0.000
 6600.00    0.48799   0.46720    0.000
 6601.00    0.48531   0.46766    0.000
 6602.00    0.48003   0.46798    0.000
 6603.00    0.47390   0.46803    0.000
 6604.00    0.46798   0.46825    0.000
 6605.00    0.46109   0.46853    0.000
 6606.00    0.45319   0.46876    0.000
 6607.00    0.44647   0.46904    0.000
 6608.00    0.44355   0.46919    0.000
 6609.00    0.44608   0.46961   28.006
 6610.00    0.45237   0.46991   28.514
 6611.00    0.45774   0.47031   28.338
 6612.00    0.45892   0.47078   27.462
 6613.00    0.45594   0.47108   26.834
 6614.00    0.45203   0.47142   26.789
 6615.00    0.45189   0.47161   26.951
 6616.00    0.45619   0.47186   27.092
 6617.00    0.46141   0.47199   27.278
 6618.00    0.46550   0.47185   27.394
 6619.00    0.46926   0.47164   27.173
 6620.00    0.47467   0.47143   26.774
 6621.00    0.48263   0.47112   26.668
 6622.00    0.48840   0.47070   26.937
 6623.00    0.48448   0.47014   27.276
 6624.00    0.47195   0.46955   27.453
 6625.00    0.45926   0.46902   27.433
 6626.00    0.45134   0.46841   27.293
 6627.00    0.44784   0.46783   27.167
 6628.00    0.44596   0.46724   27.176
 6629.00    0.44300   0.46678   27.370
 6630.00    0.44043   0.46643   27.610
 6631.00    0.44131   0.46610   27.663
 6632.00    0.44309   0.46582   27.499
 6633.00    0.44057   0.46555   27.327
 6634.00    0.43482   0.46537   27.517
 6635.00    0.43182   0.46538   28.230
 6636.00    0.43611   0.46550   28.672
 6637.00    0.44809   0.46545   27.913
 6638.00    0.46159   0.46550   26.875
 6639.00    0.46907   0.46555   26.906
 6640.00    0.47103   0.46566   27.738
 6641.00    0.47287   0.46582   28.205
 6642.00    0.47707   0.46591   27.925
 6643.00    0.48276   0.46607   27.357
 6644.00    0.48690   0.46606   27.041
 6645.00    0.48619   0.46610   27.227
 6646.00    0.47950   0.46621   27.601
 6647.00    0.46789   0.46630   27.727
 6648.00    0.45424   0.46632   27.764
 6649.00    0.44285   0.46619   28.051
 6650.00    0.43880   0.46606   28.430
 6651.00    0.44466   0.46597   28.481
 6652.00    0.45670   0.46576   28.022
 6653.00    0.46872   0.46546   27.276
 6654.00    0.47679   0.46516   26.837
 6655.00    0.47904   0.46476   27.056
 6656.00    0.47498   0.46436   27.566
 6657.00    0.46628   0.46377   27.762
 6658.00    0.45745   0.46332   27.464
 6659.00    0.45250   0.46299   26.964
 6660.00    0.45174   0.46253   26.819
 6661.00    0.45331   0.46219   27.297
 6662.00    0.45516   0.46175   27.956
 6663.00    0.45660   0.46150   28.175
 6664.00    0.45925   0.46133   27.827
 6665.00    0.46316   0.46115   27.288
 6666.00    0.46440   0.46102   27.181
 6667.00    0.46108   0.46076   27.667
 6668.00    0.45761   0.46056   28.058
 6669.00    0.45856   0.46040   27.922
 6670.00    0.46429   0.46020   27.904
 6671.00    0.47456   0.45977   28.333
 6672.00    0.49076   0.45927   28.401
 6673.00    0.51175   0.45880   27.653
 6674.00    0.53165   0.45861   26.862
 6675.00    0.54358   0.45837   26.622
 6676.00    0.54285   0.45806   26.787
 6677.00    0.53096   0.45789   27.051
 6678.00    0.51618   0.45764   27.248
 6679.00    0.50372   0.45777   27.379
 6680.00    0.49148   0.45806   27.567
 6681.00    0.47763   0.45852   27.776
 6682.00    0.46427   0.45893   27.753
 6683.00    0.45491   0.45912   27.537
 6684.00    0.45260   0.45947   27.557
 6685.00    0.45722   0.45988   27.892
 6686.00    0.46525   0.46032   28.084
 6687.00    0.47369   0.46060   27.933
 6688.00    0.48142   0.46066   27.753
 6689.00    0.48731   0.46072   27.724
 6690.00    0.48985   0.46064   27.711
 6691.00    0.48922   0.46054   27.566
 6692.00    0.48746   0.46040   27.284
 6693.00    0.48561   0.46014   27.094
 6694.00    0.48293   0.45998   27.326
 6695.00    0.47795   0.45974   27.922
 6696.00    0.47010   0.45950    0.000
 6697.00    0.46397   0.45923    0.000
 6698.00    0.46670   0.45893    0.000
 6699.00    0.47588   0.45882    0.000
 6700.00    0.48085   0.45865    0.000
 6701.00    0.47817   0.45848    0.000
 6702.00    0.47319   0.45821    0.000
 6703.00    0.47151   0.45795    0.000
 6704.00    0.47593   0.45765    0.000
 6705.00    0.48524   0.45734    0.000
 6706.00    0.49521   0.45696    0.000
 6707.00    0.50195   0.45655    0.000
 6708.00    0.50874   0.45617    0.000
 6709.00    0.53962   0.45558    0.000
 6710.00    0.63085   0.45506    0.000
 6711.00    0.80474   0.45441    0.000
 6712.00    1.05399   0.45391    0.000
 6713.00    1.32292   0.45362    0.000
 6714.00    1.52956   0.45316    0.000
 6715.00    1.61711   0.45291    0.000
 6716.00    1.56571   0.45259    0.000
 6717.00    1.39432   0.45248    0.000
 6718.00    1.15281   0.45258    0.000
 6719.00    0.90655   0.45266    0.000
 6720.00    0.71326   0.45296    0.000
 6721.00    0.58994   0.45322    0.000
 6722.00    0.52584   0.45347    0.000
 6723.00    0.51193   0.45376    0.000
 6724.00    0.54735   0.45411    0.000
 6725.00    0.64110   0.45455    0.000
 6726.00    0.79498   0.45483    0.000
 6727.00    0.98001   0.45492    0.000
 6728.00    1.14771   0.45501    0.000
 6729.00    1.25056   0.45517    0.000
 6730.00    1.25713   0.45528    0.000
 6731.00    1.16735   0.45519    0.000
 6732.00    1.00871   0.45494    0.000
 6733.00    0.82784   0.45472    0.000
 6734.00    0.67133   0.45449    0.000
 6735.00    0.56497   0.45426    0.000
 6736.00    0.51154   0.45395    0.000
 6737.00    0.49247   0.45355    0.000
 6738.00    0.48458   0.45315    0.000
 6739.00    0.47679   0.45271    0.000
 6740.00    0.46703   0.45240    0.000
 6741.00    0.45753   0.45210    0.000
 6742.00    0.45140   0.45177    0.000
 6743.00    0.44997   0.45148    0.000
 6744.00    0.45351   0.45110    0.000
 6745.00    0.46182   0.45095    0.000
 6746.00    0.47306   0.45086    0.000
 6747.00    0.48285   0.45077    0.000
 6748.00    0.48624   0.45079    0.000
 6749.00    0.47961   0.45073    0.000
 6750.00    0.46452   0.45089    0.000
 6751.00    0.44916   0.45108    0.000
 6752.00    0.43973   0.45130    0.000
 6753.00    0.43519   0.45164   23.609
 6754.00    0.43223   0.45185   24.749
 6755.00    0.42896   0.45214   25.174
 6756.00    0.42627   0.45233   24.882
 6757.00    0.42762   0.45255   24.563
 6758.00    0.43397   0.45276   24.665
 6759.00    0.44167   0.45283   25.042
 6760.00    0.44741   0.45286   25.471
 6761.00    0.45043   0.45273   25.907
 6762.00    0.44948   0.45261   26.355
 6763.00    0.44244   0.45248   26.773
 6764.00    0.43272   0.45235   27.053
 6765.00    0.42961   0.45222   27.060
 6766.00    0.43510   0.45201   26.869
 6767.00    0.44088   0.45185   26.780
 6768.00    0.44179   0.45177   26.998
 6769.00    0.44058   0.45178   27.494
 6770.00    0.44193   0.45188   27.958
 6771.00    0.44884   0.45190   27.922
 6772.00    0.45851   0.45186   27.503
 6773.00    0.46345   0.45188   27.244
 6774.00    0.46090   0.45192   26.646
 6775.00    0.45508   0.45198   24.552
 6776.00    0.45211   0.45190   21.535
 6777.00    0.45638   0.45168   18.997
 6778.00    0.46453   0.45141   17.423
 6779.00    0.46816   0.45117   16.768
 6780.00    0.46787   0.45091   16.860
 6781.00    0.47251   0.45060   17.488
 6782.00    0.48452   0.45026   18.453
 6783.00    0.49795   0.44989   19.463
 6784.00    0.50536   0.44963   19.915
 6785.00    0.50166   0.44938   19.362
 6786.00    0.48874   0.44925   18.652
 6787.00    0.47440   0.44910   19.011
 6788.00    0.46664   0.44897   20.394
 6789.00    0.47013   0.44896   21.611
 6790.00    0.48154   0.44887   22.075
 6791.00    0.49225   0.44895   22.298
 6792.00    0.49654   0.44894   22.538
 6793.00    0.49296   0.44894   22.666
 6794.00    0.48333   0.44902   22.784
 6795.00    0.47204   0.44894   23.125
 6796.00    0.46476   0.44905   23.603
 6797.00    0.46477   0.44904   23.972
 6798.00    0.46703   0.44900   24.358
 6799.00    0.46414   0.44902   24.895
 6800.00    0.45841   0.44891   24.804
 6801.00    0.45627   0.44892   23.395
 6802.00    0.45606   0.44893   21.741
 6803.00    0.45310   0.44878   20.980
 6804.00    0.45020   0.44873   20.939
 6805.00    0.45285   0.44863   21.052
 6806.00    0.46006   0.44855   21.311
 6807.00    0.46683   0.44861   21.952
 6808.00    0.46942   0.44848   22.805
 6809.00    0.46598   0.44839   23.495
 6810.00    0.45658   0.44840   23.977
 6811.00    0.44582   0.44833   24.276
 6812.00    0.44522   0.44844   23.990
 6813.00    0.46056   0.44849   22.994
 6814.00    0.47801   0.44843   22.083
 6815.00    0.48173   0.44852   21.907
 6816.00    0.47399   0.44851   22.296
 6817.00    0.46376   0.44860   22.859
 6818.00    0.45305   0.44877   23.567
 6819.00    0.44354   0.44870   24.489
 6820.00    0.44338   0.44875   25.386
 6821.00    0.45580   0.44870   25.769
 6822.00    0.46934   0.44864   25.197
 6823.00    0.47286   0.44871   23.851
 6824.00    0.46876   0.44854   22.556
 6825.00    0.46505   0.44843   21.741
 6826.00    0.46740   0.44829   21.143
 6827.00    0.47698   0.44803   20.639
 6828.00    0.48943   0.44785   20.634
 6829.00    0.49688   0.44752   21.470
 6830.00    0.49091   0.44720   23.056
 6831.00    0.47262   0.44691   24.867
 6832.00    0.45675   0.44645   25.858
 6833.00    0.45127   0.44600   25.257
 6834.00    0.44676   0.44553   23.503
 6835.00    0.43845   0.44504   21.599
 6836.00    0.43754   0.44466   20.284
 6837.00    0.45077   0.44421   19.661
 6838.00    0.46988   0.44378   19.408
 6839.00    0.48423   0.44352   19.522
 6840.00    0.48860   0.44325   20.521
 6841.00    0.48347   0.44313   22.543
 6842.00    0.47423   0.44304   24.522
 6843.00    0.46678   0.44294   25.323
 6844.00    0.46487   0.44301   25.349
 6845.00    0.46825   0.44304   25.417
 6846.00    0.47280   0.44306   25.827
 6847.00    0.47502   0.44310   26.348
 6848.00    0.47413   0.44302   26.326
 6849.00    0.47179   0.44294   25.437
 6850.00    0.47079   0.44283   24.021
 6851.00    0.47002   0.44257   22.646
 6852.00    0.46477   0.44238   21.749
 6853.00    0.45517   0.44219   21.386
 6854.00    0.44719   0.44189   21.367
 6855.00    0.44460   0.44169   21.622
 6856.00    0.44663   0.44136   22.238
 6857.00    0.45037   0.44114   23.158
 6858.00    0.45306   0.44110   23.992
 6859.00    0.45664   0.44095   23.887
 6860.00    0.46607   0.44093   22.220
 6861.00    0.48008   0.44082   19.946
 6862.00    0.49125   0.44067   18.372
 6863.00    0.49429   0.44073   17.837
 6864.00    0.48845   0.44072   18.239
 6865.00    0.47743   0.44080   19.401
 6866.00    0.46823   0.44078   21.014
 6867.00    0.46807   0.44065   22.650
 6868.00    0.47947   0.44066   23.859
 6869.00    0.49081   0.44067   24.516
 6870.00    0.48606   0.44076   24.857
 6871.00    0.47124   0.44077   24.981
 6872.00    0.46539   0.44070   24.846
 6873.00    0.46922   0.44068   24.626
 6874.00    0.46984   0.44073   24.585
 6875.00    0.46351   0.44082   24.727
 6876.00    0.45564   0.44083   24.897
 6877.00    0.45181   0.44081   25.068
 6878.00    0.45480   0.44081   25.268
 6879.00    0.46253   0.44095   25.326
 6880.00    0.46938   0.44105   25.010
 6881.00    0.46927   0.44114   24.367
 6882.00    0.45963   0.44126   23.677
 6883.00    0.44661   0.44137   23.292
 6884.00    0.43933   0.44168   23.432
 6885.00    0.44009   0.44192   23.964
 6886.00    0.44602   0.44214   24.476
 6887.00    0.45366   0.44243   24.472
 6888.00    0.46046   0.44264   23.687
 6889.00    0.46588   0.44297   22.393
 6890.00    0.46974   0.44325   21.086
 6891.00    0.47014   0.44340   20.130
 6892.00    0.46585   0.44366   19.731
 6893.00    0.45937   0.44386   19.992
 6894.00    0.45409   0.44401   20.931
 6895.00    0.45082   0.44420   22.370
 6896.00    0.44980   0.44425   23.875
 6897.00    0.45302   0.44442   24.810
 6898.00    0.46088   0.44459   24.925
 6899.00    0.46904   0.44464   24.941
 6900.00    0.47303   0.44469   25.430
 6901.00    0.47270   0.44469   25.815
 6902.00    0.46840   0.44473   25.558
 6903.00    0.45755   0.44474   25.358
 6904.00    0.43942   0.44465   25.770
 6905.00    0.41919   0.44442   26.126
 6906.00    0.40413   0.44426   25.853
 6907.00    0.39985   0.44407   25.609
 6908.00    0.40728   0.44374   25.890
 6909.00    0.42117   0.44348   26.106
 6910.00    0.43468   0.44302   25.736
 6911.00    0.44317   0.44268   25.191
 6912.00    0.44517   0.44245   24.881
 6913.00    0.44278   0.44199   24.687
 6914.00    0.44053   0.44177   24.412
 6915.00    0.44368   0.44141   24.055
 6916.00    0.45234   0.44115   23.707
 6917.00    0.45939   0.44110   23.490
 6918.00    0.45923   0.44083   23.567
 6919.00    0.45222   0.44073   24.099
 6920.00    0.44003   0.44056   24.824
 6921.00    0.42362   0.44046   24.887
 6922.00    0.40680   0.44049   24.091
 6923.00    0.39676   0.44040   23.302
 6924.00    0.39695   0.44036   23.034
 6925.00    0.40425   0.44027   23.138
 6926.00    0.41310   0.44030   23.440
 6927.00    0.41854   0.44033   23.944
 6928.00    0.42072   0.44033   24.608
 6929.00    0.42475   0.44031   25.230
 6930.00    0.43194   0.44027   25.501
 6931.00    0.43790   0.44035   25.170
 6932.00    0.43964   0.44033   24.447
 6933.00    0.43792   0.44030   23.900
 6934.00    0.43462   0.44020   23.918
 6935.00    0.43122   0.44013   24.613
 6936.00    0.42671   0.44005   25.714
 6937.00    0.41901   0.43991   26.557
 6938.00    0.41174   0.43976   26.809
 6939.00    0.41310   0.43949   26.698
 6940.00    0.42541   0.43934   26.273
 6941.00    0.44342   0.43907   25.460
 6942.00    0.45926   0.43886   24.857
 6943.00    0.46637   0.43874   25.250
 6944.00    0.46577   0.43845   26.166
 6945.00    0.46370   0.43835   26.134
 6946.00    0.46081   0.43819   25.297
 6947.00    0.45365   0.43807   25.048
 6948.00    0.44516   0.43816   25.485
 6949.00    0.44246   0.43810   25.693
 6950.00    0.44575   0.43817   25.418
 6951.00    0.44903   0.43827   25.133
 6952.00    0.44750   0.43836   25.052
 6953.00    0.44059   0.43864   25.070
 6954.00    0.43438   0.43880   25.007
 6955.00    0.43583   0.43902   24.733
 6956.00    0.44073   0.43926   24.317
 6957.00    0.43978   0.43943   23.893
 6958.00    0.43395   0.43977   23.430
 6959.00    0.42964   0.43995   22.851
 6960.00    0.42539   0.44013   22.267
 6961.00    0.41679   0.44027   21.873
 6962.00    0.40810   0.44027   21.799
 6963.00    0.40691   0.44041   22.085
 6964.00    0.41304   0.44039   22.653
 6965.00    0.42217   0.44021   23.284
 6966.00    0.43347   0.44004   23.614
 6967.00    0.44630   0.43970   23.476
 6968.00    0.45432   0.43941   23.360
 6969.00    0.45084   0.43902   23.759
 6970.00    0.43693   0.43842   24.356
 6971.00    0.41931   0.43799   24.585
 6972.00    0.40630   0.43749   24.624
 6973.00    0.40339   0.43700   24.830
 6974.00    0.40889   0.43657   24.884
 6975.00    0.41770   0.43609   24.491
 6976.00    0.42596   0.43597   24.206
 6977.00    0.43107   0.43590   24.503
 6978.00    0.43118   0.43582   24.903
 6979.00    0.42688   0.43594   24.813
 6980.00    0.42251   0.43605   24.523
 6981.00    0.42178   0.43646   24.479
 6982.00    0.42382   0.43691   24.575
 6983.00    0.42605   0.43721   24.571
 6984.00    0.42723   0.43764   24.483
 6985.00    0.42953   0.43791   24.284
 6986.00    0.43873   0.43828   23.717
 6987.00    0.45368   0.43865   22.917
 6988.00    0.46013   0.43879   22.629
 6989.00    0.44935   0.43893   23.129
 6990.00    0.43059   0.43883   23.677
 6991.00    0.41488   0.43877   23.674
 6992.00    0.40366   0.43878   23.637
 6993.00    0.39647   0.43855   24.008
 6994.00    0.39584   0.43832   24.414
 6995.00    0.40176   0.43787   24.446
 6996.00    0.40871   0.43748   24.242
 6997.00    0.41093   0.43726   24.104
 6998.00    0.40616   0.43686   24.203
 6999.00    0.39794   0.43649   24.443
 7000.00    0.39516   0.43604   24.443
 7001.00    0.40291   0.43567   -2.000
 7002.00    0.41801   0.43542   -2.000
 7003.00    0.43189   0.43509   -2.000
 7004.00    0.43462   0.43488   -2.000
 7005.00    0.42640   0.43465   -2.000
 7006.00    0.41892   0.43442   -2.000
 7007.00    0.41595   0.43414   -2.000
 7008.00    0.40855   0.43389   -2.000
 7009.00    0.39345   0.43386   -2.000
 7010.00    0.37864   0.43369   -2.000
 7011.00    0.37247   0.43348   -2.000
 7012.00    0.37809   0.43321   -2.000
 7013.00    0.39029   0.43302   -2.000
 7014.00    0.39800   0.43309   -2.000
 7015.00    0.39755   0.43292   -2.000
 7016.00    0.39503   0.43280   -2.000
 7017.00    0.39749   0.43280   -2.000
 7018.00    0.40817   0.43275   -2.000
 7019.00    0.42173   0.43289   -2.000
 7020.00    0.42727   0.43285   -2.000
 7021.00    0.42189   0.43291   -2.000
 7022.00    0.41210   0.43319   -2.000
 7023.00    0.40558   0.43326   -2.000
 7024.00    0.40703   0.43339   -2.000
 7025.00    0.41388   0.43354   -2.000
 7026.00    0.41873   0.43371   -2.000
 7027.00    0.41844   0.43409   -2.000
 7028.00    0.41545   0.43427   -2.000
 7029.00    0.41527   0.43433   -2.000
 7030.00    0.42270   0.43463   -2.000
 7031.00    0.43525   0.43496   -2.000
 7032.00    0.44492   0.43535   -2.000
 7033.00    0.44543   0.43573   -2.000
 7034.00    0.43527   0.43587   -2.000
 7035.00    0.42051   0.43630   -2.000
 7036.00    0.40996   0.43687   -2.000
 7037.00    0.40530   0.43730   -2.000
 7038.00    0.40397   0.43779   -2.000
 7039.00    0.40775   0.43813   -2.000
 7040.00    0.41880   0.43853   -2.000
 7041.00    0.43050   0.43894   -2.000
 7042.00    0.43316   0.43914   -2.000
 7043.00    0.42579   0.43922   -2.000
 7044.00    0.41641   0.43916   -2.000
 7045.00    0.41909   0.43900   -2.000
 7046.00    0.44068   0.43862   -2.000
 7047.00    0.46366   0.43816   -2.000
 7048.00    0.46700   0.43748   -2.000
 7049.00    0.45680   0.43661   -2.000
 7050.00    0.44902   0.43578   -2.000
 7051.00    0.44256   0.43473   -2.000
 7052.00    0.43091   0.43377   -2.000
 7053.00    0.41970   0.43282   -2.000
 7054.00    0.41765   0.43169   -2.000
 7055.00    0.42399   0.43082   -2.000
 7056.00    0.43226   0.42990   -2.000
 7057.00    0.43631   0.42908   -2.000
 7058.00    0.43366   0.42846   -2.000
 7059.00    0.42810   0.42766   -2.000
 7060.00    0.42708   0.42722   -2.000
 7061.00    0.43779   0.42693   -2.000
 7062.00    0.45756   0.42652   -2.000
 7063.00    0.46789   0.42632   -2.000
 7064.00    0.46045   0.42604   -2.000
 7065.00    0.45638   0.42597   -2.000
 7066.00    0.46853   0.42616   -2.000
 7067.00    0.47359   0.42609   -2.000
 7068.00    0.45275   0.42611   -2.000
 7069.00    0.42173   0.42623   -2.000
 7070.00    0.40121   0.42625   -2.000
 7071.00    0.39446   0.42639   -2.000
 7072.00    0.39774   0.42633   -2.000
 7073.00    0.40832   0.42615   -2.000
 7074.00    0.42238   0.42603   -2.000
 7075.00    0.43393   0.42556   -2.000
 7076.00    0.43919   0.42502   -2.000
 7077.00    0.43930   0.42453   -2.000
 7078.00    0.43946   0.42366   -2.000
 7079.00    0.44640   0.42276   -2.000
 7080.00    0.45745   0.42168   -2.000
 7081.00    0.45805   0.42037   -2.000
 7082.00    0.44110   0.41944   -2.000
 7083.00    0.41641   0.41820   -2.000
 7084.00    0.40499   0.41683   -2.000
 7085.00    0.42543   0.41587   -2.000
 7086.00    0.44638   0.41461   -2.000
 7087.00    0.39578   0.41378   -2.000
 7088.00    0.30014   0.41308   -2.000
 7089.00    0.29393   0.41208   -2.000
 7090.00    0.39598   0.41195   -2.000
 7091.00    0.47138   0.41154   -2.000
 7092.00    0.46146   0.41125   -2.000
 7093.00    0.43649   0.41144   -2.000
 7094.00    0.44007   0.41121   -2.000
 7095.00    0.44899   0.41178   -2.000
 7096.00    0.44611   0.41214   -2.000
 7097.00    0.43878   0.41226   -2.000
 7098.00    0.43027   0.41285   -2.000
 7099.00    0.41481   0.41305   -2.000
 7100.00    0.39331   0.41364   -2.000
 7101.00    0.37474   0.41411   -2.000
 7102.00    0.36533   0.41414   -2.000
 7103.00    0.36667   0.41452   -2.000
 7104.00    0.38006   0.41472   -2.000
 7105.00    0.40467   0.41494   -2.000
 7106.00    0.42978   0.41508   -2.000
 7107.00    0.44009   0.41496   -2.000
 7108.00    0.43379   0.41507   -2.000
 7109.00    0.42141   0.41519   -2.000
 7110.00    0.41206   0.41519   -2.000
 7111.00    0.40967   0.41517   -2.000
 7112.00    0.41211   0.41514   -2.000
 7113.00    0.41426   0.41513   -2.000
 7114.00    0.41466   0.41520   -2.000
 7115.00    0.41468   0.41520   -2.000
 7116.00    0.41415   0.41509   -2.000
 7117.00    0.41261   0.41503   -2.000
 7118.00    0.41302   0.41484   -2.000
 7119.00    0.41802   0.41476   -2.000
 7120.00    0.42219   0.41476   -2.000
 7121.00    0.41760   0.41438   -2.000
 7122.00    0.40509   0.41406   -2.000
 7123.00    0.39229   0.41391   -2.000
 7124.00    0.38716   0.41373   -2.000
 7125.00    0.39272   0.41366   -2.000
 7126.00    0.40111   0.41332   -2.000
 7127.00    0.40252   0.41300   -2.000
 7128.00    0.39875   0.41321   -2.000
 7129.00    0.39915   0.41320   -2.000
 7130.00    0.41248   0.41315   -2.000
 7131.00    0.44116   0.41325   -2.000
 7132.00    0.47604   0.41330   -2.000
 7133.00    0.50520   0.41367   -2.000
 7134.00    0.52466   0.41384   -2.000
 7135.00    0.53107   0.41380   -2.000
 7136.00    0.51348   0.41403   -2.000
 7137.00    0.47088   0.41429   -2.000
 7138.00    0.42934   0.41439   -2.000
 7139.00    0.41287   0.41429   -2.000
 7140.00    0.41420   0.41431   -2.000
 7141.00    0.41827   0.41433   -2.000
 7142.00    0.42607   0.41440   -2.000
 7143.00    0.44093   0.41438   -2.000
 7144.00    0.45495   0.41404   -2.000
 7145.00    0.45614   0.41422   -2.000
 7146.00    0.43687   0.41433   -2.000
 7147.00    0.40452   0.41419   -2.000
 7148.00    0.38600   0.41445   -2.000
 7149.00    0.39806   0.41449   -2.000
 7150.00    0.42742   0.41466   -2.000
 7151.00    0.45753   0.41485   -2.000
 7152.00    0.48695   0.41473   -2.000
 7153.00    0.51378   0.41510   -2.000
 7154.00    0.52593   0.41529   -2.000
 7155.00    0.51319   0.41509   -2.000
 7156.00    0.47621   0.41504   -2.000
 7157.00    0.43021   0.41495   -2.000
 7158.00    0.40166   0.41504   -2.000
 7159.00    0.39766   0.41496   -2.000
 7160.00    0.39516   0.41453   -2.000
 7161.00    0.38012   0.41433   -2.000
 7162.00    0.36495   0.41437   -2.000
 7163.00    0.36413   0.41441   -2.000
 7164.00    0.38017   0.41427   -2.000
 7165.00    0.40128   0.41419   -2.000
 7166.00    0.40655   0.41428   -2.000
 7167.00    0.39379   0.41432   -2.000
 7168.00    0.38406   0.41446   -2.000
 7169.00    0.38503   0.41445   -2.000
 7170.00    0.38232   0.41448   -2.000
 7171.00    0.37135   0.41465   -2.000
 7172.00    0.36484   0.41435   -2.000
 7173.00    0.36970   0.41420   -2.000
 7174.00    0.38079   0.41428   -2.000
 7175.00    0.39253   0.41390   -2.000
 7176.00    0.40239   0.41365   -2.000
 7177.00    0.40776   0.41323   -2.000
 7178.00    0.40539   0.41268   -2.000
 7179.00    0.39331   0.41271   -2.000
 7180.00    0.37382   0.41218   -2.000
 7181.00    0.36060   0.41168   -2.000
 7182.00    0.37196   0.41169   -2.000
 7183.00    0.40573   0.41107   -2.000
 7184.00    0.44247   0.41089   -2.000
 7185.00    0.47416   0.41071   -2.000
 7186.00    0.50215   0.41040   -2.000
 7187.00    0.51172   0.41076   -2.000
 7188.00    0.48305   0.41056   -2.000
 7189.00    0.43356   0.41041   -2.000
 7190.00    0.40455   0.41060   -2.000
 7191.00    0.40722   0.41071   -2.000
 7192.00    0.42341   0.41100   -2.000
 7193.00    0.43507   0.41099   -2.000
 7194.00    0.43210   0.41115   -2.000
 7195.00    0.41467   0.41150   -2.000
 7196.00    0.39129   0.41168   -2.000
 7197.00    0.37398   0.41173   -2.000
 7198.00    0.37015   0.41155   -2.000
 7199.00    0.37034   0.41183   -2.000
 7200.00    0.36123   0.41204   -2.000
 7201.00    0.35121   0.41204   -2.000
 7202.00    0.35933   0.41205   -2.000
 7203.00    0.38986   0.41169   -2.000
 7204.00    0.42843   0.41190   -2.000
 7205.00    0.44419   0.41210   -2.000
 7206.00    0.41768   0.41195   -2.000
 7207.00    0.37855   0.41223   -2.000
 7208.00    0.36666   0.41230   -2.000
 7209.00    0.37299   0.41250   -2.000
 7210.00    0.37077   0.41280   -2.000
 7211.00    0.36514   0.41279   -2.000
 7212.00    0.36926   0.41315   -2.000
 7213.00    0.36907   0.41361   -2.000
 7214.00    0.35025   0.41395   -2.000
 7215.00    0.33233   0.41430   -2.000
 7216.00    0.33717   0.41455   -2.000
 7217.00    0.35211   0.41487   -2.000
 7218.00    0.35754   0.41533   -2.000
