###################################################################
## OUTPUT of StarlightChains_v04.for    [Cid@UFSC - 01/Apr/2007] ##
###################################################################

## Some input info
2014ee.txt                               [arq_obs]
Base.CB07.vall.4m                        [arq_base]
Masks.EmLines.NEW.gm                     [arq_masks]
StCv04.C11.config                        [arq_config]
   66                                    [N_base]
    0                                    [N_YAV_components = # of components with extra extinction!]
    0                                    [i_FitPowerLaw (1/0 = Yes/No)]
-9.99                                    [alpha_PowerLaw]
CCM                                      [red_law_option]
 1.458241                                [q_norm = A(l_norm)/A(V)]

## (Re)Sampling Parameters
 3741.00                                 [l_ini (A)]
 7218.00                                 [l_fin (A)]
    1.00                                 [dl    (A)]     (OBS: dl_cushion =    50.00 A)

## Normalization info
 4020.00                                 [l_norm (A) - for base]
 4010.00                                 [llow_norm (A) - window for f_obs]
 4060.00                                 [lupp_norm (A) - window for f_obs]
9.486613E-17                             [fobs_norm (in input units)]

## S/N
 3691.00                                 [llow_SN (A) - window for S/N]
 7268.00                                 [lupp_SN (A) - window for S/N]
   9.366                                 [S/N in S/N window]
  11.088                                 [S/N in norm. window]
   0.000                                 [S/N_err in S/N window]
   0.000                                 [S/N_err in norm. window]
  1.0000                                 [fscale_chi2]

## etc...
    -2007420                             [idum_orig]
  2199                                   [NOl_eff]
  2038                                   [Nl_eff]
   161    NSIGMA                         [Ntot_cliped & clip_method]
  1378300                                [Nglobal_steps]
   7                                     [N_chains]
  19                                     [NEX0s_base = N_base in EX0s-fits]
 0   0   1        7   2.0   7.028E+01    [Clip-Bug, RC-Crash & Burn-In warning-flags, n_censored_weights, wei_nsig_threshold & wei_limit]
    14     13.821     13.320      0.500  [idt_all, wdt_TotTime, wdt_UsrTime & wdt_SysTime (sec)]

## Synthesis Results - Best model ##

 1.65142E+00                             [chi2/Nl_eff]
     4.19678                             [adev (%)]

   103.23064                             [sum-of-x (%)]
 2.15685E-16                             [Flux_tot (units of input spectrum!)]
 1.43123E-12                             [Mini_tot (???)]
 7.49884E-13                             [Mcor_tot (???)]

-174.18                                  [v0_min  (km/s)]
 187.37                                  [vd_min  (km/s)]
 0.5879                                  [AV_min  (mag)]
 0.0000                                  [YAV_min (mag)]

# j     x_j(%)      Mini_j(%)     Mcor_j(%)     age_j(yr)     Z_j      (L/M)_j    YAV?  Mstars   component_j        a/Fe...       SSP_chi2r SSP_adev(%)   SSP_AV   SSP_x(%)
  1      2.4901     3.3228E-02    6.3419E-02    1.000000E+06  0.00400  1.094E-02    0   1.0000   age020_m42            0.0000     4.6896E+00     6.2112   2.6452    91.1301
  2      0.0000     0.0000E+00    0.0000E+00    3.160000E+06  0.00400  4.007E-02    0   0.9999   age045_m42            0.0000     3.5175E+00     5.5021   1.9535    95.7440
  3      0.0000     0.0000E+00    0.0000E+00    5.010000E+06  0.00400  2.539E-02    0   0.9488   age055_m42            0.0000     3.7643E+00     5.6102   2.2587    94.1210
  4      0.0000     0.0000E+00    0.0000E+00    6.610000E+06  0.00400  2.620E-02    0   0.9220   age061_m42            0.0000     3.3256E+00     5.3592   1.8832    95.8818
  5      0.0000     0.0000E+00    0.0000E+00    1.000000E+07  0.00400  1.322E-02    0   0.8862   age070_m42            0.0000     2.4630E+00     4.6230   1.6133    97.7714
  6      0.0000     0.0000E+00    0.0000E+00    1.445000E+07  0.00400  7.883E-03    0   0.8571   age078_m42            0.0000     2.8311E+00     4.8586   1.9335    95.6309
  7      0.0000     0.0000E+00    0.0000E+00    2.512000E+07  0.00400  5.251E-03    0   0.8174   age090_m42            0.0000     2.3532E+00     4.5326   1.4891    98.0843
  8      0.0006     2.5921E-05    3.8841E-05    4.000000E+07  0.00400  3.649E-03    0   0.7851   age104_m42            0.0000     2.2588E+00     4.5106   1.2633    98.7325
  9      0.0008     3.8086E-05    5.5455E-05    5.500000E+07  0.00400  3.098E-03    0   0.7629   age110_m42            0.0000     2.7046E+00     4.9048   1.4183    98.5285
 10      0.0000     0.0000E+00    0.0000E+00    1.015200E+08  0.00400  2.228E-03    0   0.7207   age116_m42            0.0000     3.1529E+00     5.2470   1.4397    98.5415
 11      1.2070     1.6120E-01    2.0454E-01    2.861200E+08  0.00400  1.093E-03    0   0.6648   age125_m42            0.0000     2.9503E+00     5.1805   0.8915   100.9254
 12      0.0000     0.0000E+00    0.0000E+00    5.088000E+08  0.00400  6.597E-04    0   0.6365   age130_m42            0.0000     3.7235E+00     5.5704   0.8791   101.5964
 13      5.0123     3.4320E+00    3.7979E+00    1.434000E+09  0.00400  2.132E-04    0   0.5798   age139_m42            0.0000     4.0751E+00     5.6461  -0.0992   103.2945
 14      2.2854     5.6595E+00    5.8081E+00    4.250000E+09  0.00400  5.895E-05    0   0.5377   age158_m42            0.0000     5.1447E+00     6.1477  -0.5597    99.9249
 15      0.0000     0.0000E+00    0.0000E+00    7.500000E+09  0.00400  3.510E-05    0   0.5212   age171_m42            0.0000     6.5195E+00     6.6098  -0.7484    99.2487
 16      0.0000     0.0000E+00    0.0000E+00    1.300000E+10  0.00400  2.005E-05    0   0.5034   age193_m42            0.0000     8.1038E+00     7.0691  -0.9156    98.8120
 17      2.8722     2.7494E+01    2.6065E+01    1.800000E+10  0.00400  1.525E-05    0   0.4967   age213_m42            0.0000     7.7784E+00     6.9449  -0.9397    98.3998
 18      5.9312     6.9940E-02    1.3349E-01    1.000000E+06  0.00800  1.238E-02    0   1.0000   age020_m52            0.0000     4.7023E+00     6.2191   2.6415    91.3084
 19      0.0000     0.0000E+00    0.0000E+00    3.160000E+06  0.00800  3.074E-02    0   0.9966   age045_m52            0.0000     4.6123E+00     6.1580   2.5647    92.0557
 20      0.0000     0.0000E+00    0.0000E+00    5.010000E+06  0.00800  2.668E-02    0   0.9443   age055_m52            0.0000     3.8724E+00     5.6850   2.3364    93.4869
 21      0.0000     0.0000E+00    0.0000E+00    6.610000E+06  0.00800  2.136E-02    0   0.9177   age061_m52            0.0000     2.2284E+00     4.5219   1.0981    99.3841
 22      0.0000     0.0000E+00    0.0000E+00    1.000000E+07  0.00800  1.215E-02    0   0.8827   age070_m52            0.0000     2.4600E+00     4.6268   1.7960    97.5944
 23      0.0000     0.0000E+00    0.0000E+00    1.445000E+07  0.00800  8.717E-03    0   0.8552   age078_m52            0.0000     2.6625E+00     4.7439   1.9010    96.8267
 24      0.0000     0.0000E+00    0.0000E+00    2.512000E+07  0.00800  5.592E-03    0   0.8162   age090_m52            0.0000     2.2518E+00     4.4897   1.5580    99.0399
 25      0.0000     0.0000E+00    0.0000E+00    4.000000E+07  0.00800  3.896E-03    0   0.7841   age104_m52            0.0000     2.3112E+00     4.6220   1.4776    99.4430
 26      0.0000     0.0000E+00    0.0000E+00    1.015200E+08  0.00800  2.148E-03    0   0.7226   age116_m52            0.0000     2.7266E+00     4.9751   1.4146    99.1345
 27      3.5529     5.2259E-01    6.6657E-01    2.861200E+08  0.00800  9.925E-04    0   0.6683   age125_m52            0.0000     3.7407E+00     5.5741   0.9451   102.4538
 28     29.0500     1.3501E+01    1.5817E+01    9.047900E+08  0.00800  3.141E-04    0   0.6138   age135_m52            0.0000     5.3852E+00     6.2841   0.1566   105.6916
 29      0.0014     1.2313E-03    1.3755E-03    1.434000E+09  0.00800  1.719E-04    0   0.5853   age139_m52            0.0000     5.1455E+00     6.1795  -0.4362   104.0106
 30      0.0000     0.0000E+00    0.0000E+00    2.500000E+09  0.00800  7.872E-05    0   0.5600   age150_m52            0.0000     7.2272E+00     6.9754  -0.7202   101.5830
 31      0.0000     0.0000E+00    0.0000E+00    4.250000E+09  0.00800  4.336E-05    0   0.5426   age158_m52            0.0000     7.5724E+00     7.0167  -0.7372   100.6983
 32      0.0000     0.0000E+00    0.0000E+00    6.250000E+09  0.00800  3.159E-05    0   0.5319   age166_m52            0.0000     9.9581E+00     7.7442  -0.9412   100.6343
 33      0.0000     0.0000E+00    0.0000E+00    1.300000E+10  0.00800  1.361E-05    0   0.5073   age193_m52            0.0000     2.0474E+01    10.8976  -1.0000    87.9974
 34      3.2338     4.7753E+01    4.5479E+01    1.800000E+10  0.00800  9.886E-06    0   0.4990   age213_m52            0.0000     2.7082E+01    12.5432  -1.0000    84.3288
 35      2.9888     2.8259E-02    5.3934E-02    1.000000E+06  0.02000  1.544E-02    0   1.0000   age020_m62            0.0000     4.7683E+00     6.2610   2.6365    91.5754
 36      0.0000     0.0000E+00    0.0000E+00    3.160000E+06  0.02000  3.762E-02    0   0.9858   age045_m62            0.0000     4.7985E+00     6.2759   2.5735    92.4415
 37      0.0000     0.0000E+00    0.0000E+00    5.010000E+06  0.02000  3.296E-02    0   0.9342   age055_m62            0.0000     3.6836E+00     5.5886   2.2203    95.1464
 38     26.7701     3.3865E-01    5.7272E-01    8.710000E+06  0.02000  1.154E-02    0   0.8861   age067_m62            0.0000     3.4272E+00     5.5155   1.2630   100.4166
 39      0.0000     0.0000E+00    0.0000E+00    1.445000E+07  0.02000  7.663E-03    0   0.8472   age078_m62            0.0000     2.2064E+00     4.5867   1.4544    99.6202
 40      0.0000     0.0000E+00    0.0000E+00    2.512000E+07  0.02000  4.532E-03    0   0.8099   age090_m62            0.0000     2.2567E+00     4.6324   1.4538    99.1111
 41      0.0000     0.0000E+00    0.0000E+00    5.500000E+07  0.02000  2.733E-03    0   0.7595   age110_m62            0.0000     2.2581E+00     4.5407   1.4530    99.0310
 42      0.0000     0.0000E+00    0.0000E+00    1.609000E+08  0.02000  1.369E-03    0   0.6985   age120_m62            0.0000     3.2416E+00     5.2627   1.2986   101.2042
 43      5.2064     8.4328E-01    1.0806E+00    2.861200E+08  0.02000  9.013E-04    0   0.6714   age125_m62            0.0000     4.3318E+00     5.7386   1.0529   103.6612
 44      0.1312     3.8079E-02    4.6870E-02    5.088000E+08  0.02000  5.028E-04    0   0.6449   age130_m62            0.0000     5.9334E+00     6.4958   0.6823   105.7365
 45      0.0000     0.0000E+00    0.0000E+00    9.047900E+08  0.02000  2.428E-04    0   0.6179   age135_m62            0.0000     6.0144E+00     6.6174   0.0932   104.9590
 46      0.0000     0.0000E+00    0.0000E+00    1.434000E+09  0.02000  1.263E-04    0   0.5908   age139_m62            0.0000     6.8372E+00     6.8079  -0.3590   103.5966
 47      0.0000     0.0000E+00    0.0000E+00    2.500000E+09  0.02000  5.985E-05    0   0.5673   age150_m62            0.0000     9.4753E+00     7.6783  -0.7384   102.5426
 48      0.0000     0.0000E+00    0.0000E+00    4.250000E+09  0.02000  3.271E-05    0   0.5468   age158_m62            0.0000     1.3654E+01     8.7937  -1.0000   100.2309
 49      0.0000     0.0000E+00    0.0000E+00    1.000000E+10  0.02000  1.360E-05    0   0.5167   age181_m62            0.0000     2.5245E+01    11.5330  -1.0000    89.3379
 50      0.0000     0.0000E+00    0.0000E+00    1.800000E+10  0.02000  7.124E-06    0   0.5013   age213_m62            0.0000     3.7092E+01    14.1946  -1.0000    82.3523
 51      0.5061     2.8503E-03    5.4389E-03    1.000000E+06  0.05000  2.592E-02    0   0.9998   age020_m72            0.0000     5.0074E+00     6.3773   2.6260    91.6917
 52      0.0000     0.0000E+00    0.0000E+00    3.160000E+06  0.05000  4.845E-02    0   0.9577   age045_m72            0.0000     4.4056E+00     6.0426   2.4642    93.2500
 53      0.0000     0.0000E+00    0.0000E+00    5.010000E+06  0.05000  3.072E-02    0   0.9147   age055_m72            0.0000     2.9839E+00     5.2259   2.0340    96.2386
 54     11.9904     1.2030E-01    2.0382E-01    6.610000E+06  0.05000  1.455E-02    0   0.8877   age061_m72            0.0000     5.1481E+00     7.5186   1.3621   100.7144
 55      0.0000     0.0000E+00    0.0000E+00    1.000000E+07  0.05000  9.074E-03    0   0.8524   age070_m72            0.0000     3.4707E+00     5.9483   2.2432    95.5650
 56      0.0000     0.0000E+00    0.0000E+00    2.512000E+07  0.05000  4.250E-03    0   0.7902   age090_m72            0.0000     2.7608E+00     5.1984   1.9417    96.8774
 57      0.0000     0.0000E+00    0.0000E+00    4.000000E+07  0.05000  3.087E-03    0   0.7618   age104_m72            0.0000     2.6086E+00     5.1236   1.7198    98.1894
 58      0.0000     0.0000E+00    0.0000E+00    1.015200E+08  0.05000  1.700E-03    0   0.7096   age116_m72            0.0000     2.9861E+00     5.1424   1.4488   100.6710
 59      0.0000     0.0000E+00    0.0000E+00    2.861200E+08  0.05000  7.384E-04    0   0.6633   age125_m72            0.0000     5.2026E+00     6.1008   0.9273   104.5362
 60      0.0000     0.0000E+00    0.0000E+00    5.088000E+08  0.05000  3.819E-04    0   0.6372   age130_m72            0.0000     6.0651E+00     6.6142   0.4293   105.9606
 61      0.0000     0.0000E+00    0.0000E+00    9.047900E+08  0.05000  1.676E-04    0   0.6110   age135_m72            0.0000     8.6958E+00     7.6433  -0.2817   104.3799
 62      0.0000     0.0000E+00    0.0000E+00    1.434000E+09  0.05000  8.837E-05    0   0.5874   age139_m72            0.0000     1.0552E+01     7.9320  -0.7338   103.6675
 63      0.0000     0.0000E+00    0.0000E+00    2.500000E+09  0.05000  4.233E-05    0   0.5598   age150_m72            0.0000     1.5087E+01     9.1735  -1.0000   100.9557
 64      0.0000     0.0000E+00    0.0000E+00    6.250000E+09  0.05000  1.435E-05    0   0.5249   age166_m72            0.0000     2.9751E+01    12.6612  -1.0000    86.0318
 65      0.0000     0.0000E+00    0.0000E+00    1.300000E+10  0.05000  6.513E-06    0   0.5036   age193_m72            0.0000     4.8023E+01    16.3912  -1.0000    78.4511
 66      0.0000     0.0000E+00    0.0000E+00    1.800000E+10  0.05000  4.527E-06    0   0.4945   age213_m72            0.0000     6.0459E+01    18.4933  -1.0000    73.5501


## Synthesis Results - Average & Chains ##

# j      x_j: min, <> & last-chain-values for 1 ...  7 chains
  1      2.4901      1.6327      1.8449      2.1708      1.8592      1.7307      2.9482      1.6860      1.3076
  2      0.0000      0.2387      0.0000      0.0000      0.0407      0.0000      0.0000      0.0000      0.0000
  3      0.0000      0.1742      0.0000      0.0000      0.0292      0.0000      0.0000      0.0000      0.0000
  4      0.0000      0.1099      0.0000      0.0000      0.0000      0.3227      0.1638      0.2657      0.0000
  5      0.0000      0.3172      0.2391      0.0000      0.9964      1.2561      0.0000      0.0000      0.1183
  6      0.0000      0.1020      0.0000      0.0000      0.0000      0.0000      0.0000      0.1543      0.6242
  7      0.0000      0.2844      0.0000      0.2139      0.0946      0.0000      0.0000      0.2157      0.2050
  8      0.0006      0.3679      1.2150      0.4375      0.0000      0.6406      0.7378      0.0000      0.0000
  9      0.0008      0.4604      1.8828      0.0000      0.0000      0.8506      0.4319      0.9664      0.5107
 10      0.0000      0.6212      0.3132      0.5897      0.0490      0.0000      1.2183      2.1098      0.5797
 11      1.2070      0.8761      0.0000      1.1789      0.0000      0.6925      0.0000      0.2051      0.0000
 12      0.0000      0.6508      0.0000      1.1428      0.9843      0.3922      0.1368      0.0000      0.0000
 13      5.0123      5.0150      5.7368      4.5965      5.0664      4.9917      4.9268      5.2565      4.5482
 14      2.2854      5.5435      5.1060      5.1300      5.3396      5.7110      4.9152      6.0023      5.5364
 15      0.0000      0.0754      0.0000      0.3018      0.0000      0.0000      0.1705      0.0000      0.0645
 16      0.0000      0.0758      0.2361      0.3808      0.0000      0.0270      0.1557      0.0000      0.0000
 17      2.8722      1.6126      1.7544      1.6771      1.4578      1.7574      1.5080      1.5018      1.7735
 18      5.9312      5.7677      4.4864      6.4372      5.7067      7.6459      5.6686      5.9873      6.4234
 19      0.0000      0.1716      0.6232      0.0000      0.1012      0.2374      0.0000      0.0000      0.5170
 20      0.0000      0.1291      0.1311      0.1343      0.2530      0.0000      0.0000      0.0580      0.5232
 21      0.0000      0.2542      0.0000      0.0000      0.0000      0.0000      0.5831      0.0000      0.0000
 22      0.0000      0.5067      0.0000      0.8375      0.0000      0.2724      0.1746      0.9644      0.5806
 23      0.0000      0.1733      1.0574      0.0000      0.0000      0.0000      0.0000      0.0000      0.0000
 24      0.0000      0.2999      0.0000      0.0601      2.3085      0.0744      0.2533      0.0000      0.0000
 25      0.0000      0.2676      0.0000      0.4615      0.2498      0.0000      0.0000      0.8015      0.5299
 26      0.0000      0.2551      0.0000      0.4720      0.0000      0.1886      0.0000      1.0546      0.0000
 27      3.5529      1.0763      1.8420      0.3069      3.6917      3.7454      3.4139      1.6274      1.0816
 28     29.0500     24.6386     26.8515     25.5895     23.9051     25.0163     26.0056     24.2607     25.3873
 29      0.0014      4.5129      3.7302      3.8629      5.3354      4.6115      4.1747      4.7550      4.3845
 30      0.0000      0.0354      0.0000      0.0000      0.0000      0.0000      0.0000      0.0000      0.0000
 31      0.0000      0.1993      0.0000      0.3266      0.0000      0.0078      0.1486      0.0000      0.0000
 32      0.0000      0.0364      0.0000      0.0000      0.0000      0.0000      0.0000      0.0129      0.0000
 33      0.0000      0.0262      0.0000      0.0980      0.2985      0.0000      0.0000      0.0972      0.0000
 34      3.2338      1.6686      1.5775      1.6377      1.6631      1.9374      1.7942      1.8938      1.9259
 35      2.9888      2.8239      3.0325      2.7325      2.8213      2.8672      2.6455      2.1313      3.4988
 36      0.0000      0.1558      0.0000      0.0000      0.0371      0.0000      0.2669      0.0111      0.0000
 37      0.0000      0.2293      1.1609      0.2451      0.0000      0.0000      0.0000      0.1015      0.3067
 38     26.7701     18.6564     20.8723     18.7328     20.0683     20.2307     20.2069     20.5669     18.8557
 39      0.0000      0.5183      0.3480      0.0000      0.3408      0.0000      0.2608      0.0000      0.0000
 40      0.0000      0.5298      0.0000      0.6003      2.1687      0.0000      0.0000      0.2792      0.3735
 41      0.0000      0.2437      0.3450      0.0000      0.0000      0.0000      0.6519      0.0000      0.0000
 42      0.0000      0.5663      0.0000      2.6585      0.0000      0.0000      0.0123      0.0000      1.1701
 43      5.2064      1.5017      1.3683      1.6000      2.5714      1.1803      1.5609      2.4054      2.7164
 44      0.1312      0.6781      0.8529      0.6155      0.3817      1.7137      0.6681      0.2070      0.2771
 45      0.0000      0.2373      0.0000      0.0000      0.0000      0.0000      0.0000      0.0000      0.0000
 46      0.0000      0.0742      0.0000      0.0362      0.0000      0.0000      0.0000      0.0000      0.0000
 47      0.0000      0.0332      0.0000      0.0000      0.0000      0.0000      0.0000      0.0000      0.0000
 48      0.0000      0.0302      0.0000      0.0000      0.0000      0.0000      0.0000      0.0000      0.0000
 49      0.0000      0.0448      0.0000      0.0000      0.0000      0.0000      0.0000      0.0000      0.2062
 50      0.0000      0.0174      0.0000      0.0000      0.0000      0.0000      0.0000      0.0000      0.0000
 51      0.5061      1.7494      0.9509      1.5886      0.1140      1.3960      1.7552      2.1692      1.1326
 52      0.0000      0.0894      0.0000      0.0000      0.0869      0.0000      0.0000      0.0000      0.0000
 53      0.0000      0.0925      0.0000      0.0000      0.0000      0.0000      0.0000      0.0000      0.0000
 54     11.9904     13.7626     14.1119     14.5390     14.0372     13.4759     13.8419     13.8413     13.8956
 55      0.0000      0.1161      0.9065      0.0000      0.0000      0.0000      0.0000      0.1423      0.0030
 56      0.0000      0.1652      0.0000      0.0000      0.0000      0.0000      0.0924      0.0000      0.0000
 57      0.0000      0.3057      0.0000      0.0000      0.0000      0.0000      0.8295      0.0000      1.0828
 58      0.0000      0.8397      0.0689      0.1330      0.7963      0.0000      0.4242      0.9141      0.7961
 59      0.0000      0.7121      0.1179      1.2567      0.0000      0.0000      0.0000      0.2733      1.9640
 60      0.0000      0.3467      0.0000      0.0000      0.1775      0.0000      0.0000      0.0000      0.0000
 61      0.0000      0.1189      0.0000      0.0000      0.0000      0.0000      0.0000      0.0000      0.0000
 62      0.0000      0.0493      0.0000      0.0000      0.0091      0.0000      0.0000      0.0000      0.0000
 63      0.0000      0.0320      0.0000      0.0000      0.0000      0.0000      0.0000      0.0000      0.0000
 64      0.0000      0.0393      0.0000      0.2094      0.0000      0.0000      0.0712      0.0220      0.0000
 65      0.0000      0.0120      0.0000      0.0000      0.0000      0.0000      0.0000      0.0000      0.2009
 66      0.0000      0.0397      0.1999      0.0000      0.0000      0.0000      0.1172      0.0000      0.0000

# j      m_j: min, <> & last-chain-values for 1 ...  7 chains
  1  6.3419E-02  5.0697E-02  5.6249E-02  6.6154E-02  6.0566E-02  5.3374E-02  9.1095E-02  5.3029E-02  3.7745E-02
  2  0.0000E+00  2.0234E-03  0.0000E+00  0.0000E+00  3.6197E-04  0.0000E+00  0.0000E+00  0.0000E+00  0.0000E+00
  3  0.0000E+00  2.2108E-03  0.0000E+00  0.0000E+00  3.8951E-04  0.0000E+00  0.0000E+00  0.0000E+00  0.0000E+00
  4  0.0000E+00  1.3133E-03  0.0000E+00  0.0000E+00  0.0000E+00  3.8314E-03  1.9488E-03  3.2174E-03  0.0000E+00
  5  0.0000E+00  7.2229E-03  5.3468E-03  0.0000E+00  2.3805E-02  2.8409E-02  0.0000E+00  0.0000E+00  2.5044E-03
  6  0.0000E+00  3.7664E-03  0.0000E+00  0.0000E+00  0.0000E+00  0.0000E+00  0.0000E+00  5.7713E-03  2.1431E-02
  7  0.0000E+00  1.5038E-02  0.0000E+00  1.1100E-02  5.2484E-03  0.0000E+00  0.0000E+00  1.1554E-02  1.0078E-02
  8  3.8841E-05  2.6892E-02  8.7191E-02  3.1379E-02  0.0000E+00  4.6503E-02  5.3660E-02  0.0000E+00  0.0000E+00
  9  5.5455E-05  3.8511E-02  1.5465E-01  0.0000E+00  0.0000E+00  7.0668E-02  3.5956E-02  8.1890E-02  3.9718E-02
 10  0.0000E+00  6.8263E-02  3.3788E-02  6.3591E-02  5.6482E-03  0.0000E+00  1.3322E-01  2.3483E-01  5.9216E-02
 11  2.0454E-01  1.8102E-01  0.0000E+00  2.3906E-01  0.0000E+00  1.4212E-01  0.0000E+00  4.2919E-02  0.0000E+00
 12  0.0000E+00  2.1330E-01  0.0000E+00  3.6761E-01  3.3848E-01  1.2767E-01  4.4618E-02  0.0000E+00  0.0000E+00
 13  3.7979E+00  4.6330E+00  5.2037E+00  4.1675E+00  4.9105E+00  4.5800E+00  4.5291E+00  4.9189E+00  3.9059E+00
 14  5.8081E+00  1.7177E+01  1.5534E+01  1.5600E+01  1.7358E+01  1.7575E+01  1.5155E+01  1.8839E+01  1.5947E+01
 15  0.0000E+00  3.8054E-01  0.0000E+00  1.4939E+00  0.0000E+00  0.0000E+00  8.5576E-01  0.0000E+00  3.0229E-01
 16  0.0000E+00  6.4658E-01  1.9768E+00  3.1874E+00  0.0000E+00  2.2888E-01  1.3211E+00  0.0000E+00  0.0000E+00
 17  2.6065E+01  1.7842E+01  1.9060E+01  1.8212E+01  1.6922E+01  1.9311E+01  1.6603E+01  1.6831E+01  1.8242E+01
 18  1.3349E-01  1.5826E-01  1.2087E-01  1.7336E-01  1.6429E-01  2.0837E-01  1.5478E-01  1.6641E-01  1.6385E-01
 19  0.0000E+00  1.8896E-03  6.7392E-03  0.0000E+00  1.1695E-03  2.5962E-03  0.0000E+00  0.0000E+00  5.2931E-03
 20  0.0000E+00  1.5527E-03  1.5481E-03  1.5852E-03  3.1917E-03  0.0000E+00  0.0000E+00  7.0596E-04  5.8475E-03
 21  0.0000E+00  3.7096E-03  0.0000E+00  0.0000E+00  0.0000E+00  0.0000E+00  8.4680E-03  0.0000E+00  0.0000E+00
 22  0.0000E+00  1.2504E-02  0.0000E+00  2.0286E-02  0.0000E+00  6.6775E-03  4.2870E-03  2.4108E-02  1.3321E-02
 23  0.0000E+00  5.7750E-03  3.4601E-02  0.0000E+00  0.0000E+00  0.0000E+00  0.0000E+00  0.0000E+00  0.0000E+00
 24  0.0000E+00  1.4871E-02  0.0000E+00  2.9257E-03  1.2009E-01  3.6629E-03  1.2496E-02  0.0000E+00  0.0000E+00
 25  0.0000E+00  1.8296E-02  0.0000E+00  3.0964E-02  1.7918E-02  0.0000E+00  0.0000E+00  5.5505E-02  3.3679E-02
 26  0.0000E+00  2.9150E-02  0.0000E+00  5.2936E-02  0.0000E+00  2.1405E-02  0.0000E+00  1.2208E-01  0.0000E+00
 27  6.6657E-01  2.4618E-01  4.1369E-01  6.8897E-02  8.8594E-01  8.5088E-01  7.7706E-01  3.7707E-01  2.2999E-01
 28  1.5817E+01  1.6356E+01  1.7502E+01  1.6672E+01  1.6649E+01  1.6493E+01  1.7179E+01  1.6313E+01  1.5667E+01
 29  1.3755E-03  5.2198E+00  4.2363E+00  4.3850E+00  6.4744E+00  5.2976E+00  4.8050E+00  5.5710E+00  4.7144E+00
 30  0.0000E+00  8.5648E-02  0.0000E+00  0.0000E+00  0.0000E+00  0.0000E+00  0.0000E+00  0.0000E+00  0.0000E+00
 31  0.0000E+00  8.4734E-01  0.0000E+00  1.3626E+00  0.0000E+00  3.2958E-02  6.2853E-01  0.0000E+00  0.0000E+00
 32  0.0000E+00  2.0821E-01  0.0000E+00  0.0000E+00  0.0000E+00  0.0000E+00  0.0000E+00  7.4917E-02  0.0000E+00
 33  0.0000E+00  3.3153E-01  0.0000E+00  1.2183E+00  3.9649E+00  0.0000E+00  0.0000E+00  1.2467E+00  0.0000E+00
 34  4.5479E+01  2.8610E+01  2.6558E+01  2.7560E+01  2.9918E+01  3.2994E+01  3.0613E+01  3.2892E+01  3.0698E+01
 35  5.3934E-02  6.2130E-02  6.5510E-02  5.9003E-02  6.5122E-02  6.2652E-02  5.7919E-02  4.7499E-02  7.1561E-02
 36  0.0000E+00  1.3872E-03  0.0000E+00  0.0000E+00  3.4613E-04  0.0000E+00  2.3639E-03  9.9813E-05  0.0000E+00
 37  0.0000E+00  2.2078E-03  1.0975E-02  2.3161E-03  0.0000E+00  0.0000E+00  0.0000E+00  9.8973E-04  2.7450E-03
 38  5.7272E-01  4.8663E-01  5.3456E-01  4.7956E-01  5.4919E-01  5.2410E-01  5.2449E-01  5.4341E-01  4.5721E-01
 39  0.0000E+00  1.9464E-02  1.2834E-02  0.0000E+00  1.3430E-02  0.0000E+00  9.7479E-03  0.0000E+00  0.0000E+00
 40  0.0000E+00  3.2161E-02  0.0000E+00  3.5766E-02  1.3813E-01  0.0000E+00  0.0000E+00  1.7170E-02  2.1077E-02
 41  0.0000E+00  2.3004E-02  3.1975E-02  0.0000E+00  0.0000E+00  0.0000E+00  6.1242E-02  0.0000E+00  0.0000E+00
 42  0.0000E+00  9.8146E-02  0.0000E+00  4.5223E-01  0.0000E+00  0.0000E+00  2.1296E-03  0.0000E+00  1.8852E-01
 43  1.0806E+00  3.8001E-01  3.3997E-01  3.9737E-01  6.8267E-01  2.9663E-01  3.9304E-01  6.1657E-01  6.3901E-01
 44  4.6870E-02  2.9545E-01  3.6486E-01  2.6319E-01  1.7449E-01  7.4160E-01  2.8966E-01  9.1356E-02  1.1225E-01
 45  0.0000E+00  2.0516E-01  0.0000E+00  0.0000E+00  0.0000E+00  0.0000E+00  0.0000E+00  0.0000E+00  0.0000E+00
 46  0.0000E+00  1.1797E-01  0.0000E+00  5.6513E-02  0.0000E+00  0.0000E+00  0.0000E+00  0.0000E+00  0.0000E+00
 47  0.0000E+00  1.0706E-01  0.0000E+00  0.0000E+00  0.0000E+00  0.0000E+00  0.0000E+00  0.0000E+00  0.0000E+00
 48  0.0000E+00  1.7174E-01  0.0000E+00  0.0000E+00  0.0000E+00  0.0000E+00  0.0000E+00  0.0000E+00  0.0000E+00
 49  0.0000E+00  5.7824E-01  0.0000E+00  0.0000E+00  0.0000E+00  0.0000E+00  0.0000E+00  0.0000E+00  2.4742E+00
 50  0.0000E+00  4.1693E-01  0.0000E+00  0.0000E+00  0.0000E+00  0.0000E+00  0.0000E+00  0.0000E+00  0.0000E+00
 51  5.4389E-03  2.2923E-02  1.2233E-02  2.0430E-02  1.5673E-03  1.8167E-02  2.2885E-02  2.8792E-02  1.3796E-02
 52  0.0000E+00  6.0035E-04  0.0000E+00  0.0000E+00  6.1217E-04  0.0000E+00  0.0000E+00  0.0000E+00  0.0000E+00
 53  0.0000E+00  9.3518E-04  0.0000E+00  0.0000E+00  0.0000E+00  0.0000E+00  0.0000E+00  0.0000E+00  0.0000E+00
 54  2.0382E-01  2.8523E-01  2.8717E-01  2.9573E-01  3.0522E-01  2.7739E-01  2.8547E-01  2.9058E-01  2.6772E-01
 55  0.0000E+00  3.7043E-03  2.8403E-02  0.0000E+00  0.0000E+00  0.0000E+00  0.0000E+00  4.6011E-03  8.8272E-05
 56  0.0000E+00  1.0431E-02  0.0000E+00  0.0000E+00  0.0000E+00  0.0000E+00  5.8071E-03  0.0000E+00  0.0000E+00
 57  0.0000E+00  2.5630E-02  0.0000E+00  0.0000E+00  0.0000E+00  0.0000E+00  6.9197E-02  0.0000E+00  8.4382E-02
 58  0.0000E+00  1.1906E-01  9.5866E-03  1.8510E-02  1.1846E-01  0.0000E+00  5.9860E-02  1.3130E-01  1.0493E-01
 59  0.0000E+00  2.1729E-01  3.5322E-02  3.7637E-01  0.0000E+00  0.0000E+00  0.0000E+00  8.4472E-02  5.5712E-01
 60  0.0000E+00  1.9652E-01  0.0000E+00  0.0000E+00  1.0553E-01  0.0000E+00  0.0000E+00  0.0000E+00  0.0000E+00
 61  0.0000E+00  1.4720E-01  0.0000E+00  0.0000E+00  0.0000E+00  0.0000E+00  0.0000E+00  0.0000E+00  0.0000E+00
 62  0.0000E+00  1.1130E-01  0.0000E+00  0.0000E+00  2.1452E-02  0.0000E+00  0.0000E+00  0.0000E+00  0.0000E+00
 63  0.0000E+00  1.4373E-01  0.0000E+00  0.0000E+00  0.0000E+00  0.0000E+00  0.0000E+00  0.0000E+00  0.0000E+00
 64  0.0000E+00  4.8861E-01  0.0000E+00  2.5543E+00  0.0000E+00  0.0000E+00  8.7985E-01  2.7684E-01  0.0000E+00
 65  0.0000E+00  3.1470E-01  0.0000E+00  0.0000E+00  0.0000E+00  0.0000E+00  0.0000E+00  0.0000E+00  4.9062E+00
 66  0.0000E+00  1.4743E+00  7.2822E+00  0.0000E+00  0.0000E+00  0.0000E+00  4.3289E+00  0.0000E+00  0.0000E+00

# AV, chi2 & Mass for <> & i_chain = 1 ...  7 solutions
AV       0.5879      0.5798      0.5839      0.5831      0.5810      0.5792      0.5928      0.5853      0.5807
chi2 1.6514E+00  1.6654E+00  1.6629E+00  1.6620E+00  1.6626E+00  1.6618E+00  1.6619E+00  1.6622E+00  1.6630E+00
Mass 7.4988E-13  6.0842E-13  6.2307E-13  6.2270E-13  5.8090E-13  6.1208E-13  6.2217E-13  6.0512E-13  6.5532E-13
-174.18                                  [v0_min (km/s) before EX0s...]
 187.37                                  [vd_min (km/s) before EX0s...]


## Synthetic spectrum (Best Model) ##l_obs f_obs f_syn wei
 3478    [Nl_obs]
 3741.00    0.78102   0.77845    0.000
 3742.00    0.76826   0.75934    0.000
 3743.00    0.76200   0.73319    0.000
 3744.00    0.76297   0.70269    0.000
 3745.00    0.76981   0.67210   23.340
 3746.00    0.77809   0.64726   -1.000
 3747.00    0.78333   0.63402   -1.000
 3748.00    0.78325   0.63623   -1.000
 3749.00    0.77966   0.65410   23.023
 3750.00    0.77805   0.68370   22.670
 3751.00    0.77959   0.71833   22.363
 3752.00    0.77931   0.75103   22.799
 3753.00    0.77920   0.77708   23.925
 3754.00    0.79038   0.79496   24.473
 3755.00    0.81167   0.80589   24.011
 3756.00    0.82533   0.81246   23.787
 3757.00    0.82291   0.81690   24.441
 3758.00    0.81332   0.82002   25.443
 3759.00    0.80871   0.82111   26.036
 3760.00    0.81685   0.81857   25.823
 3761.00    0.83514   0.81065   25.039
 3762.00    0.85167   0.79623   24.259
 3763.00    0.85621   0.77515   23.646
 3764.00    0.84471   0.74839   23.031
 3765.00    0.82110   0.71864   22.561
 3766.00    0.79425   0.69051   22.585
 3767.00    0.76825   0.66957   23.030
 3768.00    0.74367   0.66067   23.445
 3769.00    0.72865   0.66633   23.644
 3770.00    0.73552   0.68569   23.833
 3771.00    0.76558   0.71497   24.317
 3772.00    0.80884   0.74910   25.195
 3773.00    0.85249   0.78364   25.722
 3774.00    0.88458   0.81585   24.994
 3775.00    0.89763   0.84453   23.994
 3776.00    0.89277   0.86931   24.202
 3777.00    0.88564   0.89006   25.396
 3778.00    0.89465   0.90648   26.181
 3779.00    0.91850   0.91804   25.889
 3780.00    0.94255   0.92421   25.117
 3781.00    0.95606   0.92475   25.026
 3782.00    0.95572   0.91994   26.285
 3783.00    0.94620   0.91060   27.691
 3784.00    0.93340   0.89805   27.364
 3785.00    0.91523   0.88365   26.358
 3786.00    0.88778   0.86819   26.507
 3787.00    0.85459   0.85146   27.602
 3788.00    0.82081   0.83231   28.437
 3789.00    0.78490   0.80909   28.425
 3790.00    0.74408   0.78044   28.037
 3791.00    0.70112   0.74618   28.513
 3792.00    0.66092   0.70818   30.410
 3793.00    0.62639   0.67079   31.866
 3794.00    0.60065   0.64008   30.897
 3795.00    0.58928   0.62240   29.287
 3796.00    0.59722   0.62219   28.977
 3797.00    0.62555   0.64005   29.817
 3798.00    0.66929   0.67231   30.704
 3799.00    0.71684   0.71234   30.322
 3800.00    0.75880   0.75307   28.908
 3801.00    0.79364   0.78930   28.563
 3802.00    0.82048   0.81888   30.170
 3803.00    0.83525   0.84247   32.005
 3804.00    0.84253   0.86227   32.058
 3805.00    0.85959   0.88026   30.962
 3806.00    0.89274   0.89686   30.109
 3807.00    0.92722   0.91082   30.075
 3808.00    0.95209   0.92019   30.585
 3809.00    0.97184   0.92374   30.641
 3810.00    0.99104   0.92174   29.972
 3811.00    1.00692   0.91575   -1.000
 3812.00    1.01441   0.90754   -1.000
 3813.00    1.00899   0.89823   -1.000
 3814.00    0.98812   0.88807   -1.000
 3815.00    0.95290   0.87719   32.963
 3816.00    0.91204   0.86643   31.981
 3817.00    0.87934   0.85759   32.317
 3818.00    0.85838   0.85220   34.248
 3819.00    0.84226   0.85018   35.389
 3820.00    0.83284   0.84949   34.464
 3821.00    0.84093   0.84724   32.932
 3822.00    0.86572   0.84134   31.980
 3823.00    0.89276   0.83118   31.835
 3824.00    0.90805   0.81707   -1.000
 3825.00    0.90235   0.79928   -1.000
 3826.00    0.87103   0.77739   -1.000
 3827.00    0.81586   0.75060   33.603
 3828.00    0.74944   0.71851   34.585
 3829.00    0.68859   0.68216   35.086
 3830.00    0.63712   0.64468   34.853
 3831.00    0.58994   0.61104   34.315
 3832.00    0.55010   0.58691   34.145
 3833.00    0.52658   0.57681   34.779
 3834.00    0.52270   0.58262   35.703
 3835.00    0.53705   0.60313   35.756
 3836.00    0.56939   0.63479   34.465
 3837.00    0.61672   0.67309   32.516
 3838.00    0.66562   0.71378   31.326
 3839.00    0.70201   0.75345   31.659
 3840.00    0.72767   0.78966   32.361
 3841.00    0.75106   0.82094   31.894
 3842.00    0.77088   0.84667   31.286
 3843.00    0.78433   0.86694   31.939
 3844.00    0.80046   0.88235   32.687
 3845.00    0.82817   0.89380   31.846
 3846.00    0.86023   0.90239   30.653
 3847.00    0.88477   0.90923    0.000
 3848.00    0.90011   0.91507    0.000
 3849.00    0.90951   0.92001    0.000
 3850.00    0.91404   0.92356    0.000
 3851.00    0.91460   0.92512    0.000
 3852.00    0.91427   0.92462    0.000
 3853.00    0.91501   0.92270    0.000
 3854.00    0.91531   0.92043    0.000
 3855.00    0.91684   0.91885    0.000
 3856.00    0.92857   0.91872    0.000
 3857.00    0.95267   0.92039    0.000
 3858.00    0.97578   0.92374    0.000
 3859.00    0.98808   0.92803    0.000
 3860.00    0.99510   0.93216    0.000
 3861.00    1.00042   0.93505    0.000
 3862.00    0.99621   0.93622    0.000
 3863.00    0.98015   0.93576    0.000
 3864.00    0.96320   0.93402    0.000
 3865.00    0.95222   0.93109    0.000
 3866.00    0.94174   0.92668    0.000
 3867.00    0.92507   0.92055    0.000
 3868.00    0.90082   0.91309    0.000
 3869.00    0.87408   0.90538    0.000
 3870.00    0.85446   0.89855    0.000
 3871.00    0.84596   0.89289    0.000
 3872.00    0.84394   0.88756    0.000
 3873.00    0.84214   0.88118    0.000
 3874.00    0.83633   0.87281    0.000
 3875.00    0.82645   0.86246    0.000
 3876.00    0.81526   0.85063    0.000
 3877.00    0.80111   0.83754    0.000
 3878.00    0.77843   0.82260    0.000
 3879.00    0.74782   0.80454    0.000
 3880.00    0.71638   0.78192    0.000
 3881.00    0.68857   0.75375   38.889
 3882.00    0.66540   0.72011   38.679
 3883.00    0.64983   0.68295   37.311
 3884.00    0.64470   0.64651   36.829
 3885.00    0.64400   0.61683   37.641
 3886.00    0.63774   0.60001   38.782
 3887.00    0.62829   0.59998   39.519
 3888.00    0.62679   0.61675   39.717
 3889.00    0.63702   0.64650   39.530
 3890.00    0.65619   0.68319   39.296
 3891.00    0.68367   0.72092   39.485
 3892.00    0.71943   0.75565   40.249
 3893.00    0.75808   0.78554   40.535
 3894.00    0.79157   0.81041   39.414
 3895.00    0.81558   0.83102   38.616
 3896.00    0.83073   0.84839   40.139
 3897.00    0.84233   0.86344   42.937
 3898.00    0.85519   0.87664   44.034
 3899.00    0.86662   0.88803   43.203
 3900.00    0.87443   0.89750   42.394
 3901.00    0.88831   0.90530   42.503
 3902.00    0.91800   0.91228   43.171
 3903.00    0.95717   0.91966   42.860
 3904.00    0.99114   0.92832   40.695
 3905.00    1.00878   0.93823   38.248
 3906.00    1.00928   0.94839   37.058
 3907.00    1.00656   0.95732   37.246
 3908.00    1.01329   0.96384   38.215
 3909.00    1.02556   0.96747   38.892
 3910.00    1.03515   0.96844   38.574
 3911.00    1.04129   0.96724   -1.000
 3912.00    1.04338   0.96419   -1.000
 3913.00    1.03485   0.95935   -1.000
 3914.00    1.01099   0.95268   39.553
 3915.00    0.97530   0.94459   40.012
 3916.00    0.93758   0.93611   39.631
 3917.00    0.91085   0.92867   40.056
 3918.00    0.90267   0.92337   41.745
 3919.00    0.90984   0.92028   42.187
 3920.00    0.92171   0.91820   40.254
 3921.00    0.92439   0.91524   38.628
 3922.00    0.91142   0.90962   38.719
 3923.00    0.88753   0.90032   39.475
 3924.00    0.85601   0.88717   40.126
 3925.00    0.81348   0.87047   41.325
 3926.00    0.75883   0.85064   -1.000
 3927.00    0.69804   0.82823   -1.000
 3928.00    0.64459   0.80450   -1.000
 3929.00    0.61514   0.78201   -1.000
 3930.00    0.61143   0.76458   -1.000
 3931.00    0.61903   0.75624   -1.000
 3932.00    0.63227   0.75955   -1.000
 3933.00    0.65891   0.77436   -1.000
 3934.00    0.70117   0.79773   41.348
 3935.00    0.75116   0.82503   42.812
 3936.00    0.79916   0.85165   43.673
 3937.00    0.83756   0.87418   42.889
 3938.00    0.86411   0.89099   40.507
 3939.00    0.88136   0.90219   37.820
 3940.00    0.89253   0.90915   36.972
 3941.00    0.90052   0.91380   39.418
 3942.00    0.90856   0.91778   41.292
 3943.00    0.91939   0.92187   36.957
 3944.00    0.93294   0.92599   35.299
 3945.00    0.94676   0.92958   46.374
 3946.00    0.95841   0.93208   46.715
 3947.00    0.96574   0.93316   24.624
 3948.00    0.96654   0.93269   27.444
 3949.00    0.96077   0.93059   -2.000
 3950.00    0.95457   0.92687   -2.000
 3951.00    0.95486   0.92160    6.428
 3952.00    0.95904   0.91490   10.278
 3953.00    0.95891   0.90679   -2.000
 3954.00    0.94986   0.89710   -2.000
 3955.00    0.93035   0.88520    0.921
 3956.00    0.89910   0.87010    2.526
 3957.00    0.85754   0.85075   -2.000
 3958.00    0.81334   0.82652   -2.000
 3959.00    0.77374   0.79742    0.116
 3960.00    0.73678   0.76391    0.000
 3961.00    0.69822   0.72650   -2.000
 3962.00    0.66039   0.68569   -2.000
 3963.00    0.62762   0.64254    0.000
 3964.00    0.60033   0.59949   -2.000
 3965.00    0.57748   0.56076   -2.000
 3966.00    0.55971   0.53182    0.000
 3967.00    0.54885   0.51793    0.000
 3968.00    0.54684   0.52215   -2.000
 3969.00    0.55331   0.54414   -2.000
 3970.00    0.56411   0.58023    0.000
 3971.00    0.57670   0.62483    0.000
 3972.00    0.59401   0.67221   -2.000
 3973.00    0.61920   0.71793   -2.000
 3974.00    0.65175   0.75928    0.000
 3975.00    0.68912   0.79502    0.000
 3976.00    0.72814   0.82482   -2.000
 3977.00    0.76571   0.84887   -2.000
 3978.00    0.79906   0.86777    0.000
 3979.00    0.82504   0.88262    0.000
 3980.00    0.84042   0.89491   -2.000
 3981.00    0.84657   0.90605   -2.000
 3982.00    0.85055   0.91699    0.000
 3983.00    0.85806   0.92797    0.000
 3984.00    0.87028   0.93865   -2.000
 3985.00    0.88641   0.94848   -2.000
 3986.00    0.90481   0.95709    0.000
 3987.00    0.92268   0.96430    0.000
 3988.00    0.93657   0.97008   -2.000
 3989.00    0.94473   0.97433   -2.000
 3990.00    0.94783   0.97689    0.000
 3991.00    0.94800   0.97772    0.000
 3992.00    0.94849   0.97722   -2.000
 3993.00    0.95426   0.97632   -2.000
 3994.00    0.97012   0.97622    0.000
 3995.00    0.99493   0.97783    0.000
 3996.00    1.02217   0.98125   -2.000
 3997.00    1.04667   0.98561   -2.000
 3998.00    1.06623   0.98940    0.000
 3999.00    1.08046   0.99107    0.000
 4000.00    1.08924   0.98982    0.000
 4001.00    1.09003   0.98592    0.000
 4002.00    1.07945   0.98073    0.000
 4003.00    1.05828   0.97606    0.000
 4004.00    1.03088   0.97344    0.000
 4005.00    1.00155   0.97359    0.000
 4006.00    0.97297   0.97636    0.000
 4007.00    0.94504   0.98109    0.000
 4008.00    0.91808   0.98696    0.000
 4009.00    0.89877   0.99322    0.000
 4010.00    0.89630   0.99923    0.000
 4011.00    0.91413   1.00452    0.000
 4012.00    0.94719   1.00883    0.000
 4013.00    0.98039   1.01213    0.000
 4014.00    1.00000   1.01449    0.000
 4015.00    1.00919   1.01590    0.000
 4016.00    1.01677   1.01604   -2.000
 4017.00    1.02054   1.01424   -2.000
 4018.00    1.01660   1.00971    0.000
 4019.00    1.01225   1.00211    0.000
 4020.00    1.01433   0.99196    0.000
 4021.00    1.01578   0.98094   -2.000
 4022.00    1.00948   0.97135   -2.000
 4023.00    1.00272   0.96526    0.000
 4024.00    1.00360   0.96342    0.000
 4025.00    1.00765   0.96489   -2.000
 4026.00    1.00729   0.96760   -2.000
 4027.00    1.00100   0.96968    0.000
 4028.00    0.99054   0.97055    0.000
 4029.00    0.97829   0.97115   -2.000
 4030.00    0.96879   0.97320   -2.000
 4031.00    0.96923   0.97813    0.000
 4032.00    0.98333   0.98623    0.000
 4033.00    1.00740   0.99652   -2.000
 4034.00    1.03307   1.00705   -2.000
 4035.00    1.05024   1.01563    0.000
 4036.00    1.05285   1.02060    0.000
 4037.00    1.04204   1.02121   -2.000
 4038.00    1.02485   1.01763   -2.000
 4039.00    1.01140   1.01060    0.000
 4040.00    1.00528   1.00137    0.000
 4041.00    1.00139   0.99164   -2.000
 4042.00    0.99876   0.98363   -2.000
 4043.00    1.00310   0.97949    0.000
 4044.00    1.01109   0.98038    0.000
 4045.00    1.00862   0.98575   -2.000
 4046.00    0.99226   0.99350   -2.000
 4047.00    0.97358   1.00082    0.000
 4048.00    0.96247   1.00547    0.000
 4049.00    0.96090   1.00646   -2.000
 4050.00    0.96393   1.00413   -2.000
 4051.00    0.96346   0.99974    0.002
 4052.00    0.95848   0.99478    0.003
 4053.00    0.95512   0.99045   -2.000
 4054.00    0.95728   0.98737   -2.000
 4055.00    0.96406   0.98547    0.012
 4056.00    0.97079   0.98413    0.029
 4057.00    0.97270   0.98237   -2.000
 4058.00    0.97266   0.97940   -2.000
 4059.00    0.97712   0.97511    0.089
 4060.00    0.98257   0.97033    0.273
 4061.00    0.98060   0.96638   -2.000
 4062.00    0.97480   0.96428   -2.000
 4063.00    0.97552   0.96413    0.662
 4064.00    0.98279   0.96502    2.584
 4065.00    0.98983   0.96559   -2.000
 4066.00    0.99540   0.96476   -2.000
 4067.00    1.00045   0.96223    4.565
 4068.00    0.99906   0.95845   17.896
 4069.00    0.98430   0.95412   -2.000
 4070.00    0.95931   0.94965   70.277
 4071.00    0.93341   0.94498   21.837
 4072.00    0.91399   0.93997   42.514
 4073.00    0.90474   0.93507   70.277
 4074.00    0.90492   0.93152   47.509
 4075.00    0.91173   0.93079   41.731
 4076.00    0.92323   0.93345   50.340
 4077.00    0.93744   0.93861   53.327
 4078.00    0.95106   0.94418   48.050
 4079.00    0.96139   0.94799   45.750
 4080.00    0.96834   0.94886   46.973
 4081.00    0.97237   0.94709   48.921
 4082.00    0.97246   0.94392   49.476
 4083.00    0.96692   0.94063   47.934
 4084.00    0.95455   0.93773   45.348
 4085.00    0.93603   0.93482   43.401
 4086.00    0.91455   0.93086   43.526
 4087.00    0.89140   0.92474   45.866
 4088.00    0.86382   0.91557   48.190
 4089.00    0.83393   0.90275   -1.000
 4090.00    0.81283   0.88588   -1.000
 4091.00    0.80406   0.86466   46.405
 4092.00    0.79502   0.83891    0.000
 4093.00    0.77373   0.80874    0.000
 4094.00    0.73957   0.77466    0.000
 4095.00    0.70331   0.73789    0.000
 4096.00    0.68338   0.70080    0.000
 4097.00    0.68836   0.66710    0.000
 4098.00    0.71015   0.64161    0.000
 4099.00    0.73608   0.62901    0.000
 4100.00    0.75583   0.63208    0.000
 4101.00    0.76548   0.65030    0.000
 4102.00    0.76806   0.67996    0.000
 4103.00    0.76938   0.71540    0.000
 4104.00    0.77516   0.75112    0.000
 4105.00    0.78723   0.78330    0.000
 4106.00    0.80356   0.81039    0.000
 4107.00    0.82331   0.83268    0.000
 4108.00    0.84704   0.85146    0.000
 4109.00    0.87183   0.86797    0.000
 4110.00    0.89212   0.88285    0.000
 4111.00    0.90716   0.89594    0.000
 4112.00    0.92026   0.90657    0.000
 4113.00    0.93084   0.91401   45.947
 4114.00    0.93524   0.91807   47.758
 4115.00    0.93458   0.91935   50.663
 4116.00    0.93357   0.91927   52.214
 4117.00    0.93351   0.91960   51.126
 4118.00    0.93235   0.92183   48.537
 4119.00    0.92857   0.92656   46.640
 4120.00    0.92239   0.93319   46.975
 4121.00    0.91635   0.94024   49.153
 4122.00    0.91382   0.94592   51.454
 4123.00    0.91594   0.94892   52.586
 4124.00    0.92171   0.94882   52.274
 4125.00    0.92908   0.94612   50.925
 4126.00    0.93633   0.94198   49.415
 4127.00    0.94373   0.93774   48.885
 4128.00    0.95288   0.93471   49.960
 4129.00    0.96510   0.93397   51.714
 4130.00    0.97918   0.93628   52.547
 4131.00    0.98894   0.94178   52.234
 4132.00    0.98937   0.94982   51.188
 4133.00    0.98420   0.95898   49.012
 4134.00    0.97995   0.96739   46.198
 4135.00    0.97833   0.97308   45.120
 4136.00    0.97807   0.97452   47.151
 4137.00    0.97781   0.97094   50.522
 4138.00    0.97581   0.96285   52.069
 4139.00    0.96975   0.95219   51.379
 4140.00    0.96173   0.94204   50.161
 4141.00    0.96155   0.93556   49.823
 4142.00    0.97534   0.93462   50.686
 4143.00    0.99677   0.93896   51.700
 4144.00    1.01672   0.94647   -1.000
 4145.00    1.03105   0.95432   -1.000
 4146.00    1.03788   0.96028   -1.000
 4147.00    1.03591   0.96339   -1.000
 4148.00    1.02878   0.96388   -1.000
 4149.00    1.02619   0.96267   -1.000
 4150.00    1.03189   0.96085   -1.000
 4151.00    1.03792   0.95944   -1.000
 4152.00    1.03635   0.95922   -1.000
 4153.00    1.02600   0.96068   -1.000
 4154.00    1.01121   0.96383   52.446
 4155.00    0.99949   0.96825   52.106
 4156.00    0.99439   0.97318   50.732
 4157.00    0.99282   0.97778   50.911
 4158.00    0.98927   0.98141   53.211
 4159.00    0.97887   0.98368   54.939
 4160.00    0.96173   0.98448   54.105
 4161.00    0.94303   0.98384   51.867
 4162.00    0.92634   0.98189   50.157
 4163.00    0.91217   0.97884   -1.000
 4164.00    0.90203   0.97485   -1.000
 4165.00    0.89848   0.97003   -1.000
 4166.00    0.90009   0.96438   -1.000
 4167.00    0.90274   0.95791   53.231
 4168.00    0.90838   0.95095   51.639
 4169.00    0.92317   0.94425   50.811
 4170.00    0.94510   0.93888   51.214
 4171.00    0.96479   0.93571   52.462
 4172.00    0.97660   0.93507   53.583
 4173.00    0.98056   0.93661   53.519
 4174.00    0.97988   0.93960   52.573
 4175.00    0.97862   0.94334   51.793
 4176.00    0.97786   0.94729   51.049
 4177.00    0.97599   0.95108   49.826
 4178.00    0.97099   0.95440   49.179
 4179.00    0.96233   0.95695   50.512
 4180.00    0.95365   0.95849   53.141
 4181.00    0.94894   0.95894   54.645
 4182.00    0.94551   0.95841   53.633
 4183.00    0.93795   0.95729   50.980
 4184.00    0.92633   0.95621   48.924
 4185.00    0.91530   0.95596   49.111
 4186.00    0.91062   0.95714   51.514
 4187.00    0.91579   0.95985   54.806
 4188.00    0.92814   0.96352   56.403
 4189.00    0.94025   0.96701   54.592
 4190.00    0.94280   0.96894   51.551
 4191.00    0.93114   0.96814   49.976
 4192.00    0.91210   0.96418   50.555
 4193.00    0.89690   0.95752   -1.000
 4194.00    0.89251   0.94943   55.273
 4195.00    0.90081   0.94160   56.280
 4196.00    0.91870   0.93554   56.099
 4197.00    0.93981   0.93223   55.380
 4198.00    0.95653   0.93197   53.567
 4199.00    0.96391   0.93449   51.089
 4200.00    0.96270   0.93920   50.266
 4201.00    0.95758   0.94536   52.168
 4202.00    0.95519   0.95221   54.950
 4203.00    0.96144   0.95898   56.100
 4204.00    0.97923   0.96500   55.394
 4205.00    1.00516   0.96977   53.820
 4206.00    1.02873   0.97297   52.108
 4207.00    1.04106   0.97450   -1.000
 4208.00    1.04001   0.97436   -1.000
 4209.00    1.02734   0.97261   53.726
 4210.00    1.00664   0.96952   55.736
 4211.00    0.98242   0.96574   56.207
 4212.00    0.95959   0.96233   55.605
 4213.00    0.94337   0.96044   54.855
 4214.00    0.93815   0.96070   54.410
 4215.00    0.94237   0.96277   54.393
 4216.00    0.94809   0.96521   54.725
 4217.00    0.94933   0.96603   55.246
 4218.00    0.94504   0.96335   55.758
 4219.00    0.93662   0.95614   56.029
 4220.00    0.92668   0.94474   55.828
 4221.00    0.91835   0.93089   55.002
 4222.00    0.91464   0.91749   53.682
 4223.00    0.91715   0.90774   52.722
 4224.00    0.92593   0.90410   53.229
 4225.00    0.94019   0.90725   55.198
 4226.00    0.95777   0.91569   57.427
 4227.00    0.97291   0.92639   58.793
 4228.00    0.97908   0.93603   58.816
 4229.00    0.97776   0.94234   57.460
 4230.00    0.97633   0.94474   55.271
 4231.00    0.97745   0.94418   53.670
 4232.00    0.97846   0.94230   53.914
 4233.00    0.97599   0.94068   55.474
 4234.00    0.96895   0.94035   56.698
 4235.00    0.96235   0.94170   57.292
 4236.00    0.96349   0.94466   57.862
 4237.00    0.97326   0.94884   57.431
 4238.00    0.98641   0.95370   54.967
 4239.00    0.99498   0.95847   52.485
 4240.00    0.99151   0.96227   52.315
 4241.00    0.97315   0.96422   54.237
 4242.00    0.94315   0.96371   56.505
 4243.00    0.91174   0.96060   57.482
 4244.00    0.89046   0.95545   -1.000
 4245.00    0.88411   0.94929   -1.000
 4246.00    0.89008   0.94328   51.322
 4247.00    0.89958   0.93834   50.871
 4248.00    0.90574   0.93497   53.523
 4249.00    0.91231   0.93324   57.968
 4250.00    0.92405   0.93301   61.104
 4251.00    0.93568   0.93399   61.003
 4252.00    0.94090   0.93577   58.505
 4253.00    0.94221   0.93768   56.125
 4254.00    0.94533   0.93905   55.176
 4255.00    0.95300   0.93949   54.759
 4256.00    0.96579   0.93929   54.174
 4257.00    0.98305   0.93941   54.516
 4258.00    1.00152   0.94093   -1.000
 4259.00    1.01492   0.94435   -1.000
 4260.00    1.02039   0.94906   -1.000
 4261.00    1.02214   0.95349   -1.000
 4262.00    1.02214   0.95582   -1.000
 4263.00    1.01488   0.95477   53.223
 4264.00    0.99732   0.95003   54.556
 4265.00    0.97419   0.94220   57.008
 4266.00    0.95006   0.93244   58.955
 4267.00    0.92521   0.92216   59.373
 4268.00    0.90051   0.91282   58.317
 4269.00    0.87966   0.90576   56.755
 4270.00    0.86645   0.90209   55.379
 4271.00    0.86317   0.90238   54.247
 4272.00    0.86989   0.90648   53.245
 4273.00    0.88459   0.91341   52.416
 4274.00    0.90462   0.92155   52.527
 4275.00    0.92701   0.92905   54.703
 4276.00    0.94727   0.93448   -2.000
 4277.00    0.96011   0.93710   -2.000
 4278.00    0.96381   0.93703   -2.000
 4279.00    0.95999   0.93496   -2.000
 4280.00    0.94751   0.93175   -2.000
 4281.00    0.92256   0.92794   -2.000
 4282.00    0.88589   0.92364   -2.000
 4283.00    0.84538   0.91873   -2.000
 4284.00    0.81649   0.91320   -2.000
 4285.00    0.81410   0.90753   -2.000
 4286.00    0.83123   0.90271   -2.000
 4287.00    0.84602   0.89976   -2.000
 4288.00    0.85251   0.89924   -2.000
 4289.00    0.85931   0.90078   -2.000
 4290.00    0.86920   0.90313   -2.000
 4291.00    0.87798   0.90459   -2.000
 4292.00    0.88215   0.90363   56.900
 4293.00    0.88078   0.89938   57.599
 4294.00    0.87589   0.89191   58.433
 4295.00    0.87046   0.88214   58.209
 4296.00    0.86495   0.87154   56.824
 4297.00    0.85883   0.86170   55.260
 4298.00    0.85388   0.85391   54.582
 4299.00    0.85202   0.84877   55.313
 4300.00    0.85116   0.84604   56.755
 4301.00    0.84736   0.84482   57.813
 4302.00    0.83893   0.84409   58.639
 4303.00    0.82808   0.84322   59.589
 4304.00    0.82208   0.84233   59.360
 4305.00    0.82652   0.84215   57.302
 4306.00    0.83756   0.84366   55.972
 4307.00    0.84786   0.84758   57.406
 4308.00    0.85432   0.85410   60.122
 4309.00    0.85829   0.86295   61.579
 4310.00    0.86461   0.87360   62.089
 4311.00    0.87779   0.88545   62.810
 4312.00    0.89847   0.89772   62.860
 4313.00    0.92430   0.90934   61.320
 4314.00    0.95109   0.91898   59.175
 4315.00    0.97323   0.92522   57.525
 4316.00    0.98446   0.92696   -1.000
 4317.00    0.98090   0.92369   -1.000
 4318.00    0.96328   0.91566   58.011
 4319.00    0.93508   0.90383   61.434
 4320.00    0.90102   0.88990   63.795
 4321.00    0.86652   0.87613   62.956
 4322.00    0.83694   0.86486   60.781
 4323.00    0.81554   0.85779   59.070
 4324.00    0.80237   0.85532   57.645
 4325.00    0.79533   0.85630   -1.000
 4326.00    0.79114   0.85852   -1.000
 4327.00    0.78721   0.85943   -1.000
 4328.00    0.78265   0.85689   -1.000
 4329.00    0.77881   0.84947   -1.000
 4330.00    0.77829   0.83627    0.000
 4331.00    0.77999   0.81661    0.000
 4332.00    0.77976   0.79021    0.000
 4333.00    0.78214   0.75771    0.000
 4334.00    0.80047   0.72133    0.000
 4335.00    0.83960   0.68504    0.000
 4336.00    0.89025   0.65407    0.000
 4337.00    0.93311   0.63365    0.000
 4338.00    0.94614   0.62727    0.000
 4339.00    0.92221   0.63564    0.000
 4340.00    0.87200   0.65658    0.000
 4341.00    0.81534   0.68585    0.000
 4342.00    0.77307   0.71851    0.000
 4343.00    0.75277   0.75009    0.000
 4344.00    0.74952   0.77751    0.000
 4345.00    0.75769   0.79925    0.000
 4346.00    0.77294   0.81514    0.000
 4347.00    0.78996   0.82622    0.000
 4348.00    0.80465   0.83445    0.000
 4349.00    0.81989   0.84205    0.000
 4350.00    0.84098   0.85073    0.000
 4351.00    0.86456   0.86120   57.268
 4352.00    0.88288   0.87314   56.815
 4353.00    0.89528   0.88542   57.067
 4354.00    0.90484   0.89682   57.418
 4355.00    0.90942   0.90667   57.922
 4356.00    0.90622   0.91504   59.005
 4357.00    0.90064   0.92242   60.725
 4358.00    0.90054   0.92920   62.510
 4359.00    0.90617   0.93540   62.973
 4360.00    0.91226   0.94061   61.081
 4361.00    0.91319   0.94418   57.779
 4362.00    0.90816   0.94560   55.076
 4363.00    0.90596   0.94486   54.935
 4364.00    0.91404   0.94252   58.163
 4365.00    0.92630   0.93934   62.619
 4366.00    0.93321   0.93595   64.668
 4367.00    0.93352   0.93267   64.050
 4368.00    0.92957   0.92955   62.446
 4369.00    0.92189   0.92660   60.148
 4370.00    0.91261   0.92407   57.709
 4371.00    0.90816   0.92258   56.965
 4372.00    0.91166   0.92278   58.515
 4373.00    0.91756   0.92484   60.130
 4374.00    0.92145   0.92802   60.229
 4375.00    0.92654   0.93061   61.052
 4376.00    0.93338   0.93051   64.106
 4377.00    0.93368   0.92625   66.707
 4378.00    0.92247   0.91760   66.013
 4379.00    0.90521   0.90584   63.387
 4380.00    0.88971   0.89337   61.268
 4381.00    0.88090   0.88298   60.848
 4382.00    0.88112   0.87682   61.938
 4383.00    0.89021   0.87575   63.089
 4384.00    0.90436   0.87935   63.544
 4385.00    0.91680   0.88638   64.154
 4386.00    0.92395   0.89519   65.234
 4387.00    0.92747   0.90428   65.718
 4388.00    0.92964   0.91269   64.900
 4389.00    0.93184   0.92000   63.270
 4390.00    0.93684   0.92614   61.776
 4391.00    0.94830   0.93130   61.190
 4392.00    0.96523   0.93564   61.299
 4393.00    0.98133   0.93918   61.217
 4394.00    0.99061   0.94179   61.387
 4395.00    0.98990   0.94324   63.263
 4396.00    0.98045   0.94310   65.803
 4397.00    0.96692   0.94110   65.487
 4398.00    0.95292   0.93746   62.864
 4399.00    0.94002   0.93283   61.684
 4400.00    0.92882   0.92789   62.035
 4401.00    0.92014   0.92347   61.463
 4402.00    0.91704   0.92061   60.496
 4403.00    0.92298   0.92014   61.651
 4404.00    0.93631   0.92241   64.473
 4405.00    0.95153   0.92722   65.954
 4406.00    0.96482   0.93360   65.518
 4407.00    0.97473   0.93985   64.973
 4408.00    0.98111   0.94429   64.531
 4409.00    0.98502   0.94580   63.418
 4410.00    0.98887   0.94417   62.253
 4411.00    0.99468   0.94040   -1.000
 4412.00    1.00115   0.93645   -1.000
 4413.00    1.00538   0.93425   -1.000
 4414.00    1.00642   0.93490   -1.000
 4415.00    1.00481   0.93834   -1.000
 4416.00    1.00111   0.94351   -1.000
 4417.00    0.99526   0.94886   66.629
 4418.00    0.98625   0.95297   66.106
 4419.00    0.97339   0.95514   64.204
 4420.00    0.95810   0.95548   62.204
 4421.00    0.94285   0.95470   61.107
 4422.00    0.92984   0.95352   61.195
 4423.00    0.92087   0.95229   62.171
 4424.00    0.91737   0.95122   63.183
 4425.00    0.92039   0.95032   63.658
 4426.00    0.93021   0.94925   64.212
 4427.00    0.94423   0.94763   65.345
 4428.00    0.95556   0.94522   66.099
 4429.00    0.95834   0.94226   64.920
 4430.00    0.95219   0.93940   61.191
 4431.00    0.94067   0.93756   56.727
 4432.00    0.92930   0.93759   54.691
 4433.00    0.92235   0.93980   55.725
 4434.00    0.92063   0.94369   56.929
 4435.00    0.92122   0.94792   56.280
 4436.00    0.91806   0.95100   55.866
 4437.00    0.90651   0.95203   57.292
 4438.00    0.88642   0.95122   -1.000
 4439.00    0.86408   0.94948   -1.000
 4440.00    0.85119   0.94806   -1.000
 4441.00    0.85406   0.94808   -1.000
 4442.00    0.86913   0.95002   -1.000
 4443.00    0.88982   0.95332   -1.000
 4444.00    0.91011   0.95689   56.293
 4445.00    0.92458   0.95968   56.558
 4446.00    0.92923   0.96081   58.406
 4447.00    0.92531   0.95970   61.125
 4448.00    0.91869   0.95620   62.931
 4449.00    0.91183   0.95067   63.093
 4450.00    0.90222   0.94397   62.709
 4451.00    0.88868   0.93700   62.373
 4452.00    0.87304   0.93053   -1.000
 4453.00    0.85825   0.92525   -1.000
 4454.00    0.84747   0.92158   -1.000
 4455.00    0.84320   0.91953   -1.000
 4456.00    0.84652   0.91904   -1.000
 4457.00    0.85548   0.92004   -1.000
 4458.00    0.86631   0.92220   -1.000
 4459.00    0.87747   0.92504   61.486
 4460.00    0.88957   0.92803   61.388
 4461.00    0.90247   0.93045    0.000
 4462.00    0.91500   0.93154    0.000
 4463.00    0.92588   0.93074    0.000
 4464.00    0.93433   0.92805    0.000
 4465.00    0.94088   0.92421    0.000
 4466.00    0.94660   0.92086    0.000
 4467.00    0.95158   0.91970    0.000
 4468.00    0.95507   0.92177    0.000
 4469.00    0.95648   0.92729    0.000
 4470.00    0.95615   0.93568    0.000
 4471.00    0.95633   0.94554    0.000
 4472.00    0.95876   0.95477    0.000
 4473.00    0.96112   0.96110    0.000
 4474.00    0.95983   0.96292    0.000
 4475.00    0.95455   0.96016    0.000
 4476.00    0.94742   0.95440    0.000
 4477.00    0.94124   0.94811    0.000
 4478.00    0.93935   0.94367    0.000
 4479.00    0.94541   0.94279    0.000
 4480.00    0.96065   0.94582    0.000
 4481.00    0.98126   0.95151    0.000
 4482.00    1.00152   0.95772   64.366
 4483.00    1.01746   0.96241   -1.000
 4484.00    1.02699   0.96458   -1.000
 4485.00    1.02986   0.96434   -1.000
 4486.00    1.02744   0.96253   -1.000
 4487.00    1.02253   0.96013   -1.000
 4488.00    1.01795   0.95791   -1.000
 4489.00    1.01540   0.95644   -1.000
 4490.00    1.01466   0.95588   -1.000
 4491.00    1.01345   0.95626   -1.000
 4492.00    1.01061   0.95762   -1.000
 4493.00    1.00785   0.95993   -1.000
 4494.00    1.00697   0.96289   68.662
 4495.00    1.00822   0.96626   67.509
 4496.00    1.01142   0.97023   65.519
 4497.00    1.01612   0.97502   63.943
 4498.00    1.01866   0.98036   63.128
 4499.00    1.01249   0.98579   62.537
 4500.00    0.99833   0.99080   62.046
 4501.00    0.98629   0.99484   62.263
 4502.00    0.98192   0.99753   63.332
 4503.00    0.98176   0.99884   64.566
 4504.00    0.98246   0.99890   65.333
 4505.00    0.98392   0.99783   65.554
 4506.00    0.98559   0.99570   65.637
 4507.00    0.98518   0.99273   66.124
 4508.00    0.97968   0.98914   66.670
 4509.00    0.96746   0.98517   66.214
 4510.00    0.95373   0.98124   64.988
 4511.00    0.94834   0.97761   64.355
 4512.00    0.95355   0.97453   64.597
 4513.00    0.96352   0.97239   65.042
 4514.00    0.97394   0.97136   65.939
 4515.00    0.98289   0.97115   67.794
 4516.00    0.98571   0.97094   67.778
 4517.00    0.97764   0.96999   63.661
 4518.00    0.96343   0.96796   63.742
 4519.00    0.95162   0.96454   70.277
 4520.00    0.93700   0.95947   70.277
 4521.00    0.90987   0.95291   42.573
 4522.00    0.88278   0.94525   26.635
 4523.00    0.87786   0.93721   23.221
 4524.00    0.89268   0.92984   24.487
 4525.00    0.90790   0.92404   25.185
 4526.00    0.91272   0.92036   24.319
 4527.00    0.90707   0.91855   24.125
 4528.00    0.89733   0.91799   24.867
 4529.00    0.89072   0.91855   25.508
 4530.00    0.88766   0.92062   25.559
 4531.00    0.88130   0.92459   25.240
 4532.00    0.85967   0.93027   24.979
 4533.00    0.82553   0.93686   25.050
 4534.00    0.81833   0.94338   -1.000
 4535.00    0.86866   0.94902   25.464
 4536.00    0.94322   0.95341   25.365
 4537.00    0.98464   0.95647   25.082
 4538.00    0.96415   0.95800   24.812
 4539.00    0.89695   0.95799   24.740
 4540.00    0.84584   0.95697   24.938
 4541.00    0.85457   0.95546   25.305
 4542.00    0.89060   0.95342   25.527
 4543.00    0.91311   0.95048   25.413
 4544.00    0.93189   0.94684   25.191
 4545.00    0.95582   0.94328   25.131
 4546.00    0.95421   0.94008   25.251
 4547.00    0.91646   0.93721   25.448
 4548.00    0.88982   0.93492   25.596
 4549.00    0.90749   0.93353   25.593
 4550.00    0.94295   0.93345    0.000
 4551.00    0.95721   0.93529    0.000
 4552.00    0.93401   0.93923    0.000
 4553.00    0.89312   0.94483    0.000
 4554.00    0.88334   0.95141    0.000
 4555.00    0.90532   0.95827    0.000
 4556.00    0.89310   0.96450    0.000
 4557.00    0.83987   0.96893    0.000
 4558.00    0.83185   0.97081    0.000
 4559.00    0.89811   0.97043    0.000
 4560.00    0.96465   0.96886    0.000
 4561.00    0.97268   0.96732    0.000
 4562.00    0.92653   0.96667    0.000
 4563.00    0.86859   0.96709    0.000
 4564.00    0.85077   0.96820    0.000
 4565.00    0.87190   0.96918    0.000
 4566.00    0.88430   0.96942    0.000
 4567.00    0.89456   0.96935    0.000
 4568.00    0.95671   0.96942    0.000
 4569.00    1.04197   0.96942    0.000
 4570.00    1.05418   0.96942    0.000
 4571.00    0.99437   0.96965    0.000
 4572.00    0.95284   0.96981    0.000
 4573.00    0.95781   0.96917    0.000
 4574.00    0.96971   0.96715    0.000
 4575.00    0.97054   0.96376    0.000
 4576.00    0.97126   0.95949    0.000
 4577.00    0.97599   0.95499    0.000
 4578.00    0.97674   0.95087    0.000
 4579.00    0.96057   0.94771    0.000
 4580.00    0.91963   0.94594    0.000
 4581.00    0.86715   0.94564    0.000
 4582.00    0.83179   0.94683    0.000
 4583.00    0.84089   0.94917    0.000
 4584.00    0.89917   0.95184    0.000
 4585.00    0.96106   0.95394    0.000
 4586.00    0.97511   0.95496    0.000
 4587.00    0.95669   0.95500    0.000
 4588.00    0.94444   0.95437    0.000
 4589.00    0.92552   0.95324    0.000
 4590.00    0.88027   0.95189    0.000
 4591.00    0.85066   0.95086    0.000
 4592.00    0.88076   0.95060    0.000
 4593.00    0.93751   0.95108    0.000
 4594.00    0.96684   0.95194    0.000
 4595.00    0.96520   0.95257    0.000
 4596.00    0.95051   0.95285    0.000
 4597.00    0.92518   0.95316    0.000
 4598.00    0.89409   0.95373    0.000
 4599.00    0.88253   0.95462    0.000
 4600.00    0.90704   0.95590    0.000
 4601.00    0.94959   0.95784    0.000
 4602.00    0.97539   0.96076    0.000
 4603.00    0.95452   0.96471    0.000
 4604.00    0.90062   0.96916    0.000
 4605.00    0.88639   0.97319    0.000
 4606.00    0.94656   0.97629    0.000
 4607.00    1.02072   0.97824    0.000
 4608.00    1.04601   0.97902    0.000
 4609.00    1.01809   0.97905    0.000
 4610.00    0.97031   0.97858    0.000
 4611.00    0.95119   0.97750    0.000
 4612.00    0.98226   0.97621    0.000
 4613.00    1.03941   0.97477    0.000
 4614.00    1.07907   0.97322    0.000
 4615.00    1.06255   0.97233    0.000
 4616.00    1.00214   0.97250    0.000
 4617.00    0.96305   0.97329    0.000
 4618.00    0.97522   0.97449    0.000
 4619.00    1.00821   0.97589    0.000
 4620.00    1.03270   0.97689    0.000
 4621.00    1.04375   0.97721    0.000
 4622.00    1.04838   0.97698    0.000
 4623.00    1.05199   0.97590    0.000
 4624.00    1.02998   0.97378    0.000
 4625.00    0.94990   0.97153    0.000
 4626.00    0.87107   0.96991    0.000
 4627.00    0.90644   0.96849    0.000
 4628.00    1.01849   0.96671    0.000
 4629.00    1.05202   0.96473    0.000
 4630.00    0.98850   0.96268    0.000
 4631.00    0.94222   0.96043    0.000
 4632.00    0.97124   0.95775    0.000
 4633.00    1.04647   0.95466    0.000
 4634.00    1.09662   0.95154    0.000
 4635.00    1.05851   0.94897    0.000
 4636.00    0.95820   0.94745    0.000
 4637.00    0.87857   0.94686    0.000
 4638.00    0.86064   0.94659    0.000
 4639.00    0.89615   0.94602    0.000
 4640.00    0.95159   0.94447    0.000
 4641.00    0.98532   0.94136    0.000
 4642.00    0.96970   0.93705    0.000
 4643.00    0.91174   0.93269    0.000
 4644.00    0.87580   0.92930    0.000
 4645.00    0.91613   0.92758    0.000
 4646.00    0.97927   0.92789    0.000
 4647.00    0.97925   0.93014    0.000
 4648.00    0.91504   0.93375    0.000
 4649.00    0.84261   0.93762    0.000
 4650.00    0.81819   0.94125    0.000
 4651.00    0.86011   0.94476    0.000
 4652.00    0.91877   0.94857    0.000
 4653.00    0.94779   0.95318    0.000
 4654.00    0.97668   0.95846    0.000
 4655.00    1.03547   0.96346    0.000
 4656.00    1.08007   0.96696    0.000
 4657.00    1.06377   0.96822    0.000
 4658.00    1.00449   0.96701    0.000
 4659.00    0.94369   0.96340    0.000
 4660.00    0.90623   0.95761    0.000
 4661.00    0.89796   0.94973    0.000
 4662.00    0.90852   0.94059    0.000
 4663.00    0.92993   0.93223    0.000
 4664.00    0.96551   0.92660    0.000
 4665.00    0.99963   0.92442    0.000
 4666.00    0.98928   0.92542    0.000
 4667.00    0.94249   0.92862    0.000
 4668.00    0.94300   0.93293    0.000
 4669.00    1.00783   0.93769    0.000
 4670.00    1.03687   0.94244    0.000
 4671.00    0.98974   0.94656    0.000
 4672.00    0.94843   0.94936    0.000
 4673.00    0.95204   0.95043    0.000
 4674.00    0.94224   0.94990    0.000
 4675.00    0.89579   0.94835    0.000
 4676.00    0.86468   0.94632    0.000
 4677.00    0.88457   0.94428    0.000
 4678.00    0.94040   0.94279    0.000
 4679.00    0.98831   0.94193    0.000
 4680.00    0.98211   0.94146    0.000
 4681.00    0.93273   0.94143    0.000
 4682.00    0.90414   0.94195    0.000
 4683.00    0.93170   0.94288    0.000
 4684.00    0.99737   0.94407    0.000
 4685.00    1.04026   0.94529    0.000
 4686.00    0.99795   0.94634    0.000
 4687.00    0.90769   0.94754    0.000
 4688.00    0.87302   0.94926    0.000
 4689.00    0.90747   0.95129    0.000
 4690.00    0.94349   0.95321    0.000
 4691.00    0.95010   0.95459    0.000
 4692.00    0.94190   0.95470    0.000
 4693.00    0.93547   0.95285    0.000
 4694.00    0.93826   0.94928    0.000
 4695.00    0.94672   0.94497    0.000
 4696.00    0.95228   0.94056    0.000
 4697.00    0.95289   0.93610    0.000
 4698.00    0.95180   0.93194    0.000
 4699.00    0.95133   0.92895    0.000
 4700.00    0.94745   0.92763    0.000
 4701.00    0.92390   0.92752    0.000
 4702.00    0.87301   0.92777    0.000
 4703.00    0.82576   0.92790    0.000
 4704.00    0.82296   0.92810    0.000
 4705.00    0.86983   0.92883    0.000
 4706.00    0.93306   0.93032    0.000
 4707.00    0.94972   0.93200    0.000
 4708.00    0.89429   0.93308    0.000
 4709.00    0.84705   0.93391    0.000
 4710.00    0.88523   0.93547    0.000
 4711.00    0.96473   0.93832    0.000
 4712.00    1.01063   0.94231    0.000
 4713.00    1.01669   0.94698    0.000
 4714.00    1.00650   0.95190    0.000
 4715.00    0.98923   0.95691    0.000
 4716.00    0.96561   0.96150    0.000
 4717.00    0.93760   0.96492    0.000
 4718.00    0.91954   0.96681    0.000
 4719.00    0.94024   0.96740    0.000
 4720.00    0.99553   0.96682    0.000
 4721.00    1.02471   0.96472    0.000
 4722.00    0.99398   0.96056    0.000
 4723.00    0.94425   0.95468    0.000
 4724.00    0.92181   0.94842    0.000
 4725.00    0.93280   0.94301    0.000
 4726.00    0.94782   0.93885    0.000
 4727.00    0.91874   0.93625    0.000
 4728.00    0.84584   0.93558    0.000
 4729.00    0.79679   0.93661    0.000
 4730.00    0.82014   0.93880    0.000
 4731.00    0.90266   0.94131    0.000
 4732.00    0.97914   0.94327    0.000
 4733.00    0.96714   0.94498    0.000
 4734.00    0.88730   0.94695    0.000
 4735.00    0.86311   0.94858    0.000
 4736.00    0.92172   0.94951    0.000
 4737.00    0.96203   0.95031    0.000
 4738.00    0.92751   0.95149    0.000
 4739.00    0.85583   0.95313    0.000
 4740.00    0.82656   0.95486    0.000
 4741.00    0.90098   0.95640    0.000
 4742.00    1.00003   0.95800    0.000
 4743.00    0.96729   0.95953    0.000
 4744.00    0.84742   0.96057    0.000
 4745.00    0.83313   0.96107    0.000
 4746.00    0.92252   0.96087    0.000
 4747.00    0.95778   0.95970    0.000
 4748.00    0.93547   0.95764    0.000
 4749.00    0.96877   0.95498    0.000
 4750.00    1.03662   0.95207    0.000
 4751.00    1.03186   0.94934    0.000
 4752.00    0.97374   0.94696    0.000
 4753.00    0.95624   0.94495    0.000
 4754.00    0.96890   0.94329    0.000
 4755.00    0.94798   0.94170    0.000
 4756.00    0.92273   0.93956    0.000
 4757.00    0.95262   0.93619    0.000
 4758.00    0.98850   0.93171    0.000
 4759.00    0.95389   0.92707    0.000
 4760.00    0.89500   0.92284    0.000
 4761.00    0.89198   0.91931   27.062
 4762.00    0.91054   0.91715   27.206
 4763.00    0.88537   0.91691   27.445
 4764.00    0.84840   0.91851   27.766
 4765.00    0.85984   0.92144   28.112
 4766.00    0.90957   0.92473   28.342
 4767.00    0.94968   0.92759   28.409
 4768.00    0.94489   0.93033   28.549
 4769.00    0.89631   0.93348   28.949
 4770.00    0.85492   0.93673   29.400
 4771.00    0.86434   0.93934   29.510
 4772.00    0.90886   0.94107   29.048
 4773.00    0.94717   0.94217   28.273
 4774.00    0.94827   0.94245   27.940
 4775.00    0.91128   0.94160   28.372
 4776.00    0.87394   0.93988   28.948
 4777.00    0.87095   0.93759   29.093
 4778.00    0.90293   0.93475   29.106
 4779.00    0.94364   0.93168   29.342
 4780.00    0.95440   0.92915   29.622
 4781.00    0.93506   0.92716   29.651
 4782.00    0.94115   0.92526   29.358
 4783.00    0.99123   0.92405   28.977
 4784.00    1.02817   0.92385   28.943
 4785.00    1.01592   0.92445   29.325
 4786.00    0.98254   0.92633   29.649
 4787.00    0.95846   0.92942   29.551
 4788.00    0.94672   0.93319   29.161
 4789.00    0.93861   0.93770   28.940
 4790.00    0.92498   0.94235   29.362
 4791.00    0.90969   0.94597   30.077
 4792.00    0.90874   0.94797   29.909
 4793.00    0.92485   0.94825   29.038
 4794.00    0.94560   0.94698   28.975
 4795.00    0.97485   0.94478   29.758
 4796.00    1.02593   0.94262   29.816
 4797.00    1.06074   0.94113   -1.000
 4798.00    1.01244   0.94019   28.388
 4799.00    0.91860   0.93922   28.584
 4800.00    0.89407   0.93779   28.777
 4801.00    0.93442   0.93605   28.725
 4802.00    0.93510   0.93457   28.806
 4803.00    0.89389   0.93319   29.108
 4804.00    0.89511   0.93182   29.374
 4805.00    0.93754   0.93097   29.531
 4806.00    0.95017   0.93081   29.688
 4807.00    0.92472   0.93117   29.804
 4808.00    0.90807   0.93191   29.747
 4809.00    0.92209   0.93299   29.602
 4810.00    0.95675   0.93445   29.515
 4811.00    0.99074   0.93620   29.311
 4812.00    1.00332   0.93798   28.769
 4813.00    0.98788   0.93954   28.194
 4814.00    0.95424   0.94046   28.086
 4815.00    0.92734   0.94044   28.621
 4816.00    0.92851   0.93937   29.538
 4817.00    0.94846   0.93730   29.932
 4818.00    0.96336   0.93395   29.196
 4819.00    0.96330   0.92928   28.425
 4820.00    0.95230   0.92492   28.690
 4821.00    0.94204   0.92234   29.291
 4822.00    0.93870   0.92092   29.108
 4823.00    0.92967   0.91957   28.654
 4824.00    0.90510   0.91801   28.747
 4825.00    0.88173   0.91672   28.943
 4826.00    0.87756   0.91610   28.660
 4827.00    0.88498   0.91534   28.428
 4828.00    0.89351   0.91395   28.738
 4829.00    0.91148   0.91293   29.012
 4830.00    0.93920   0.91256   28.752
 4831.00    0.94833   0.91208   28.591
 4832.00    0.92677   0.91108   29.026
 4833.00    0.90963   0.90960   29.488
 4834.00    0.91868   0.90740   29.436
 4835.00    0.92296   0.90436   29.278
 4836.00    0.90344   0.90091   29.407
 4837.00    0.89167   0.89768   29.575
 4838.00    0.90634   0.89462   29.489
 4839.00    0.91892   0.89139   29.230
 4840.00    0.90945   0.88847   29.049
 4841.00    0.89305   0.88608   29.180
 4842.00    0.87076   0.88341   29.530
 4843.00    0.81527   0.87949   29.608
 4844.00    0.74474   0.87409   -1.000
 4845.00    0.73439   0.86790   -1.000
 4846.00    0.78767   0.86134   28.842
 4847.00    0.81222   0.85337   29.382
 4848.00    0.78841   0.84336    0.000
 4849.00    0.79906   0.83132    0.000
 4850.00    0.84343   0.81654    0.000
 4851.00    0.81697   0.79849    0.000
 4852.00    0.72245   0.77793    0.000
 4853.00    0.69125   0.75567    0.000
 4854.00    0.77843   0.73174    0.000
 4855.00    0.92743   0.70659    0.000
 4856.00    1.09028   0.68194    0.000
 4857.00    1.25600   0.66194    0.000
 4858.00    1.41590   0.65203    0.000
 4859.00    1.54286   0.65382    0.000
 4860.00    1.56635   0.66448    0.000
 4861.00    1.41585   0.68154    0.000
 4862.00    1.14241   0.70314    0.000
 4863.00    0.88798   0.72676    0.000
 4864.00    0.74417   0.74968    0.000
 4865.00    0.71937   0.76950    0.000
 4866.00    0.74377   0.78469    0.000
 4867.00    0.73363   0.79573    0.000
 4868.00    0.71097   0.80506    0.000
 4869.00    0.74413   0.81470    0.000
 4870.00    0.80049   0.82456    0.000
 4871.00    0.80506   0.83396    0.000
 4872.00    0.78081   0.84306    0.000
 4873.00    0.79615   0.85226    0.000
 4874.00    0.84850   0.86128    0.000
 4875.00    0.88899   0.86952   28.014
 4876.00    0.88498   0.87588   29.039
 4877.00    0.83854   0.87958   29.302
 4878.00    0.79622   0.88157   28.840
 4879.00    0.80770   0.88278   28.512
 4880.00    0.87398   0.88293   28.561
 4881.00    0.95420   0.88169   28.809
 4882.00    0.98515   0.87960   28.991
 4883.00    0.93582   0.87795   29.030
 4884.00    0.85602   0.87740   29.268
 4885.00    0.80159   0.87752   29.825
 4886.00    0.76268   0.87805   -1.000
 4887.00    0.72718   0.87985   -1.000
 4888.00    0.73600   0.88499   -1.000
 4889.00    0.80867   0.89364   28.543
 4890.00    0.88711   0.90366   28.796
 4891.00    0.92010   0.91340   28.880
 4892.00    0.92457   0.92202   28.492
 4893.00    0.92432   0.92895   27.851
 4894.00    0.90836   0.93350   27.634
 4895.00    0.86974   0.93486   28.101
 4896.00    0.82977   0.93368   -1.000
 4897.00    0.81433   0.93185   -1.000
 4898.00    0.83573   0.93009   28.914
 4899.00    0.87880   0.92823   28.908
 4900.00    0.90313   0.92686   29.143
 4901.00    0.89403   0.92672   29.522
 4902.00    0.87922   0.92742   29.638
 4903.00    0.87795   0.92761   29.417
 4904.00    0.88404   0.92659   29.270
 4905.00    0.90415   0.92472   29.290
 4906.00    0.95798   0.92276   29.129
 4907.00    1.00764   0.92151   28.905
 4908.00    0.96861   0.92127   29.227
 4909.00    0.86104   0.92141   29.962
 4910.00    0.80928   0.92118   -1.000
 4911.00    0.83702   0.92008   29.862
 4912.00    0.85294   0.91722   30.219
 4913.00    0.84141   0.91166   31.221
 4914.00    0.87081   0.90296   31.578
 4915.00    0.93031   0.89212   30.993
 4916.00    0.93491   0.88144   30.479
 4917.00    0.87584   0.87335   30.689
 4918.00    0.82033   0.86968   31.621
 4919.00    0.80301   0.87058   32.566
 4920.00    0.81202   0.87518   32.543
 4921.00    0.82413   0.88315   31.916
 4922.00    0.82447   0.89423   31.792
 4923.00    0.82893   0.90651   32.051
 4924.00    0.85967   0.91743   31.881
 4925.00    0.88859   0.92582   31.536
 4926.00    0.87636   0.93148   31.733
 4927.00    0.86252   0.93429   31.988
 4928.00    0.91047   0.93397   31.422
 4929.00    0.98815   0.93031   30.674
 4930.00    1.01651   0.92486   30.780
 4931.00    0.97793   0.92012   31.363
 4932.00    0.91370   0.91652   31.411
 4933.00    0.89127   0.91296   30.879
 4934.00    0.93696   0.90952   30.434
 4935.00    0.96066   0.90789   30.632
 4936.00    0.88582   0.90953   31.473
 4937.00    0.81267   0.91371   -1.000
 4938.00    0.85741   0.91851   30.974
 4939.00    0.95352   0.92350   30.073
 4940.00    0.98290   0.92907    0.000
 4941.00    0.93665   0.93452    0.000
 4942.00    0.86971   0.93896    0.000
 4943.00    0.83635   0.94250    0.000
 4944.00    0.85976   0.94539    0.000
 4945.00    0.91358   0.94735    0.000
 4946.00    0.96034   0.94801    0.000
 4947.00    0.98591   0.94719    0.000
 4948.00    0.99867   0.94429    0.000
 4949.00    1.02151   0.93888    0.000
 4950.00    1.05117   0.93163    0.000
 4951.00    1.04106   0.92356    0.000
 4952.00    0.98670   0.91488    0.000
 4953.00    0.96567   0.90583    0.000
 4954.00    1.01502   0.89879    0.000
 4955.00    1.07245   0.89674    0.000
 4956.00    1.09502   0.89882    0.000
 4957.00    1.11331   0.90188    0.000
 4958.00    1.13830   0.90463    0.000
 4959.00    1.12731   0.90742    0.000
 4960.00    1.07184   0.90983    0.000
 4961.00    1.02217   0.91042    0.000
 4962.00    0.99506   0.90913    0.000
 4963.00    0.95168   0.90758    0.000
 4964.00    0.88611   0.90679    0.000
 4965.00    0.84468   0.90695    0.000
 4966.00    0.85233   0.90820    0.000
 4967.00    0.89137   0.91055    0.000
 4968.00    0.93214   0.91377    0.000
 4969.00    0.95053   0.91700    0.000
 4970.00    0.94676   0.91946    0.000
 4971.00    0.94152   0.92071    0.000
 4972.00    0.94553   0.92016    0.000
 4973.00    0.95277   0.91740    0.000
 4974.00    0.94835   0.91231    0.000
 4975.00    0.91994   0.90548    0.000
 4976.00    0.88030   0.89802    0.000
 4977.00    0.86083   0.89033    0.000
 4978.00    0.88183   0.88266    0.000
 4979.00    0.93420   0.87643    0.000
 4980.00    0.95765   0.87341    0.000
 4981.00    0.89365   0.87387    0.000
 4982.00    0.79849   0.87670    0.000
 4983.00    0.77735   0.88116    0.000
 4984.00    0.82013   0.88654    0.000
 4985.00    0.84849   0.89149    0.000
 4986.00    0.85001   0.89516    0.000
 4987.00    0.85297   0.89772    0.000
 4988.00    0.84960   0.89979    0.000
 4989.00    0.82599   0.90138    0.000
 4990.00    0.82153   0.90190    0.000
 4991.00    0.87466   0.90162    0.000
 4992.00    0.94067   0.90097    0.000
 4993.00    0.95590   0.89940    0.000
 4994.00    0.93066   0.89643    0.000
 4995.00    0.90978   0.89206    0.000
 4996.00    0.91229   0.88648    0.000
 4997.00    0.92948   0.88041   -2.000
 4998.00    0.93444   0.87480    0.000
 4999.00    0.92916   0.87052    0.000
 5000.00    0.98233   0.86760    0.000
 5001.00    1.13744   0.86520   -2.000
 5002.00    1.33174   0.86331    0.000
 5003.00    1.48009   0.86290    0.000
 5004.00    1.55084   0.86428   -2.000
 5005.00    1.53712   0.86594   -2.000
 5006.00    1.43242   0.86604    0.000
 5007.00    1.25694   0.86442    0.000
 5008.00    1.07212   0.86171   -2.000
 5009.00    0.93449   0.85799   -2.000
 5010.00    0.86296   0.85361    0.000
 5011.00    0.84020   0.84965    0.000
 5012.00    0.82432   0.84747   -2.000
 5013.00    0.80497   0.84725   -2.000
 5014.00    0.82084   0.84810    0.000
 5015.00    0.87494   0.85025    0.000
 5016.00    0.90604   0.85428   -2.000
 5017.00    0.88218   0.85924   -2.000
 5018.00    0.83675   0.86348    0.000
 5019.00    0.80985   0.86692    0.000
 5020.00    0.81752   0.87080   -2.000
 5021.00    0.84289   0.87500   -2.000
 5022.00    0.84852   0.87831    0.000
 5023.00    0.83623   0.88063    0.000
 5024.00    0.84790   0.88287   -2.000
 5025.00    0.88226   0.88614   -2.000
 5026.00    0.89095   0.88986    0.000
 5027.00    0.86851   0.89246    0.000
 5028.00    0.85899   0.89395   -2.000
 5029.00    0.88071   0.89499   -2.000
 5030.00    0.91260   0.89473    0.000
 5031.00    0.92451   0.89148    0.000
 5032.00    0.89805   0.88506   -2.000
 5033.00    0.85583   0.87768   -2.000
 5034.00    0.84077   0.87122    0.000
 5035.00    0.84853   0.86515    0.000
 5036.00    0.84172   0.85916   -2.000
 5037.00    0.81848   0.85495   -2.000
 5038.00    0.80598   0.85489    0.000
 5039.00    0.81431   0.85950    0.000
 5040.00    0.83578   0.86616   -2.000
 5041.00    0.86206   0.87242   -2.000
 5042.00    0.88586   0.87818    0.000
 5043.00    0.89816   0.88275    0.000
 5044.00    0.89438   0.88472   -2.000
 5045.00    0.88456   0.88419   -2.000
 5046.00    0.88157   0.88297    0.000
 5047.00    0.88159   0.88216    0.000
 5048.00    0.87888   0.88190    0.000
 5049.00    0.88838   0.88299    0.000
 5050.00    0.91520   0.88609    0.000
 5051.00    0.91570   0.89020    0.000
 5052.00    0.86435   0.89417    0.000
 5053.00    0.83135   0.89816    0.000
 5054.00    0.87749   0.90236    0.000
 5055.00    0.93714   0.90584    0.000
 5056.00    0.93422   0.90720    0.000
 5057.00    0.90550   0.90689    0.000
 5058.00    0.90629   0.90571    0.000
 5059.00    0.91528   0.90313    0.000
 5060.00    0.89651   0.89841    0.000
 5061.00    0.85871   0.89244   -2.000
 5062.00    0.82916   0.88759   -2.000
 5063.00    0.82548   0.88467    0.000
 5064.00    0.83345   0.88212    0.000
 5065.00    0.80332   0.87987   -2.000
 5066.00    0.73374   0.87928   -2.000
 5067.00    0.71080   0.87991    0.000
 5068.00    0.77287   0.87982    0.000
 5069.00    0.84194   0.87899   -2.000
 5070.00    0.85406   0.87872   -2.000
 5071.00    0.83014   0.87798    0.000
 5072.00    0.81567   0.87549    0.000
 5073.00    0.83995   0.87234   -2.000
 5074.00    0.89295   0.86950   -2.000
 5075.00    0.92746   0.86590    0.000
 5076.00    0.92078   0.86129    0.000
 5077.00    0.89512   0.85845   -2.000
 5078.00    0.87643   0.85871   -2.000
 5079.00    0.87491   0.86038    0.000
 5080.00    0.88299   0.86259    0.000
 5081.00    0.88193   0.86643   -2.000
 5082.00    0.86781   0.87180   -2.000
 5083.00    0.85534   0.87687    0.000
 5084.00    0.85716   0.88100    0.000
 5085.00    0.87401   0.88491   -2.000
 5086.00    0.88767   0.88859   -2.000
 5087.00    0.87133   0.89105    0.000
 5088.00    0.82501   0.89231    0.001
 5089.00    0.77816   0.89289   -2.000
 5090.00    0.76771   0.89240   -2.000
 5091.00    0.81341   0.88992    0.003
 5092.00    0.87455   0.88583    0.007
 5093.00    0.88540   0.88135   -2.000
 5094.00    0.85805   0.87706   -2.000
 5095.00    0.85243   0.87300    0.019
 5096.00    0.86451   0.86989    0.066
 5097.00    0.85022   0.86898   -2.000
 5098.00    0.81712   0.86966   -2.000
 5099.00    0.80003   0.87025    0.140
 5100.00    0.78633   0.87023    0.668
 5101.00    0.74867   0.87004   -2.000
 5102.00    0.71953   0.86959   -2.000
 5103.00    0.74833   0.86843    1.049
 5104.00    0.81842   0.86694    6.437
 5105.00    0.87550   0.86636   -2.000
 5106.00    0.88668   0.86695   -2.000
 5107.00    0.85033   0.86832    6.627
 5108.00    0.79623   0.87114   24.152
 5109.00    0.76084   0.87520   -2.000
 5110.00    0.75734   0.87940   -1.000
 5111.00    0.77874   0.88343   20.953
 5112.00    0.80669   0.88695   31.209
 5113.00    0.82603   0.88940   38.587
 5114.00    0.83793   0.89039   32.270
 5115.00    0.84805   0.88931   30.663
 5116.00    0.85448   0.88589   33.134
 5117.00    0.85482   0.88079   34.949
 5118.00    0.85253   0.87485   35.064
 5119.00    0.84867   0.86845   34.868
 5120.00    0.83638   0.86183   34.798
 5121.00    0.81628   0.85626   34.744
 5122.00    0.80615   0.85280   34.638
 5123.00    0.82189   0.85100   34.511
 5124.00    0.86278   0.85037   34.462
 5125.00    0.90748   0.85098   34.403
 5126.00    0.91912   0.85281   34.017
 5127.00    0.88899   0.85575   33.510
 5128.00    0.85354   0.85943   33.731
 5129.00    0.83923   0.86248   34.681
 5130.00    0.83693   0.86434   34.975
 5131.00    0.83602   0.86561   34.242
 5132.00    0.83957   0.86652   33.985
 5133.00    0.84731   0.86582   34.777
 5134.00    0.85038   0.86332   35.520
 5135.00    0.84635   0.85995   35.452
 5136.00    0.84232   0.85680   35.082
 5137.00    0.83940   0.85513   35.058
 5138.00    0.83162   0.85376   35.607
 5139.00    0.82573   0.85110   36.292
 5140.00    0.83822   0.84939   36.219
 5141.00    0.85920   0.84983   35.517
 5142.00    0.85654   0.85011   35.254
 5143.00    0.82968   0.84914   35.663
 5144.00    0.81295   0.84833   36.053
 5145.00    0.83298   0.84840   35.908
 5146.00    0.88829   0.84874   35.299
 5147.00    0.93131   0.84834   34.823
 5148.00    0.90669   0.84805   35.082
 5149.00    0.85613   0.84918   35.721
 5150.00    0.87186   0.85170   35.792
 5151.00    0.92980   0.85505   35.454
 5152.00    0.93016   0.85943   35.581
 5153.00    0.86715   0.86489   36.045
 5154.00    0.81144   0.87010   36.087
 5155.00    0.80172   0.87360   35.823
 5156.00    0.83176   0.87467   35.889
 5157.00    0.86863   0.87353   36.220
 5158.00    0.88010   0.86885   36.302
 5159.00    0.87356   0.85948   36.002
 5160.00    0.87472   0.84681   35.595
 5161.00    0.88452   0.83247   35.509
 5162.00    0.88680   0.81657   35.868
 5163.00    0.86967   0.79963   35.936
 5164.00    0.83381   0.78329   35.111
 5165.00    0.79805   0.77049   34.290
 5166.00    0.77903   0.76364   34.449
 5167.00    0.76710   0.76198   35.189
 5168.00    0.75325   0.76220   35.539
 5169.00    0.75981   0.76406   35.153
 5170.00    0.79804   0.77128   34.444
 5171.00    0.82518   0.78363   34.282
 5172.00    0.80859   0.79556   35.107
 5173.00    0.78634   0.80418   36.230
 5174.00    0.79491   0.81062   36.629
 5175.00    0.80535   0.81432   36.103
 5176.00    0.79147   0.81318   35.300
 5177.00    0.78416   0.80851   35.224
 5178.00    0.80478   0.80313   36.057
 5179.00    0.81849   0.79741   36.492
 5180.00    0.80303   0.79185   35.775
 5181.00    0.79167   0.79076   35.152
 5182.00    0.80766   0.79641   35.416
 5183.00    0.82610   0.80479   35.763
 5184.00    0.82619   0.81177   35.442
 5185.00    0.81918   0.81753   34.798
 5186.00    0.81294   0.82391   34.482
 5187.00    0.79707   0.82932   34.895
 5188.00    0.77808   0.83055   35.780
 5189.00    0.78692   0.82970   36.146
 5190.00    0.82203   0.83102    0.000
 5191.00    0.83941   0.83409    0.000
 5192.00    0.83542   0.83663    0.000
 5193.00    0.86127   0.83955    0.000
 5194.00    0.92508   0.84354    0.000
 5195.00    0.97302   0.84709    0.000
 5196.00    0.97746   0.84898    0.000
 5197.00    0.95615   0.84829    0.000
 5198.00    0.91633   0.84483    0.000
 5199.00    0.85154   0.83948    0.000
 5200.00    0.79701   0.83307    0.000
 5201.00    0.81156   0.82505    0.000
 5202.00    0.87005   0.81693    0.000
 5203.00    0.88249   0.81181    0.000
 5204.00    0.83674   0.81026    0.000
 5205.00    0.79853   0.81091    0.000
 5206.00    0.80708   0.81459    0.000
 5207.00    0.85510   0.82168    0.000
 5208.00    0.90810   0.83016    0.000
 5209.00    0.92796   0.83869    0.000
 5210.00    0.91247   0.84689    0.000
 5211.00    0.88579   0.85401   36.819
 5212.00    0.86166   0.85912   36.794
 5213.00    0.84073   0.86302   37.496
 5214.00    0.82011   0.86685   38.211
 5215.00    0.80176   0.87021   37.834
 5216.00    0.80274   0.87187   36.899
 5217.00    0.83937   0.87152   36.499
 5218.00    0.89971   0.86939   36.356
 5219.00    0.95102   0.86489   35.787
 5220.00    0.95832   0.85829   -1.000
 5221.00    0.90557   0.85148   35.550
 5222.00    0.81904   0.84549   36.259
 5223.00    0.74322   0.84045   -1.000
 5224.00    0.70600   0.83818   -1.000
 5225.00    0.71284   0.84013   -1.000
 5226.00    0.74667   0.84418   -1.000
 5227.00    0.78838   0.84828   36.402
 5228.00    0.83701   0.85288   35.730
 5229.00    0.88608   0.85747   34.951
 5230.00    0.90278   0.86112   34.718
 5231.00    0.87850   0.86463   35.219
 5232.00    0.86804   0.86877   35.551
 5233.00    0.90127   0.87334   35.139
 5234.00    0.91710   0.87771   34.943
 5235.00    0.87547   0.88143   35.559
 5236.00    0.83689   0.88432   35.959
 5237.00    0.85126   0.88672   35.371
 5238.00    0.88229   0.88827   34.705
 5239.00    0.88633   0.88754   34.792
 5240.00    0.86684   0.88491   35.437
 5241.00    0.85282   0.88250   35.972
 5242.00    0.87574   0.87984   35.750
 5243.00    0.92725   0.87473   35.063
 5244.00    0.95046   0.86889   35.143
 5245.00    0.92372   0.86560   36.127
 5246.00    0.89005   0.86397   36.432
 5247.00    0.87437   0.86171   35.536
 5248.00    0.85529   0.86044   34.966
 5249.00    0.83157   0.86234   35.333
 5250.00    0.83728   0.86593   35.679
 5251.00    0.87245   0.86890   35.288
 5252.00    0.89157   0.87133   34.440
 5253.00    0.87588   0.87422   33.680
 5254.00    0.85201   0.87618   33.381
 5255.00    0.85328   0.87503   33.425
 5256.00    0.89359   0.87046   33.358
 5257.00    0.93129   0.86320   33.198
 5258.00    0.89623   0.85336   33.383
 5259.00    0.80599   0.84159   33.788
 5260.00    0.75261   0.83017   33.777
 5261.00    0.76382   0.81985   33.318
 5262.00    0.79318   0.80978   32.955
 5263.00    0.80010   0.80186   32.880
 5264.00    0.77518   0.79930   32.944
 5265.00    0.74705   0.79980   33.150
 5266.00    0.75197   0.79978   33.636
 5267.00    0.76530   0.80205   34.374
 5268.00    0.73869   0.80948   35.076
 5269.00    0.70498   0.81893   -1.000
 5270.00    0.73319   0.82767   -1.000
 5271.00    0.80438   0.83670   33.960
 5272.00    0.84889   0.84583   34.406
 5273.00    0.85219   0.85397   35.424
 5274.00    0.84314   0.86127   35.803
 5275.00    0.84413   0.86696   35.526
 5276.00    0.85868   0.86980   35.350
 5277.00    0.86696   0.87078   35.441
 5278.00    0.85374   0.87205   35.559
 5279.00    0.84544   0.87390   35.540
 5280.00    0.87026   0.87568   35.329
 5281.00    0.90346   0.87820   34.941
 5282.00    0.90571   0.88302   34.539
 5283.00    0.87592   0.88927   34.478
 5284.00    0.83958   0.89464   34.807
 5285.00    0.82724   0.89837   34.792
 5286.00    0.85203   0.90103   33.985
 5287.00    0.89114   0.90259   33.235
 5288.00    0.90993   0.90202   33.246
 5289.00    0.88868   0.89871   33.551
 5290.00    0.84443   0.89315   33.486
 5291.00    0.83842   0.88691   33.081
 5292.00    0.89394   0.88091   32.657
 5293.00    0.94219   0.87479   32.412
 5294.00    0.92794   0.86866   32.476
 5295.00    0.88184   0.86477   32.940
 5296.00    0.84508   0.86492   33.632
 5297.00    0.81891   0.86782   34.004
 5298.00    0.80250   0.87144   33.974
 5299.00    0.81275   0.87608   34.315
 5300.00    0.84449   0.88225   35.297
 5301.00    0.85823   0.88875   36.030
 5302.00    0.84752   0.89408   36.007
 5303.00    0.85837   0.89784   35.940
 5304.00    0.89675   0.90043   36.218
 5305.00    0.90498   0.90234   36.333
 5306.00    0.87589   0.90347   36.075
 5307.00    0.87671   0.90348   35.913
 5308.00    0.91705   0.90237   36.032
 5309.00    0.92540   0.90039   36.159
 5310.00    0.88741   0.89790   36.454
 5311.00    0.86737   0.89553   37.522
 5312.00    0.88035   0.89312   38.935
 5313.00    0.87620   0.89015   39.104
 5314.00    0.84844   0.88745   38.149
 5315.00    0.84538   0.88585   37.874
 5316.00    0.88664   0.88388   38.538
 5317.00    0.94620   0.88015   38.841
 5318.00    0.98213   0.87577   -1.000
 5319.00    0.96230   0.87133   -1.000
 5320.00    0.90681   0.86492   37.331
 5321.00    0.86706   0.85585   37.762
 5322.00    0.84819   0.84769   38.190
 5323.00    0.82059   0.84256   37.638
 5324.00    0.78891   0.83825   36.452
 5325.00    0.78204   0.83435   35.735
 5326.00    0.79945   0.83497   35.819
 5327.00    0.82041   0.84114   36.346
 5328.00    0.84322   0.84882   36.603
 5329.00    0.87309   0.85530   36.113
 5330.00    0.88827   0.86156   35.594
 5331.00    0.86804   0.86810   35.970
 5332.00    0.84622   0.87259   36.796
 5333.00    0.86910   0.87333   36.975
 5334.00    0.91991   0.87199   36.480
 5335.00    0.95103   0.87096   36.024
 5336.00    0.94540   0.86970   36.043
 5337.00    0.91677   0.86747   36.487
 5338.00    0.89671   0.86594   36.683
 5339.00    0.90351   0.86647   36.168
 5340.00    0.91047   0.86789   35.689
 5341.00    0.89380   0.86902   35.953
 5342.00    0.88465   0.86975   36.389
 5343.00    0.90105   0.87105   36.263
 5344.00    0.88185   0.87360   35.988
 5345.00    0.79683   0.87647   36.133
 5346.00    0.74274   0.87905   -1.000
 5347.00    0.78471   0.88297   -1.000
 5348.00    0.82786   0.88893   36.602
 5349.00    0.79970   0.89503   -1.000
 5350.00    0.78726   0.90007   -1.000
 5351.00    0.85476   0.90496   34.951
 5352.00    0.91866   0.90958   34.275
 5353.00    0.91464   0.91245   34.578
 5354.00    0.90168   0.91307   35.160
 5355.00    0.92239   0.91206   35.339
 5356.00    0.92596   0.90975   35.305
 5357.00    0.88591   0.90603   35.546
 5358.00    0.85719   0.90090   36.362
 5359.00    0.87636   0.89501   37.379
 5360.00    0.91346   0.88929   -2.000
 5361.00    0.92460   0.88372   -2.000
 5362.00    0.88603   0.87798   -2.000
 5363.00    0.81784   0.87234   -2.000
 5364.00    0.77776   0.86712   -2.000
 5365.00    0.78797   0.86291   -2.000
 5366.00    0.81511   0.86030   -2.000
 5367.00    0.82293   0.85924   -2.000
 5368.00    0.80003   0.85993   -2.000
 5369.00    0.77895   0.86343   -2.000
 5370.00    0.81503   0.86933   -2.000
 5371.00    0.89275   0.87584   -2.000
 5372.00    0.93337   0.88196   -2.000
 5373.00    0.92193   0.88717   -2.000
 5374.00    0.91254   0.89092   -2.000
 5375.00    0.92316   0.89319   35.553
 5376.00    0.92762   0.89393   35.858
 5377.00    0.91982   0.89314   36.773
 5378.00    0.91662   0.89191   37.429
 5379.00    0.92049   0.89094   37.484
 5380.00    0.91985   0.88971   37.320
 5381.00    0.91202   0.88846   37.116
 5382.00    0.90399   0.88756   36.803
 5383.00    0.90227   0.88624   36.440
 5384.00    0.90908   0.88408   36.187
 5385.00    0.91922   0.88155   36.110
 5386.00    0.92474   0.87834   36.171
 5387.00    0.92428   0.87424   36.276
 5388.00    0.91962   0.87019   36.372
 5389.00    0.90724   0.86634   36.607
 5390.00    0.88133   0.86196   37.059
 5391.00    0.84086   0.85802   37.269
 5392.00    0.79740   0.85603   36.797
 5393.00    0.78257   0.85452   36.124
 5394.00    0.81488   0.85252   35.954
 5395.00    0.85760   0.85213   36.330
 5396.00    0.86466   0.85334   36.847
 5397.00    0.84181   0.85296   36.993
 5398.00    0.82114   0.85058   36.591
 5399.00    0.82270   0.84825   36.189
 5400.00    0.84193   0.84581   36.327
 5401.00    0.84520   0.84235   36.867
 5402.00    0.81658   0.83865   37.317
 5403.00    0.79713   0.83625   37.242
 5404.00    0.81601   0.83618   36.724
 5405.00    0.83334   0.83830   36.545
 5406.00    0.81988   0.84139   37.118
 5407.00    0.81759   0.84535   37.796
 5408.00    0.85435   0.85110   37.991
 5409.00    0.88526   0.85811   38.144
 5410.00    0.87858   0.86478   38.724
 5411.00    0.86939   0.87045   39.484
 5412.00    0.88077   0.87552   40.007
 5413.00    0.88013   0.87996   40.146
 5414.00    0.85008   0.88305   39.966
 5415.00    0.82366   0.88469   39.664
 5416.00    0.82360   0.88529   39.591
 5417.00    0.83421   0.88475   40.059
 5418.00    0.84264   0.88341   40.229
 5419.00    0.85578   0.88223   38.559
 5420.00    0.87182   0.88094   37.626
 5421.00    0.87397   0.87881   42.836
 5422.00    0.86576   0.87603   47.789
 5423.00    0.87461   0.87301   33.953
 5424.00    0.90005   0.87020   28.078
 5425.00    0.90839   0.86692   70.277
 5426.00    0.89476   0.86212   -2.000
 5427.00    0.88863   0.85764   15.045
 5428.00    0.88888   0.85559   10.163
 5429.00    0.86286   0.85460   -2.000
 5430.00    0.81770   0.85395   -2.000
 5431.00    0.79850   0.85552    2.599
 5432.00    0.81315   0.85983    1.874
 5433.00    0.82925   0.86541   -2.000
 5434.00    0.82886   0.87147   -2.000
 5435.00    0.81990   0.87771    0.320
 5436.00    0.82433   0.88315    0.287
 5437.00    0.85851   0.88686   -2.000
 5438.00    0.89633   0.88814   -2.000
 5439.00    0.89305   0.88661    0.038
 5440.00    0.85443   0.88253    0.044
 5441.00    0.82424   0.87722   -2.000
 5442.00    0.82875   0.87180   -2.000
 5443.00    0.86335   0.86622    0.005
 5444.00    0.89084   0.86137    0.007
 5445.00    0.87547   0.85859   -2.000
 5446.00    0.83938   0.85742   -2.000
 5447.00    0.83036   0.85629    0.001
 5448.00    0.85635   0.85475    0.001
 5449.00    0.89027   0.85312   -2.000
 5450.00    0.89454   0.85193   -2.000
 5451.00    0.85649   0.85112    0.000
 5452.00    0.82691   0.85004    0.000
 5453.00    0.85330   0.84963   -2.000
 5454.00    0.89557   0.85109   -2.000
 5455.00    0.89872   0.85332    0.000
 5456.00    0.88399   0.85449    0.000
 5457.00    0.88775   0.85523   -2.000
 5458.00    0.88970   0.85669    0.000
 5459.00    0.86473   0.85778    0.000
 5460.00    0.83712   0.85766   -2.000
 5461.00    0.83335   0.85814   -2.000
 5462.00    0.83862   0.85979    0.000
 5463.00    0.84015   0.86065    0.000
 5464.00    0.86110   0.86062   -2.000
 5465.00    0.90787   0.86110   -2.000
 5466.00    0.93578   0.86077    0.000
 5467.00    0.92199   0.85829    0.000
 5468.00    0.90856   0.85552   -2.000
 5469.00    0.91585   0.85294   -2.000
 5470.00    0.89752   0.84870   -2.000
 5471.00    0.84177   0.84433   -2.000
 5472.00    0.81322   0.84239   -2.000
 5473.00    0.81414   0.84115   -2.000
 5474.00    0.74436   0.83946   -2.000
 5475.00    0.62660   0.83982   -2.000
 5476.00    0.65300   0.84266   -2.000
 5477.00    0.81087   0.84532   -2.000
 5478.00    0.80072   0.84765   -2.000
 5479.00    0.51867   0.85118   -2.000
 5480.00    0.19614   0.85486   -2.000
 5481.00    0.03774   0.85732   -2.000
 5482.00    0.07798   0.85951   -2.000
 5483.00    0.24395   0.86173   -2.000
 5484.00    0.41920   0.86272   -2.000
 5485.00    0.57069   0.86329   -2.000
 5486.00    0.74758   0.86444   -2.000
 5487.00    0.92800   0.86478   -2.000
 5488.00    1.01743   0.86450   -2.000
 5489.00    0.99966   0.86500   -2.000
 5490.00    0.94690   0.86508   -2.000
 5491.00    0.91586   0.86371   -2.000
 5492.00    0.91793   0.86287   -2.000
 5493.00    0.92206   0.86275   -2.000
 5494.00    0.88809   0.86119    0.000
 5495.00    0.84105   0.85888    0.000
 5496.00    0.84071   0.85772    0.000
 5497.00    0.87684   0.85676    0.000
 5498.00    0.89179   0.85480    0.000
 5499.00    0.87307   0.85279   -2.000
 5500.00    0.84454   0.85128    0.000
 5501.00    0.81405   0.85027    0.000
 5502.00    0.77903   0.84957    0.000
 5503.00    0.75285   0.84847    0.000
 5504.00    0.75332   0.84754    0.000
 5505.00    0.77740   0.84739    0.000
 5506.00    0.81043   0.84689    0.000
 5507.00    0.84532   0.84588    0.000
 5508.00    0.87614   0.84556    0.000
 5509.00    0.88645   0.84600    0.000
 5510.00    0.86796   0.84684    0.000
 5511.00    0.84392   0.84878    0.000
 5512.00    0.84071   0.85218    0.000
 5513.00    0.85238   0.85616    0.000
 5514.00    0.86065   0.86019    0.000
 5515.00    0.86107   0.86421    0.000
 5516.00    0.86300   0.86771    0.000
 5517.00    0.88440   0.86981    0.000
 5518.00    0.92793   0.87028    0.000
 5519.00    0.96310   0.86946    0.000
 5520.00    0.96578   0.86760    0.000
 5521.00    0.94947   0.86456    0.000
 5522.00    0.92756   0.86077    0.000
 5523.00    0.88689   0.85777    0.000
 5524.00    0.83523   0.85593    0.000
 5525.00    0.82668   0.85434    0.000
 5526.00    0.88089   0.85362    0.000
 5527.00    0.93963   0.85479    0.000
 5528.00    0.95702   0.85636    0.000
 5529.00    0.94937   0.85734    0.000
 5530.00    0.93572   0.85912    0.000
 5531.00    0.90791   0.86137   -2.000
 5532.00    0.86954   0.86271   -2.000
 5533.00    0.85000   0.86413    0.000
 5534.00    0.86298   0.86640    0.000
 5535.00    0.89061   0.86833   -2.000
 5536.00    0.91019   0.86942   -2.000
 5537.00    0.91027   0.87045    0.000
 5538.00    0.90353   0.87151    0.000
 5539.00    0.91782   0.87194   -2.000
 5540.00    0.94117   0.87171   -2.000
 5541.00    0.92582   0.87188    0.000
 5542.00    0.88079   0.87282    0.000
 5543.00    0.87211   0.87362   -2.000
 5544.00    0.90985   0.87427   -2.000
 5545.00    0.93949   0.87545    0.000
 5546.00    0.93528   0.87649    0.000
 5547.00    0.91550   0.87645   -2.000
 5548.00    0.90031   0.87582   -2.000
 5549.00    0.89611   0.87515    0.000
 5550.00    0.88862   0.87399    0.000
 5551.00    0.85746   0.87218   -2.000
 5552.00    0.81489   0.87056   -2.000
 5553.00    0.79449   0.86946    0.000
 5554.00    0.80516   0.86818    0.000
 5555.00    0.83366   0.86672   -2.000
 5556.00    0.87159   0.86533   -2.000
 5557.00    0.91258   0.86378    0.000
 5558.00    0.93652   0.86212    0.002
 5559.00    0.92626   0.86012   -2.000
 5560.00    0.90103   0.85779   -2.000
 5561.00    0.89346   0.85601    0.003
 5562.00    0.90344   0.85465    0.018
 5563.00    0.91020   0.85279   -2.000
 5564.00    0.90214   0.85156   -2.000
 5565.00    0.88094   0.85183    0.023
 5566.00    0.86013   0.85142    0.239
 5567.00    0.85234   0.85075   -2.000
 5568.00    0.85376   0.85208   -2.000
 5569.00    0.85400   0.85355    0.178
 5570.00    0.85002   0.85375    5.190
 5571.00    0.84335   0.85518   -2.000
 5572.00    0.83560   0.85749   31.055
 5573.00    0.83405   0.85845    1.365
 5574.00    0.85497   0.85928   70.277
 5575.00    0.89446   0.86033   -2.000
 5576.00    0.90700   0.85995   22.287
 5577.00    0.87016   0.85868    8.700
 5578.00    0.83407   0.85689   56.633
 5579.00    0.83972   0.85349   -2.000
 5580.00    0.85686   0.84887   31.275
 5581.00    0.85070   0.84398   26.164
 5582.00    0.83150   0.83878   40.082
 5583.00    0.82095   0.83367   43.232
 5584.00    0.82568   0.82964   35.197
 5585.00    0.83454   0.82705   33.729
 5586.00    0.82364   0.82599   35.544
 5587.00    0.79094   0.82644   36.193
 5588.00    0.76730   0.82783   35.512
 5589.00    0.76215   0.83005   34.893
 5590.00    0.74597   0.83296   -1.000
 5591.00    0.71762   0.83500   -1.000
 5592.00    0.72209   0.83554   -1.000
 5593.00    0.76783   0.83607   34.940
 5594.00    0.80672   0.83644   35.019
 5595.00    0.82029   0.83523   35.893
 5596.00    0.83850   0.83394   36.933
 5597.00    0.86049   0.83433   37.619
 5598.00    0.84546   0.83586   38.003
 5599.00    0.79927   0.83800   38.218
 5600.00    0.78271   0.84158   38.252
 5601.00    0.82744   0.84656   38.007
 5602.00    0.91202   0.85196   37.450
 5603.00    0.98122   0.85681   -1.000
 5604.00    0.97861   0.86083   -1.000
 5605.00    0.91968   0.86367   37.260
 5606.00    0.87526   0.86469   37.255
 5607.00    0.87116   0.86416   36.801
 5608.00    0.88363   0.86194   36.419
 5609.00    0.89672   0.85779   36.570
 5610.00    0.90840   0.85340   37.337
 5611.00    0.91124   0.84982   37.933
 5612.00    0.89863   0.84595   37.411
 5613.00    0.88649   0.84245   36.686
 5614.00    0.89508   0.84119   37.204
 5615.00    0.90601   0.84117   38.169
 5616.00    0.88743   0.84105   37.768
 5617.00    0.85285   0.84141   36.901
 5618.00    0.84043   0.84193   37.369
 5619.00    0.86090   0.84226   38.308
 5620.00    0.89549   0.84291   37.909
 5621.00    0.90805   0.84342   37.335
 5622.00    0.87957   0.84389   38.418
 5623.00    0.85066   0.84561   39.993
 5624.00    0.86562   0.84804   39.869
 5625.00    0.89501   0.85000   39.202
 5626.00    0.89359   0.85198   39.885
 5627.00    0.87921   0.85400   40.940
 5628.00    0.88209   0.85500   40.694
 5629.00    0.88128   0.85496   40.068
 5630.00    0.85415   0.85422   40.423
 5631.00    0.83032   0.85258   41.198
 5632.00    0.83869   0.85047   41.291
 5633.00    0.85549   0.84847   40.731
 5634.00    0.85062   0.84637   40.120
 5635.00    0.83105   0.84428   39.858
 5636.00    0.81821   0.84320   39.936
 5637.00    0.82487   0.84292   39.890
 5638.00    0.84468   0.84269   39.462
 5639.00    0.85118   0.84311   39.037
 5640.00    0.83981   0.84448   38.958
 5641.00    0.84804   0.84593   39.113
 5642.00    0.88685   0.84730   39.221
 5643.00    0.90822   0.84904   39.063
 5644.00    0.89045   0.85068   38.703
 5645.00    0.87757   0.85193   38.497
 5646.00    0.89797   0.85295   38.559
 5647.00    0.92663   0.85357   38.572
 5648.00    0.93733   0.85321   -1.000
 5649.00    0.92787   0.85171   37.735
 5650.00    0.90389   0.84997   37.271
 5651.00    0.87193   0.84757   37.272
 5652.00    0.84626   0.84338   37.616
 5653.00    0.84485   0.83925   37.670
 5654.00    0.86086   0.83686   37.459
 5655.00    0.86230   0.83422   37.765
 5656.00    0.83455   0.83128   38.662
 5657.00    0.79380   0.83089   39.281
 5658.00    0.77543   0.83223   39.215
 5659.00    0.81076   0.83294   38.891
 5660.00    0.86926   0.83415   38.571
 5661.00    0.88015   0.83663   38.214
 5662.00    0.84917   0.83889   38.032
 5663.00    0.84556   0.84067   38.353
 5664.00    0.87205   0.84268   38.882
 5665.00    0.87192   0.84471   38.836
 5666.00    0.83713   0.84678   38.023
 5667.00    0.80720   0.84927   36.878
 5668.00    0.80161   0.85168   35.759
 5669.00    0.81276   0.85360   34.860
 5670.00    0.82596   0.85557   34.358
 5671.00    0.83025   0.85745   34.412
 5672.00    0.83003   0.85816   35.078
 5673.00    0.83407   0.85777   36.262
 5674.00    0.83197   0.85730   37.583
 5675.00    0.80888   0.85641   38.521
 5676.00    0.77692   0.85426   38.946
 5677.00    0.76106   0.85184   -1.000
 5678.00    0.76908   0.85001   -1.000
 5679.00    0.79528   0.84811   39.041
 5680.00    0.83261   0.84599   38.901
 5681.00    0.87260   0.84461   38.616
 5682.00    0.90328   0.84415   38.233
 5683.00    0.91317   0.84413   37.733
 5684.00    0.89724   0.84471   36.877
 5685.00    0.86390   0.84602   35.854
 5686.00    0.83970   0.84795   35.693
 5687.00    0.83840   0.85025   36.435
 5688.00    0.83190   0.85228   35.439
 5689.00    0.79892   0.85371   31.778
 5690.00    0.77058   0.85479   28.788
 5691.00    0.77694   0.85506   27.986
 5692.00    0.79856   0.85388   28.055
 5693.00    0.80509   0.85208   28.041
 5694.00    0.79136   0.85019   29.224
 5695.00    0.77590   0.84759   32.708
 5696.00    0.79123   0.84457   36.637
 5697.00    0.83615   0.84216   37.981
 5698.00    0.85450   0.84007   37.793
 5699.00    0.82504   0.83752   38.041
 5700.00    0.80677   0.83501   38.319
 5701.00    0.83566   0.83303   38.153
 5702.00    0.87116   0.83083   38.340
 5703.00    0.87232   0.82812   39.275
 5704.00    0.84045   0.82629   40.134
 5705.00    0.80204   0.82561   40.151
 5706.00    0.79109   0.82512   39.506
 5707.00    0.81442   0.82605   38.913
 5708.00    0.84365   0.82912   39.090
 5709.00    0.85535   0.83244   39.882
 5710.00    0.84974   0.83636   40.188
 5711.00    0.85011   0.84160   39.706
 5712.00    0.88651   0.84616   39.346
 5713.00    0.93789   0.85004   -1.000
 5714.00    0.93999   0.85414   -1.000
 5715.00    0.89087   0.85726   39.238
 5716.00    0.85619   0.85954   38.682
 5717.00    0.86273   0.86158   38.071
 5718.00    0.88263   0.86263   37.554
 5719.00    0.89398   0.86295   37.280
 5720.00    0.89517   0.86303   37.323
 5721.00    0.89148   0.86216   37.410
 5722.00    0.88870   0.86074   37.147
 5723.00    0.88732   0.85981   36.796
 5724.00    0.88677   0.85878   36.888
 5725.00    0.89858   0.85749   36.976
 5726.00    0.92988   0.85712   36.245
 5727.00    0.94287   0.85756   -1.000
 5728.00    0.89562   0.85778   35.755
 5729.00    0.83856   0.85816   36.639
 5730.00    0.85563   0.85917   36.605
 5731.00    0.92155   0.85998   36.216
 5732.00    0.95265   0.86029   -1.000
 5733.00    0.93849   0.86060   38.118
 5734.00    0.91848   0.86067   38.257
 5735.00    0.90858   0.86054   37.701
 5736.00    0.90288   0.86055   37.720
 5737.00    0.89375   0.86045   38.136
 5738.00    0.87811   0.86038   38.243
 5739.00    0.86183   0.86063   38.429
 5740.00    0.85668   0.86091    0.000
 5741.00    0.87432   0.86090    0.000
 5742.00    0.90691   0.86068    0.000
 5743.00    0.91011   0.86038    0.000
 5744.00    0.86215   0.85985    0.000
 5745.00    0.82221   0.85878    0.000
 5746.00    0.84604   0.85751    0.000
 5747.00    0.90128   0.85661    0.000
 5748.00    0.93025   0.85563    0.000
 5749.00    0.91548   0.85474    0.000
 5750.00    0.87647   0.85455    0.000
 5751.00    0.85610   0.85462    0.000
 5752.00    0.87067   0.85480    0.000
 5753.00    0.88089   0.85521    0.000
 5754.00    0.86969   0.85520    0.000
 5755.00    0.88685   0.85476    0.000
 5756.00    0.94609   0.85423    0.000
 5757.00    0.97147   0.85330    0.000
 5758.00    0.92142   0.85259    0.000
 5759.00    0.85303   0.85270    0.000
 5760.00    0.82286   0.85302    0.000
 5761.00    0.83117   0.85396    0.000
 5762.00    0.84967   0.85589    0.000
 5763.00    0.84671   0.85754    0.000
 5764.00    0.82827   0.85873    0.000
 5765.00    0.83953   0.85994    0.000
 5766.00    0.88081   0.86042    0.000
 5767.00    0.89279   0.86011    0.000
 5768.00    0.85979   0.85958    0.000
 5769.00    0.83208   0.85852    0.000
 5770.00    0.83748   0.85706    0.000
 5771.00    0.85777   0.85552    0.000
 5772.00    0.87279   0.85328    0.000
 5773.00    0.87565   0.85052    0.000
 5774.00    0.86712   0.84764    0.000
 5775.00    0.85161   0.84393    0.000
 5776.00    0.83101   0.83980    0.000
 5777.00    0.80505   0.83633    0.000
 5778.00    0.77758   0.83324    0.000
 5779.00    0.75610   0.83046    0.000
 5780.00    0.74574   0.82929    0.000
 5781.00    0.74483   0.82979    0.000
 5782.00    0.73853   0.83075    0.000
 5783.00    0.70916   0.83258   -2.000
 5784.00    0.66189   0.83583   -2.000
 5785.00    0.62100   0.83895   -2.000
 5786.00    0.60997   0.84170   -2.000
 5787.00    0.63455   0.84518   -2.000
 5788.00    0.66079   0.84813   -2.000
 5789.00    0.64960   0.85038   -2.000
 5790.00    0.62227   0.85320   -2.000
 5791.00    0.62354   0.85556   -2.000
 5792.00    0.64526   0.85709   -2.000
 5793.00    0.65667   0.85912   -2.000
 5794.00    0.66695   0.86128   -2.000
 5795.00    0.70307   0.86256   -2.000
 5796.00    0.76618   0.86386   -2.000
 5797.00    0.82779   0.86559   -2.000
 5798.00    0.83663   0.86640   -2.000
 5799.00    0.77522   0.86646   -2.000
 5800.00    0.71858   0.86678   -2.000
 5801.00    0.74047   0.86664   -2.000
 5802.00    0.80927   0.86589    0.000
 5803.00    0.86044   0.86541    0.000
 5804.00    0.87952   0.86500    0.000
 5805.00    0.87855   0.86448    0.000
 5806.00    0.86666   0.86395    0.000
 5807.00    0.85369   0.86325    0.000
 5808.00    0.85371   0.86251    0.000
 5809.00    0.86849   0.86169    0.000
 5810.00    0.87788   0.86066    0.000
 5811.00    0.87096   0.85990    0.000
 5812.00    0.86549   0.85974    0.000
 5813.00    0.87403   0.85988    0.000
 5814.00    0.88368   0.86030    0.000
 5815.00    0.88364   0.86138    0.000
 5816.00    0.88087   0.86276    0.000
 5817.00    0.88117   0.86378    0.000
 5818.00    0.87998   0.86473    0.000
 5819.00    0.87646   0.86576    0.000
 5820.00    0.87733   0.86639    0.000
 5821.00    0.87534   0.86669    0.000
 5822.00    0.84791   0.86705    0.000
 5823.00    0.80223   0.86742    0.000
 5824.00    0.78285   0.86760    0.000
 5825.00    0.81199   0.86769    0.000
 5826.00    0.86952   0.86767    0.000
 5827.00    0.91892   0.86760    0.000
 5828.00    0.92776   0.86739    0.000
 5829.00    0.90113   0.86678    0.000
 5830.00    0.87680   0.86628    0.000
 5831.00    0.86803   0.86609    0.000
 5832.00    0.85694   0.86560    0.000
 5833.00    0.83539   0.86519    0.000
 5834.00    0.81420   0.86546    0.000
 5835.00    0.81095   0.86570    0.000
 5836.00    0.83591   0.86564    0.000
 5837.00    0.86607   0.86584    0.000
 5838.00    0.86437   0.86587    0.000
 5839.00    0.84242   0.86513    0.000
 5840.00    0.84311   0.86400    0.000
 5841.00    0.86735   0.86241    0.000
 5842.00    0.88276   0.86008    0.000
 5843.00    0.87687   0.85743    0.000
 5844.00    0.86208   0.85447    0.000
 5845.00    0.86216   0.85102    0.000
 5846.00    0.88793   0.84765    0.000
 5847.00    0.90155   0.84425    0.000
 5848.00    0.86299   0.84045    0.000
 5849.00    0.81321   0.83702    0.000
 5850.00    0.81180   0.83407    0.000
 5851.00    0.82564   0.83099    0.000
 5852.00    0.79826   0.82854    0.000
 5853.00    0.76655   0.82733    0.000
 5854.00    0.78785   0.82650    0.000
 5855.00    0.82881   0.82621    0.000
 5856.00    0.83440   0.82718    0.000
 5857.00    0.82403   0.82848    0.000
 5858.00    0.83564   0.82975    0.000
 5859.00    0.85401   0.83159    0.000
 5860.00    0.84979   0.83326    0.000
 5861.00    0.82626   0.83447    0.000
 5862.00    0.79972   0.83600    0.000
 5863.00    0.77770   0.83737    0.000
 5864.00    0.77249   0.83803    0.000
 5865.00    0.80939   0.83870    0.000
 5866.00    0.87877   0.83918    0.000
 5867.00    0.90939   0.83867    0.000
 5868.00    0.87592   0.83765    0.000
 5869.00    0.86305   0.83627    0.000
 5870.00    0.91965   0.83425    0.000
 5871.00    0.97276   0.83199    0.000
 5872.00    0.96712   0.82990    0.000
 5873.00    0.94500   0.82805    0.000
 5874.00    0.94961   0.82615    0.000
 5875.00    0.96849   0.82451    0.000
 5876.00    0.96292   0.82321    0.000
 5877.00    0.89742   0.82111    0.000
 5878.00    0.79598   0.81790    0.000
 5879.00    0.74598   0.81385    0.000
 5880.00    0.78175   0.80802    0.000
 5881.00    0.84566   0.79939    0.000
 5882.00    0.86656   0.78920    0.000
 5883.00    0.80875   0.77825    0.000
 5884.00    0.72118   0.76519    0.000
 5885.00    0.71186   0.75261    0.000
 5886.00    0.78350   0.74339    0.000
 5887.00    0.82535   0.73457    0.000
 5888.00    0.79854   0.72790    0.000
 5889.00    0.76139   0.72720    0.000
 5890.00    0.74136   0.72732    0.000
 5891.00    0.71758   0.72838    0.000
 5892.00    0.69279   0.73511    0.000
 5893.00    0.69537   0.74235    0.000
 5894.00    0.72655   0.74915    0.000
 5895.00    0.76128   0.75997    0.000
 5896.00    0.78670   0.77089    0.000
 5897.00    0.80501   0.77973    0.000
 5898.00    0.81748   0.78953    0.000
 5899.00    0.82295   0.79858    0.000
 5900.00    0.82275   0.80485    0.000
 5901.00    0.81862   0.81007   36.390
 5902.00    0.80710   0.81448   37.335
 5903.00    0.78937   0.81727   37.954
 5904.00    0.78994   0.81895   38.221
 5905.00    0.82929   0.82006   38.347
 5906.00    0.87491   0.82052   38.509
 5907.00    0.87971   0.82025   38.759
 5908.00    0.85255   0.81937   38.969
 5909.00    0.83239   0.81846   38.958
 5910.00    0.83573   0.81766   38.705
 5911.00    0.85825   0.81666   38.404
 5912.00    0.88692   0.81627   38.448
 5913.00    0.90252   0.81656   -1.000
 5914.00    0.88286   0.81689   39.190
 5915.00    0.83048   0.81791   38.647
 5916.00    0.79813   0.81912   38.139
 5917.00    0.82034   0.81999   38.499
 5918.00    0.84626   0.82130   39.314
 5919.00    0.82468   0.82225   39.763
 5920.00    0.78692   0.82261   39.645
 5921.00    0.77900   0.82316   39.132
 5922.00    0.79671   0.82328   38.379
 5923.00    0.81781   0.82304   37.567
 5924.00    0.83298   0.82290   36.945
 5925.00    0.84112   0.82249   36.669
 5926.00    0.84405   0.82221   36.705
 5927.00    0.84713   0.82227   36.868
 5928.00    0.85801   0.82226   36.880
 5929.00    0.87302   0.82243   36.681
 5930.00    0.87233   0.82296   36.575
 5931.00    0.84566   0.82367   36.821
 5932.00    0.80664   0.82400   37.411
 5933.00    0.78158   0.82429   38.150
 5934.00    0.79609   0.82503   38.727
 5935.00    0.84204   0.82509   38.945
 5936.00    0.87425   0.82467   38.880
 5937.00    0.87727   0.82500   38.829
 5938.00    0.88353   0.82505   39.141
 5939.00    0.90707   0.82457   -1.000
 5940.00    0.92369   0.82467   -1.000
 5941.00    0.91524   0.82470   -1.000
 5942.00    0.88604   0.82425   39.369
 5943.00    0.85250   0.82377   40.023
 5944.00    0.83314   0.82298   40.346
 5945.00    0.82919   0.82211   40.041
 5946.00    0.82703   0.82127   39.703
 5947.00    0.82737   0.82002   39.552
 5948.00    0.84273   0.81907   39.339
 5949.00    0.86135   0.81882   39.197
 5950.00    0.85454   0.81836   39.520
 5951.00    0.82613   0.81802   39.979
 5952.00    0.80737   0.81876   39.715
 5953.00    0.80913   0.81978   38.720
 5954.00    0.81856   0.82071   37.770
 5955.00    0.82067   0.82233   37.469
 5956.00    0.80946   0.82434   37.961
 5957.00    0.79945   0.82596   38.567
 5958.00    0.80881   0.82746   38.395
 5959.00    0.82202   0.82907   38.004
 5960.00    0.81288   0.83010   38.462
 5961.00    0.79880   0.83076   39.185
 5962.00    0.81033   0.83175   38.935
 5963.00    0.82426   0.83236   38.491
 5964.00    0.80437   0.83267   39.224
 5965.00    0.78062   0.83338   40.398
 5966.00    0.80084   0.83367   40.411
 5967.00    0.84480   0.83329   39.794
 5968.00    0.86554   0.83281   39.920
 5969.00    0.86055   0.83184   40.705
 5970.00    0.85193   0.83008   41.220
 5971.00    0.84993   0.82823   40.851
 5972.00    0.85163   0.82642   39.844
 5973.00    0.84572   0.82438   39.379
 5974.00    0.82616   0.82273   40.097
 5975.00    0.80480   0.82156   40.895
 5976.00    0.79615   0.82032   40.641
 5977.00    0.80138   0.81956   40.216
 5978.00    0.81191   0.81917   40.519
 5979.00    0.81585   0.81851   40.737
 5980.00    0.81274   0.81841   40.039
 5981.00    0.82140   0.81894   39.066
 5982.00    0.84401   0.81931   38.594
 5983.00    0.84517   0.82023   38.618
 5984.00    0.81270   0.82199   38.751
 5985.00    0.79273   0.82369   38.550
 5986.00    0.81509   0.82527   38.119
 5987.00    0.85025   0.82717   38.226
 5988.00    0.86944   0.82898   38.906
 5989.00    0.87909   0.83005   38.877
 5990.00    0.89068   0.83078   37.767
 5991.00    0.90220   0.83127   36.970
 5992.00    0.89950   0.83098   37.163
 5993.00    0.86521   0.83028   37.660
 5994.00    0.81629   0.82931   37.975
 5995.00    0.80449   0.82796   38.433
 5996.00    0.83537   0.82680   39.086
 5997.00    0.85364   0.82535   39.368
 5998.00    0.83816   0.82380   39.169
 5999.00    0.82274   0.82290   39.065
 6000.00    0.81837   0.82159   39.221
 6001.00    0.79951   0.82031   39.232
 6002.00    0.76556   0.81984   39.053
 6003.00    0.74803   0.81903   39.054
 6004.00    0.75960   0.81855   39.084
 6005.00    0.78379   0.81875   38.575
 6006.00    0.79672   0.81871   37.744
 6007.00    0.78397   0.81897   37.324
 6008.00    0.76694   0.81920   37.121
 6009.00    0.78517   0.81923   36.415
 6010.00    0.83305   0.81945   35.699
 6011.00    0.86959   0.81898   36.028
 6012.00    0.88094   0.81842   36.959
 6013.00    0.88106   0.81844   37.034
 6014.00    0.87949   0.81790   36.350
 6015.00    0.87547   0.81732   36.157
 6016.00    0.86139   0.81755   36.753
 6017.00    0.83379   0.81807   37.623
 6018.00    0.81158   0.81862   38.262
 6019.00    0.81721   0.81963   38.439
 6020.00    0.83947   0.82157   38.389
 6021.00    0.85134   0.82366   38.452
 6022.00    0.84854   0.82547   38.483
 6023.00    0.84172   0.82805   38.264
 6024.00    0.83576   0.83072   38.220
 6025.00    0.83140   0.83265   38.823
 6026.00    0.83138   0.83467   39.682
 6027.00    0.83667   0.83670   39.986
 6028.00    0.84109   0.83809   39.459
 6029.00    0.83655   0.83905   38.561
 6030.00    0.82045   0.84000   38.269
 6031.00    0.80080   0.84053   38.996
 6032.00    0.79855   0.84058   39.634
 6033.00    0.81974   0.84074   39.074
 6034.00    0.83178   0.84062   38.074
 6035.00    0.81111   0.84040   37.709
 6036.00    0.78519   0.84065   38.047
 6037.00    0.78772   0.84076   38.549
 6038.00    0.81832   0.84114   38.436
 6039.00    0.85914   0.84208   37.595
 6040.00    0.89072   0.84280   37.017
 6041.00    0.89176   0.84360   37.334
 6042.00    0.84417   0.84461   38.054
 6043.00    0.77506   0.84516   38.375
 6044.00    0.76705   0.84525   37.887
 6045.00    0.83900   0.84524   36.879
 6046.00    0.89505   0.84482   36.174
 6047.00    0.88019   0.84373   36.231
 6048.00    0.85193   0.84249   36.864
 6049.00    0.85623   0.84127   37.504
 6050.00    0.87080   0.83972   37.461
 6051.00    0.87459   0.83818   36.845
 6052.00    0.87702   0.83711   36.608
 6053.00    0.88269   0.83615   36.921
 6054.00    0.88029   0.83519   36.915
 6055.00    0.86887   0.83456   36.508
 6056.00    0.86125   0.83401   36.699
 6057.00    0.85256   0.83311   37.614
 6058.00    0.82129   0.83244   38.241
 6059.00    0.77849   0.83220   38.519
 6060.00    0.76646   0.83158   39.522
 6061.00    0.79412   0.83185   40.648
 6062.00    0.83011   0.83336   39.692
 6063.00    0.85031   0.83460   37.512
 6064.00    0.85070   0.83669   36.865
 6065.00    0.84037   0.83969   37.703
 6066.00    0.83487   0.84198   37.938
 6067.00    0.84485   0.84394   37.411
 6068.00    0.86865   0.84561   37.704
 6069.00    0.88264   0.84629   38.717
 6070.00    0.85809   0.84601   38.938
 6071.00    0.80299   0.84495   38.275
 6072.00    0.75195   0.84336   -1.000
 6073.00    0.72576   0.84101   -1.000
 6074.00    0.72731   0.83822   -1.000
 6075.00    0.75028   0.83594   -1.000
 6076.00    0.78200   0.83344   38.409
 6077.00    0.80586   0.83091   38.215
 6078.00    0.81087   0.82964   38.484
 6079.00    0.80564   0.82861   38.628
 6080.00    0.80196   0.82742   38.001
 6081.00    0.78832   0.82724   37.528
 6082.00    0.75668   0.82729   38.285
 6083.00    0.74219   0.82707   -1.000
 6084.00    0.77587   0.82720   40.055
 6085.00    0.82035   0.82724   39.922
 6086.00    0.82442   0.82753   39.985
 6087.00    0.79578   0.82812   39.906
 6088.00    0.77083   0.82835   39.290
 6089.00    0.77107   0.82916   38.941
 6090.00    0.79373   0.83041   39.416
 6091.00    0.81012   0.83078   39.712
 6092.00    0.80179   0.83101   38.903
 6093.00    0.79102   0.83133   37.822
 6094.00    0.80201   0.83027   37.326
 6095.00    0.82673   0.82844   37.095
 6096.00    0.84839   0.82705   36.706
 6097.00    0.86218   0.82463   36.377
 6098.00    0.87041   0.82225   36.245
 6099.00    0.87650   0.82172   35.960
 6100.00    0.87683   0.82085   35.543
 6101.00    0.85860   0.82074   35.760
 6102.00    0.82214   0.82280   36.870
 6103.00    0.79114   0.82446   37.933
 6104.00    0.78645   0.82636   38.139
 6105.00    0.80990   0.82905   37.831
 6106.00    0.84584   0.83075   37.568
 6107.00    0.86716   0.83242   37.553
 6108.00    0.85925   0.83394   37.954
 6109.00    0.83077   0.83423   38.967
 6110.00    0.80580   0.83435   40.217
 6111.00    0.81188   0.83372   40.584
 6112.00    0.84690   0.83207   39.680
 6113.00    0.87559   0.83024   38.355
 6114.00    0.87352   0.82718   37.388
 6115.00    0.84394   0.82396   37.100
 6116.00    0.81190   0.82150   37.567
 6117.00    0.80915   0.81825   38.644
 6118.00    0.83274   0.81618   39.675
 6119.00    0.84814   0.81588   39.728
 6120.00    0.84325   0.81517   39.112
 6121.00    0.83293   0.81593   39.042
 6122.00    0.82174   0.81820   39.464
 6123.00    0.80433   0.81957   39.121
 6124.00    0.79585   0.82111   37.439
 6125.00    0.81815   0.82295   34.981
 6126.00    0.84681   0.82339   32.700
 6127.00    0.83445   0.82272   31.248
 6128.00    0.79254   0.82155   30.591
 6129.00    0.76986   0.81900   30.453
 6130.00    0.76860   0.81557   30.928
 6131.00    0.75939   0.81239   32.238
 6132.00    0.74465   0.80903   33.954
 6133.00    0.74887   0.80670   35.098
 6134.00    0.77868   0.80604   35.308
 6135.00    0.81947   0.80615   35.102
 6136.00    0.84323   0.80778   35.350
 6137.00    0.82985   0.81086   36.563
 6138.00    0.79632   0.81417   37.959
 6139.00    0.77509   0.81722   38.289
 6140.00    0.77716   0.82000   37.958
 6141.00    0.79487   0.82239   38.082
 6142.00    0.81319   0.82369   38.718
 6143.00    0.82182   0.82388   39.281
 6144.00    0.82707   0.82352   39.307
 6145.00    0.83630   0.82271   38.683
 6146.00    0.84030   0.82138   37.696
 6147.00    0.82904   0.81972   36.594
 6148.00    0.80884   0.81810   35.269
 6149.00    0.78858   0.81608   33.857
 6150.00    0.76629   0.81333   33.017
 6151.00    0.74481   0.81027   32.899
 6152.00    0.74327   0.80603   32.585
 6153.00    0.76318   0.80045   31.659
 6154.00    0.76688   0.79459   31.177
 6155.00    0.73647   0.78800   31.723
 6156.00    0.71156   0.78078   32.370
 6157.00    0.72214   0.77446   32.471
 6158.00    0.74538   0.76936   32.958
 6159.00    0.75261   0.76512   34.395
 6160.00    0.74154   0.76260   35.676
 6161.00    0.73039   0.76181   35.895
 6162.00    0.74546   0.76222   35.857
 6163.00    0.77835   0.76371   36.335
 6164.00    0.77802   0.76531   37.113
 6165.00    0.73409   0.76752   37.837
 6166.00    0.70237   0.77056   38.438
 6167.00    0.71563   0.77289   38.774
 6168.00    0.74998   0.77533   38.570
 6169.00    0.77287   0.77876   38.076
 6170.00    0.76763   0.78178   38.047
 6171.00    0.74162   0.78428   38.715
 6172.00    0.72035   0.78705   39.522
 6173.00    0.71442   0.78980   39.592
 6174.00    0.71574   0.79191   38.329
 6175.00    0.72808   0.79340   36.377
 6176.00    0.76182   0.79490   34.903
 6177.00    0.78371   0.79580   33.888
 6178.00    0.74010   0.79542   32.641
 6179.00    0.67082   0.79472   -1.000
 6180.00    0.68072   0.79343   -1.000
 6181.00    0.77169   0.79075   32.153
 6182.00    0.84757   0.78779   32.807
 6183.00    0.84432   0.78472   32.929
 6184.00    0.76520   0.78112   32.951
 6185.00    0.68015   0.77822   -1.000
 6186.00    0.65527   0.77583   -1.000
 6187.00    0.60945   0.77427   -2.000
 6188.00    0.42711   0.77434   -2.000
 6189.00    0.23327   0.77456   -2.000
 6190.00    0.24152   0.77575   -2.000
 6191.00    0.38534   0.77823   -2.000
 6192.00    0.46939   0.77999   -2.000
 6193.00    0.53028   0.78180   -2.000
 6194.00    0.68403   0.78381   -2.000
 6195.00    0.80462   0.78520   -2.000
 6196.00    0.72679   0.78670   -2.000
 6197.00    0.59590   0.78799   -2.000
 6198.00    0.63077   0.78918   -2.000
 6199.00    0.75404   0.79075   30.651
 6200.00    0.79342   0.79196   32.357
 6201.00    0.77973   0.79286   32.984
 6202.00    0.80036   0.79340   33.401
 6203.00    0.80170   0.79307   34.462
 6204.00    0.72998   0.79214   36.281
 6205.00    0.68806   0.79021   -1.000
 6206.00    0.75988   0.78726   36.392
 6207.00    0.84110   0.78411   34.726
 6208.00    0.82964   0.78017   33.878
 6209.00    0.79575   0.77604   33.885
 6210.00    0.81376   0.77272   34.272
 6211.00    0.82459   0.76927   34.619
 6212.00    0.77801   0.76663   34.656
 6213.00    0.73634   0.76521   34.376
 6214.00    0.75159   0.76383   34.202
 6215.00    0.78355   0.76346   34.902
 6216.00    0.78813   0.76372   36.391
 6217.00    0.77327   0.76360   36.941
 6218.00    0.75162   0.76400   35.840
 6219.00    0.71585   0.76431   34.888
 6220.00    0.67809   0.76408   35.043
 6221.00    0.68119   0.76384   35.418
 6222.00    0.73436   0.76295   35.331
 6223.00    0.79069   0.76178   35.257
 6224.00    0.80796   0.76083   35.785
 6225.00    0.77880   0.75942   37.075
 6226.00    0.72680   0.75852   38.637
 6227.00    0.69381   0.75860   39.312
 6228.00    0.69822   0.75856   38.813
 6229.00    0.72336   0.75930   38.135
 6230.00    0.74132   0.76083   37.802
 6231.00    0.73030   0.76172   37.554
 6232.00    0.70078   0.76246   37.253
 6233.00    0.68712   0.76283   36.995
 6234.00    0.69103   0.76238   36.513
 6235.00    0.68595   0.76125   35.430
 6236.00    0.68533   0.75990   34.360
 6237.00    0.72992   0.75864   34.336
 6238.00    0.79621   0.75705   35.211
 6239.00    0.81555   0.75635   35.865
 6240.00    0.78747   0.75646   35.932
 6241.00    0.76684   0.75618   35.959
 6242.00    0.76452   0.75693   36.213
 6243.00    0.75615   0.75822   36.542
 6244.00    0.75244   0.75851   36.748
 6245.00    0.77875   0.75887   36.738
 6246.00    0.80452   0.75906   36.646
 6247.00    0.78003   0.75797   36.586
 6248.00    0.72867   0.75652   36.181
 6249.00    0.70156   0.75502   34.885
 6250.00    0.67323   0.75301   32.679
 6251.00    0.59981   0.75123   -1.000
 6252.00    0.53555   0.75037   -1.000
 6253.00    0.55761   0.75015   -1.000
 6254.00    0.63292   0.75061   22.305
 6255.00    0.68442   0.75239   22.508
 6256.00    0.70536   0.75477   23.912
 6257.00    0.72951   0.75762   25.522
 6258.00    0.77324   0.76129   27.088
 6259.00    0.82012   0.76440   28.981
 6260.00    0.81731   0.76718   31.362
 6261.00    0.75102   0.77016   33.847
 6262.00    0.71584   0.77227   35.270
 6263.00    0.77374   0.77359   35.007
 6264.00    0.82297   0.77496   34.483
 6265.00    0.77612   0.77622   34.929
 6266.00    0.71912   0.77689   35.711
 6267.00    0.74522   0.77743   35.939
 6268.00    0.81264   0.77819   36.017
 6269.00    0.85072   0.77852   36.457
 6270.00    0.84914   0.77853   36.874
 6271.00    0.82398   0.77859   37.077
 6272.00    0.78774   0.77818   37.812
 6273.00    0.74863   0.77765   39.289
 6274.00    0.71236   0.77733   40.157
 6275.00    0.68844   0.77677   -1.000
 6276.00    0.69040   0.77671   -1.000
 6277.00    0.71430   0.77729   38.654
 6278.00    0.73370   0.77784   38.633
 6279.00    0.74052   0.77925   38.144
 6280.00    0.75777   0.78105    0.000
 6281.00    0.79122   0.78276    0.000
 6282.00    0.81408   0.78484    0.000
 6283.00    0.80995   0.78630    0.000
 6284.00    0.78957   0.78749    0.000
 6285.00    0.77445   0.78831    0.000
 6286.00    0.78414   0.78803    0.000
 6287.00    0.81604   0.78746    0.000
 6288.00    0.84493   0.78628    0.000
 6289.00    0.84976   0.78456    0.000
 6290.00    0.82687   0.78285    0.000
 6291.00    0.80017   0.78075    0.000
 6292.00    0.80725   0.77895    0.000
 6293.00    0.84840   0.77761    0.000
 6294.00    0.88850   0.77624    0.000
 6295.00    0.90718   0.77546    0.000
 6296.00    0.90911   0.77541    0.000
 6297.00    0.91206   0.77590    0.000
 6298.00    0.92953   0.77688    0.000
 6299.00    0.93867   0.77827    0.000
 6300.00    0.90342   0.78018    0.000
 6301.00    0.84138   0.78236    0.000
 6302.00    0.80429   0.78452    0.000
 6303.00    0.80768   0.78643    0.000
 6304.00    0.83097   0.78778    0.000
 6305.00    0.84609   0.78879    0.000
 6306.00    0.83413   0.78930    0.000
 6307.00    0.80380   0.78881    0.000
 6308.00    0.77525   0.78782    0.000
 6309.00    0.74994   0.78684    0.000
 6310.00    0.72625   0.78542    0.000
 6311.00    0.72810   0.78414    0.000
 6312.00    0.77007   0.78327    0.000
 6313.00    0.80735   0.78242    0.000
 6314.00    0.79485   0.78268    0.000
 6315.00    0.76702   0.78354    0.000
 6316.00    0.77244   0.78435    0.000
 6317.00    0.78882   0.78614    0.000
 6318.00    0.77760   0.78847    0.000
 6319.00    0.75173   0.79063    0.000
 6320.00    0.74137   0.79256    0.000
 6321.00    0.75264   0.79469   40.597
 6322.00    0.77682   0.79667   40.531
 6323.00    0.80294   0.79778   40.108
 6324.00    0.82013   0.79885   39.551
 6325.00    0.82019   0.79927   39.465
 6326.00    0.81101   0.79917   40.105
 6327.00    0.82184   0.79909   40.860
 6328.00    0.86169   0.79798   40.883
 6329.00    0.89442   0.79675   -1.000
 6330.00    0.88789   0.79581   -1.000
 6331.00    0.84696   0.79451   37.563
 6332.00    0.79610   0.79348   37.647
 6333.00    0.76249   0.79275   37.415
 6334.00    0.75029   0.79218   36.499
 6335.00    0.73508   0.79233   36.103
 6336.00    0.71509   0.79243   36.431
 6337.00    0.72574   0.79214   35.987
 6338.00    0.76900   0.79243   34.533
 6339.00    0.79557   0.79257   33.734
 6340.00    0.79229   0.79242   34.231
 6341.00    0.80087   0.79264   35.182
 6342.00    0.81961   0.79295   35.971
 6343.00    0.79188   0.79358   36.840
 6344.00    0.73150   0.79430   37.776
 6345.00    0.72917   0.79478   38.164
 6346.00    0.79122   0.79524   37.809
 6347.00    0.82600   0.79525   37.221
 6348.00    0.80123   0.79426   36.930
 6349.00    0.76721   0.79284   37.189
 6350.00    0.75832   0.79088   37.720
 6351.00    0.77176   0.78807   37.817
 6352.00    0.79875   0.78504   37.065
 6353.00    0.82786   0.78198   35.720
 6354.00    0.82970   0.77920   34.692
 6355.00    0.78164   0.77687   34.753
 6356.00    0.73535   0.77495   35.205
 6357.00    0.76462   0.77403   34.618
 6358.00    0.81496   0.77433   33.495
 6359.00    0.78014   0.77527   33.234
 6360.00    0.72731   0.77694   33.454
 6361.00    0.79265   0.77966   32.966
 6362.00    0.89672   0.78284   -1.000
 6363.00    0.87041   0.78607   32.915
 6364.00    0.76994   0.78941   34.148
 6365.00    0.75537   0.79264   34.677
 6366.00    0.80418   0.79565   34.746
 6367.00    0.80646   0.79817   35.515
 6368.00    0.77714   0.80002   36.942
 6369.00    0.78373   0.80155   38.140
 6370.00    0.80370   0.80262   38.628
 6371.00    0.78657   0.80291   38.662
 6372.00    0.75706   0.80274   39.095
 6373.00    0.76320   0.80222   40.361
 6374.00    0.79959   0.80134   41.268
 6375.00    0.82957   0.80049   40.603
 6376.00    0.82265   0.79951   39.489
 6377.00    0.78515   0.79859   39.172
 6378.00    0.77930   0.79813   39.081
 6379.00    0.83264   0.79779   38.502
 6380.00    0.86325   0.79762   38.018
 6381.00    0.81535   0.79761   37.937
 6382.00    0.76903   0.79742   37.155
 6383.00    0.78919   0.79704   35.147
 6384.00    0.81011   0.79668   33.097
 6385.00    0.77008   0.79600   31.814
 6386.00    0.70955   0.79475   31.037
 6387.00    0.68533   0.79380   -1.000
 6388.00    0.70695   0.79303   30.883
 6389.00    0.74980   0.79212   31.894
 6390.00    0.77356   0.79158   32.777
 6391.00    0.76529   0.79131   33.105
 6392.00    0.75550   0.79126   33.711
 6393.00    0.76361   0.79145   34.968
 6394.00    0.77342   0.79214   35.909
 6395.00    0.76857   0.79302   36.066
 6396.00    0.75134   0.79406   36.424
 6397.00    0.74041   0.79543   37.528
 6398.00    0.75995   0.79642   38.716
 6399.00    0.79948   0.79804   39.268
 6400.00    0.81595   0.79955   39.087
 6401.00    0.81215   0.79984   38.423
 6402.00    0.83967   0.80065   37.655
 6403.00    0.89059   0.80102   -1.000
 6404.00    0.89318   0.80026   -1.000
 6405.00    0.83768   0.79976   38.305
 6406.00    0.78665   0.79898   37.839
 6407.00    0.76776   0.79826   36.370
 6408.00    0.75931   0.79787   35.186
 6409.00    0.75084   0.79701   34.747
 6410.00    0.74991   0.79651   34.717
 6411.00    0.75079   0.79637   34.704
 6412.00    0.74069   0.79582   34.577
 6413.00    0.73565   0.79530   34.798
 6414.00    0.76168   0.79500   35.962
 6415.00    0.79239   0.79498   37.444
 6416.00    0.77745   0.79543   37.702
 6417.00    0.73175   0.79602   36.735
 6418.00    0.70877   0.79690   -1.000
 6419.00    0.71216   0.79819   34.988
 6420.00    0.71674   0.79961   34.319
 6421.00    0.73650   0.80091   34.058
 6422.00    0.79119   0.80165   34.632
 6423.00    0.83303   0.80167   35.671
 6424.00    0.80476   0.80142   36.412
 6425.00    0.74468   0.80108   36.829
 6426.00    0.72687   0.80023   37.233
 6427.00    0.75449   0.79946   37.236
 6428.00    0.79084   0.79887   36.356
 6429.00    0.81962   0.79844   35.028
 6430.00    0.83572   0.79884   34.030
 6431.00    0.82572   0.79895   33.827
 6432.00    0.78950   0.79902   34.413
 6433.00    0.76377   0.80018   35.066
 6434.00    0.77769   0.80135   35.107
 6435.00    0.80700   0.80252   34.870
 6436.00    0.81215   0.80403   34.719
 6437.00    0.78014   0.80533   34.117
 6438.00    0.72430   0.80696   32.973
 6439.00    0.67812   0.80817   -1.000
 6440.00    0.67154   0.80820   -1.000
 6441.00    0.71087   0.80789   -1.000
 6442.00    0.77505   0.80630   33.592
 6443.00    0.81954   0.80375   33.865
 6444.00    0.81739   0.80165   35.487
 6445.00    0.78472   0.79911   37.176
 6446.00    0.75278   0.79695   37.420
 6447.00    0.74554   0.79564   36.618
 6448.00    0.76438   0.79457   35.562
 6449.00    0.78461   0.79490   34.386
 6450.00    0.78547   0.79590   33.493
 6451.00    0.76830   0.79690   33.681
 6452.00    0.76001   0.79837   34.707
 6453.00    0.79924   0.79949   34.838
 6454.00    0.86496   0.80026   33.676
 6455.00    0.87289   0.80033   32.962
 6456.00    0.81305   0.80018   33.446
 6457.00    0.77499   0.80047   34.331
 6458.00    0.79447   0.80029   34.818
 6459.00    0.81603   0.80039   34.798
 6460.00    0.79793   0.80072   34.535
 6461.00    0.74698   0.80130   34.382
 6462.00    0.69388   0.80247   -1.000
 6463.00    0.67343   0.80336   -1.000
 6464.00    0.69217   0.80391   -1.000
 6465.00    0.72879   0.80452   35.119
 6466.00    0.76720   0.80498   34.970
 6467.00    0.80444   0.80457   35.277
 6468.00    0.84403   0.80388   36.133
 6469.00    0.88440   0.80336   -1.000
 6470.00    0.89591   0.80264   -1.000
 6471.00    0.84684   0.80188   38.185
 6472.00    0.77522   0.80091   38.107
 6473.00    0.75399   0.79985   37.796
 6474.00    0.78099   0.79869   37.430
 6475.00    0.80137   0.79720   37.132
 6476.00    0.79950   0.79572   36.907
 6477.00    0.79219   0.79441   36.666
 6478.00    0.78190   0.79318   36.294
 6479.00    0.76310   0.79200   35.821
 6480.00    0.74710   0.79093   35.654
 6481.00    0.74632   0.79008   36.117
 6482.00    0.74476   0.78894   36.746
 6483.00    0.72667   0.78711   36.903
 6484.00    0.72226   0.78456   36.994
 6485.00    0.75956   0.78124   37.606
 6486.00    0.79532   0.77677   38.087
 6487.00    0.77915   0.77096   37.513
 6488.00    0.74060   0.76512   36.340
 6489.00    0.73130   0.75954   35.566
 6490.00    0.74793   0.75440   35.719
 6491.00    0.75821   0.75093   36.751
 6492.00    0.73960   0.74850   37.840
 6493.00    0.69793   0.74847   38.177
 6494.00    0.67661   0.75071   38.099
 6495.00    0.70203   0.75387   38.308
 6496.00    0.73913   0.75881   38.960
 6497.00    0.75398   0.76420   39.588
 6498.00    0.76448   0.76980   39.187
 6499.00    0.79053   0.77546   37.613
 6500.00    0.81632   0.78002   36.190
 6501.00    0.82627   0.78392   35.745
 6502.00    0.83013   0.78703   35.903
 6503.00    0.83963   0.78931   36.075
 6504.00    0.85161   0.79081   36.029
 6505.00    0.84956   0.79151   35.922
 6506.00    0.81294   0.79170   36.176
 6507.00    0.76172   0.79149   36.865
 6508.00    0.76144   0.79086   37.475
 6509.00    0.81399   0.78992   37.838
 6510.00    0.83116   0.78896   38.447
 6511.00    0.79537   0.78792   38.923
 6512.00    0.80004   0.78713   37.777
 6513.00    0.86618   0.78683   35.448
 6514.00    0.89736   0.78670   -1.000
 6515.00    0.84951   0.78709   34.254
 6516.00    0.77943   0.78781   34.933
 6517.00    0.74693   0.78871   35.259
 6518.00    0.76979   0.78995   35.179
 6519.00    0.80693   0.79074   35.139
 6520.00    0.78846   0.79133   35.702
 6521.00    0.72944   0.79196   36.868
 6522.00    0.71859   0.79221   37.944
 6523.00    0.77092   0.79226   38.105
 6524.00    0.82129   0.79203   37.094
 6525.00    0.83425   0.79170   35.962
 6526.00    0.82038   0.79156   36.033
 6527.00    0.79576   0.79148   36.938
 6528.00    0.77266   0.79141    0.000
 6529.00    0.76328   0.79145    0.000
 6530.00    0.77410   0.79152    0.000
 6531.00    0.79191   0.79163    0.000
 6532.00    0.79589   0.79177    0.000
 6533.00    0.78747   0.79152    0.000
 6534.00    0.78423   0.79078    0.000
 6535.00    0.79655   0.78960    0.000
 6536.00    0.81895   0.78780    0.000
 6537.00    0.82447   0.78543    0.000
 6538.00    0.79815   0.78238    0.000
 6539.00    0.78871   0.77861    0.000
 6540.00    0.85474   0.77489    0.000
 6541.00    0.97562   0.77110    0.000
 6542.00    1.09441   0.76697    0.000
 6543.00    1.19305   0.76302    0.000
 6544.00    1.27002   0.75892    0.000
 6545.00    1.30114   0.75490    0.000
 6546.00    1.26888   0.75070    0.000
 6547.00    1.19970   0.74562    0.000
 6548.00    1.12920   0.74000    0.000
 6549.00    1.06097   0.73352    0.000
 6550.00    0.98269   0.72565    0.000
 6551.00    0.88907   0.71661    0.000
 6552.00    0.80556   0.70640    0.000
 6553.00    0.80635   0.69499    0.000
 6554.00    0.99280   0.68277    0.000
 6555.00    1.46215   0.66988    0.000
 6556.00    2.21346   0.65806    0.000
 6557.00    3.08720   0.64953    0.000
 6558.00    3.87085   0.64333    0.000
 6559.00    4.38392   0.64040    0.000
 6560.00    4.49536   0.64233    0.000
 6561.00    4.14589   0.64799    0.000
 6562.00    3.43563   0.65727    0.000
 6563.00    2.63982   0.66832    0.000
 6564.00    1.97534   0.67955    0.000
 6565.00    1.48213   0.69120    0.000
 6566.00    1.14072   0.70201    0.000
 6567.00    0.93655   0.71115    0.000
 6568.00    0.84021   0.71891    0.000
 6569.00    0.80262   0.72559    0.000
 6570.00    0.78455   0.73121    0.000
 6571.00    0.76920   0.73628    0.000
 6572.00    0.75521   0.74097    0.000
 6573.00    0.75554   0.74521    0.000
 6574.00    0.80533   0.74916    0.000
 6575.00    0.95229   0.75282    0.000
 6576.00    1.21179   0.75630    0.000
 6577.00    1.55252   0.75922    0.000
 6578.00    1.90516   0.76208    0.000
 6579.00    2.17690   0.76446    0.000
 6580.00    2.28556   0.76648    0.000
 6581.00    2.18761   0.76838    0.000
 6582.00    1.92476   0.76939    0.000
 6583.00    1.60836   0.77020    0.000
 6584.00    1.34329   0.77032    0.000
 6585.00    1.18454   0.76973    0.000
 6586.00    1.08593   0.76885    0.000
 6587.00    0.95878   0.76773    0.000
 6588.00    0.82671   0.76671    0.000
 6589.00    0.77367   0.76571    0.000
 6590.00    0.76806   0.76525    0.000
 6591.00    0.72383   0.76546    0.000
 6592.00    0.68272   0.76631    0.000
 6593.00    0.73241   0.76774    0.000
 6594.00    0.80634   0.76919    0.000
 6595.00    0.78895   0.77074    0.000
 6596.00    0.73790   0.77233    0.000
 6597.00    0.76853   0.77344    0.000
 6598.00    0.83216   0.77413    0.000
 6599.00    0.82351   0.77432    0.000
 6600.00    0.77130   0.77394    0.000
 6601.00    0.75742   0.77342    0.000
 6602.00    0.78191   0.77280    0.000
 6603.00    0.80630   0.77239    0.000
 6604.00    0.82429   0.77233    0.000
 6605.00    0.84148   0.77240    0.000
 6606.00    0.84592   0.77312    0.000
 6607.00    0.83089   0.77426    0.000
 6608.00    0.81833   0.77580    0.000
 6609.00    0.82677   0.77740   37.774
 6610.00    0.84103   0.77874   36.994
 6611.00    0.83641   0.78021   36.174
 6612.00    0.80435   0.78135   35.721
 6613.00    0.76910   0.78216   35.665
 6614.00    0.78808   0.78247   35.393
 6615.00    0.86119   0.78220   34.751
 6616.00    0.88420   0.78164   -1.000
 6617.00    0.81042   0.78072   35.325
 6618.00    0.74071   0.77943   35.926
 6619.00    0.75184   0.77805   35.896
 6620.00    0.79860   0.77649   36.248
 6621.00    0.82387   0.77489   37.531
 6622.00    0.82273   0.77363   38.772
 6623.00    0.81020   0.77236   39.164
 6624.00    0.80003   0.77129   39.210
 6625.00    0.79823   0.77030   39.252
 6626.00    0.80063   0.76932   38.870
 6627.00    0.79500   0.76870   38.172
 6628.00    0.76901   0.76824   37.984
 6629.00    0.73871   0.76792   38.325
 6630.00    0.74421   0.76783   38.209
 6631.00    0.78363   0.76799   37.352
 6632.00    0.80847   0.76845   36.490
 6633.00    0.80485   0.76903   35.963
 6634.00    0.80550   0.76950   35.497
 6635.00    0.82540   0.76986   34.840
 6636.00    0.84898   0.77004   34.025
 6637.00    0.86111   0.77024   -1.000
 6638.00    0.85791   0.77032   -1.000
 6639.00    0.84750   0.77008   35.157
 6640.00    0.84167   0.76987   36.302
 6641.00    0.83367   0.76972   37.136
 6642.00    0.80974   0.76963   38.070
 6643.00    0.79103   0.76949   38.908
 6644.00    0.81065   0.76919   38.991
 6645.00    0.83994   0.76881   38.684
 6646.00    0.82213   0.76848   38.930
 6647.00    0.77657   0.76796   39.637
 6648.00    0.76289   0.76731   39.957
 6649.00    0.77051   0.76665   39.603
 6650.00    0.75312   0.76590   38.931
 6651.00    0.72734   0.76520   38.405
 6652.00    0.73806   0.76432   38.187
 6653.00    0.77340   0.76337   37.751
 6654.00    0.79315   0.76229   36.637
 6655.00    0.79332   0.76123   35.510
 6656.00    0.79265   0.76014   35.124
 6657.00    0.79914   0.75910   35.163
 6658.00    0.80606   0.75836   35.045
 6659.00    0.79467   0.75765   35.012
 6660.00    0.76074   0.75759   35.536
 6661.00    0.74250   0.75800   36.477
 6662.00    0.77088   0.75871   37.231
 6663.00    0.81396   0.75983   37.131
 6664.00    0.82869   0.76091   36.355
 6665.00    0.81858   0.76205   36.384
 6666.00    0.80689   0.76302   37.951
 6667.00    0.80504   0.76344   39.238
 6668.00    0.81218   0.76305   38.593
 6669.00    0.81884   0.76202   37.853
 6670.00    0.82050   0.76037   38.462
 6671.00    0.82510   0.75843   38.893
 6672.00    0.82567   0.75626   38.049
 6673.00    0.78829   0.75391   37.715
 6674.00    0.72284   0.75188   38.693
 6675.00    0.71364   0.75062   38.740
 6676.00    0.78225   0.75021   36.910
 6677.00    0.82374   0.75029   35.754
 6678.00    0.78362   0.75088   36.378
 6679.00    0.74144   0.75174   37.048
 6680.00    0.75439   0.75296   36.486
 6681.00    0.78335   0.75425   35.718
 6682.00    0.78537   0.75532   35.705
 6683.00    0.76073   0.75618   36.368
 6684.00    0.73450   0.75675   37.175
 6685.00    0.73690   0.75720   37.487
 6686.00    0.76178   0.75735   37.344
 6687.00    0.76642   0.75724   37.512
 6688.00    0.74422   0.75703   38.108
 6689.00    0.73538   0.75665   38.410
 6690.00    0.75358   0.75634   38.413
 6691.00    0.77271   0.75608   38.930
 6692.00    0.77943   0.75576   39.590
 6693.00    0.78204   0.75574   38.939
 6694.00    0.77877   0.75581   37.548
 6695.00    0.75911   0.75600   37.342
 6696.00    0.73803   0.75643    0.000
 6697.00    0.74405   0.75672    0.000
 6698.00    0.76036   0.75706    0.000
 6699.00    0.74313   0.75728    0.000
 6700.00    0.70677   0.75731    0.000
 6701.00    0.70571   0.75729    0.000
 6702.00    0.74283   0.75710    0.000
 6703.00    0.77528   0.75667    0.000
 6704.00    0.77370   0.75589    0.000
 6705.00    0.73683   0.75483    0.000
 6706.00    0.69354   0.75324    0.000
 6707.00    0.68735   0.75143    0.000
 6708.00    0.74778   0.74922    0.000
 6709.00    0.88737   0.74676    0.000
 6710.00    1.10449   0.74448    0.000
 6711.00    1.36071   0.74214    0.000
 6712.00    1.54952   0.74025    0.000
 6713.00    1.58145   0.73870    0.000
 6714.00    1.50709   0.73785    0.000
 6715.00    1.41844   0.73786    0.000
 6716.00    1.29989   0.73825    0.000
 6717.00    1.11808   0.73906    0.000
 6718.00    0.94960   0.74009    0.000
 6719.00    0.87976   0.74140    0.000
 6720.00    0.87573   0.74278    0.000
 6721.00    0.86847   0.74408    0.000
 6722.00    0.85283   0.74517    0.000
 6723.00    0.86920   0.74619    0.000
 6724.00    0.96886   0.74711    0.000
 6725.00    1.14727   0.74784    0.000
 6726.00    1.29992   0.74850    0.000
 6727.00    1.34852   0.74889    0.000
 6728.00    1.33656   0.74912    0.000
 6729.00    1.30824   0.74906    0.000
 6730.00    1.22294   0.74886    0.000
 6731.00    1.07035   0.74850    0.000
 6732.00    0.93922   0.74808    0.000
 6733.00    0.88440   0.74739    0.000
 6734.00    0.85331   0.74650    0.000
 6735.00    0.80664   0.74570    0.000
 6736.00    0.78060   0.74489    0.000
 6737.00    0.79465   0.74420    0.000
 6738.00    0.80853   0.74337    0.000
 6739.00    0.78750   0.74244    0.000
 6740.00    0.73455   0.74170    0.000
 6741.00    0.66994   0.74090    0.000
 6742.00    0.61711   0.74025    0.000
 6743.00    0.58866   0.73959    0.000
 6744.00    0.58543   0.73888    0.000
 6745.00    0.61793   0.73868    0.000
 6746.00    0.69978   0.73859    0.000
 6747.00    0.78906   0.73907    0.000
 6748.00    0.80306   0.73987    0.000
 6749.00    0.74767   0.74085    0.000
 6750.00    0.71773   0.74247    0.000
 6751.00    0.74813   0.74411    0.000
 6752.00    0.79402   0.74594    0.000
 6753.00    0.82161   0.74767   26.869
 6754.00    0.82972   0.74918   27.482
 6755.00    0.82990   0.75052   27.519
 6756.00    0.83173   0.75137   28.037
 6757.00    0.82139   0.75181   29.214
 6758.00    0.78340   0.75170   30.179
 6759.00    0.76206   0.75145   30.395
 6760.00    0.81237   0.75100   30.125
 6761.00    0.86594   0.75032   -1.000
 6762.00    0.81259   0.74956   30.701
 6763.00    0.71771   0.74890   31.481
 6764.00    0.72603   0.74870   31.365
 6765.00    0.80628   0.74893   30.826
 6766.00    0.83020   0.74942   30.954
 6767.00    0.78770   0.75014   31.488
 6768.00    0.74843   0.75121   31.460
 6769.00    0.74192   0.75244   30.823
 6770.00    0.75982   0.75373   30.167
 6771.00    0.78756   0.75473   29.840
 6772.00    0.81086   0.75532   29.980
 6773.00    0.81880   0.75535   30.683
 6774.00    0.81291   0.75476   31.820
 6775.00    0.81544   0.75372   32.684
 6776.00    0.83591   0.75215   32.675
 6777.00    0.83611   0.75024   32.357
 6778.00    0.79492   0.74808   32.238
 6779.00    0.77352   0.74600   31.550
 6780.00    0.81418   0.74414   29.974
 6781.00    0.84464   0.74276   -1.000
 6782.00    0.80530   0.74182   29.065
 6783.00    0.76186   0.74136   29.699
 6784.00    0.77689   0.74127   29.885
 6785.00    0.80334   0.74136   30.190
 6786.00    0.78903   0.74172   31.162
 6787.00    0.75822   0.74215   32.068
 6788.00    0.74629   0.74278   32.247
 6789.00    0.75048   0.74327   32.333
 6790.00    0.75431   0.74382   32.637
 6791.00    0.74771   0.74459   32.250
 6792.00    0.73451   0.74525   31.212
 6793.00    0.73198   0.74614   31.131
 6794.00    0.74465   0.74691   31.992
 6795.00    0.75464   0.74761   31.449
 6796.00    0.75303   0.74846   31.124
 6797.00    0.75208   0.74905   37.508
 6798.00    0.75938   0.74955   44.271
 6799.00    0.76700   0.74995   26.736
 6800.00    0.76282   0.75006   20.073
 6801.00    0.73867   0.75018   70.277
 6802.00    0.70056   0.75020   -2.000
 6803.00    0.67057   0.75001    9.812
 6804.00    0.67729   0.74999    5.780
 6805.00    0.73847   0.74980   -2.000
 6806.00    0.81490   0.74946   -2.000
 6807.00    0.82780   0.74943    1.608
 6808.00    0.76913   0.74925    1.003
 6809.00    0.70713   0.74917   -2.000
 6810.00    0.68872   0.74910   -2.000
 6811.00    0.71386   0.74891    0.193
 6812.00    0.75157   0.74917    0.148
 6813.00    0.76291   0.74953   -2.000
 6814.00    0.74677   0.74991   -2.000
 6815.00    0.73147   0.75036    0.023
 6816.00    0.72614   0.75070    0.022
 6817.00    0.71844   0.75126   -2.000
 6818.00    0.69660   0.75179   -2.000
 6819.00    0.66798   0.75213    0.003
 6820.00    0.68363   0.75244    0.003
 6821.00    0.78005   0.75255   -2.000
 6822.00    0.86538   0.75266   -2.000
 6823.00    0.81856   0.75258    0.000
 6824.00    0.69469   0.75236    0.001
 6825.00    0.63678   0.75238   -2.000
 6826.00    0.67700   0.75245   -2.000
 6827.00    0.75420   0.75254    0.000
 6828.00    0.79185   0.75243    0.000
 6829.00    0.75762   0.75215   -2.000
 6830.00    0.72232   0.75188   -2.000
 6831.00    0.75285   0.75137    0.000
 6832.00    0.77531   0.75058    0.000
 6833.00    0.71217   0.74958   -2.000
 6834.00    0.65287   0.74853   -2.000
 6835.00    0.69726   0.74745    0.000
 6836.00    0.77462   0.74660   -2.000
 6837.00    0.78342   0.74593   -2.000
 6838.00    0.74539   0.74562    0.000
 6839.00    0.72514   0.74585    0.000
 6840.00    0.74153   0.74628   -2.000
 6841.00    0.77757   0.74694   -2.000
 6842.00    0.79921   0.74748    0.000
 6843.00    0.78485   0.74786    0.000
 6844.00    0.74594   0.74815   -2.000
 6845.00    0.70924   0.74805   -2.000
 6846.00    0.69950   0.74759    0.000
 6847.00    0.71974   0.74697    0.000
 6848.00    0.74404   0.74612   -2.000
 6849.00    0.75498   0.74517   -2.000
 6850.00    0.76372   0.74409    0.000
 6851.00    0.78266   0.74294    0.000
 6852.00    0.80722   0.74224    0.000
 6853.00    0.80995   0.74184    0.000
 6854.00    0.75197   0.74160    0.000
 6855.00    0.65311   0.74173    0.000
 6856.00    0.60096   0.74190    0.000
 6857.00    0.62779   0.74210    0.000
 6858.00    0.67676   0.74255    0.000
 6859.00    0.70884   0.74319    0.000
 6860.00    0.73531   0.74385    0.000
 6861.00    0.75757   0.74415    0.000
 6862.00    0.75620   0.74422   -2.000
 6863.00    0.74136   0.74423   -2.000
 6864.00    0.75092   0.74420    0.000
 6865.00    0.78110   0.74441    0.000
 6866.00    0.78828   0.74473   -2.000
 6867.00    0.76817   0.74512   -2.000
 6868.00    0.75921   0.74555    0.000
 6869.00    0.77998   0.74635    0.000
 6870.00    0.81499   0.74739   -2.000
 6871.00    0.82770   0.74830   -2.000
 6872.00    0.78780   0.74926    0.000
 6873.00    0.72675   0.75004    0.000
 6874.00    0.70941   0.75073   -2.000
 6875.00    0.74081   0.75108   -2.000
 6876.00    0.77540   0.75133    0.000
 6877.00    0.78129   0.75133    0.000
 6878.00    0.75373   0.75132   -2.000
 6879.00    0.71348   0.75156   -2.000
 6880.00    0.69291   0.75205    0.000
 6881.00    0.71152   0.75292    0.000
 6882.00    0.76269   0.75367   -2.000
 6883.00    0.80151   0.75482   -2.000
 6884.00    0.78558   0.75605    0.000
 6885.00    0.73769   0.75725    0.000
 6886.00    0.71457   0.75839   -2.000
 6887.00    0.74814   0.75932   -2.000
 6888.00    0.82254   0.76011    0.000
 6889.00    0.86096   0.76058    0.004
 6890.00    0.81037   0.76100   -2.000
 6891.00    0.73776   0.76120   -2.000
 6892.00    0.72879   0.76139    0.002
 6893.00    0.76739   0.76158   25.499
 6894.00    0.80054   0.76180   -2.000
 6895.00    0.81619   0.76215    0.171
 6896.00    0.81748   0.76242    0.015
 6897.00    0.79362   0.76292   -2.000
 6898.00    0.74683   0.76365   -2.000
 6899.00    0.71322   0.76433    0.135
 6900.00    0.71660   0.76499    0.016
 6901.00    0.73404   0.76551   -2.000
 6902.00    0.73792   0.76599   -2.000
 6903.00    0.72851   0.76633    0.014
 6904.00    0.72178   0.76637    0.002
 6905.00    0.73536   0.76614   -2.000
 6906.00    0.76245   0.76565   -2.000
 6907.00    0.76452   0.76495    0.001
 6908.00    0.72769   0.76415    0.000
 6909.00    0.68735   0.76343   -2.000
 6910.00    0.67238   0.76260   -2.000
 6911.00    0.67782   0.76210    0.000
 6912.00    0.69081   0.76186    0.000
 6913.00    0.70439   0.76147   -2.000
 6914.00    0.71501   0.76148   -2.000
 6915.00    0.72110   0.76134    0.000
 6916.00    0.72287   0.76135    0.000
 6917.00    0.72203   0.76143   -2.000
 6918.00    0.72083   0.76131   -2.000
 6919.00    0.72288   0.76134    0.000
 6920.00    0.73732   0.76107    0.000
 6921.00    0.77175   0.76113   -2.000
 6922.00    0.80356   0.76126   -2.000
 6923.00    0.79046   0.76170    0.000
 6924.00    0.73433   0.76221    0.000
 6925.00    0.68227   0.76259   -2.000
 6926.00    0.66923   0.76315   -2.000
 6927.00    0.69758   0.76348    0.000
 6928.00    0.73038   0.76407    0.000
 6929.00    0.71827   0.76442   -2.000
 6930.00    0.66841   0.76500   -2.000
 6931.00    0.63111   0.76563    0.000
 6932.00    0.62914   0.76599    0.000
 6933.00    0.65011   0.76641   -2.000
 6934.00    0.66628   0.76659   -2.000
 6935.00    0.65654   0.76694    0.000
 6936.00    0.63929   0.76711    0.000
 6937.00    0.65064   0.76725    0.000
 6938.00    0.69405   0.76721    0.000
 6939.00    0.74528   0.76707    0.000
 6940.00    0.77683   0.76697    0.000
 6941.00    0.77093   0.76683    0.000
 6942.00    0.73268   0.76701    0.000
 6943.00    0.68254   0.76729    0.000
 6944.00    0.64216   0.76749    0.000
 6945.00    0.62673   0.76768    0.000
 6946.00    0.63772   0.76787    0.000
 6947.00    0.66845   0.76795    0.000
 6948.00    0.71113   0.76821    0.000
 6949.00    0.74674   0.76859    0.000
 6950.00    0.73680   0.76908    0.000
 6951.00    0.67409   0.76979    0.000
 6952.00    0.62809   0.77063    0.000
 6953.00    0.64919   0.77166    0.000
 6954.00    0.68186   0.77258    0.000
 6955.00    0.67427   0.77365    0.000
 6956.00    0.67206   0.77468    0.000
 6957.00    0.70546   0.77574    0.000
 6958.00    0.70518   0.77668    0.000
 6959.00    0.64182   0.77745    0.000
 6960.00    0.61510   0.77816    0.000
 6961.00    0.67275   0.77863    0.000
 6962.00    0.70538   0.77904    0.000
 6963.00    0.65057   0.77925    0.000
 6964.00    0.60368   0.77929    0.000
 6965.00    0.62970   0.77889    0.000
 6966.00    0.66626   0.77811    0.000
 6967.00    0.65986   0.77692    0.000
 6968.00    0.63453   0.77541    0.000
 6969.00    0.62552   0.77385    0.000
 6970.00    0.64140   0.77194    0.000
 6971.00    0.66056   0.77011    0.000
 6972.00    0.64632   0.76839    0.000
 6973.00    0.61610   0.76715    0.000
 6974.00    0.64090   0.76648    0.000
 6975.00    0.71684   0.76648    0.000
 6976.00    0.75260   0.76759    0.000
 6977.00    0.72441   0.76905    0.000
 6978.00    0.69662   0.77075    0.000
 6979.00    0.68355   0.77259    0.000
 6980.00    0.64161   0.77424    0.000
 6981.00    0.60262   0.77575    0.000
 6982.00    0.65328   0.77685    0.000
 6983.00    0.74690   0.77755    0.000
 6984.00    0.74085   0.77794    0.000
 6985.00    0.65166   0.77792    0.000
 6986.00    0.62533   0.77790    0.000
 6987.00    0.68370   0.77778    0.000
 6988.00    0.72980   0.77756    0.000
 6989.00    0.71430   0.77729    0.000
 6990.00    0.66209   0.77689    0.000
 6991.00    0.64015   0.77648    0.000
 6992.00    0.69750   0.77607    0.000
 6993.00    0.76521   0.77546    0.000
 6994.00    0.73653   0.77487    0.000
 6995.00    0.64652   0.77419    0.000
 6996.00    0.60323   0.77356    0.000
 6997.00    0.61675   0.77321    0.000
 6998.00    0.63852   0.77286    0.000
 6999.00    0.66727   0.77274    0.000
 7000.00    0.71683   0.77252    0.000
 7001.00    0.74849   0.77261   -2.000
 7002.00    0.72516   0.77288   -2.000
 7003.00    0.69226   0.77318   -2.000
 7004.00    0.70367   0.77349   -2.000
 7005.00    0.72169   0.77360   -2.000
 7006.00    0.69305   0.77368   -2.000
 7007.00    0.64580   0.77355   -2.000
 7008.00    0.62907   0.77335   -2.000
 7009.00    0.64034   0.77316   -2.000
 7010.00    0.66019   0.77277   -2.000
 7011.00    0.69092   0.77252   -2.000
 7012.00    0.72451   0.77232   -2.000
 7013.00    0.71721   0.77256   -2.000
 7014.00    0.65672   0.77318   -2.000
 7015.00    0.61075   0.77374   -2.000
 7016.00    0.63780   0.77426   -2.000
 7017.00    0.71802   0.77463   -2.000
 7018.00    0.78855   0.77498   -2.000
 7019.00    0.78344   0.77524   -2.000
 7020.00    0.70463   0.77562   -2.000
 7021.00    0.64740   0.77613   -2.000
 7022.00    0.66586   0.77676   -2.000
 7023.00    0.70678   0.77737   -2.000
 7024.00    0.72454   0.77808   -2.000
 7025.00    0.73618   0.77889   -2.000
 7026.00    0.74546   0.77965   -2.000
 7027.00    0.71760   0.78040   -2.000
 7028.00    0.66320   0.78105   -2.000
 7029.00    0.65253   0.78174   -2.000
 7030.00    0.68957   0.78242   -2.000
 7031.00    0.69302   0.78319   -2.000
 7032.00    0.65997   0.78406   -2.000
 7033.00    0.68540   0.78522   -2.000
 7034.00    0.76819   0.78662   -2.000
 7035.00    0.79174   0.78843   -2.000
 7036.00    0.72670   0.79069   -2.000
 7037.00    0.65895   0.79289   -2.000
 7038.00    0.63783   0.79488   -2.000
 7039.00    0.64562   0.79647   -2.000
 7040.00    0.66201   0.79761   -2.000
 7041.00    0.67767   0.79804   -2.000
 7042.00    0.67512   0.79774   -2.000
 7043.00    0.64375   0.79666   -2.000
 7044.00    0.63044   0.79444   -2.000
 7045.00    0.69792   0.79129   -2.000
 7046.00    0.79804   0.78710   -2.000
 7047.00    0.82002   0.78225   -2.000
 7048.00    0.76067   0.77688   -2.000
 7049.00    0.70058   0.77123   -2.000
 7050.00    0.67867   0.76591   -2.000
 7051.00    0.68639   0.76079   -2.000
 7052.00    0.70596   0.75635   -2.000
 7053.00    0.71790   0.75242   -2.000
 7054.00    0.70222   0.74907   -2.000
 7055.00    0.65919   0.74632   -2.000
 7056.00    0.63903   0.74416   -2.000
 7057.00    0.68508   0.74262   -2.000
 7058.00    0.74710   0.74164   -2.000
 7059.00    0.74572   0.74103   -2.000
 7060.00    0.67701   0.74069   -2.000
 7061.00    0.59529   0.74077   -2.000
 7062.00    0.56901   0.74094   -2.000
 7063.00    0.61946   0.74170   -2.000
 7064.00    0.66449   0.74280   -2.000
 7065.00    0.63576   0.74430   -2.000
 7066.00    0.60166   0.74610   -2.000
 7067.00    0.63493   0.74795   -2.000
 7068.00    0.67827   0.74985   -2.000
 7069.00    0.66823   0.75150   -2.000
 7070.00    0.65114   0.75298   -2.000
 7071.00    0.67213   0.75401   -2.000
 7072.00    0.68278   0.75459   -2.000
 7073.00    0.64892   0.75459   -2.000
 7074.00    0.62880   0.75391   -2.000
 7075.00    0.66164   0.75250   -2.000
 7076.00    0.69371   0.75027   -2.000
 7077.00    0.67363   0.74737   -2.000
 7078.00    0.61670   0.74368   -2.000
 7079.00    0.57143   0.73954   -2.000
 7080.00    0.58636   0.73514   -2.000
 7081.00    0.65652   0.73054   -2.000
 7082.00    0.71069   0.72611   -2.000
 7083.00    0.70917   0.72191   -2.000
 7084.00    0.68362   0.71812   -2.000
 7085.00    0.66443   0.71495   -2.000
 7086.00    0.65032   0.71266   -2.000
 7087.00    0.64359   0.71076   -2.000
 7088.00    0.65736   0.70988   -2.000
 7089.00    0.67424   0.70931   -2.000
 7090.00    0.64957   0.70944   -2.000
 7091.00    0.59361   0.70999   -2.000
 7092.00    0.57276   0.71081   -2.000
 7093.00    0.59660   0.71232   -2.000
 7094.00    0.60882   0.71349   -2.000
 7095.00    0.59631   0.71525   -2.000
 7096.00    0.59844   0.71653   -2.000
 7097.00    0.62050   0.71796   -2.000
 7098.00    0.63108   0.71920   -2.000
 7099.00    0.63208   0.72034   -2.000
 7100.00    0.65080   0.72137   -2.000
 7101.00    0.66702   0.72208   -2.000
 7102.00    0.63405   0.72275   -2.000
 7103.00    0.57513   0.72312   -2.000
 7104.00    0.55887   0.72346   -2.000
 7105.00    0.59276   0.72363   -2.000
 7106.00    0.63288   0.72398   -2.000
 7107.00    0.65363   0.72438   -2.000
 7108.00    0.64954   0.72505   -2.000
 7109.00    0.61121   0.72574   -2.000
 7110.00    0.54530   0.72661   -2.000
 7111.00    0.51453   0.72744   -2.000
 7112.00    0.57396   0.72815   -2.000
 7113.00    0.66099   0.72871   -2.000
 7114.00    0.67947   0.72880   -2.000
 7115.00    0.64840   0.72866   -2.000
 7116.00    0.63034   0.72782   -2.000
 7117.00    0.60443   0.72664   -2.000
 7118.00    0.52490   0.72483   -2.000
 7119.00    0.41664   0.72252   -2.000
 7120.00    0.34372   0.71989   -2.000
 7121.00    0.35406   0.71707   -2.000
 7122.00    0.43792   0.71434   -2.000
 7123.00    0.49896   0.71178   -2.000
 7124.00    0.46843   0.70963   -2.000
 7125.00    0.41392   0.70782   -2.000
 7126.00    0.41638   0.70676   -2.000
 7127.00    0.45181   0.70622   -2.000
 7128.00    0.47582   0.70634   -2.000
 7129.00    0.50136   0.70686   -2.000
 7130.00    0.54614   0.70771   -2.000
 7131.00    0.58918   0.70894   -2.000
 7132.00    0.60676   0.71000   -2.000
 7133.00    0.60069   0.71118   -2.000
 7134.00    0.58730   0.71216   -2.000
 7135.00    0.58540   0.71318   -2.000
 7136.00    0.59670   0.71394   -2.000
 7137.00    0.59962   0.71452   -2.000
 7138.00    0.58603   0.71492   -2.000
 7139.00    0.57663   0.71506   -2.000
 7140.00    0.58177   0.71523   -2.000
 7141.00    0.58632   0.71530   -2.000
 7142.00    0.58683   0.71526   -2.000
 7143.00    0.60209   0.71570   -2.000
 7144.00    0.63133   0.71638   -2.000
 7145.00    0.64199   0.71736   -2.000
 7146.00    0.60472   0.71872   -2.000
 7147.00    0.51956   0.72028   -2.000
 7148.00    0.45482   0.72193   -2.000
 7149.00    0.51192   0.72348   -2.000
 7150.00    0.64413   0.72488   -2.000
 7151.00    0.67259   0.72605   -2.000
 7152.00    0.56717   0.72668   -2.000
 7153.00    0.47101   0.72701   -2.000
 7154.00    0.47018   0.72674   -2.000
 7155.00    0.53963   0.72619   -2.000
 7156.00    0.60600   0.72548   -2.000
 7157.00    0.60151   0.72448   -2.000
 7158.00    0.55225   0.72352   -2.000
 7159.00    0.54062   0.72262   -2.000
 7160.00    0.55706   0.72237   -2.000
 7161.00    0.53089   0.72240   -2.000
 7162.00    0.48234   0.72289   -2.000
 7163.00    0.48613   0.72369   -2.000
 7164.00    0.52358   0.72474   -2.000
 7165.00    0.52608   0.72606   -2.000
 7166.00    0.51742   0.72730   -2.000
 7167.00    0.55935   0.72849   -2.000
 7168.00    0.60804   0.72934   -2.000
 7169.00    0.58279   0.73004   -2.000
 7170.00    0.51895   0.73031   -2.000
 7171.00    0.50695   0.73038   -2.000
 7172.00    0.56103   0.73021   -2.000
 7173.00    0.63213   0.72977   -2.000
 7174.00    0.65749   0.72916   -2.000
 7175.00    0.60838   0.72852   -2.000
 7176.00    0.53829   0.72794   -2.000
 7177.00    0.50961   0.72756   -2.000
 7178.00    0.50232   0.72715   -2.000
 7179.00    0.48223   0.72669   -2.000
 7180.00    0.48384   0.72629   -2.000
 7181.00    0.53985   0.72571   -2.000
 7182.00    0.60439   0.72530   -2.000
 7183.00    0.61840   0.72509   -2.000
 7184.00    0.57886   0.72504   -2.000
 7185.00    0.52420   0.72554   -2.000
 7186.00    0.50997   0.72588   -2.000
 7187.00    0.55830   0.72658   -2.000
 7188.00    0.62456   0.72722   -2.000
 7189.00    0.65480   0.72806   -2.000
 7190.00    0.63118   0.72875   -2.000
 7191.00    0.56501   0.72917   -2.000
 7192.00    0.48672   0.72967   -2.000
 7193.00    0.42694   0.72997   -2.000
 7194.00    0.40405   0.73012   -2.000
 7195.00    0.42294   0.73001   -2.000
 7196.00    0.47313   0.72960   -2.000
 7197.00    0.52050   0.72932   -2.000
 7198.00    0.51957   0.72901   -2.000
 7199.00    0.49951   0.72853   -2.000
 7200.00    0.56817   0.72803   -2.000
 7201.00    0.71856   0.72730   -2.000
 7202.00    0.79049   0.72715   -2.000
 7203.00    0.71578   0.72726   -2.000
 7204.00    0.58815   0.72765   -2.000
 7205.00    0.49412   0.72859   -2.000
 7206.00    0.45173   0.72954   -2.000
 7207.00    0.45205   0.73087   -2.000
 7208.00    0.47647   0.73221   -2.000
 7209.00    0.49810   0.73378   -2.000
 7210.00    0.49504   0.73535   -2.000
 7211.00    0.48969   0.73693   -2.000
 7212.00    0.53087   0.73868   -2.000
 7213.00    0.60571   0.74005   -2.000
 7214.00    0.64962   0.74144   -2.000
 7215.00    0.64414   0.74262   -2.000
 7216.00    0.61561   0.74382   -2.000
 7217.00    0.56408   0.74491   -2.000
 7218.00    0.47540   0.74602   -2.000
