###################################################################
## OUTPUT of StarlightChains_v04.for    [Cid@UFSC - 01/Apr/2007] ##
###################################################################

## Some input info
2014ac.txt                               [arq_obs]
Base.CB07.vall.4m                        [arq_base]
Masks.EmLines.NEW.gm                     [arq_masks]
StCv04.C11.config                        [arq_config]
   66                                    [N_base]
    0                                    [N_YAV_components = # of components with extra extinction!]
    0                                    [i_FitPowerLaw (1/0 = Yes/No)]
-9.99                                    [alpha_PowerLaw]
CCM                                      [red_law_option]
 1.458241                                [q_norm = A(l_norm)/A(V)]

## (Re)Sampling Parameters
 3741.00                                 [l_ini (A)]
 7218.00                                 [l_fin (A)]
    1.00                                 [dl    (A)]     (OBS: dl_cushion =    50.00 A)

## Normalization info
 4020.00                                 [l_norm (A) - for base]
 4010.00                                 [llow_norm (A) - window for f_obs]
 4060.00                                 [lupp_norm (A) - window for f_obs]
3.844202E-17                             [fobs_norm (in input units)]

## S/N
 3691.00                                 [llow_SN (A) - window for S/N]
 7268.00                                 [lupp_SN (A) - window for S/N]
   8.536                                 [S/N in S/N window]
   9.822                                 [S/N in norm. window]
  15.999                                 [S/N_err in S/N window]
  18.409                                 [S/N_err in norm. window]
  1.0000                                 [fscale_chi2]

## etc...
    -2007416                             [idum_orig]
  2327                                   [NOl_eff]
  2321                                   [Nl_eff]
     6    NSIGMA                         [Ntot_cliped & clip_method]
  1879080                                [Nglobal_steps]
   7                                     [N_chains]
  30                                     [NEX0s_base = N_base in EX0s-fits]
 0   0   1        4   2.0   3.477E+01    [Clip-Bug, RC-Crash & Burn-In warning-flags, n_censored_weights, wei_nsig_threshold & wei_limit]
    16     15.925     15.366      0.559  [idt_all, wdt_TotTime, wdt_UsrTime & wdt_SysTime (sec)]

## Synthesis Results - Best model ##

 4.36130E-01                             [chi2/Nl_eff]
     3.27318                             [adev (%)]

   104.11171                             [sum-of-x (%)]
 5.72034E-17                             [Flux_tot (units of input spectrum!)]
 3.11701E-13                             [Mini_tot (???)]
 1.79016E-13                             [Mcor_tot (???)]

 -52.82                                  [v0_min  (km/s)]
 176.74                                  [vd_min  (km/s)]
 0.2659                                  [AV_min  (mag)]
 0.0000                                  [YAV_min (mag)]

# j     x_j(%)      Mini_j(%)     Mcor_j(%)     age_j(yr)     Z_j      (L/M)_j    YAV?  Mstars   component_j        a/Fe...       SSP_chi2r SSP_adev(%)   SSP_AV   SSP_x(%)
  1      2.1894     3.5277E-02    6.1424E-02    1.000000E+06  0.00400  1.094E-02    0   1.0000   age020_m42            0.0000     1.4859E+00     6.0583   2.8868    84.0920
  2      0.1166     5.1289E-04    8.9294E-04    3.160000E+06  0.00400  4.007E-02    0   0.9999   age045_m42            0.0000     9.9911E-01     4.7462   2.1198    91.8276
  3      0.0000     0.0000E+00    0.0000E+00    5.010000E+06  0.00400  2.539E-02    0   0.9488   age055_m42            0.0000     1.1595E+00     5.2022   2.4546    88.8833
  4      0.0000     0.0000E+00    0.0000E+00    6.610000E+06  0.00400  2.620E-02    0   0.9220   age061_m42            0.0000     9.4950E-01     4.6137   2.0377    92.4479
  5      0.0013     1.6956E-05    2.6164E-05    1.000000E+07  0.00400  1.322E-02    0   0.8862   age070_m42            0.0000     9.7517E-01     4.7237   1.7257    95.8316
  6      0.0000     0.0000E+00    0.0000E+00    1.445000E+07  0.00400  7.883E-03    0   0.8571   age078_m42            0.0000     1.0931E+00     5.0185   2.0687    92.6603
  7      0.0000     0.0000E+00    0.0000E+00    2.512000E+07  0.00400  5.251E-03    0   0.8174   age090_m42            0.0000     9.8842E-01     4.7929   1.5859    96.8334
  8      0.0000     0.0000E+00    0.0000E+00    4.000000E+07  0.00400  3.649E-03    0   0.7851   age104_m42            0.0000     8.7950E-01     4.5398   1.3539    97.8786
  9      0.0000     0.0000E+00    0.0000E+00    5.500000E+07  0.00400  3.098E-03    0   0.7629   age110_m42            0.0000     8.0624E-01     4.3202   1.5151    97.5584
 10      0.0000     0.0000E+00    0.0000E+00    1.015200E+08  0.00400  2.228E-03    0   0.7207   age116_m42            0.0000     7.9556E-01     4.2663   1.5388    97.6093
 11      0.0000     0.0000E+00    0.0000E+00    2.861200E+08  0.00400  1.093E-03    0   0.6648   age125_m42            0.0000     7.7347E-01     4.3451   0.9547   101.5906
 12      0.0000     0.0000E+00    0.0000E+00    5.088000E+08  0.00400  6.597E-04    0   0.6365   age130_m42            0.0000     7.3197E-01     4.2017   0.9519   102.0614
 13     33.8597     2.7995E+01    2.8262E+01    1.434000E+09  0.00400  2.132E-04    0   0.5798   age139_m42            0.0000     5.0134E-01     3.4940  -0.0230   104.1905
 14      0.0000     0.0000E+00    0.0000E+00    4.250000E+09  0.00400  5.895E-05    0   0.5377   age158_m42            0.0000     6.0896E-01     3.8582  -0.4183    97.9664
 15      0.6058     3.0423E+00    2.7610E+00    7.500000E+09  0.00400  3.510E-05    0   0.5212   age171_m42            0.0000     7.4719E-01     4.2583  -0.5891    96.6017
 16      0.0000     0.0000E+00    0.0000E+00    1.300000E+10  0.00400  2.005E-05    0   0.5034   age193_m42            0.0000     9.1744E-01     4.7092  -0.7369    95.3926
 17      0.0000     0.0000E+00    0.0000E+00    1.800000E+10  0.00400  1.525E-05    0   0.4967   age213_m42            0.0000     8.8838E-01     4.6308  -0.7623    95.0541
 18      2.0117     2.8644E-02    4.9874E-02    1.000000E+06  0.00800  1.238E-02    0   1.0000   age020_m52            0.0000     1.4814E+00     6.0585   2.8832    84.2531
 19      1.9303     1.1069E-02    1.9208E-02    3.160000E+06  0.00800  3.074E-02    0   0.9966   age045_m52            0.0000     1.4202E+00     5.9339   2.8027    85.1522
 20      0.5831     3.8523E-03    6.3339E-03    5.010000E+06  0.00800  2.668E-02    0   0.9443   age055_m52            0.0000     1.1922E+00     5.3169   2.5396    87.9533
 21      2.4699     2.0382E-02    3.2569E-02    6.610000E+06  0.00800  2.136E-02    0   0.9177   age061_m52            0.0000     8.6256E-01     4.5080   1.2328    96.5046
 22      0.2189     3.1755E-03    4.8805E-03    1.000000E+07  0.00800  1.215E-02    0   0.8827   age070_m52            0.0000     1.0933E+00     5.0604   1.9070    95.6036
 23      0.3588     7.2551E-03    1.0803E-02    1.445000E+07  0.00800  8.717E-03    0   0.8552   age078_m52            0.0000     1.0263E+00     4.8546   2.0281    94.2312
 24      0.0000     0.0000E+00    0.0000E+00    2.512000E+07  0.00800  5.592E-03    0   0.8162   age090_m52            0.0000     9.5103E-01     4.7190   1.6475    98.1798
 25      0.0000     0.0000E+00    0.0000E+00    4.000000E+07  0.00800  3.896E-03    0   0.7841   age104_m52            0.0000     8.4549E-01     4.4830   1.5594    99.0345
 26      0.0000     0.0000E+00    0.0000E+00    1.015200E+08  0.00800  2.148E-03    0   0.7226   age116_m52            0.0000     7.4227E-01     4.2019   1.5018    98.6680
 27      0.0021     3.7823E-04    4.4012E-04    2.861200E+08  0.00800  9.925E-04    0   0.6683   age125_m52            0.0000     6.8208E-01     4.0943   1.0131   103.1907
 28      0.0000     0.0000E+00    0.0000E+00    9.047900E+08  0.00800  3.141E-04    0   0.6138   age135_m52            0.0000     6.2877E-01     3.9799   0.2296   106.8541
 29      1.0109     1.0366E+00    1.0564E+00    1.434000E+09  0.00800  1.719E-04    0   0.5853   age139_m52            0.0000     5.9958E-01     3.8386  -0.3326   103.8377
 30      0.0000     0.0000E+00    0.0000E+00    2.500000E+09  0.00800  7.872E-05    0   0.5600   age150_m52            0.0000     7.9249E-01     4.3847  -0.5683    99.3825
 31      0.3975     1.6159E+00    1.5267E+00    4.250000E+09  0.00800  4.336E-05    0   0.5426   age158_m52            0.0000     8.3418E-01     4.4761  -0.5790    98.2054
 32      0.0000     0.0000E+00    0.0000E+00    6.250000E+09  0.00800  3.159E-05    0   0.5319   age166_m52            0.0000     1.0739E+00     5.1024  -0.7642    97.4831
 33      0.0000     0.0000E+00    0.0000E+00    1.300000E+10  0.00800  1.361E-05    0   0.5073   age193_m52            0.0000     1.8133E+00     6.9284  -1.0000    87.3579
 34      0.0000     0.0000E+00    0.0000E+00    1.800000E+10  0.00800  9.886E-06    0   0.4990   age213_m52            0.0000     2.4694E+00     8.2404  -1.0000    82.8161
 35      1.0807     1.2338E-02    2.1483E-02    1.000000E+06  0.02000  1.544E-02    0   1.0000   age020_m62            0.0000     1.4920E+00     6.1012   2.8804    84.4009
 36      0.0000     0.0000E+00    0.0000E+00    3.160000E+06  0.02000  3.762E-02    0   0.9858   age045_m62            0.0000     1.4665E+00     6.0654   2.8183    85.2024
 37      0.0000     0.0000E+00    0.0000E+00    5.010000E+06  0.02000  3.296E-02    0   0.9342   age055_m62            0.0000     1.0592E+00     4.9317   2.4086    90.2736
 38      2.0622     3.1500E-02    4.8601E-02    8.710000E+06  0.02000  1.154E-02    0   0.8861   age067_m62            0.0000     2.4297E+00     7.7173   1.3237   100.0875
 39      0.0000     0.0000E+00    0.0000E+00    1.445000E+07  0.02000  7.663E-03    0   0.8472   age078_m62            0.0000     1.2927E+00     5.6020   1.5420    98.5149
 40      0.0000     0.0000E+00    0.0000E+00    2.512000E+07  0.02000  4.532E-03    0   0.8099   age090_m62            0.0000     1.3543E+00     5.7442   1.5284    98.6059
 41      0.0000     0.0000E+00    0.0000E+00    5.500000E+07  0.02000  2.733E-03    0   0.7595   age110_m62            0.0000     8.4667E-01     4.4478   1.5448    98.1736
 42      0.0172     2.2160E-03    2.6951E-03    1.609000E+08  0.02000  1.369E-03    0   0.6985   age120_m62            0.0000     7.3862E-01     4.1852   1.3767   101.2746
 43      0.0000     0.0000E+00    0.0000E+00    2.861200E+08  0.02000  9.013E-04    0   0.6714   age125_m62            0.0000     7.4789E-01     4.2253   1.1173   104.6517
 44      0.0001     4.2231E-05    4.7421E-05    5.088000E+08  0.02000  5.028E-04    0   0.6449   age130_m62            0.0000     7.7168E-01     4.3041   0.7559   106.6906
 45      0.0000     0.0000E+00    0.0000E+00    9.047900E+08  0.02000  2.428E-04    0   0.6179   age135_m62            0.0000     6.7032E-01     4.0650   0.1947   104.8901
 46      0.0000     0.0000E+00    0.0000E+00    1.434000E+09  0.02000  1.263E-04    0   0.5908   age139_m62            0.0000     7.3716E-01     4.2142  -0.2322   102.4774
 47      0.6848     2.0169E+00    1.9922E+00    2.500000E+09  0.02000  5.985E-05    0   0.5673   age150_m62            0.0000     1.0241E+00     5.0054  -0.5676    99.6408
 48      0.0000     0.0000E+00    0.0000E+00    4.250000E+09  0.02000  3.271E-05    0   0.5468   age158_m62            0.0000     1.4527E+00     6.1169  -0.8472    97.6601
 49      0.0000     0.0000E+00    0.0000E+00    1.000000E+10  0.02000  1.360E-05    0   0.5167   age181_m62            0.0000     2.3127E+00     7.8446  -1.0000    89.2585
 50      0.0000     0.0000E+00    0.0000E+00    1.800000E+10  0.02000  7.124E-06    0   0.5013   age213_m62            0.0000     3.4824E+00     9.8289  -1.0000    80.5851
 51      4.3602     2.9652E-02    5.1620E-02    1.000000E+06  0.05000  2.592E-02    0   0.9998   age020_m72            0.0000     1.5389E+00     6.2283   2.8736    84.3385
 52      1.3555     4.9317E-03    8.2237E-03    3.160000E+06  0.05000  4.845E-02    0   0.9577   age045_m72            0.0000     1.3072E+00     5.6243   2.6904    86.8258
 53      0.0000     0.0000E+00    0.0000E+00    5.010000E+06  0.05000  3.072E-02    0   0.9147   age055_m72            0.0000     1.2764E+00     5.6142   2.1760    92.7708
 54      0.0000     0.0000E+00    0.0000E+00    6.610000E+06  0.05000  1.455E-02    0   0.8877   age061_m72            0.0000     3.9484E+00     9.9893   1.3977   100.9607
 55      0.0000     0.0000E+00    0.0000E+00    1.000000E+07  0.05000  9.074E-03    0   0.8524   age070_m72            0.0000     1.4799E+00     6.1256   2.3894    91.8084
 56      0.0011     4.3908E-05    6.0412E-05    2.512000E+07  0.05000  4.250E-03    0   0.7902   age090_m72            0.0000     1.2062E+00     5.4131   2.0445    95.2142
 57      0.0000     0.0000E+00    0.0000E+00    4.000000E+07  0.05000  3.087E-03    0   0.7618   age104_m72            0.0000     1.2101E+00     5.4239   1.7988    97.6680
 58      0.0000     0.0000E+00    0.0000E+00    1.015200E+08  0.05000  1.700E-03    0   0.7096   age116_m72            0.0000     8.0214E-01     4.3971   1.5165   101.1038
 59      1.8559     4.4305E-01    5.1170E-01    2.861200E+08  0.05000  7.384E-04    0   0.6633   age125_m72            0.0000     7.3608E-01     4.2083   0.9920   105.7997
 60     27.3213     1.2611E+01    1.3991E+01    5.088000E+08  0.05000  3.819E-04    0   0.6372   age130_m72            0.0000     6.7944E-01     4.0834   0.5197   106.4540
 61     13.6577     1.4364E+01    1.5282E+01    9.047900E+08  0.05000  1.676E-04    0   0.6110   age135_m72            0.0000     9.4902E-01     4.9142  -0.1273   102.1929
 62      3.5489     7.0789E+00    7.2402E+00    1.434000E+09  0.05000  8.837E-05    0   0.5874   age139_m72            0.0000     1.1187E+00     5.2249  -0.5682   101.1417
 63      0.0000     0.0000E+00    0.0000E+00    2.500000E+09  0.05000  4.233E-05    0   0.5598   age150_m72            0.0000     1.6331E+00     6.5131  -0.8386    98.1212
 64      2.4101     2.9605E+01    2.7057E+01    6.250000E+09  0.05000  1.435E-05    0   0.5249   age166_m72            0.0000     2.7404E+00     8.6786  -1.0000    85.1186
 65      0.0000     0.0000E+00    0.0000E+00    1.300000E+10  0.05000  6.513E-06    0   0.5036   age193_m72            0.0000     4.6200E+00    11.6340  -1.0000    75.6441
 66      0.0000     0.0000E+00    0.0000E+00    1.800000E+10  0.05000  4.527E-06    0   0.4945   age213_m72            0.0000     5.9699E+00    13.5230  -1.0000    70.0798


## Synthesis Results - Average & Chains ##

# j      x_j: min, <> & last-chain-values for 1 ...  7 chains
  1      2.1894      0.8069      1.2933      1.9054      1.5922      1.0479      0.7202      1.6672      1.1389
  2      0.1166      0.5682      0.0000      0.8012      0.8752      0.0000      0.8009      0.0000      2.9650
  3      0.0000      0.1920      0.0000      0.9632      0.1283      0.0000      0.0422      1.1026      0.0844
  4      0.0000      0.2805      0.0000      1.1695      0.8357      0.6023      0.6011      0.0000      0.0000
  5      0.0013      0.5327      0.0000      0.0000      1.0691      1.4641      0.3307      0.6007      0.7160
  6      0.0000      0.2114      0.0000      1.0277      0.1590      0.0000      0.0000      0.0000      0.0000
  7      0.0000      0.3114      0.0000      1.3711      0.5502      0.0000      1.1297      0.0000      0.0000
  8      0.0000      0.4739      0.8052      0.0000      0.3847      0.0000      1.9594      0.0000      0.0199
  9      0.0000      0.4409      0.9319      0.7534      0.0000      0.0000      0.0000      2.3051      0.0000
 10      0.0000      0.8360      0.0000      0.8202      2.4552      1.2690      0.0000      1.0580      0.2092
 11      0.0000      0.6225      0.0000      0.0358      0.0000      0.0000      0.0000      0.0000      0.0000
 12      0.0000      0.7187      0.0000      0.0000      0.0000      0.6083      0.0000      0.1097      0.0000
 13     33.8597     20.0085     20.4837     21.0936     20.1555     21.4085     26.5355     17.7449     22.3901
 14      0.0000      0.3415      0.0000      0.0000      0.0000      0.9274      0.0000      0.0000      0.0000
 15      0.6058      0.3601      0.0000      0.0000      0.4077      0.0000      0.4988      0.0000      1.8640
 16      0.0000      0.3181      0.0000      0.0000      0.0000      0.0000      0.0000      0.4020      0.0000
 17      0.0000      0.1572      0.7963      0.4447      0.0000      0.2373      0.5012      0.0000      0.0000
 18      2.0117      0.7829      1.2675      0.0098      0.3004      1.5702      1.2528      1.8118      0.9834
 19      1.9303      0.6652      1.8654      0.0000      0.0000      0.8555      0.0000      0.0000      0.4492
 20      0.5831      0.4900      2.2548      0.7380      0.0708      0.0000      0.0000      0.0000      0.4088
 21      2.4699      3.0608      1.4183      2.6805      4.6564      3.2769      2.8267      4.6479      2.7715
 22      0.2189      0.2741      0.0000      0.0353      0.0000      0.0000      0.6980      0.0000      0.6301
 23      0.3588      2.4320      1.6858      2.1453      2.3805      1.2930      2.9452      1.7552      1.2210
 24      0.0000      0.4265      0.0000      0.0000      0.0000      0.0000      1.6183      1.1904      0.0000
 25      0.0000      0.3277      0.9994      0.0000      0.6983      0.0000      0.0000      0.2338      0.2230
 26      0.0000      0.3515      0.0000      0.4630      0.1233      0.0000      0.7060      0.2791      0.2934
 27      0.0021      0.7014      1.0813      0.0000      1.0266      0.1693      0.0000      0.0279      1.0551
 28      0.0000      1.8382      0.2840      1.7857      0.0000      0.3413      0.0000      0.0000      1.5016
 29      1.0109      2.0115      2.4548      2.6611      1.3570      1.7344      1.3293      0.5852      2.5006
 30      0.0000      0.3455      0.0000      0.5483      0.0000      0.0000      0.0000      0.0000      0.3115
 31      0.3975      3.5564      3.9309      3.6201      3.7839      3.6435      4.0099      4.4436      3.4638
 32      0.0000      0.0783      0.0000      0.0000      0.0410      0.0000      0.0000      0.0000      0.0000
 33      0.0000      0.0816      0.0000      0.0000      0.5471      0.0110      0.0000      0.0000      0.0000
 34      0.0000      0.0373      0.0000      0.0000      0.0000      0.2582      0.0000      0.0000      0.0000
 35      1.0807      0.4971      0.5584      0.8025      0.0000      0.0000      0.0000      0.0000      1.2746
 36      0.0000      1.0874      0.9768      0.0000      1.6062      3.6043      1.6072      0.5916      0.0000
 37      0.0000      0.3527      0.0000      0.0931      0.0000      0.0000      0.0000      0.6438      0.0000
 38      2.0622      0.9021      0.4021      0.8991      0.8122      1.6688      1.2579      1.7037      1.2911
 39      0.0000      0.5072      0.3400      0.0000      0.4651      0.0000      0.0000      0.0000      0.0000
 40      0.0000      2.0672      1.5562      1.8694      1.9541      4.7987      1.0056      3.6436      0.0000
 41      0.0000      0.3860      0.1522      0.0000      0.0000      0.0000      0.0000      0.0000      0.3066
 42      0.0172      0.5276      0.0000      0.0000      0.0291      0.0000      0.0000      0.0497      0.8294
 43      0.0000      0.4440      0.0000      0.5061      0.0000      1.5874      0.0000      0.0000      0.0000
 44      0.0001      3.0739      5.1725      1.3424      4.2985      1.8021      3.3343      2.6413      1.7903
 45      0.0000      2.4451      0.0300      3.3839      1.0528      0.0000      0.0000      0.0000      1.7486
 46      0.0000      2.7417      3.1193      0.0000      0.0000      3.2245      0.4709      2.4399      0.0000
 47      0.6848      2.6925      3.4493      2.5263      2.7738      2.2937      3.1816      2.4023      3.6723
 48      0.0000      0.1289      0.4251      0.5082      0.0000      0.0000      0.0000      0.0000      0.0000
 49      0.0000      0.0417      0.0000      0.0000      0.2052      0.0000      0.0000      0.0000      0.0000
 50      0.0000      0.1496      0.0000      0.0000      0.0000      0.0000      0.0000      0.7639      0.0000
 51      4.3602      1.3270      2.6461      2.0451      1.2563      0.6823      0.8586      0.7686      3.5426
 52      1.3555      0.3742      0.7703      1.3211      0.0000      0.0000      0.0000      0.0000      0.8635
 53      0.0000      0.4268      0.0000      0.1120      1.8964      0.0000      1.6996      0.0000      0.6902
 54      0.0000      0.3676      0.0000      0.0000      0.0000      0.2325      0.0000      0.0000      0.0000
 55      0.0000      0.2367      0.0000      0.0000      0.0000      0.0000      0.0000      0.0000      0.0000
 56      0.0011      0.1879      0.0253      0.0000      0.0000      0.1076      0.0000      0.0000      0.4454
 57      0.0000      0.3254      0.5051      1.1056      0.4682      0.5232      0.3771      0.0000      0.2228
 58      0.0000      1.2746      1.6483      1.1526      2.0976      1.0916      2.1361      3.9182      0.0000
 59      1.8559      1.8668      3.7346      1.4411      2.4127      1.5530      1.2182      0.0000      2.0768
 60     27.3213     19.5249     22.2624     22.5496     19.1331     23.0902     24.4957     23.7138     25.9347
 61     13.6577     10.7433      9.0222     11.6964     13.2172     11.0407      9.6395     15.7470     10.5979
 62      3.5489      3.6214      3.8898      4.2270      4.8003      4.2323      3.1362      3.7832      2.9148
 63      0.0000      0.2354      0.7314      0.0000      0.0000      0.4276      0.0000      0.4868      0.1651
 64      2.4101      0.8694      1.0326      1.3651      1.6474      0.9581      1.2294      0.6244      0.5991
 65      0.0000      0.0822      0.0000      0.0000      0.3664      0.2404      0.0000      0.0000      0.2161
 66      0.0000      0.0163      0.0000      0.0948      0.0000      0.0000      0.0000      0.0758      0.0000

# j      m_j: min, <> & last-chain-values for 1 ...  7 chains
  1  6.1424E-02  2.1197E-02  3.3696E-02  4.9821E-02  3.7981E-02  2.7258E-02  1.9750E-02  4.1015E-02  3.1202E-02
  2  8.9294E-04  4.0751E-03  0.0000E+00  5.7190E-03  5.6993E-03  0.0000E+00  5.9959E-03  0.0000E+00  2.2176E-02
  3  0.0000E+00  2.0622E-03  0.0000E+00  1.0296E-02  1.2511E-03  0.0000E+00  4.7300E-04  1.1089E-02  9.4521E-04
  4  0.0000E+00  2.8369E-03  0.0000E+00  1.1772E-02  7.6749E-03  6.0313E-03  6.3462E-03  0.0000E+00  0.0000E+00
  5  2.6164E-05  1.0263E-02  0.0000E+00  0.0000E+00  1.8703E-02  2.7930E-02  6.6515E-03  1.0837E-02  1.4386E-02
  6  0.0000E+00  6.6065E-03  0.0000E+00  3.1964E-02  4.5108E-03  0.0000E+00  0.0000E+00  0.0000E+00  0.0000E+00
  7  0.0000E+00  1.3933E-02  0.0000E+00  6.1054E-02  2.2350E-02  0.0000E+00  5.2761E-02  0.0000E+00  0.0000E+00
  8  0.0000E+00  2.9303E-02  4.9377E-02  0.0000E+00  2.1601E-02  0.0000E+00  1.2648E-01  0.0000E+00  1.2834E-03
  9  0.0000E+00  3.1204E-02  6.5407E-02  5.3068E-02  0.0000E+00  0.0000E+00  0.0000E+00  1.5277E-01  0.0000E+00
 10  0.0000E+00  7.7717E-02  0.0000E+00  7.5890E-02  2.0726E-01  1.1682E-01  0.0000E+00  9.2107E-02  2.0278E-02
 11  0.0000E+00  1.0881E-01  0.0000E+00  6.2350E-03  0.0000E+00  0.0000E+00  0.0000E+00  0.0000E+00  0.0000E+00
 12  0.0000E+00  1.9928E-01  0.0000E+00  0.0000E+00  0.0000E+00  1.6703E-01  0.0000E+00  2.8490E-02  0.0000E+00
 13  2.8262E+01  1.5638E+01  1.5878E+01  1.6409E+01  1.4305E+01  1.6568E+01  2.1650E+01  1.2988E+01  1.8250E+01
 14  0.0000E+00  8.9522E-01  0.0000E+00  0.0000E+00  0.0000E+00  2.4071E+00  0.0000E+00  0.0000E+00  0.0000E+00
 15  2.7610E+00  1.5369E+00  0.0000E+00  0.0000E+00  1.5801E+00  0.0000E+00  2.2221E+00  0.0000E+00  8.2961E+00
 16  0.0000E+00  2.2950E+00  0.0000E+00  0.0000E+00  0.0000E+00  0.0000E+00  0.0000E+00  2.7167E+00  0.0000E+00
 17  0.0000E+00  1.4711E+00  7.3924E+00  4.1432E+00  0.0000E+00  2.1997E+00  4.8976E+00  0.0000E+00  0.0000E+00
 18  4.9874E-02  1.8174E-02  2.9183E-02  2.2559E-04  6.3326E-03  3.6093E-02  3.0361E-02  3.9387E-02  2.3810E-02
 19  1.9208E-02  6.1980E-03  1.7238E-02  0.0000E+00  0.0000E+00  7.8926E-03  0.0000E+00  0.0000E+00  4.3651E-03
 20  6.3339E-03  4.9845E-03  2.2746E-02  7.4719E-03  6.5420E-04  0.0000E+00  0.0000E+00  0.0000E+00  4.3366E-03
 21  3.2569E-02  3.7793E-02  1.7368E-02  3.2942E-02  5.2209E-02  4.0065E-02  3.6436E-02  5.3743E-02  3.5689E-02
 22  4.8805E-03  5.7233E-03  0.0000E+00  7.3300E-04  0.0000E+00  0.0000E+00  1.5213E-02  0.0000E+00  1.3720E-02
 23  1.0803E-02  6.8571E-02  4.7140E-02  6.0206E-02  6.0948E-02  3.6099E-02  8.6688E-02  4.6343E-02  3.5904E-02
 24  0.0000E+00  1.7891E-02  0.0000E+00  0.0000E+00  0.0000E+00  0.0000E+00  7.0864E-02  4.6761E-02  0.0000E+00
 25  0.0000E+00  1.8953E-02  5.7331E-02  0.0000E+00  3.6678E-02  0.0000E+00  0.0000E+00  1.2663E-02  1.3451E-02
 26  0.0000E+00  3.3986E-02  0.0000E+00  4.4555E-02  1.0821E-02  0.0000E+00  7.1252E-02  2.5270E-02  2.9583E-02
 27  4.4012E-04  1.3574E-01  2.0752E-01  0.0000E+00  1.8041E-01  3.2445E-02  0.0000E+00  5.0477E-03  2.1293E-01
 28  0.0000E+00  1.0323E+00  1.5816E-01  9.9821E-01  0.0000E+00  1.8980E-01  0.0000E+00  0.0000E+00  8.7953E-01
 29  1.0564E+00  1.9683E+00  2.3823E+00  2.5918E+00  1.2058E+00  1.6805E+00  1.3579E+00  5.3626E-01  2.5520E+00
 30  0.0000E+00  7.0637E-01  0.0000E+00  1.1158E+00  0.0000E+00  0.0000E+00  0.0000E+00  0.0000E+00  6.6409E-01
 31  1.5267E+00  1.2790E+01  1.4021E+01  1.2958E+01  1.2357E+01  1.2975E+01  1.5055E+01  1.4966E+01  1.2992E+01
 32  0.0000E+00  3.7903E-01  0.0000E+00  0.0000E+00  1.8011E-01  0.0000E+00  0.0000E+00  0.0000E+00  0.0000E+00
 33  0.0000E+00  8.7381E-01  0.0000E+00  0.0000E+00  5.3223E+00  1.1712E-01  0.0000E+00  0.0000E+00  0.0000E+00
 34  0.0000E+00  5.4086E-01  0.0000E+00  0.0000E+00  0.0000E+00  3.7088E+00  0.0000E+00  0.0000E+00  0.0000E+00
 35  2.1483E-02  9.2529E-03  1.0309E-02  1.4868E-02  0.0000E+00  0.0000E+00  0.0000E+00  0.0000E+00  2.4742E-02
 36  0.0000E+00  8.1889E-03  7.2960E-03  0.0000E+00  1.0984E-02  2.6877E-02  1.2635E-02  4.1723E-03  0.0000E+00
 37  0.0000E+00  2.8727E-03  0.0000E+00  7.5456E-04  0.0000E+00  0.0000E+00  0.0000E+00  4.9112E-03  0.0000E+00
 38  4.8601E-02  1.9907E-02  8.8004E-03  1.9748E-02  1.6275E-02  3.6465E-02  2.8979E-02  3.5208E-02  2.9714E-02
 39  0.0000E+00  1.6116E-02  1.0713E-02  0.0000E+00  1.3420E-02  0.0000E+00  0.0000E+00  0.0000E+00  0.0000E+00
 40  0.0000E+00  1.0617E-01  7.9266E-02  9.5562E-02  9.1135E-02  2.4404E-01  5.3917E-02  1.7524E-01  0.0000E+00
 41  0.0000E+00  3.0829E-02  1.2053E-02  0.0000E+00  0.0000E+00  0.0000E+00  0.0000E+00  0.0000E+00  2.5534E-02
 42  2.6951E-03  7.7370E-02  0.0000E+00  0.0000E+00  3.8745E-03  0.0000E+00  0.0000E+00  6.8207E-03  1.2684E-01
 43  0.0000E+00  9.5055E-02  0.0000E+00  1.0784E-01  0.0000E+00  3.3651E-01  0.0000E+00  0.0000E+00  0.0000E+00
 44  4.7421E-05  1.1331E+00  1.8910E+00  4.9252E-01  1.4388E+00  6.5775E-01  1.2831E+00  9.1177E-01  6.8823E-01
 45  0.0000E+00  1.7883E+00  2.1778E-02  2.4633E+00  6.9921E-01  0.0000E+00  0.0000E+00  0.0000E+00  1.3338E+00
 46  0.0000E+00  3.6858E+00  4.1589E+00  0.0000E+00  0.0000E+00  4.2923E+00  6.6093E-01  3.0716E+00  0.0000E+00
 47  1.9922E+00  7.3346E+00  9.3191E+00  6.8499E+00  6.8614E+00  6.1871E+00  9.0477E+00  6.1282E+00  1.0433E+01
 48  0.0000E+00  6.1938E-01  2.0256E+00  2.4299E+00  0.0000E+00  0.0000E+00  0.0000E+00  0.0000E+00  0.0000E+00
 49  0.0000E+00  4.5527E-01  0.0000E+00  0.0000E+00  2.0343E+00  0.0000E+00  0.0000E+00  0.0000E+00  0.0000E+00
 50  0.0000E+00  3.0246E+00  0.0000E+00  0.0000E+00  0.0000E+00  0.0000E+00  0.0000E+00  1.4468E+01  0.0000E+00
 51  5.1620E-02  1.4711E-02  2.9092E-02  2.2565E-02  1.2646E-02  7.4892E-03  9.9359E-03  7.9785E-03  4.0956E-02
 52  8.2237E-03  2.1256E-03  4.3397E-03  7.4698E-03  0.0000E+00  0.0000E+00  0.0000E+00  0.0000E+00  5.1159E-03
 53  0.0000E+00  3.6525E-03  0.0000E+00  9.5358E-04  1.4736E-02  0.0000E+00  1.5183E-02  0.0000E+00  6.1598E-03
 54  0.0000E+00  6.4452E-03  0.0000E+00  0.0000E+00  0.0000E+00  4.0363E-03  0.0000E+00  0.0000E+00  0.0000E+00
 55  0.0000E+00  6.3913E-03  0.0000E+00  0.0000E+00  0.0000E+00  0.0000E+00  0.0000E+00  0.0000E+00  0.0000E+00
 56  6.0412E-05  1.0038E-02  1.3429E-03  0.0000E+00  0.0000E+00  5.6912E-03  0.0000E+00  0.0000E+00  2.4819E-02
 57  0.0000E+00  2.3081E-02  3.5530E-02  7.8042E-02  3.0155E-02  3.6746E-02  2.7916E-02  0.0000E+00  1.6477E-02
 58  0.0000E+00  1.5290E-01  1.9610E-01  1.3762E-01  2.2849E-01  1.2966E-01  2.6751E-01  4.4017E-01  0.0000E+00
 59  5.1170E-01  4.8193E-01  9.5620E-01  3.7030E-01  5.6560E-01  3.9700E-01  3.2831E-01  0.0000E+00  5.5917E-01
 60  1.3991E+01  9.3625E+00  1.0587E+01  1.0762E+01  8.3312E+00  1.0964E+01  1.2262E+01  1.0649E+01  1.2970E+01
 61  1.5282E+01  1.1256E+01  9.3750E+00  1.2197E+01  1.2575E+01  1.1454E+01  1.0543E+01  1.5450E+01  1.1580E+01
 62  7.2402E+00  6.9179E+00  7.3697E+00  8.0371E+00  8.3270E+00  8.0057E+00  6.2543E+00  6.7679E+00  5.8070E+00
 63  0.0000E+00  8.9450E-01  2.7570E+00  0.0000E+00  0.0000E+00  1.6093E+00  0.0000E+00  1.7327E+00  6.5450E-01
 64  2.7057E+01  9.1395E+00  1.0765E+01  1.4283E+01  1.5726E+01  9.9733E+00  1.3492E+01  6.1472E+00  6.5678E+00
 65  0.0000E+00  1.8265E+00  0.0000E+00  0.0000E+00  7.3942E+00  5.2887E+00  0.0000E+00  0.0000E+00  5.0084E+00
 66  0.0000E+00  5.1267E-01  0.0000E+00  2.9608E+00  0.0000E+00  0.0000E+00  0.0000E+00  2.2282E+00  0.0000E+00

# AV, chi2 & Mass for <> & i_chain = 1 ...  7 solutions
AV       0.2659      0.2772      0.2880      0.2703      0.2696      0.2766      0.2850      0.2792      0.2797
chi2 4.3613E-01  4.4234E-01  4.4099E-01  4.4103E-01  4.4099E-01  4.4086E-01  4.4117E-01  4.4166E-01  4.4078E-01
Mass 1.7902E-13  1.9410E-13  1.9857E-13  1.9321E-13  2.1157E-13  1.9586E-13  1.8788E-13  2.0783E-13  1.8673E-13
 -52.82                                  [v0_min (km/s) before EX0s...]
 176.74                                  [vd_min (km/s) before EX0s...]


## Synthetic spectrum (Best Model) ##l_obs f_obs f_syn wei
 3478    [Nl_obs]
 3741.00    0.68666   0.64460    0.000
 3742.00    0.66275   0.63716    0.000
 3743.00    0.60652   0.61883    0.000
 3744.00    0.54582   0.59285    0.000
 3745.00    0.48225   0.56253   20.736
 3746.00    0.39972   0.53151   25.017
 3747.00    0.33470   0.50454   -1.000
 3748.00    0.34900   0.48760   -1.000
 3749.00    0.41781   0.48600   23.934
 3750.00    0.46291   0.50167   21.602
 3751.00    0.48138   0.53218   20.774
 3752.00    0.52774   0.57085   18.949
 3753.00    0.62697   0.60866   15.950
 3754.00    0.75262   0.63771   13.287
 3755.00    0.82276   0.65415   12.154
 3756.00    0.77603   0.65907   12.886
 3757.00    0.67663   0.65702   14.779
 3758.00    0.62325   0.65354   16.045
 3759.00    0.61741   0.65270   16.197
 3760.00    0.62067   0.65548   16.112
 3761.00    0.63469   0.65958   15.756
 3762.00    0.66437   0.66106   15.052
 3763.00    0.67716   0.65675   14.768
 3764.00    0.64968   0.64521   15.392
 3765.00    0.60673   0.62682   16.482
 3766.00    0.57490   0.60373   17.394
 3767.00    0.54863   0.57959   18.227
 3768.00    0.52371   0.55898   19.095
 3769.00    0.51776   0.54702   19.314
 3770.00    0.54336   0.54741   18.404
 3771.00    0.59185   0.56060   16.896
 3772.00    0.63839   0.58428   15.664
 3773.00    0.65279   0.61462   15.319
 3774.00    0.63411   0.64743   15.770
 3775.00    0.61641   0.67956   16.223
 3776.00    0.62653   0.70987   15.961
 3777.00    0.66648   0.73802   15.004
 3778.00    0.71521   0.76329   13.982
 3779.00    0.74222   0.78440   13.473
 3780.00    0.74601   0.80004   13.405
 3781.00    0.75249   0.80930   13.289
 3782.00    0.77694   0.81143   12.871
 3783.00    0.81637   0.80590   12.249
 3784.00    0.85745   0.79322   11.662
 3785.00    0.88087   0.77525   11.352
 3786.00    0.86655   0.75483   11.540
 3787.00    0.80886   0.73479   12.363
 3788.00    0.74054   0.71697   13.504
 3789.00    0.70152   0.70119   14.255
 3790.00    0.68264   0.68486   14.649
 3791.00    0.65735   0.66464   15.213
 3792.00    0.63815   0.63851   15.670
 3793.00    0.64313   0.60667   15.549
 3794.00    0.64634   0.57174   15.472
 3795.00    0.61432   0.53886   16.278
 3796.00    0.55320   0.51467   18.077
 3797.00    0.50133   0.50540   19.947
 3798.00    0.51103   0.51449   19.568
 3799.00    0.59350   0.54109   16.849
 3800.00    0.68308   0.58034   14.639
 3801.00    0.72748   0.62464   13.746
 3802.00    0.74927   0.66627   13.346
 3803.00    0.77354   0.70019   12.928
 3804.00    0.78279   0.72555   12.775
 3805.00    0.76110   0.74470   13.139
 3806.00    0.72083   0.76108   13.873
 3807.00    0.69386   0.77705   14.412
 3808.00    0.71422   0.79240   14.001
 3809.00    0.76455   0.80437   13.080
 3810.00    0.77598   0.80961   12.887
 3811.00    0.72546   0.80659   13.784
 3812.00    0.65793   0.79712   15.199
 3813.00    0.62218   0.78554   16.072
 3814.00    0.64384   0.77609   15.532
 3815.00    0.71636   0.77071   13.960
 3816.00    0.80807   0.76834   12.375
 3817.00    0.88829   0.76621   11.258
 3818.00    0.93376   0.76229   10.709
 3819.00    0.92678   0.75644   10.790
 3820.00    0.86467   0.74932   11.565
 3821.00    0.77911   0.74100   12.835
 3822.00    0.71352   0.73067   14.015
 3823.00    0.67495   0.71728   14.816
 3824.00    0.64553   0.70061   15.491
 3825.00    0.61538   0.68177   16.250
 3826.00    0.58666   0.66237   17.046
 3827.00    0.57090   0.64296   17.516
 3828.00    0.57522   0.62210   17.385
 3829.00    0.58718   0.59747   17.030
 3830.00    0.59404   0.56799   16.834
 3831.00    0.60380   0.53496   16.562
 3832.00    0.62129   0.50219   16.095
 3833.00    0.62563   0.47499   15.984
 3834.00    0.59863   0.45845   16.705
 3835.00    0.55020   0.45575   18.175
 3836.00    0.50968   0.46705   19.620
 3837.00    0.51299   0.49020   19.494
 3838.00    0.56993   0.52207   17.546
 3839.00    0.64744   0.55943   15.445
 3840.00    0.69832   0.59932   14.320
 3841.00    0.68722   0.63905   14.551
 3842.00    0.63168   0.67603   15.831
 3843.00    0.60368   0.70819   16.565
 3844.00    0.64314   0.73451   15.549
 3845.00    0.72715   0.75499   13.752
 3846.00    0.80884   0.77050   12.363
 3847.00    0.84511   0.78235    0.000
 3848.00    0.83444   0.79202    0.000
 3849.00    0.81445   0.80087    0.000
 3850.00    0.81448   0.80948    0.000
 3851.00    0.84164   0.81729    0.000
 3852.00    0.88447   0.82300    0.000
 3853.00    0.91896   0.82541    0.000
 3854.00    0.92031   0.82412    0.000
 3855.00    0.87697   0.82009    0.000
 3856.00    0.81273   0.81541    0.000
 3857.00    0.77020   0.81234    0.000
 3858.00    0.77225   0.81282    0.000
 3859.00    0.81036   0.81798    0.000
 3860.00    0.83996   0.82731    0.000
 3861.00    0.82487   0.83868    0.000
 3862.00    0.79687   0.84937    0.000
 3863.00    0.80268   0.85714    0.000
 3864.00    0.83164   0.86107    0.000
 3865.00    0.85989   0.86169    0.000
 3866.00    0.90330   0.85982    0.000
 3867.00    0.96506   0.85548    0.000
 3868.00    0.98865   0.84802    0.000
 3869.00    0.94074   0.83727    0.000
 3870.00    0.87418   0.82457    0.000
 3871.00    0.83793   0.81255    0.000
 3872.00    0.81438   0.80356    0.000
 3873.00    0.78140   0.79785    0.000
 3874.00    0.75090   0.79324    0.000
 3875.00    0.73557   0.78669    0.000
 3876.00    0.73157   0.77643    0.000
 3877.00    0.73691   0.76294    0.000
 3878.00    0.75514   0.74803    0.000
 3879.00    0.76811   0.73290    0.000
 3880.00    0.74018   0.71697    0.000
 3881.00    0.68247   0.69826   14.653
 3882.00    0.65108   0.67456   15.359
 3883.00    0.65361   0.64464   15.300
 3884.00    0.64407   0.60943   15.526
 3885.00    0.60656   0.57241   16.486
 3886.00    0.56574   0.53907   17.676
 3887.00    0.54495   0.51573   18.350
 3888.00    0.55223   0.50768   18.108
 3889.00    0.57543   0.51702   17.378
 3890.00    0.59480   0.54139   16.812
 3891.00    0.61001   0.57495   16.393
 3892.00    0.63355   0.61112   15.784
 3893.00    0.66865   0.64490   14.956
 3894.00    0.70253   0.67382   14.234
 3895.00    0.70424   0.69777   14.200
 3896.00    0.65946   0.71780   15.164
 3897.00    0.61521   0.73512   16.254
 3898.00    0.62404   0.75074   16.025
 3899.00    0.67163   0.76518   14.889
 3900.00    0.71946   0.77824   13.899
 3901.00    0.75830   0.78919   13.187
 3902.00    0.78942   0.79763   12.668
 3903.00    0.80375   0.80428   12.442
 3904.00    0.80501   0.81113   12.422
 3905.00    0.82513   0.82064   12.119
 3906.00    0.88129   0.83439   11.347
 3907.00    0.94725   0.85180   10.557
 3908.00    0.98270   0.87009   10.176
 3909.00    0.96014   0.88583   10.415
 3910.00    0.89989   0.89641   11.112
 3911.00    0.86956   0.90080   11.500
 3912.00    0.88392   0.89977   11.313
 3913.00    0.88179   0.89515   11.341
 3914.00    0.85056   0.88870   11.757
 3915.00    0.85237   0.88140   11.732
 3916.00    0.90622   0.87367   11.035
 3917.00    0.96035   0.86591   10.413
 3918.00    0.96005   0.85875   10.416
 3919.00    0.88572   0.85303   11.290
 3920.00    0.79139   0.84941   12.636
 3921.00    0.76680   0.84751   13.041
 3922.00    0.81204   0.84557   12.315
 3923.00    0.85723   0.84096   11.666
 3924.00    0.88315   0.83106   11.323
 3925.00    0.90684   0.81406   11.027
 3926.00    0.89745   0.78937   11.143
 3927.00    0.81617   0.75750   12.252
 3928.00    0.71354   0.71958   14.015
 3929.00    0.66830   0.67761   14.963
 3930.00    0.66808   0.63505   14.968
 3931.00    0.65350   0.59731   15.302
 3932.00    0.60436   0.57127   16.547
 3933.00    0.54438   0.56318   18.369
 3934.00    0.52793   0.57580   18.942
 3935.00    0.58009   0.60675   17.239
 3936.00    0.64308   0.64930   15.550
 3937.00    0.66666   0.69497   15.000
 3938.00    0.68950   0.73630   14.503
 3939.00    0.75652   0.76870   13.218
 3940.00    0.84828   0.79111   11.789
 3941.00    0.91588   0.80529   10.919
 3942.00    0.91777   0.81459   10.896
 3943.00    0.86565   0.82230   11.552
 3944.00    0.83529   0.83024   11.972
 3945.00    0.86659   0.83842   11.540
 3946.00    0.91973   0.84565   10.873
 3947.00    0.94680   0.85087   10.562
 3948.00    0.93180   0.85396   10.732
 3949.00    0.90006   0.85547   11.110
 3950.00    0.90228   0.85586   11.083
 3951.00    0.94228   0.85523   10.613
 3952.00    0.97152   0.85311   10.293
 3953.00    0.96495   0.84868   10.363
 3954.00    0.93966   0.84133   10.642
 3955.00    0.93089   0.83103   10.742
 3956.00    0.96112   0.81802   10.404
 3957.00    0.98248   0.80203   10.178
 3958.00    0.91952   0.78198   10.875
 3959.00    0.79682   0.75663   12.550
 3960.00    0.70220   0.72557    0.000
 3961.00    0.65627   0.68932    0.000
 3962.00    0.62302   0.64876    0.000
 3963.00    0.57525   0.60448    0.000
 3964.00    0.50839   0.55695    0.000
 3965.00    0.44242   0.50776    0.000
 3966.00    0.40213   0.46078    0.000
 3967.00    0.39044   0.42209    0.000
 3968.00    0.39406   0.39846    0.000
 3969.00    0.39662   0.39481    0.000
 3970.00    0.40446   0.41219    0.000
 3971.00    0.46479   0.44745    0.000
 3972.00    0.59088   0.49471    0.000
 3973.00    0.70352   0.54745    0.000
 3974.00    0.74562   0.60036    0.000
 3975.00    0.76628   0.65004    0.000
 3976.00    0.80777   0.69469    0.000
 3977.00    0.83260   0.73342    0.000
 3978.00    0.81513   0.76564    0.000
 3979.00    0.79230   0.79111    0.000
 3980.00    0.79904   0.81041    0.000
 3981.00    0.83270   0.82522   12.009
 3982.00    0.86853   0.83781   11.514
 3983.00    0.87846   0.85014   11.384
 3984.00    0.87387   0.86312   11.443
 3985.00    0.90129   0.87655   11.095
 3986.00    0.95767   0.88966   10.442
 3987.00    0.98624   0.90172   10.140
 3988.00    0.97062   0.91241   10.303
 3989.00    0.94473   0.92178   10.585
 3990.00    0.92791   0.92979   10.777
 3991.00    0.91790   0.93595   10.894
 3992.00    0.92267   0.93934   10.838
 3993.00    0.95302   0.93941   10.493
 3994.00    0.98847   0.93680   10.117
 3995.00    0.99827   0.93358   10.017
 3996.00    0.99621   0.93247   10.038
 3997.00    1.01750   0.93547    9.828
 3998.00    1.06067   0.94258    9.428
 3999.00    1.09983   0.95163    9.092
 4000.00    1.11869   0.95920    8.939
 4001.00    1.11199   0.96236    8.993
 4002.00    1.08069   0.96020    9.253
 4003.00    1.03532   0.95434    9.659
 4004.00    0.99910   0.94836   10.009
 4005.00    0.98937   0.94602   10.107
 4006.00    0.99922   0.94940   10.008
 4007.00    1.01186   0.95782    9.883
 4008.00    1.01613   0.96862    9.841
 4009.00    1.01117   0.97889    9.890
 4010.00    1.00753   0.98687    9.925
 4011.00    1.01480   0.99231    9.854
 4012.00    1.03303   0.99591    9.680
 4013.00    1.05596   0.99869    9.470
 4014.00    1.07355   1.00138    9.315
 4015.00    1.07315   1.00437    9.318
 4016.00    1.04639   1.00771    9.557
 4017.00    1.01931   1.01105    9.811
 4018.00    1.04563   1.01352    9.564
 4019.00    1.11698   1.01389    8.953
 4020.00    1.15659   1.01126    8.646
 4021.00    1.14020   1.00587    8.770
 4022.00    1.11184   0.99927    8.994
 4023.00    1.08359   0.99371    9.229
 4024.00    1.02914   0.99076    9.717
 4025.00    0.96236   0.99017   10.391
 4026.00    0.93098   0.98968   10.741
 4027.00    0.94300   0.98622   10.604
 4028.00    0.96886   0.97799   10.321
 4029.00    0.98852   0.96594   10.116
 4030.00    0.99484   0.95365   10.052
 4031.00    0.97996   0.94564   10.204
 4032.00    0.94808   0.94530   10.548
 4033.00    0.93899   0.95358   10.650
 4034.00    0.97785   0.96874   10.227
 4035.00    1.00000   0.98717   10.000
 4036.00    0.94992   1.00456   10.527
 4037.00    0.91627   1.01720   10.914
 4038.00    0.98704   1.02299   10.131
 4039.00    1.07335   1.02156    9.317
 4040.00    1.06964   1.01370    9.349
 4041.00    1.02651   1.00072    9.742
 4042.00    1.01968   0.98454    9.807
 4043.00    1.02480   0.96819    9.758
 4044.00    1.00239   0.95583    9.976
 4045.00    0.96855   0.95128   10.325
 4046.00    0.94933   0.95587   10.534
 4047.00    0.94609   0.96736   10.570
 4048.00    0.94626   0.98095   10.568
 4049.00    0.93609   0.99168   10.683
 4050.00    0.92574   0.99655   10.802
 4051.00    0.95015   0.99517   10.525
 4052.00    1.00848   0.98924    9.916
 4053.00    1.05090   0.98142    9.516
 4054.00    1.04769   0.97422    9.545
 4055.00    1.01179   0.96932    9.883
 4056.00    0.97032   0.96724   10.306
 4057.00    0.94818   0.96725   10.547
 4058.00    0.95234   0.96758   10.500
 4059.00    0.97147   0.96596   10.294
 4060.00    0.98963   0.96087   10.105
 4061.00    0.99692   0.95269   10.031
 4062.00    1.00490   0.94394    9.951
 4063.00    1.03462   0.93787    9.665
 4064.00    1.08269   0.93654    9.236
 4065.00    1.12368   0.93968    8.899
 4066.00    1.12989   0.94504    8.850
 4067.00    1.08414   0.94982    9.224
 4068.00    0.99489   0.95190   10.051
 4069.00    0.89764   0.95067   11.140
 4070.00    0.85015   0.94681   11.763
 4071.00    0.88126   0.94148   11.347
 4072.00    0.93105   0.93514   10.741
 4073.00    0.93217   0.92732   10.728
 4074.00    0.90692   0.91772   11.026
 4075.00    0.90159   0.90769   11.091
 4076.00    0.91184   0.90046   10.967
 4077.00    0.91708   0.89940   10.904
 4078.00    0.91623   0.90553   10.914
 4079.00    0.91300   0.91645   10.953
 4080.00    0.90333   0.92761   11.070
 4081.00    0.88645   0.93488   11.281
 4082.00    0.87158   0.93679   11.473
 4083.00    0.86702   0.93482   11.534
 4084.00    0.87358   0.93189   11.447
 4085.00    0.88710   0.93029   11.273
 4086.00    0.90119   0.93037   11.096
 4087.00    0.91274   0.93060   10.956
 4088.00    0.92199   0.92867   10.846
 4089.00    0.92221   0.92277   10.844
 4090.00    0.90260   0.91206   11.079
 4091.00    0.87376   0.89652   11.445
 4092.00    0.86114   0.87624    0.000
 4093.00    0.85476   0.85121    0.000
 4094.00    0.81958   0.82138    0.000
 4095.00    0.76887   0.78701    0.000
 4096.00    0.74713   0.74886    0.000
 4097.00    0.73815   0.70840    0.000
 4098.00    0.69415   0.66836    0.000
 4099.00    0.64568   0.63319    0.000
 4100.00    0.65441   0.60863    0.000
 4101.00    0.68168   0.59995    0.000
 4102.00    0.65443   0.60941    0.000
 4103.00    0.61255   0.63492    0.000
 4104.00    0.63685   0.67054    0.000
 4105.00    0.71081   0.70902    0.000
 4106.00    0.77353   0.74447    0.000
 4107.00    0.81306   0.77400    0.000
 4108.00    0.84559   0.79772    0.000
 4109.00    0.87824   0.81763    0.000
 4110.00    0.90812   0.83601    0.000
 4111.00    0.92621   0.85430    0.000
 4112.00    0.92406   0.87248    0.000
 4113.00    0.90177   0.88928   11.089
 4114.00    0.88630   0.90295   11.283
 4115.00    0.93183   0.91211   10.732
 4116.00    1.02396   0.91661    9.766
 4117.00    1.04312   0.91763    9.587
 4118.00    0.95036   0.91729   10.522
 4119.00    0.86614   0.91770   11.545
 4120.00    0.87109   0.92014   11.480
 4121.00    0.91812   0.92469   10.892
 4122.00    0.94096   0.93046   10.627
 4123.00    0.91202   0.93588   10.965
 4124.00    0.85626   0.93928   11.679
 4125.00    0.83181   0.93949   12.022
 4126.00    0.84486   0.93631   11.836
 4127.00    0.85073   0.93053   11.755
 4128.00    0.85477   0.92361   11.699
 4129.00    0.90377   0.91717   11.065
 4130.00    0.97357   0.91290   10.272
 4131.00    0.98973   0.91242   10.104
 4132.00    0.95365   0.91703   10.486
 4133.00    0.92449   0.92704   10.817
 4134.00    0.91492   0.94125   10.930
 4135.00    0.90439   0.95720   11.057
 4136.00    0.90536   0.97181   11.045
 4137.00    0.93702   0.98213   10.672
 4138.00    0.96417   0.98593   10.372
 4139.00    0.94647   0.98216   10.566
 4140.00    0.92029   0.97177   10.866
 4141.00    0.93711   0.95793   10.671
 4142.00    0.97403   0.94539   10.267
 4143.00    0.98980   0.93844   10.103
 4144.00    0.99668   0.93877   10.033
 4145.00    1.01329   0.94481    9.868
 4146.00    1.01473   0.95288    9.855
 4147.00    0.97881   0.95944   10.218
 4148.00    0.92698   0.96265   10.787
 4149.00    0.89113   0.96255   11.218
 4150.00    0.88447   0.96012   11.308
 4151.00    0.89707   0.95645   11.158
 4152.00    0.90120   0.95249   11.090
 4153.00    0.89327   0.94928   11.192
 4154.00    0.90716   0.94798   11.185
 4155.00    0.95080   0.94957   11.007
 4156.00    0.98618   0.95430   10.979
 4157.00    0.99662   0.96152   11.127
 4158.00    1.00537   0.96992   11.062
 4159.00    1.02028   0.97815   10.782
 4160.00    1.02502   0.98519   10.717
 4161.00    1.03001   0.99050   10.857
 4162.00    1.06643   0.99377   10.769
 4163.00    1.11075   0.99484   10.519
 4164.00    1.09987   0.99373   10.595
 4165.00    1.03674   0.99069   11.032
 4166.00    0.98504   0.98595   11.405
 4167.00    0.98502   0.97939   11.445
 4168.00    1.02933   0.97047   11.236
 4169.00    1.05896   0.95885   11.000
 4170.00    1.01483   0.94525   10.937
 4171.00    0.93089   0.93184   11.132
 4172.00    0.88232   0.92135   11.525
 4173.00    0.87491   0.91567   11.811
 4174.00    0.87474   0.91489   11.710
 4175.00    0.87606   0.91768   11.473
 4176.00    0.89100   0.92241   11.462
 4177.00    0.92387   0.92802   11.643
 4178.00    0.96278   0.93405   11.799
 4179.00    0.97737   0.94011   11.821
 4180.00    0.95551   0.94569   11.706
 4181.00    0.93352   0.95025   11.520
 4182.00    0.93730   0.95349   11.419
 4183.00    0.93692   0.95529   11.639
 4184.00    0.91528   0.95575   12.140
 4185.00    0.91261   0.95541   12.316
 4186.00    0.94800   0.95537   11.906
 4187.00    0.97784   0.95695   11.553
 4188.00    0.97921   0.96098   11.573
 4189.00    0.98662   0.96724   11.606
 4190.00    1.01369   0.97429   11.452
 4191.00    1.02399   0.98000   11.377
 4192.00    0.99261   0.98205   11.426
 4193.00    0.93211   0.97880   11.301
 4194.00    0.87740   0.96997   11.056
 4195.00    0.86670   0.95701   11.099
 4196.00    0.89949   0.94267   11.368
 4197.00    0.93775   0.93002   11.331
 4198.00    0.95577   0.92134   10.981
 4199.00    0.95419   0.91753   10.811
 4200.00    0.95422   0.91837   10.932
 4201.00    0.97939   0.92305   11.118
 4202.00    1.01807   0.93072   11.254
 4203.00    1.03894   0.94055   11.363
 4204.00    1.04121   0.95159   11.401
 4205.00    1.04215   0.96269   11.299
 4206.00    1.03572   0.97260   11.131
 4207.00    1.00554   0.98041   11.051
 4208.00    0.95762   0.98575   11.173
 4209.00    0.91232   0.98866   11.500
 4210.00    0.88539   0.98917   11.805
 4211.00    0.88644   0.98721   11.817
 4212.00    0.91918   0.98294   11.598
 4213.00    0.96693   0.97750   11.403
 4214.00    0.98209   0.97307   11.436
 4215.00    0.94439   0.97199   11.670
 4216.00    0.91067   0.97525   11.698
 4217.00    0.93852   0.98154   11.316
 4218.00    1.01926   0.98761   10.971
 4219.00    1.10171   0.98958   10.978
 4220.00    1.12247   0.98437   11.167
 4221.00    1.06116   0.97074   11.323
 4222.00    0.96654   0.94982   11.454
 4223.00    0.89796   0.92533   11.576
 4224.00    0.88570   0.90294   11.589
 4225.00    0.91295   0.88875   11.445
 4226.00    0.92537   0.88687   11.222
 4227.00    0.91097   0.89734   11.021
 4228.00    0.91490   0.91578   10.906
 4229.00    0.95299   0.93530   -2.000
 4230.00    0.99086   0.94979   -2.000
 4231.00    0.99503   0.95634   -2.000
 4232.00    0.95817   0.95586   -2.000
 4233.00    0.91736   0.95163   -2.000
 4234.00    0.92767   0.94716   -2.000
 4235.00    0.97945   0.94492   -2.000
 4236.00    1.01696   0.94592   -2.000
 4237.00    1.03327   0.95015   -2.000
 4238.00    1.05654   0.95706   -2.000
 4239.00    1.07625   0.96579   -2.000
 4240.00    1.06640   0.97512   -2.000
 4241.00    1.05331   0.98351   -2.000
 4242.00    1.07386   0.98926   -2.000
 4243.00    1.09333   0.99090   -2.000
 4244.00    1.06853   0.98772   -2.000
 4245.00    1.04789   0.98019   11.135
 4246.00    1.08043   0.96996   11.101
 4247.00    1.09569   0.95934   11.011
 4248.00    1.02508   0.95051   11.169
 4249.00    0.93808   0.94488   11.575
 4250.00    0.91546   0.94279   12.015
 4251.00    0.92409   0.94375   12.173
 4252.00    0.91690   0.94677   11.966
 4253.00    0.91810   0.95079   11.740
 4254.00    0.94743   0.95469   11.740
 4255.00    0.96814   0.95727   11.836
 4256.00    0.95470   0.95749   11.901
 4257.00    0.93158   0.95534   12.016
 4258.00    0.92267   0.95240   12.180
 4259.00    0.92535   0.95154   12.185
 4260.00    0.93684   0.95538   12.042
 4261.00    0.96369   0.96467   12.065
 4262.00    0.99994   0.97745   12.289
 4263.00    1.02407   0.98992   12.366
 4264.00    1.02590   0.99796   12.232
 4265.00    1.01317   0.99865   12.210
 4266.00    0.99618   0.99101   12.340
 4267.00    0.98065   0.97596   12.355
 4268.00    0.96332   0.95603   12.277
 4269.00    0.93829   0.93483   12.378
 4270.00    0.91670   0.91636   12.572
 4271.00    0.91485   0.90420   12.510
 4272.00    0.91601   0.90050   12.278
 4273.00    0.89178   0.90547   12.225
 4274.00    0.86220   0.91731   12.352
 4275.00    0.87116   0.93276   12.413
 4276.00    0.92087   0.94801   12.280
 4277.00    0.97632   0.95980   12.027
 4278.00    0.99299   0.96631   11.887
 4279.00    0.95145   0.96761   12.028
 4280.00    0.89550   0.96512   12.304
 4281.00    0.88097   0.96059   12.442
 4282.00    0.90866   0.95519   12.364
 4283.00    0.94666   0.94904   12.145
 4284.00    0.96424   0.94153   11.870
 4285.00    0.94476   0.93204   11.647
 4286.00    0.89458   0.92078   11.615
 4287.00    0.84146   0.90925   11.821
 4288.00    0.82692   0.89998   12.131
 4289.00    0.86403   0.89536   12.336
 4290.00    0.91369   0.89619   12.298
 4291.00    0.93452   0.90098   12.088
 4292.00    0.91671   0.90647   11.968
 4293.00    0.88102   0.90909   12.017
 4294.00    0.86689   0.90630   12.031
 4295.00    0.88155   0.89726   11.938
 4296.00    0.89010   0.88274   11.928
 4297.00    0.88424   0.86491   12.062
 4298.00    0.89310   0.84682   12.188
 4299.00    0.90501   0.83164   12.294
 4300.00    0.86844   0.82164   12.537
 4301.00    0.79921   0.81731   12.808
 4302.00    0.77651   0.81730   12.698
 4303.00    0.82147   0.81917   12.101
 4304.00    0.88130   0.82063   11.405
 4305.00    0.88663   0.82072   11.305
 4306.00    0.80401   0.82027   12.387
 4307.00    0.71468   0.82134   13.952
 4308.00    0.73176   0.82590   13.788
 4309.00    0.80360   0.83473   12.544
 4310.00    0.80416   0.84725   12.201
 4311.00    0.75845   0.86231   12.622
 4312.00    0.76925   0.87909   12.769
 4313.00    0.84308   0.89734   12.401
 4314.00    0.92319   0.91657   11.981
 4315.00    0.97264   0.93527   11.855
 4316.00    0.98689   0.95087   12.097
 4317.00    0.99233   0.96055   12.406
 4318.00    1.01079   0.96241   12.394
 4319.00    1.02539   0.95594   12.044
 4320.00    1.01694   0.94198   11.662
 4321.00    0.99814   0.92240   11.634
 4322.00    0.98424   0.90013   12.040
 4323.00    0.96940   0.87913   12.387
 4324.00    0.95345   0.86359   12.276
 4325.00    0.95601   0.85649   12.032
 4326.00    0.97210   0.85795   11.975
 4327.00    0.95574   0.86515   12.025
 4328.00    0.89456   0.87358   12.120
 4329.00    0.83821   0.87913   12.381
 4330.00    0.82348   0.87928    0.000
 4331.00    0.84057   0.87290    0.000
 4332.00    0.85564   0.85933    0.000
 4333.00    0.83494   0.83764    0.000
 4334.00    0.79364   0.80701    0.000
 4335.00    0.78624   0.76800    0.000
 4336.00    0.81304   0.72372    0.000
 4337.00    0.82320   0.68005    0.000
 4338.00    0.81647   0.64441    0.000
 4339.00    0.83404   0.62355    0.000
 4340.00    0.85750   0.62117    0.000
 4341.00    0.83172   0.63684    0.000
 4342.00    0.77490   0.66644    0.000
 4343.00    0.75133   0.70389    0.000
 4344.00    0.76814   0.74314    0.000
 4345.00    0.79106   0.77930    0.000
 4346.00    0.80781   0.80903    0.000
 4347.00    0.82320   0.83047    0.000
 4348.00    0.83442   0.84344    0.000
 4349.00    0.83412   0.84971    0.000
 4350.00    0.82064   0.85282    0.000
 4351.00    0.80855   0.85699   12.691
 4352.00    0.83528   0.86529   12.704
 4353.00    0.90847   0.87837   12.580
 4354.00    0.95930   0.89453   12.531
 4355.00    0.94026   0.91096   12.656
 4356.00    0.90846   0.92549   12.705
 4357.00    0.91737   0.93756   12.551
 4358.00    0.93381   0.94808   12.528
 4359.00    0.92920   0.95842   12.736
 4360.00    0.93832   0.96926   12.679
 4361.00    0.97930   0.98008   12.291
 4362.00    1.01297   0.98936   12.306
 4363.00    1.01724   0.99533   12.876
 4364.00    1.01723   0.99684   13.081
 4365.00    1.01975   0.99396   12.597
 4366.00    0.99659   0.98804   12.335
 4367.00    0.95603   0.98105   12.567
 4368.00    0.95167   0.97460   12.663
 4369.00    0.99656   0.96920   12.350
 4370.00    1.04597   0.96431   12.051
 4371.00    1.05151   0.95929   12.109
 4372.00    0.99534   0.95445   12.575
 4373.00    0.93189   0.95124   13.025
 4374.00    0.94377   0.95144   12.801
 4375.00    1.00304   0.95564   12.281
 4376.00    1.01367   0.96219   12.279
 4377.00    0.98336   0.96745   12.572
 4378.00    0.97948   0.96726   12.406
 4379.00    0.96927   0.95889   12.105
 4380.00    0.88086   0.94245   12.414
 4381.00    0.75914   0.92132   13.072
 4382.00    0.70182   0.90108   13.197
 4383.00    0.72302   0.88738   12.712
 4384.00    0.77969   0.88351   12.168
 4385.00    0.83539   0.88932   11.882
 4386.00    0.87001   0.90165   11.896
 4387.00    0.88079   0.91629   12.037
 4388.00    0.87535   0.92987   12.117
 4389.00    0.86418   0.94070   12.164
 4390.00    0.85813   0.94851   12.218
 4391.00    0.86586   0.95392   12.140
 4392.00    0.88608   0.95788   11.924
 4393.00    0.90416   0.96141   11.873
 4394.00    0.91201   0.96516   12.127
 4395.00    0.91968   0.96902   12.405
 4396.00    0.93625   0.97201   12.435
 4397.00    0.95766   0.97293   12.294
 4398.00    0.96981   0.97118   12.224
 4399.00    0.95548   0.96707   12.437
 4400.00    0.91732   0.96140   12.841
 4401.00    0.88213   0.95504   12.981
 4402.00    0.87164   0.94878   12.741
 4403.00    0.88814   0.94365   12.530
 4404.00    0.90986   0.94093   12.567
 4405.00    0.90708   0.94181   12.751
 4406.00    0.89807   0.94688   12.878
 4407.00    0.93144   0.95572   12.798
 4408.00    0.98491   0.96679   12.658
 4409.00    0.98634   0.97758   12.759
 4410.00    0.93935   0.98528   13.088
 4411.00    0.90819   0.98764   13.346
 4412.00    0.91374   0.98419   13.335
 4413.00    0.92938   0.97679   13.135
 4414.00    0.92044   0.96909   13.124
 4415.00    0.87787   0.96481   13.571
 4416.00    0.85821   0.96602   13.977
 4417.00    0.91817   0.97221   13.652
 4418.00    1.01134   0.98081   13.110
 4419.00    1.05796   0.98863   13.066
 4420.00    1.05480   0.99356   13.301
 4421.00    1.03801   0.99529   13.338
 4422.00    1.02348   0.99488   13.306
 4423.00    1.01344   0.99372   13.468
 4424.00    1.00978   0.99270   13.641
 4425.00    1.01118   0.99202   13.606
 4426.00    1.01006   0.99141   13.537
 4427.00    0.99863   0.99040   13.674
 4428.00    0.97431   0.98858   14.044
 4429.00    0.94205   0.98565   14.440
 4430.00    0.91402   0.98156   14.465
 4431.00    0.89907   0.97677   14.117
 4432.00    0.89819   0.97239   13.956
 4433.00    0.91634   0.97018   14.201
 4434.00    0.96342   0.97181   14.463
 4435.00    1.02760   0.97770   14.410
 4436.00    1.07100   0.98624   14.136
 4437.00    1.06653   0.99421   13.931
 4438.00    1.01594   0.99824   14.044
 4439.00    0.95630   0.99671   14.384
 4440.00    0.93924   0.99078   14.536
 4441.00    0.95928   0.98374   14.383
 4442.00    0.96328   0.97942   14.194
 4443.00    0.94285   0.98018   14.130
 4444.00    0.93404   0.98586   14.179
 4445.00    0.94993   0.99414   14.305
 4446.00    0.97624   1.00205   14.466
 4447.00    0.99977   1.00725   14.570
 4448.00    1.01314   1.00851   14.540
 4449.00    1.01168   1.00560   14.445
 4450.00    0.99725   0.99891   14.418
 4451.00    0.98487   0.98919   14.490
 4452.00    0.98813   0.97753   14.608
 4453.00    0.99707   0.96539   14.706
 4454.00    0.99471   0.95445   14.741
 4455.00    0.98235   0.94606   14.722
 4456.00    0.97050   0.94065   14.692
 4457.00    0.96409   0.93797   14.699
 4458.00    0.95485   0.93763   14.768
 4459.00    0.91956   0.93935   14.889
 4460.00    0.86185   0.94307   14.975
 4461.00    0.84015   0.94864    0.000
 4462.00    0.88519   0.95526    0.000
 4463.00    0.94452   0.96151    0.000
 4464.00    0.97069   0.96592    0.000
 4465.00    0.97788   0.96781    0.000
 4466.00    0.99005   0.96765    0.000
 4467.00    1.00860   0.96704    0.000
 4468.00    1.02420   0.96811    0.000
 4469.00    1.02765   0.97262    0.000
 4470.00    1.02516   0.98108    0.000
 4471.00    1.03611   0.99274    0.000
 4472.00    1.05420   1.00578    0.000
 4473.00    1.04739   1.01791    0.000
 4474.00    1.01647   1.02678    0.000
 4475.00    0.99864   1.03048    0.000
 4476.00    1.00936   1.02793    0.000
 4477.00    1.03232   1.01944    0.000
 4478.00    1.04553   1.00718    0.000
 4479.00    1.03418   0.99480    0.000
 4480.00    1.00228   0.98636    0.000
 4481.00    0.96819   0.98466    0.000
 4482.00    0.94831   0.98989   15.240
 4483.00    0.94948   0.99936   15.203
 4484.00    0.96213   1.00885   15.253
 4485.00    0.97059   1.01473   15.465
 4486.00    0.97215   1.01552   15.654
 4487.00    0.97727   1.01215   15.553
 4488.00    1.00375   1.00699   15.172
 4489.00    1.05452   1.00233   14.761
 4490.00    1.09329   0.99937   14.630
 4491.00    1.08537   0.99814   14.869
 4492.00    1.04526   0.99817   15.089
 4493.00    1.00789   0.99920   14.993
 4494.00    0.99409   1.00152   14.999
 4495.00    1.00671   1.00544   15.344
 4496.00    1.03202   1.01077   15.368
 4497.00    1.05575   1.01693   14.774
 4498.00    1.07418   1.02357   14.446
 4499.00    1.08436   1.03074   14.829
 4500.00    1.07952   1.03863   15.267
 4501.00    1.06675   1.04721   15.181
 4502.00    1.07060   1.05583   14.910
 4503.00    1.09403   1.06311   14.860
 4504.00    1.10580   1.06777   15.076
 4505.00    1.08100   1.06941   15.450
 4506.00    1.02135   1.06861   15.810
 4507.00    0.95669   1.06632   15.969
 4508.00    0.93017   1.06331   15.834
 4509.00    0.94563   1.05973   15.565
 4510.00    0.96657   1.05525   15.453
 4511.00    0.97338   1.04963   15.520
 4512.00    0.97325   1.04324   15.556
 4513.00    0.97572   1.03682   15.509
 4514.00    0.98426   1.03129   15.523
 4515.00    0.99367   1.02745   15.729
 4516.00    0.99529   1.02546   16.126
 4517.00    0.98921   1.02474   16.392
 4518.00    0.98268   1.02409   16.144
 4519.00    0.98201   1.02239   15.609
 4520.00    0.98794   1.01893   15.270
 4521.00    0.99130   1.01316   15.265
 4522.00    0.98599   1.00504   15.468
 4523.00    0.98691   0.99500   15.622
 4524.00    1.00510   0.98375   15.539
 4525.00    1.01567   0.97241   15.358
 4526.00    0.99761   0.96235   15.271
 4527.00    0.97849   0.95479   15.215
 4528.00    0.98334   0.95034   15.096
 4529.00    0.98470   0.94860   15.010
 4530.00    0.95959   0.94867   15.061
 4531.00    0.93729   0.95014   15.207
 4532.00    0.94674   0.95347   15.335
 4533.00    0.97600   0.95959   15.349
 4534.00    0.99685   0.96885   15.269
 4535.00    0.98771   0.98039   15.252
 4536.00    0.95847   0.99228   15.324
 4537.00    0.95225   1.00228   15.291
 4538.00    0.97996   1.00902   15.106
 4539.00    1.00098   1.01234   14.983
 4540.00    0.99595   1.01283   15.004
 4541.00    0.98934   1.01151   15.035
 4542.00    0.99965   1.00930   15.034
 4543.00    1.02307   1.00645   15.102
 4544.00    1.05070   1.00251   15.206
 4545.00    1.07258   0.99702   15.195
 4546.00    1.07023   0.99042   15.210
 4547.00    1.02903   0.98390   15.547
 4548.00    0.97737   0.97846   15.929
 4549.00    0.96613   0.97450   15.721
 4550.00    0.99521   0.97203    0.000
 4551.00    1.02227   0.97088    0.000
 4552.00    1.01922   0.97128    0.000
 4553.00    0.98624   0.97393    0.000
 4554.00    0.95356   0.97939    0.000
 4555.00    0.95462   0.98765    0.000
 4556.00    0.98390   0.99795    0.000
 4557.00    1.01797   1.00878    0.000
 4558.00    1.05443   1.01811    0.000
 4559.00    1.09175   1.02402    0.000
 4560.00    1.10042   1.02559    0.000
 4561.00    1.06455   1.02351    0.000
 4562.00    1.02683   1.01984    0.000
 4563.00    1.02789   1.01702    0.000
 4564.00    1.04728   1.01675    0.000
 4565.00    1.05466   1.01921    0.000
 4566.00    1.05507   1.02318    0.000
 4567.00    1.05751   1.02661    0.000
 4568.00    1.05096   1.02805    0.000
 4569.00    1.02637   1.02774    0.000
 4570.00    0.99233   1.02690    0.000
 4571.00    0.97286   1.02644    0.000
 4572.00    0.99534   1.02682    0.000
 4573.00    1.03823   1.02780    0.000
 4574.00    1.03052   1.02830    0.000
 4575.00    0.97204   1.02688    0.000
 4576.00    0.95151   1.02258    0.000
 4577.00    0.99531   1.01553    0.000
 4578.00    1.03748   1.00687    0.000
 4579.00    1.03357   0.99802    0.000
 4580.00    0.99295   0.99036    0.000
 4581.00    0.94858   0.98514    0.000
 4582.00    0.93365   0.98311    0.000
 4583.00    0.94647   0.98433    0.000
 4584.00    0.96148   0.98837    0.000
 4585.00    0.97679   0.99425    0.000
 4586.00    1.00556   1.00052    0.000
 4587.00    1.03501   1.00563    0.000
 4588.00    1.04226   1.00845    0.000
 4589.00    1.03794   1.00877    0.000
 4590.00    1.04609   1.00732    0.000
 4591.00    1.06011   1.00508    0.000
 4592.00    1.05952   1.00299    0.000
 4593.00    1.04310   1.00185    0.000
 4594.00    1.02147   1.00194    0.000
 4595.00    1.00199   1.00298    0.000
 4596.00    0.99016   1.00435    0.000
 4597.00    0.99248   1.00534    0.000
 4598.00    1.00848   1.00590    0.000
 4599.00    1.02413   1.00635    0.000
 4600.00    1.02476   1.00696    0.000
 4601.00    1.00718   1.00810    0.000
 4602.00    0.98331   1.01015    0.000
 4603.00    0.97823   1.01362    0.000
 4604.00    1.00295   1.01883    0.000
 4605.00    1.04045   1.02562    0.000
 4606.00    1.07078   1.03307    0.000
 4607.00    1.08514   1.03974    0.000
 4608.00    1.07899   1.04442    0.000
 4609.00    1.05082   1.04662    0.000
 4610.00    1.01435   1.04645    0.000
 4611.00    0.99615   1.04476    0.000
 4612.00    1.00439   1.04241    0.000
 4613.00    1.02348   1.03981    0.000
 4614.00    1.03956   1.03744    0.000
 4615.00    1.04907   1.03531    0.000
 4616.00    1.05650   1.03337    0.000
 4617.00    1.06825   1.03238    0.000
 4618.00    1.07896   1.03288    0.000
 4619.00    1.07827   1.03463    0.000
 4620.00    1.07451   1.03716    0.000
 4621.00    1.08214   1.03974    0.000
 4622.00    1.08551   1.04138    0.000
 4623.00    1.05930   1.04169    0.000
 4624.00    1.01767   1.04080    0.000
 4625.00    0.99546   1.03873    0.000
 4626.00    1.00410   1.03588    0.000
 4627.00    1.03045   1.03336    0.000
 4628.00    1.04680   1.03182    0.000
 4629.00    1.03763   1.03060    0.000
 4630.00    1.02738   1.02891    0.000
 4631.00    1.03757   1.02656    0.000
 4632.00    1.04186   1.02362    0.000
 4633.00    1.02177   1.02016    0.000
 4634.00    1.01681   1.01634    0.000
 4635.00    1.05084   1.01269    0.000
 4636.00    1.07595   1.00987    0.000
 4637.00    1.05356   1.00832    0.000
 4638.00    1.01092   1.00831    0.000
 4639.00    0.98745   1.00932    0.000
 4640.00    0.99609   1.01008    0.000
 4641.00    1.02141   1.00937    0.000
 4642.00    1.02901   1.00622    0.000
 4643.00    1.01192   1.00027    0.000
 4644.00    1.00081   0.99275    0.000
 4645.00    1.00405   0.98584    0.000
 4646.00    0.99557   0.98161    0.000
 4647.00    0.97455   0.98115    0.000
 4648.00    0.97118   0.98418    0.000
 4649.00    0.98445   0.98949    0.000
 4650.00    0.98074   0.99526    0.000
 4651.00    0.95459   0.99964    0.000
 4652.00    0.93120   1.00205    0.000
 4653.00    0.92342   1.00338    0.000
 4654.00    0.92737   1.00523    0.000
 4655.00    0.93953   1.00919    0.000
 4656.00    0.95819   1.01547    0.000
 4657.00    0.97803   1.02264    0.000
 4658.00    0.99453   1.02840    0.000
 4659.00    1.01300   1.03065    0.000
 4660.00    1.03755   1.02825    0.000
 4661.00    1.05239   1.02125    0.000
 4662.00    1.04133   1.01036    0.000
 4663.00    1.01740   0.99645    0.000
 4664.00    1.00190   0.98131    0.000
 4665.00    0.99497   0.96796    0.000
 4666.00    0.98696   0.95931    0.000
 4667.00    0.97446   0.95679    0.000
 4668.00    0.96070   0.96026    0.000
 4669.00    0.95339   0.96814    0.000
 4670.00    0.95654   0.97817    0.000
 4671.00    0.96521   0.98846    0.000
 4672.00    0.97703   0.99773    0.000
 4673.00    0.99837   1.00515    0.000
 4674.00    1.02601   1.00995    0.000
 4675.00    1.03971   1.01152    0.000
 4676.00    1.03009   1.01010    0.000
 4677.00    1.01077   1.00668    0.000
 4678.00    0.99678   1.00245    0.000
 4679.00    0.99277   0.99873    0.000
 4680.00    0.99175   0.99664    0.000
 4681.00    0.98144   0.99644    0.000
 4682.00    0.96910   0.99753    0.000
 4683.00    0.97836   0.99926    0.000
 4684.00    1.00636   1.00109    0.000
 4685.00    1.02445   1.00259    0.000
 4686.00    1.02407   1.00361    0.000
 4687.00    1.02022   1.00417    0.000
 4688.00    1.02400   1.00441    0.000
 4689.00    1.03508   1.00486    0.000
 4690.00    1.04209   1.00606    0.000
 4691.00    1.03384   1.00805    0.000
 4692.00    1.02074   1.01046    0.000
 4693.00    1.02190   1.01249    0.000
 4694.00    1.03536   1.01289    0.000
 4695.00    1.04457   1.01057    0.000
 4696.00    1.03700   1.00556    0.000
 4697.00    1.01215   0.99894    0.000
 4698.00    0.98711   0.99172    0.000
 4699.00    0.98018   0.98455    0.000
 4700.00    0.99063   0.97825    0.000
 4701.00    1.00411   0.97396    0.000
 4702.00    1.00258   0.97216    0.000
 4703.00    0.98095   0.97208    0.000
 4704.00    0.95891   0.97256    0.000
 4705.00    0.95505   0.97312    0.000
 4706.00    0.96598   0.97403    0.000
 4707.00    0.97842   0.97590    0.000
 4708.00    0.98120   0.97908    0.000
 4709.00    0.97802   0.98313    0.000
 4710.00    0.98937   0.98707    0.000
 4711.00    1.01935   0.99036    0.000
 4712.00    1.04330   0.99346    0.000
 4713.00    1.04117   0.99744    0.000
 4714.00    1.01423   1.00285    0.000
 4715.00    0.98173   1.00939    0.000
 4716.00    0.97221   1.01655    0.000
 4717.00    0.99774   1.02368    0.000
 4718.00    1.04564   1.02983    0.000
 4719.00    1.08515   1.03416    0.000
 4720.00    1.08446   1.03645    0.000
 4721.00    1.05199   1.03698    0.000
 4722.00    1.02609   1.03577    0.000
 4723.00    1.01768   1.03219    0.000
 4724.00    1.01315   1.02560    0.000
 4725.00    1.01453   1.01637    0.000
 4726.00    1.02816   1.00611    0.000
 4727.00    1.02581   0.99667    0.000
 4728.00    0.98114   0.98933    0.000
 4729.00    0.94300   0.98513    0.000
 4730.00    0.97131   0.98443    0.000
 4731.00    1.02397   0.98656    0.000
 4732.00    1.02725   0.99022    0.000
 4733.00    0.99108   0.99409    0.000
 4734.00    0.96676   0.99734    0.000
 4735.00    0.97763   1.00038    0.000
 4736.00    1.01250   1.00368    0.000
 4737.00    1.03166   1.00671    0.000
 4738.00    1.01412   1.00919    0.000
 4739.00    0.99400   1.01152    0.000
 4740.00    0.99821   1.01404    0.000
 4741.00    1.00075   1.01660    0.000
 4742.00    0.98396   1.01888    0.000
 4743.00    0.97625   1.02098    0.000
 4744.00    0.99267   1.02313    0.000
 4745.00    1.00573   1.02495    0.000
 4746.00    1.00538   1.02602    0.000
 4747.00    1.02079   1.02629    0.000
 4748.00    1.05670   1.02551    0.000
 4749.00    1.07641   1.02321    0.000
 4750.00    1.06754   1.01936    0.000
 4751.00    1.05716   1.01453    0.000
 4752.00    1.05876   1.00951    0.000
 4753.00    1.05920   1.00508    0.000
 4754.00    1.04488   1.00183    0.000
 4755.00    1.01447   1.00005    0.000
 4756.00    0.98860   0.99936    0.000
 4757.00    0.99394   0.99880    0.000
 4758.00    1.01724   0.99704    0.000
 4759.00    1.01910   0.99295    0.000
 4760.00    0.99054   0.98664    0.000
 4761.00    0.95299   0.97940   19.305
 4762.00    0.93203   0.97258   19.283
 4763.00    0.94229   0.96738   19.487
 4764.00    0.97141   0.96507   19.558
 4765.00    0.99639   0.96630   18.992
 4766.00    1.01175   0.97058   18.237
 4767.00    1.02027   0.97665   17.920
 4768.00    1.01581   0.98297   18.008
 4769.00    0.99506   0.98844   18.191
 4770.00    0.97285   0.99332   18.282
 4771.00    0.96778   0.99828   18.263
 4772.00    0.98538   1.00327   18.260
 4773.00    1.01727   1.00766   18.291
 4774.00    1.04428   1.01112   18.102
 4775.00    1.05548   1.01362   17.703
 4776.00    1.06026   1.01458   17.628
 4777.00    1.06416   1.01358   18.045
 4778.00    1.05538   1.01109   18.307
 4779.00    1.03347   1.00764   18.079
 4780.00    1.02163   1.00328   17.976
 4781.00    1.03118   0.99845   18.223
 4782.00    1.04609   0.99411   18.208
 4783.00    1.04715   0.99041   17.860
 4784.00    1.02622   0.98709   17.935
 4785.00    0.99381   0.98494   18.423
 4786.00    0.97437   0.98441   18.330
 4787.00    0.97791   0.98534   17.698
 4788.00    0.99454   0.98812   17.635
 4789.00    1.01187   0.99290   18.205
 4790.00    1.02228   0.99927   18.434
 4791.00    1.02624   1.00663   18.140
 4792.00    1.03018   1.01386   18.017
 4793.00    1.03889   1.01932   18.082
 4794.00    1.05276   1.02188   17.868
 4795.00    1.06631   1.02134   17.599
 4796.00    1.06982   1.01833   17.798
 4797.00    1.05380   1.01419   18.194
 4798.00    1.01978   1.01057   18.151
 4799.00    0.99546   1.00847   17.891
 4800.00    1.00425   1.00764   17.944
 4801.00    1.01859   1.00694   18.069
 4802.00    1.00215   1.00538   17.858
 4803.00    0.97201   1.00295   17.699
 4804.00    0.96340   1.00036   17.998
 4805.00    0.98027   0.99792   18.275
 4806.00    1.00587   0.99600   17.998
 4807.00    1.02074   0.99528   17.597
 4808.00    1.01491   0.99578   17.530
 4809.00    0.99626   0.99719   17.559
 4810.00    0.97976   0.99932   17.473
 4811.00    0.97773   1.00212   17.570
 4812.00    0.99537   1.00547   17.884
 4813.00    1.02795   1.00912   17.769
 4814.00    1.05989   1.01278   17.155
 4815.00    1.06899   1.01599   16.968
 4816.00    1.05154   1.01812   17.509
 4817.00    1.02917   1.01857   18.001
 4818.00    1.01557   1.01670   17.972
 4819.00    1.00566   1.01225   17.918
 4820.00    0.99919   1.00535   18.070
 4821.00    1.00336   0.99679   18.089
 4822.00    1.00516   0.98907   17.946
 4823.00    0.98022   0.98423   17.989
 4824.00    0.95338   0.98186   18.068
 4825.00    0.97941   0.98077   17.675
 4826.00    1.03495   0.98013   17.148
 4827.00    1.03995   0.97965   17.274
 4828.00    0.98684   0.97910   18.005
 4829.00    0.93419   0.97791   18.561
 4830.00    0.92111   0.97635   18.441
 4831.00    0.94940   0.97539   17.834
 4832.00    0.98786   0.97506   17.338
 4833.00    0.99938   0.97452   17.369
 4834.00    0.98377   0.97333   17.626
 4835.00    0.96418   0.97145   17.558
 4836.00    0.95595   0.96838   17.227
 4837.00    0.96167   0.96399   17.031
 4838.00    0.97159   0.95926   17.159
 4839.00    0.97443   0.95522   17.507
 4840.00    0.96928   0.95182   17.607
 4841.00    0.96066   0.94879   17.234
 4842.00    0.95209   0.94655   16.961
 4843.00    0.94631   0.94481   17.157
 4844.00    0.94550   0.94225   17.327
 4845.00    0.94731   0.93779   17.143
 4846.00    0.94285   0.93145   17.203
 4847.00    0.92537   0.92432   17.816
 4848.00    0.89622   0.91689    0.000
 4849.00    0.86343   0.90808    0.000
 4850.00    0.83870   0.89707    0.000
 4851.00    0.82703   0.88339    0.000
 4852.00    0.82245   0.86604    0.000
 4853.00    0.81468   0.84493    0.000
 4854.00    0.79659   0.82155    0.000
 4855.00    0.78115   0.79658    0.000
 4856.00    0.79724   0.76919    0.000
 4857.00    0.84995   0.73971    0.000
 4858.00    0.91420   0.71071    0.000
 4859.00    0.96196   0.68711    0.000
 4860.00    0.97684   0.67501    0.000
 4861.00    0.96844   0.67661    0.000
 4862.00    0.95878   0.68959    0.000
 4863.00    0.94063   0.71093    0.000
 4864.00    0.89277   0.73722    0.000
 4865.00    0.83385   0.76425    0.000
 4866.00    0.80387   0.78856    0.000
 4867.00    0.80771   0.80820    0.000
 4868.00    0.82456   0.82196    0.000
 4869.00    0.84155   0.83070    0.000
 4870.00    0.85422   0.83804    0.000
 4871.00    0.85906   0.84692    0.000
 4872.00    0.85689   0.85734    0.000
 4873.00    0.85788   0.86874    0.000
 4874.00    0.87092   0.88105    0.000
 4875.00    0.89125   0.89380   20.514
 4876.00    0.90412   0.90610   20.656
 4877.00    0.89259   0.91742   20.901
 4878.00    0.86250   0.92625   20.862
 4879.00    0.85721   0.93118   20.711
 4880.00    0.90080   0.93298   20.640
 4881.00    0.95946   0.93275   20.468
 4882.00    0.99139   0.93055   20.124
 4883.00    0.98277   0.92681   19.904
 4884.00    0.94348   0.92282   20.070
 4885.00    0.89939   0.91968   20.651
 4886.00    0.87231   0.91761   21.327
 4887.00    0.86939   0.91646   21.453
 4888.00    0.88415   0.91633   20.982
 4889.00    0.90208   0.91864   20.618
 4890.00    0.92004   0.92608   20.557
 4891.00    0.94611   0.93871   20.373
 4892.00    0.97100   0.95402   19.984
 4893.00    0.97247   0.96952   19.752
 4894.00    0.96139   0.98296   19.810
 4895.00    0.97304   0.99269   19.986
 4896.00    1.00331   0.99790   20.031
 4897.00    1.01493   0.99845   19.843
 4898.00    0.99592   0.99577   19.796
 4899.00    0.96416   0.99231   20.299
 4900.00    0.94527   0.98911   20.751
 4901.00    0.95461   0.98641   20.154
 4902.00    0.97420   0.98523   19.119
 4903.00    0.97295   0.98605   18.740
 4904.00    0.94660   0.98747   18.997
 4905.00    0.91606   0.98744   19.349
 4906.00    0.91327   0.98517   19.529
 4907.00    0.94948   0.98097   19.525
 4908.00    0.98215   0.97601   19.366
 4909.00    0.97474   0.97242   19.107
 4910.00    0.96247   0.97143   18.835
 4911.00    0.98376   0.97230   18.690
 4912.00    1.01101   0.97366   18.855
 4913.00    1.00770   0.97411   19.279
 4914.00    0.98091   0.97160   19.459
 4915.00    0.95376   0.96421   19.220
 4916.00    0.94006   0.95180   19.205
 4917.00    0.93999   0.93656   19.595
 4918.00    0.94045   0.92217   19.498
 4919.00    0.92739   0.91232   18.812
 4920.00    0.89578   0.90891   18.809
 4921.00    0.86164   0.91114   19.783
 4922.00    0.85779   0.91786   20.317
 4923.00    0.88703   0.92914   19.746
 4924.00    0.91412   0.94415   19.287
 4925.00    0.92179   0.95999   19.499
 4926.00    0.92465   0.97422   19.846
 4927.00    0.93523   0.98553   19.876
 4928.00    0.95154   0.99261   19.655
 4929.00    0.95821   0.99490   19.576
 4930.00    0.93968   0.99248   19.979
 4931.00    0.91336   0.98571   20.359
 4932.00    0.91455   0.97697   19.834
 4933.00    0.93956   0.96924   19.116
 4934.00    0.95677   0.96286   19.437
 4935.00    0.95879   0.95709   20.318
 4936.00    0.95918   0.95265   20.273
 4937.00    0.96593   0.95153   19.634
 4938.00    0.97817   0.95527   19.625
 4939.00    0.98934   0.96307   20.076
 4940.00    0.99170   0.97246    0.000
 4941.00    0.98209   0.98191    0.000
 4942.00    0.96344   0.99053    0.000
 4943.00    0.94512   0.99725    0.000
 4944.00    0.93640   1.00201    0.000
 4945.00    0.93912   1.00582    0.000
 4946.00    0.94865   1.00889    0.000
 4947.00    0.95672   1.01085    0.000
 4948.00    0.96272   1.01161    0.000
 4949.00    0.97996   1.01092    0.000
 4950.00    1.00888   1.00795    0.000
 4951.00    1.02212   1.00231    0.000
 4952.00    1.00599   0.99442    0.000
 4953.00    0.98279   0.98473    0.000
 4954.00    0.97129   0.97338    0.000
 4955.00    0.96701   0.96173    0.000
 4956.00    0.96778   0.95403    0.000
 4957.00    0.98182   0.95354    0.000
 4958.00    1.00137   0.95845    0.000
 4959.00    1.00026   0.96520    0.000
 4960.00    0.97350   0.97175    0.000
 4961.00    0.94435   0.97706    0.000
 4962.00    0.93206   0.97988    0.000
 4963.00    0.93964   0.97948    0.000
 4964.00    0.95317   0.97677    0.000
 4965.00    0.95312   0.97346    0.000
 4966.00    0.94391   0.97086    0.000
 4967.00    0.94680   0.96994    0.000
 4968.00    0.96421   0.97110    0.000
 4969.00    0.98203   0.97426    0.000
 4970.00    0.99236   0.97885    0.000
 4971.00    0.99410   0.98373    0.000
 4972.00    0.98542   0.98770    0.000
 4973.00    0.96718   0.98962    0.000
 4974.00    0.95007   0.98858    0.000
 4975.00    0.94358   0.98413    0.000
 4976.00    0.93991   0.97619    0.000
 4977.00    0.92906   0.96548    0.000
 4978.00    0.91914   0.95316    0.000
 4979.00    0.92090   0.93992    0.000
 4980.00    0.92864   0.92677    0.000
 4981.00    0.92826   0.91629    0.000
 4982.00    0.90842   0.91112    0.000
 4983.00    0.87347   0.91172    0.000
 4984.00    0.85020   0.91717    0.000
 4985.00    0.85989   0.92585    0.000
 4986.00    0.89773   0.93521    0.000
 4987.00    0.94067   0.94317    0.000
 4988.00    0.95905   0.94901    0.000
 4989.00    0.94865   0.95292    0.000
 4990.00    0.94064   0.95566    0.000
 4991.00    0.95724   0.95741    0.000
 4992.00    0.99132   0.95823    0.000
 4993.00    1.02143   0.95878    0.000
 4994.00    1.02544   0.95885    0.000
 4995.00    1.00443   0.95747    0.000
 4996.00    0.98145   0.95399    0.000
 4997.00    0.96441   0.94808    0.000
 4998.00    0.94319   0.94030    0.000
 4999.00    0.92054   0.93214    0.000
 5000.00    0.91181   0.92484    0.000
 5001.00    0.91885   0.91894    0.000
 5002.00    0.93227   0.91428    0.000
 5003.00    0.95309   0.91035    0.000
 5004.00    0.98665   0.90755    0.000
 5005.00    1.02027   0.90742    0.000
 5006.00    1.03492   0.91007    0.000
 5007.00    1.03379   0.91322    0.000
 5008.00    1.03060   0.91454    0.000
 5009.00    1.02327   0.91307    0.000
 5010.00    1.00304   0.90878    0.000
 5011.00    0.97247   0.90269    0.000
 5012.00    0.94019   0.89640    0.000
 5013.00    0.91159   0.89138    0.000
 5014.00    0.89193   0.88828    0.000
 5015.00    0.88990   0.88659    0.000
 5016.00    0.90598   0.88618    0.000
 5017.00    0.92274   0.88821    0.000
 5018.00    0.92171   0.89303    0.000
 5019.00    0.89901   0.89900    0.000
 5020.00    0.86890   0.90473    0.000
 5021.00    0.86081   0.91058    0.000
 5022.00    0.88682   0.91695    0.000
 5023.00    0.92515   0.92304    0.000
 5024.00    0.94921   0.92791    0.000
 5025.00    0.94673   0.93136    0.000
 5026.00    0.92703   0.93451    0.000
 5027.00    0.91690   0.93876    0.000
 5028.00    0.92845   0.94363    0.000
 5029.00    0.94950   0.94794   21.825
 5030.00    0.96363   0.95136   21.481
 5031.00    0.96056   0.95332   21.468
 5032.00    0.94343   0.95228   21.814
 5033.00    0.92561   0.94696   22.127
 5034.00    0.91431   0.93815   22.225
 5035.00    0.90677   0.92831   22.252
 5036.00    0.89426   0.91848   22.311
 5037.00    0.87109   0.90852   22.402
 5038.00    0.85207   0.89943   22.518
 5039.00    0.85901   0.89366   22.614
 5040.00    0.88617   0.89417   22.485
 5041.00    0.91183   0.90144   21.985
 5042.00    0.93116   0.91240   21.386
 5043.00    0.95004   0.92372   21.068
 5044.00    0.96633   0.93343   21.118
 5045.00    0.97438   0.93962   21.429
 5046.00    0.97483   0.94118   21.819
 5047.00    0.96949   0.93912   22.109
 5048.00    0.95429   0.93571   22.219
 5049.00    0.92945   0.93292   22.140
 5050.00    0.90972   0.93207   21.888
 5051.00    0.90875   0.93412   21.556
 5052.00    0.92399   0.93900   21.348
 5053.00    0.94308   0.94552   21.377
 5054.00    0.95216   0.95244   21.549
 5055.00    0.94878   0.95914   21.721
 5056.00    0.94735   0.96517   21.830
 5057.00    0.95495   0.96968   21.823
 5058.00    0.95988   0.97211   21.635
 5059.00    0.95897   0.97237   21.314
 5060.00    0.96714   0.97023   21.056
 5061.00    0.98422   0.96530   21.047
 5062.00    0.98762   0.95763   21.353
 5063.00    0.97510   0.94879   21.639
 5064.00    0.97186   0.94128   21.310
 5065.00    0.98338   0.93593   20.720
 5066.00    0.98791   0.93190   20.911
 5067.00    0.97415   0.92931   21.864
 5068.00    0.94968   0.92858   22.392
 5069.00    0.92643   0.92869   22.011
 5070.00    0.91442   0.92829   21.403
 5071.00    0.91761   0.92756   21.072
 5072.00    0.93119   0.92675   21.105
 5073.00    0.93866   0.92499   21.373
 5074.00    0.92415   0.92187   21.603
 5075.00    0.89751   0.91780   21.487
 5076.00    0.88285   0.91248   20.947
 5077.00    0.88927   0.90554   20.418
 5078.00    0.90794   0.89860   20.353
 5079.00    0.91676   0.89456   20.656
 5080.00    0.89993   0.89425   21.012
 5081.00    0.87207   0.89659   21.408
 5082.00    0.85870   0.90103   21.901
 5083.00    0.86871   0.90762   22.209
 5084.00    0.89335   0.91552   22.075
 5085.00    0.91097   0.92317   21.734
 5086.00    0.91155   0.92991   21.507
 5087.00    0.91509   0.93593   21.414
 5088.00    0.93358   0.94113   21.391
 5089.00    0.94392   0.94516   21.443
 5090.00    0.93212   0.94794   21.484
 5091.00    0.92052   0.94924   21.283
 5092.00    0.92388   0.94824   20.893
 5093.00    0.92638   0.94435   20.780
 5094.00    0.91898   0.93787   21.198
 5095.00    0.91594   0.92987   21.952
 5096.00    0.92690   0.92162   22.651
 5097.00    0.94438   0.91453   22.888
 5098.00    0.95343   0.91042   22.538
 5099.00    0.94009   0.91009   21.903
 5100.00    0.90599   0.91215   21.589
 5101.00    0.87038   0.91460   22.161
 5102.00    0.85813   0.91630   23.225
 5103.00    0.88497   0.91695   23.423
 5104.00    0.92796   0.91649   22.607
 5105.00    0.94228   0.91480   21.916
 5106.00    0.92512   0.91260   21.788
 5107.00    0.90913   0.91135   21.964
 5108.00    0.90993   0.91166   22.040
 5109.00    0.92094   0.91396   21.764
 5110.00    0.92802   0.91858   21.421
 5111.00    0.92243   0.92454   21.484
 5112.00    0.91707   0.93079   22.031
 5113.00    0.92792   0.93671   22.796
 5114.00    0.94275   0.94162   23.319
 5115.00    0.94200   0.94514   23.272
 5116.00    0.93199   0.94654   22.956
 5117.00    0.92670   0.94481   22.843
 5118.00    0.92228   0.93995   23.022
 5119.00    0.91401   0.93267   23.258
 5120.00    0.91501   0.92380   23.120
 5121.00    0.93443   0.91402   22.557
 5122.00    0.95775   0.90434   22.238
 5123.00    0.96702   0.89646   22.521
 5124.00    0.95820   0.89132   22.869
 5125.00    0.93584   0.88851   22.759
 5126.00    0.90792   0.88750   22.415
 5127.00    0.88415   0.88816   22.246
 5128.00    0.87377   0.89071   22.427
 5129.00    0.87909   0.89498   22.713
 5130.00    0.89307   0.89983   22.484
 5131.00    0.90531   0.90396   21.786
 5132.00    0.90803   0.90703   21.414
 5133.00    0.90787   0.90939   21.611
 5134.00    0.92078   0.91026   21.926
 5135.00    0.93460   0.90839   22.161
 5136.00    0.91463   0.90444   22.562
 5137.00    0.86809   0.90000   23.031
 5138.00    0.84143   0.89644   23.065
 5139.00    0.85069   0.89431   22.598
 5140.00    0.87618   0.89218   22.044
 5141.00    0.90214   0.88992   21.682
 5142.00    0.92203   0.88941   21.557
 5143.00    0.92736   0.89010   21.558
 5144.00    0.91234   0.89013   21.519
 5145.00    0.88750   0.88936   21.392
 5146.00    0.87084   0.88862   21.242
 5147.00    0.86818   0.88856   21.175
 5148.00    0.87335   0.88869   21.276
 5149.00    0.87439   0.88810   21.547
 5150.00    0.86532   0.88754   21.866
 5151.00    0.85900   0.88816   21.957
 5152.00    0.86787   0.89028   21.758
 5153.00    0.88109   0.89432   21.784
 5154.00    0.88688   0.90033   22.353
 5155.00    0.89601   0.90732   22.819
 5156.00    0.91831   0.91392   22.509
 5157.00    0.94116   0.91862   21.839
 5158.00    0.94877   0.92037   21.506
 5159.00    0.93877   0.91833   21.836
 5160.00    0.91878   0.91123   22.627
 5161.00    0.90072   0.89914   23.024
 5162.00    0.88613   0.88340   22.728
 5163.00    0.86147   0.86445   22.655
 5164.00    0.82246   0.84247   23.182
 5165.00    0.78291   0.81916   23.533
 5166.00    0.75107   0.79840   23.392
 5167.00    0.72312   0.78443   23.500
 5168.00    0.70581   0.77809   24.075
 5169.00    0.71667   0.77650   24.434
 5170.00    0.74850   0.77740   24.333
 5171.00    0.77047   0.78294   24.266
 5172.00    0.77500   0.79636   24.360
 5173.00    0.78163   0.81557   24.272
 5174.00    0.80342   0.83452   23.946
 5175.00    0.83941   0.84933   23.627
 5176.00    0.88127   0.85938   23.351
 5177.00    0.91519   0.86437   23.021
 5178.00    0.92280   0.86346   22.767
 5179.00    0.89369   0.85664   22.813
 5180.00    0.84808   0.84537   23.115
 5181.00    0.81913   0.83230   23.429
 5182.00    0.81591   0.82217   23.556
 5183.00    0.82841   0.82031   23.477
 5184.00    0.84475   0.82686   23.455
 5185.00    0.85644   0.83702   23.625
 5186.00    0.86183   0.84717   23.507
 5187.00    0.86507   0.85664   22.803
 5188.00    0.87387   0.86540   22.225
 5189.00    0.89194   0.87113   22.301
 5190.00    0.91217   0.87187    0.000
 5191.00    0.92298   0.87076    0.000
 5192.00    0.91589   0.87156    0.000
 5193.00    0.89548   0.87407    0.000
 5194.00    0.88316   0.87721    0.000
 5195.00    0.89134   0.88148    0.000
 5196.00    0.90889   0.88710    0.000
 5197.00    0.92732   0.89294    0.000
 5198.00    0.95250   0.89693    0.000
 5199.00    0.97648   0.89747    0.000
 5200.00    0.97164   0.89456    0.000
 5201.00    0.93816   0.88855    0.000
 5202.00    0.91264   0.87962    0.000
 5203.00    0.90732   0.86872    0.000
 5204.00    0.89841   0.85843    0.000
 5205.00    0.87909   0.85173    0.000
 5206.00    0.86691   0.84916    0.000
 5207.00    0.86301   0.85031    0.000
 5208.00    0.85242   0.85583    0.000
 5209.00    0.84260   0.86526    0.000
 5210.00    0.85673   0.87677    0.000
 5211.00    0.89007   0.88829   11.055
 5212.00    0.91489   0.89777   11.137
 5213.00    0.91538   0.90443   10.989
 5214.00    0.89587   0.90889   11.031
 5215.00    0.88032   0.91280   11.307
 5216.00    0.89101   0.91733   11.440
 5217.00    0.91431   0.92187   11.016
 5218.00    0.92253   0.92489   10.336
 5219.00    0.91382   0.92537   10.796
 5220.00    0.90330   0.92282   14.200
 5221.00    0.90307   0.91691   21.437
 5222.00    0.91245   0.90790   24.938
 5223.00    0.91201   0.89677   22.253
 5224.00    0.88872   0.88529   21.027
 5225.00    0.85962   0.87605   21.690
 5226.00    0.84548   0.87213   22.632
 5227.00    0.84659   0.87435   22.947
 5228.00    0.85460   0.87974   22.593
 5229.00    0.86343   0.88565   22.176
 5230.00    0.86883   0.89126   22.126
 5231.00    0.86815   0.89587   22.337
 5232.00    0.86368   0.90019   22.572
 5233.00    0.86287   0.90522   22.706
 5234.00    0.86826   0.91124   22.742
 5235.00    0.87391   0.91820   22.791
 5236.00    0.87482   0.92514   22.954
 5237.00    0.87162   0.93155   23.233
 5238.00    0.87101   0.93750   23.383
 5239.00    0.88194   0.94230   23.047
 5240.00    0.90174   0.94499   22.479
 5241.00    0.91668   0.94517   22.326
 5242.00    0.91951   0.94379   22.528
 5243.00    0.91219   0.94146   22.468
 5244.00    0.89753   0.93706   22.228
 5245.00    0.87862   0.93031   22.414
 5246.00    0.86341   0.92347   22.898
 5247.00    0.86118   0.91843   22.974
 5248.00    0.87292   0.91435   22.524
 5249.00    0.89250   0.91080   21.980
 5250.00    0.91301   0.90970   21.632
 5251.00    0.92766   0.91168   21.540
 5252.00    0.92975   0.91507   21.579
 5253.00    0.91908   0.91839   21.630
 5254.00    0.91035   0.92208   21.840
 5255.00    0.91731   0.92663   22.305
 5256.00    0.93175   0.92978   22.613
 5257.00    0.93570   0.92879   22.408
 5258.00    0.91886   0.92283   22.149
 5259.00    0.88509   0.91218   22.304
 5260.00    0.85465   0.89774   22.600
 5261.00    0.84197   0.88100   22.567
 5262.00    0.83851   0.86354   22.126
 5263.00    0.83562   0.84672   21.586
 5264.00    0.84037   0.83260   21.421
 5265.00    0.85289   0.82366   21.773
 5266.00    0.85469   0.81993   22.248
 5267.00    0.83789   0.81817   22.566
 5268.00    0.81895   0.81757   22.941
 5269.00    0.81435   0.82196   23.348
 5270.00    0.82715   0.83265   23.271
 5271.00    0.84852   0.84550   22.837
 5272.00    0.86427   0.85720   22.904
 5273.00    0.87706   0.86822   23.515
 5274.00    0.90362   0.87965   23.704
 5275.00    0.93304   0.89166   23.244
 5276.00    0.93091   0.90250   22.956
 5277.00    0.89946   0.90957   23.230
 5278.00    0.87475   0.91275   23.852
 5279.00    0.86655   0.91396   24.428
 5280.00    0.85992   0.91494   24.584
 5281.00    0.85966   0.91603   24.305
 5282.00    0.88302   0.91768   23.927
 5283.00    0.92132   0.92199   23.865
 5284.00    0.95034   0.93017   24.301
 5285.00    0.96449   0.93977   24.702
 5286.00    0.97195   0.94798   24.348
 5287.00    0.97605   0.95443   23.601
 5288.00    0.97500   0.95970   23.263
 5289.00    0.96628   0.96297   23.613
 5290.00    0.95218   0.96238   24.397
 5291.00    0.94480   0.95769   24.747
 5292.00    0.94947   0.95066   24.174
 5293.00    0.94829   0.94292   23.692
 5294.00    0.92932   0.93423   24.072
 5295.00    0.91368   0.92426   24.507
 5296.00    0.92033   0.91509   24.075
 5297.00    0.93588   0.91018   23.251
 5298.00    0.93890   0.91051   22.770
 5299.00    0.92141   0.91352   22.807
 5300.00    0.89435   0.91747   23.191
 5301.00    0.88563   0.92341   -2.000
 5302.00    0.91232   0.93183   -2.000
 5303.00    0.96593   0.94072   -2.000
 5304.00    1.02353   0.94758   -2.000
 5305.00    1.05786   0.95206   -2.000
 5306.00    1.05410   0.95546   -2.000
 5307.00    1.01633   0.95851   -2.000
 5308.00    0.96205   0.96065   -2.000
 5309.00    0.91484   0.96089   -2.000
 5310.00    0.88754   0.95912   -2.000
 5311.00    0.87922   0.95616   -2.000
 5312.00    0.88459   0.95274   -2.000
 5313.00    0.89778   0.94900   -2.000
 5314.00    0.91403   0.94462   -2.000
 5315.00    0.92858   0.94007   -2.000
 5316.00    0.93313   0.93691   21.918
 5317.00    0.92295   0.93503   22.301
 5318.00    0.91284   0.93251   23.242
 5319.00    0.92294   0.92884   23.392
 5320.00    0.94735   0.92416   22.742
 5321.00    0.96426   0.91728   22.313
 5322.00    0.96180   0.90707   22.588
 5323.00    0.94022   0.89561   23.457
 5324.00    0.90861   0.88612   24.164
 5325.00    0.87835   0.87800   24.026
 5326.00    0.85562   0.86963   23.691
 5327.00    0.84166   0.86434   23.987
 5328.00    0.83464   0.86727   24.678
 5329.00    0.83567   0.87685   25.076
 5330.00    0.85289   0.88723   24.867
 5331.00    0.88617   0.89638   24.258
 5332.00    0.91638   0.90569   23.794
 5333.00    0.92808   0.91462   23.793
 5334.00    0.92572   0.91987   24.118
 5335.00    0.92059   0.92063   24.509
 5336.00    0.92044   0.91928   24.794
 5337.00    0.92542   0.91739   24.808
 5338.00    0.92802   0.91446   24.437
 5339.00    0.92449   0.91116   24.001
 5340.00    0.91877   0.91034   24.137
 5341.00    0.91364   0.91258   24.801
 5342.00    0.90774   0.91511   25.087
 5343.00    0.90081   0.91646   24.687
 5344.00    0.89530   0.91748   24.267
 5345.00    0.89470   0.91948   24.143
 5346.00    0.90120   0.92208   24.103
 5347.00    0.91067   0.92396   24.055
 5348.00    0.91627   0.92641   24.062
 5349.00    0.92176   0.93156   23.924
 5350.00    0.93562   0.93885   23.422
 5351.00    0.94925   0.94612   23.061
 5352.00    0.94688   0.95288   23.462
 5353.00    0.93616   0.95999   24.025
 5354.00    0.93568   0.96660   23.697
 5355.00    0.94158   0.97073   23.253
 5356.00    0.94029   0.97200   23.791
 5357.00    0.93780   0.97116   24.096
 5358.00    0.94367   0.96830   22.721
 5359.00    0.94353   0.96296   21.563
 5360.00    0.92488   0.95545   22.300
 5361.00    0.91085   0.94705   23.665
 5362.00    0.92412   0.93894   23.485
 5363.00    0.94596   0.93087   22.553
 5364.00    0.95103   0.92241   22.358
 5365.00    0.94301   0.91442   22.709
 5366.00    0.93459   0.90770   22.952
 5367.00    0.92848   0.90248   22.966
 5368.00    0.92448   0.89827   23.086
 5369.00    0.92525   0.89557   23.833
 5370.00    0.93115   0.89654   25.027
 5371.00    0.93736   0.90246   25.218
 5372.00    0.93802   0.91164   24.232
 5373.00    0.93008   0.92098   24.008
 5374.00    0.91972   0.92925   24.919
 5375.00    0.92071   0.93608   24.988
 5376.00    0.93267   0.94097   23.922
 5377.00    0.93852   0.94341   23.907
 5378.00    0.93287   0.94335   25.223
 5379.00    0.92667   0.94165   25.706
 5380.00    0.92344   0.93969   24.875
 5381.00    0.91713   0.93810   24.672
 5382.00    0.91108   0.93691   25.519
 5383.00    0.91579   0.93659   26.170
 5384.00    0.92784   0.93670   25.850
 5385.00    0.93313   0.93599   24.991
 5386.00    0.92776   0.93404   24.522
 5387.00    0.91892   0.93092   25.012
 5388.00    0.91606   0.92661   25.608
 5389.00    0.92279   0.92146   24.993
 5390.00    0.92647   0.91575   24.073
 5391.00    0.91404   0.90945   24.280
 5392.00    0.89854   0.90362   25.080
 5393.00    0.89997   0.89926   25.127
 5394.00    0.91373   0.89574   24.620
 5395.00    0.92385   0.89199   24.395
 5396.00    0.92457   0.88961   24.365
 5397.00    0.91842   0.89033   24.196
 5398.00    0.91108   0.89151   24.086
 5399.00    0.90730   0.89029   24.188
 5400.00    0.90756   0.88780   24.094
 5401.00    0.90951   0.88546   23.636
 5402.00    0.90958   0.88153   23.430
 5403.00    0.90499   0.87528   23.760
 5404.00    0.89574   0.86938   23.973
 5405.00    0.88806   0.86698   23.646
 5406.00    0.89342   0.86828   23.257
 5407.00    0.90992   0.87093   22.849
 5408.00    0.91736   0.87386   21.870
 5409.00    0.90719   0.87878   21.458
 5410.00    0.89287   0.88714   -2.000
 5411.00    0.88635   0.89671   -2.000
 5412.00    0.88929   0.90463   -2.000
 5413.00    0.90140   0.91079   -2.000
 5414.00    0.92489   0.91681   -2.000
 5415.00    0.96773   0.92287   -2.000
 5416.00    1.03512   0.92727   -2.000
 5417.00    1.10209   0.92882   -2.000
 5418.00    1.12663   0.92810   -2.000
 5419.00    1.10466   0.92661   -2.000
 5420.00    1.06239   0.92547   -2.000
 5421.00    1.00559   0.92435   -2.000
 5422.00    0.92884   0.92167   -2.000
 5423.00    0.85734   0.91780   -2.000
 5424.00    0.82609   0.91536   -2.000
 5425.00    0.82902   0.91457   -2.000
 5426.00    0.83690   0.91263   -2.000
 5427.00    0.83940   0.90751   -2.000
 5428.00    0.84142   0.90099   -2.000
 5429.00    0.84852   0.89696   -2.000
 5430.00    0.86321   0.89559   -2.000
 5431.00    0.88311   0.89383   -2.000
 5432.00    0.90376   0.89232   -2.000
 5433.00    0.92188   0.89403   25.045
 5434.00    0.93497   0.89955   25.115
 5435.00    0.94077   0.90723   25.771
 5436.00    0.93766   0.91576   26.532
 5437.00    0.92582   0.92451   26.683
 5438.00    0.91254   0.93214   25.950
 5439.00    0.91322   0.93714   24.913
 5440.00    0.93248   0.93848   24.251
 5441.00    0.95493   0.93631   24.323
 5442.00    0.96317   0.93164   24.862
 5443.00    0.94942   0.92519   24.931
 5444.00    0.91946   0.91766   24.414
 5445.00    0.89047   0.91066   24.309
 5446.00    0.87427   0.90706   24.525
 5447.00    0.87156   0.90759   23.750
 5448.00    0.87895   0.90922   22.368
 5449.00    0.89238   0.90964   22.065
 5450.00    0.90880   0.90938   22.950
 5451.00    0.92552   0.90933   23.676
 5452.00    0.93674   0.90860   23.674
 5453.00    0.93665   0.90606   23.616
 5454.00    0.92990   0.90305   23.677
 5455.00    0.92661   0.90284   23.504
 5456.00    0.92507   0.90552   23.265
 5457.00    0.91766   0.90788   23.420
 5458.00    0.90996   0.90887   23.888
 5459.00    0.91240   0.90974   24.229
 5460.00    0.91921   0.91050   24.310
 5461.00    0.91898   0.90985   24.269
 5462.00    0.91574   0.90879   24.204
 5463.00    0.91865   0.90950   24.159
 5464.00    0.92379   0.91105   24.176
 5465.00    0.92203   0.91181   24.162
 5466.00    0.91136   0.91268   23.808
 5467.00    0.89779   0.91381   23.709
 5468.00    0.89354   0.91330   26.193
 5469.00    0.90314   0.91068   30.370
 5470.00    0.91258   0.90681   23.752
 5471.00    0.90726   0.90146   14.377
 5472.00    0.88718   0.89499   10.959
 5473.00    0.86319   0.88957   10.964
 5474.00    0.85137   0.88504   11.893
 5475.00    0.85972   0.87997   11.846
 5476.00    0.88143   0.87713   11.294
 5477.00    0.90402   0.87915   11.021
 5478.00    0.91625   0.88318   10.912
 5479.00    0.91483   0.88617   10.884
 5480.00    0.90578   0.88947   11.114
 5481.00    0.89650   0.89469   11.343
 5482.00    0.89102   0.90018   10.957
 5483.00    0.88605   0.90444   10.764
 5484.00    0.87491   0.90757   12.727
 5485.00    0.86532   0.90930   18.744
 5486.00    0.87544   0.90994   25.478
 5487.00    0.90537   0.91076   24.633
 5488.00    0.93698   0.91179   22.845
 5489.00    0.95535   0.91221   23.194
 5490.00    0.95576   0.91256   23.563
 5491.00    0.94595   0.91285   23.201
 5492.00    0.93890   0.91239   23.032
 5493.00    0.93774   0.91219   23.233
 5494.00    0.93758   0.91260   23.399
 5495.00    0.93418   0.91164   23.551
 5496.00    0.92696   0.90907   23.872
 5497.00    0.92102   0.90769   24.021
 5498.00    0.91963   0.90763   23.753
 5499.00    0.91483   0.90581   23.846
 5500.00    0.90046   0.90203   24.851
 5501.00    0.88749   0.89902   25.521
 5502.00    0.88417   0.89780   24.853
 5503.00    0.87639   0.89674   24.688
 5504.00    0.85752   0.89459   25.821
 5505.00    0.85323   0.89226   24.903
 5506.00    0.87973   0.89153   20.960
 5507.00    0.91309   0.89179   17.983
 5508.00    0.92803   0.89111   17.110
 5509.00    0.92575   0.88991   17.453
 5510.00    0.92035   0.88934   18.373
 5511.00    0.92580   0.88949   19.963
 5512.00    0.93776   0.89084   22.236
 5513.00    0.93233   0.89393   24.289
 5514.00    0.90765   0.89823   25.127
 5515.00    0.89303   0.90305   24.972
 5516.00    0.89957   0.90837   24.675
 5517.00    0.90866   0.91383   24.886
 5518.00    0.91044   0.91796   25.392
 5519.00    0.91251   0.91989   25.252
 5520.00    0.91925   0.91997   24.343
 5521.00    0.92739   0.91848   23.406
 5522.00    0.93388   0.91507   22.697
 5523.00    0.93717   0.91006   22.024
 5524.00    0.93442   0.90481   21.368
 5525.00    0.92419   0.90023   20.871
 5526.00    0.91362   0.89602   20.625
 5527.00    0.91157   0.89299   20.616
 5528.00    0.91253   0.89295   20.676
 5529.00    0.90557   0.89503   20.601
 5530.00    0.89451   0.89692   20.388
 5531.00    0.89119   0.89870   20.125
 5532.00    0.90008   0.90114   19.783
 5533.00    0.91862   0.90330   19.477
 5534.00    0.94103   0.90503   19.765
 5535.00    0.96000   0.90757   20.962
 5536.00    0.96859   0.91035   22.140
 5537.00    0.96437   0.91225   22.232
 5538.00    0.95282   0.91401   22.198
 5539.00    0.93940   0.91613   23.085
 5540.00    0.92290   0.91747   24.117
 5541.00    0.90342   0.91724   24.173
 5542.00    0.88818   0.91674   23.658
 5543.00    0.88375   0.91733   23.405
 5544.00    0.89060   0.91844   23.691
 5545.00    0.90638   0.91941   24.301
 5546.00    0.92777   0.92110   24.609
 5547.00    0.94885   0.92355   24.488
 5548.00    0.96179   0.92521   24.623
 5549.00    0.96494   0.92562   25.140
 5550.00    0.96382   0.92551   25.262
 5551.00    0.95858   0.92473   24.970
 5552.00    0.94295   0.92275   25.253
 5553.00    0.92073   0.92030   26.263
 5554.00    0.90589   0.91859   26.991
 5555.00    0.90328   0.91734   26.924
 5556.00    0.90727   0.91561   26.540
 5557.00    0.91631   0.91363   26.152
 5558.00    0.93194   0.91202   25.750
 5559.00    0.94599   0.91034   25.488
 5560.00    0.94558   0.90777   25.579
 5561.00    0.93110   0.90450   25.873
 5562.00    0.91405   0.90157   25.972
 5563.00    0.90501   0.89921   25.694
 5564.00    0.90886   0.89657   25.199
 5565.00    0.92113   0.89417   24.927
 5566.00    0.93270   0.89305   25.174
 5567.00    0.93783   0.89212   25.577
 5568.00    0.93502   0.89093   25.570
 5569.00    0.92645   0.89129   25.185
 5570.00    0.91499   0.89285   24.850
 5571.00    0.90129   0.89326   24.936
 5572.00    0.88864   0.89411   25.356
 5573.00    0.88696   0.89725   25.225
 5574.00    0.89944   0.90033   24.222
 5575.00    0.91250   0.90203   23.497
 5576.00    0.91510   0.90395   23.662
 5577.00    0.91262   0.90576   23.888
 5578.00    0.90903   0.90627   23.668
 5579.00    0.89680   0.90543   23.863
 5580.00    0.87717   0.90276   24.807
 5581.00    0.86751   0.89803   25.326
 5582.00    0.87055   0.89220   24.897
 5583.00    0.86518   0.88557   24.741
 5584.00    0.84439   0.87782   25.509
 5585.00    0.82676   0.86992   26.564
 5586.00    0.82662   0.86361   27.017
 5587.00    0.84227   0.85979   26.520
 5588.00    0.86146   0.85818   25.657
 5589.00    0.86868   0.85882   25.375
 5590.00    0.86128   0.86179   25.809
 5591.00    0.84935   0.86614   26.393
 5592.00    0.84083   0.86999   26.832
 5593.00    0.83828   0.87277   27.247
 5594.00    0.84186   0.87595   27.627
 5595.00    0.85065   0.87893   27.780
 5596.00    0.86378   0.87891   27.618
 5597.00    0.87846   0.87668   27.231
 5598.00    0.88610   0.87597   26.827
 5599.00    0.87983   0.87720   26.547
 5600.00    0.86754   0.87831   26.227
 5601.00    0.86185   0.88026   25.702
 5602.00    0.86251   0.88523   25.224
 5603.00    0.86420   0.89292   24.982
 5604.00    0.86930   0.90074   24.585
 5605.00    0.88081   0.90747   23.757
 5606.00    0.89315   0.91318   22.997
 5607.00    0.90188   0.91754   22.668
 5608.00    0.91295   0.91950   22.391
 5609.00    0.92744   0.91813   21.955
 5610.00    0.92987   0.91389   21.923
 5611.00    0.91233   0.90868   22.638
 5612.00    0.89063   0.90325   23.549
 5613.00    0.87849   0.89626   23.959
 5614.00    0.87145   0.88870   23.865
 5615.00    0.86429   0.88472   23.735
 5616.00    0.86093   0.88466   24.072
 5617.00    0.86599   0.88487   24.640
 5618.00    0.87912   0.88438   24.341
 5619.00    0.89184   0.88497   23.272
 5620.00    0.89088   0.88681   22.866
 5621.00    0.87753   0.88820   23.495
 5622.00    0.86875   0.88785   24.265
 5623.00    0.87211   0.88679   24.545
 5624.00    0.88171   0.88771   24.513
 5625.00    0.89479   0.89094   24.265
 5626.00    0.91336   0.89415   23.696
 5627.00    0.93356   0.89703   23.088
 5628.00    0.94724   0.90077   22.878
 5629.00    0.95305   0.90437   22.986
 5630.00    0.95403   0.90624   23.091
 5631.00    0.94690   0.90627   23.467
 5632.00    0.92854   0.90490   24.599
 5633.00    0.91199   0.90258   25.933
 5634.00    0.91384   0.89992   26.305
 5635.00    0.92903   0.89674   26.063
 5636.00    0.93952   0.89322   26.270
 5637.00    0.93314   0.89089   26.789
 5638.00    0.90914   0.89011   26.974
 5639.00    0.88080   0.88937   26.952
 5640.00    0.86463   0.88873   26.977
 5641.00    0.86760   0.88969   26.534
 5642.00    0.88618   0.89180   25.373
 5643.00    0.90790   0.89358   24.309
 5644.00    0.92246   0.89516   23.948
 5645.00    0.93028   0.89706   24.077
 5646.00    0.93408   0.89911   24.356
 5647.00    0.93253   0.90064   24.722
 5648.00    0.92612   0.90106   24.934
 5649.00    0.92010   0.90035   24.419
 5650.00    0.91541   0.89937   23.507
 5651.00    0.90605   0.89820   23.462
 5652.00    0.89513   0.89502   24.417
 5653.00    0.89795   0.88911   24.788
 5654.00    0.91591   0.88360   23.888
 5655.00    0.93031   0.88032   23.008
 5656.00    0.92767   0.87592   22.919
 5657.00    0.90937   0.86969   23.438
 5658.00    0.88738   0.86703   24.079
 5659.00    0.87744   0.86916   24.338
 5660.00    0.88369   0.87087   24.372
 5661.00    0.89810   0.87117   24.786
 5662.00    0.91234   0.87383   25.363
 5663.00    0.92050   0.87885   25.282
 5664.00    0.91755   0.88282   24.857
 5665.00    0.90339   0.88512   25.035
 5666.00    0.89162   0.88735   25.587
 5667.00    0.89789   0.89056   25.639
 5668.00    0.91546   0.89413   25.495
 5669.00    0.92621   0.89718   25.942
 5670.00    0.92571   0.89978   26.540
 5671.00    0.92044   0.90313   26.369
 5672.00    0.91744   0.90674   25.799
 5673.00    0.92057   0.90868   25.593
 5674.00    0.92782   0.90892   25.594
 5675.00    0.93405   0.90922   25.366
 5676.00    0.93472   0.90896   24.970
 5677.00    0.92850   0.90619   24.711
 5678.00    0.91910   0.90219   24.801
 5679.00    0.91178   0.89904   25.159
 5680.00    0.90975   0.89582   25.294
 5681.00    0.91069   0.89116   24.929
 5682.00    0.90612   0.88704   24.453
 5683.00    0.89461   0.88501   24.219
 5684.00    0.88771   0.88413   24.173
 5685.00    0.89171   0.88335   24.135
 5686.00    0.89911   0.88349   23.973
 5687.00    0.90307   0.88552   23.663
 5688.00    0.90387   0.88896   23.297
 5689.00    0.90153   0.89250   23.017
 5690.00    0.89441   0.89571   22.943
 5691.00    0.88767   0.89903   23.028
 5692.00    0.89200   0.90161   23.082
 5693.00    0.90716   0.90218   23.078
 5694.00    0.92135   0.90159   23.177
 5695.00    0.92748   0.90039   23.472
 5696.00    0.92689   0.89757   23.893
 5697.00    0.92475   0.89328   24.172
 5698.00    0.92557   0.88968   23.988
 5699.00    0.92590   0.88651   23.395
 5700.00    0.91780   0.88239   22.724
 5701.00    0.89963   0.87832   22.213
 5702.00    0.87757   0.87549   21.979
 5703.00    0.86360   0.87258   22.092
 5704.00    0.86649   0.86842   22.543
 5705.00    0.87854   0.86443   23.148
 5706.00    0.88517   0.86156   23.706
 5707.00    0.88169   0.85913   24.340
 5708.00    0.87254   0.85790   25.182
 5709.00    0.86699   0.85931   25.817
 5710.00    0.87172   0.86233   25.766
 5711.00    0.88395   0.86668   25.266
 5712.00    0.89826   0.87314   24.765
 5713.00    0.91353   0.88018   24.365
 5714.00    0.92857   0.88651   24.095
 5715.00    0.93851   0.89267   24.111
 5716.00    0.94052   0.89839   24.351
 5717.00    0.93776   0.90299   24.322
 5718.00    0.93533   0.90688   23.735
 5719.00    0.93661   0.90996   -2.000
 5720.00    0.93944   0.91211   -2.000
 5721.00    0.93605   0.91344   -2.000
 5722.00    0.92447   0.91360   -2.000
 5723.00    0.91129   0.91290   -2.000
 5724.00    0.89737   0.91199   -2.000
 5725.00    0.87474   0.91032   -2.000
 5726.00    0.84118   0.90772   -2.000
 5727.00    0.80636   0.90608   -2.000
 5728.00    0.79168   0.90582   -2.000
 5729.00    0.81768   0.90533   -2.000
 5730.00    0.86745   0.90444   -2.000
 5731.00    0.89792   0.90485   -2.000
 5732.00    0.89979   0.90643   -2.000
 5733.00    0.89739   0.90756   -2.000
 5734.00    0.90915   0.90808   -2.000
 5735.00    0.93673   0.90856   -2.000
 5736.00    0.96350   0.90898   -2.000
 5737.00    0.96883   0.90900   -2.000
 5738.00    0.95383   0.90859   -2.000
 5739.00    0.93437   0.90811   25.411
 5740.00    0.92203   0.90782    0.000
 5741.00    0.92045   0.90750    0.000
 5742.00    0.92481   0.90682    0.000
 5743.00    0.92714   0.90610    0.000
 5744.00    0.92312   0.90570    0.000
 5745.00    0.91449   0.90510    0.000
 5746.00    0.90992   0.90341    0.000
 5747.00    0.91636   0.90105    0.000
 5748.00    0.93088   0.89922    0.000
 5749.00    0.94359   0.89765    0.000
 5750.00    0.94235   0.89575    0.000
 5751.00    0.92435   0.89387    0.000
 5752.00    0.90211   0.89268    0.000
 5753.00    0.88588   0.89262    0.000
 5754.00    0.87357   0.89365    0.000
 5755.00    0.86205   0.89484    0.000
 5756.00    0.85329   0.89548    0.000
 5757.00    0.84924   0.89574    0.000
 5758.00    0.84928   0.89554    0.000
 5759.00    0.85111   0.89517    0.000
 5760.00    0.85259   0.89482    0.000
 5761.00    0.85676   0.89454    0.000
 5762.00    0.86956   0.89522    0.000
 5763.00    0.88541   0.89774    0.000
 5764.00    0.88995   0.90064    0.000
 5765.00    0.88303   0.90292    0.000
 5766.00    0.87805   0.90501    0.000
 5767.00    0.88116   0.90668    0.000
 5768.00    0.88929   0.90723    0.000
 5769.00    0.89900   0.90675    0.000
 5770.00    0.90833   0.90551    0.000
 5771.00    0.91614   0.90386    0.000
 5772.00    0.92165   0.90226    0.000
 5773.00    0.92387   0.90019    0.000
 5774.00    0.92313   0.89757    0.000
 5775.00    0.92335   0.89472    0.000
 5776.00    0.92553   0.89096    0.000
 5777.00    0.91927   0.88624    0.000
 5778.00    0.89450   0.88140    0.000
 5779.00    0.85692   0.87613    0.000
 5780.00    0.82201   0.87060    0.000
 5781.00    0.80547   0.86694    0.000
 5782.00    0.81163   0.86564    0.000
 5783.00    0.82535   0.86516    0.000
 5784.00    0.83095   0.86572    0.000
 5785.00    0.82810   0.86860    0.000
 5786.00    0.82583   0.87269    0.000
 5787.00    0.83529   0.87651    0.000
 5788.00    0.85830   0.88034    0.000
 5789.00    0.88289   0.88386    0.000
 5790.00    0.90064   0.88688    0.000
 5791.00    0.91443   0.89000    0.000
 5792.00    0.92601   0.89256    0.000
 5793.00    0.93148   0.89431    0.000
 5794.00    0.93051   0.89634    0.000
 5795.00    0.92776   0.89849    0.000
 5796.00    0.92237   0.89958    0.000
 5797.00    0.90838   0.90065    0.000
 5798.00    0.89042   0.90267    0.000
 5799.00    0.88306   0.90410    0.000
 5800.00    0.89281   0.90426    0.000
 5801.00    0.91521   0.90440    0.000
 5802.00    0.94178   0.90441    0.000
 5803.00    0.96313   0.90335    0.000
 5804.00    0.97152   0.90214    0.000
 5805.00    0.96269   0.90165    0.000
 5806.00    0.93820   0.90162    0.000
 5807.00    0.90435   0.90145    0.000
 5808.00    0.86937   0.90150    0.000
 5809.00    0.84341   0.90199    0.000
 5810.00    0.83872   0.90221    0.000
 5811.00    0.86126   0.90175    0.000
 5812.00    0.89960   0.90128    0.000
 5813.00    0.93436   0.90128    0.000
 5814.00    0.95156   0.90121    0.000
 5815.00    0.94592   0.90127    0.000
 5816.00    0.92222   0.90251    0.000
 5817.00    0.89127   0.90464    0.000
 5818.00    0.86537   0.90643    0.000
 5819.00    0.85431   0.90800    0.000
 5820.00    0.86200   0.90980    0.000
 5821.00    0.88399   0.91121    0.000
 5822.00    0.90758   0.91184    0.000
 5823.00    0.92331   0.91228    0.000
 5824.00    0.93104   0.91284    0.000
 5825.00    0.93212   0.91305    0.000
 5826.00    0.92614   0.91289    0.000
 5827.00    0.91817   0.91279    0.000
 5828.00    0.91887   0.91276    0.000
 5829.00    0.92828   0.91231    0.000
 5830.00    0.93390   0.91140    0.000
 5831.00    0.93064   0.91073    0.000
 5832.00    0.92527   0.91021    0.000
 5833.00    0.92487   0.90925    0.000
 5834.00    0.93141   0.90841    0.000
 5835.00    0.93842   0.90859    0.000
 5836.00    0.93609   0.90898    0.000
 5837.00    0.92681   0.90894    0.000
 5838.00    0.92054   0.90939    0.000
 5839.00    0.91563   0.91027    0.000
 5840.00    0.90490   0.91057    0.000
 5841.00    0.89622   0.91010    0.000
 5842.00    0.90388   0.90922    0.000
 5843.00    0.92663   0.90771    0.000
 5844.00    0.95023   0.90556    0.000
 5845.00    0.95811   0.90291    0.000
 5846.00    0.94173   0.89986    0.000
 5847.00    0.91160   0.89665    0.000
 5848.00    0.88403   0.89312    0.000
 5849.00    0.86408   0.88916    0.000
 5850.00    0.85090   0.88526    0.000
 5851.00    0.84536   0.88116    0.000
 5852.00    0.85020   0.87636    0.000
 5853.00    0.86824   0.87219    0.000
 5854.00    0.89275   0.86954    0.000
 5855.00    0.90303   0.86722    0.000
 5856.00    0.88981   0.86508    0.000
 5857.00    0.87038   0.86485    0.000
 5858.00    0.86440   0.86643    0.000
 5859.00    0.87749   0.86853    0.000
 5860.00    0.90085   0.87116    0.000
 5861.00    0.91595   0.87382    0.000
 5862.00    0.91617   0.87637    0.000
 5863.00    0.91264   0.87932    0.000
 5864.00    0.91339   0.88208    0.000
 5865.00    0.91569   0.88379    0.000
 5866.00    0.91293   0.88541    0.000
 5867.00    0.90035   0.88763    0.000
 5868.00    0.88431   0.88924    0.000
 5869.00    0.87790   0.89001    0.000
 5870.00    0.87976   0.89052    0.000
 5871.00    0.87733   0.89040    0.000
 5872.00    0.87109   0.88935    0.000
 5873.00    0.87223   0.88794    0.000
 5874.00    0.88311   0.88618    0.000
 5875.00    0.89722   0.88363    0.000
 5876.00    0.90775   0.88083    0.000
 5877.00    0.91046   0.87831    0.000
 5878.00    0.90538   0.87530    0.000
 5879.00    0.89667   0.87131    0.000
 5880.00    0.89139   0.86695    0.000
 5881.00    0.89253   0.86158    0.000
 5882.00    0.89058   0.85374    0.000
 5883.00    0.87444   0.84369    0.000
 5884.00    0.84552   0.83128    0.000
 5885.00    0.81408   0.81583    0.000
 5886.00    0.79302   0.79957    0.000
 5887.00    0.78913   0.78405    0.000
 5888.00    0.79679   0.76795    0.000
 5889.00    0.80818   0.75467    0.000
 5890.00    0.82137   0.74822    0.000
 5891.00    0.83446   0.74461    0.000
 5892.00    0.84174   0.74297    0.000
 5893.00    0.83841   0.74690    0.000
 5894.00    0.82436   0.75285    0.000
 5895.00    0.80665   0.75958    0.000
 5896.00    0.79838   0.77181    0.000
 5897.00    0.80652   0.78667    0.000
 5898.00    0.82719   0.79961    0.000
 5899.00    0.85130   0.81316    0.000
 5900.00    0.86904   0.82755    0.000
 5901.00    0.87633   0.83904   30.761
 5902.00    0.87629   0.84774   27.557
 5903.00    0.87553   0.85533   27.716
 5904.00    0.87998   0.86087   28.774
 5905.00    0.88702   0.86423   28.887
 5906.00    0.88869   0.86681   28.480
 5907.00    0.88505   0.86881   28.148
 5908.00    0.88176   0.86934   28.110
 5909.00    0.87718   0.86887   28.524
 5910.00    0.86646   0.86828   29.318
 5911.00    0.85498   0.86737   29.650
 5912.00    0.85178   0.86575   28.724
 5913.00    0.85450   0.86426   27.461
 5914.00    0.85677   0.86387   27.042
 5915.00    0.86279   0.86413   27.262
 5916.00    0.87786   0.86504   27.347
 5917.00    0.89363   0.86644   27.030
 5918.00    0.89761   0.86806   26.511
 5919.00    0.88676   0.86998   26.134
 5920.00    0.86913   0.87156   26.115
 5921.00    0.86230   0.87250   26.366
 5922.00    0.87588   0.87327   26.572
 5923.00    0.89781   0.87371   26.338
 5924.00    0.91319   0.87353   25.832
 5925.00    0.91952   0.87287   25.967
 5926.00    0.91935   0.87188   26.890
 5927.00    0.91432   0.87109   27.158
 5928.00    0.90543   0.87035   26.352
 5929.00    0.89421   0.86933   26.307
 5930.00    0.88638   0.86909   27.657
 5931.00    0.89129   0.86982   28.602
 5932.00    0.90946   0.87041   28.018
 5933.00    0.92946   0.87060   27.240
 5934.00    0.94039   0.87144   27.109
 5935.00    0.93756   0.87287   27.247
 5936.00    0.92300   0.87345   27.159
 5937.00    0.90366   0.87345   26.705
 5938.00    0.88569   0.87395   26.256
 5939.00    0.87291   0.87408   26.317
 5940.00    0.86802   0.87342   26.554
 5941.00    0.87102   0.87315   26.119
 5942.00    0.87456   0.87326   25.237
 5943.00    0.86882   0.87283   24.800
 5944.00    0.85443   0.87200   25.014
 5945.00    0.84033   0.87129   25.536
 5946.00    0.83391   0.87058   25.944
 5947.00    0.83755   0.86923   25.969
 5948.00    0.84638   0.86740   25.791
 5949.00    0.85316   0.86652   25.740
 5950.00    0.85594   0.86637   25.818
 5951.00    0.85716   0.86542   25.861
 5952.00    0.86068   0.86450   25.841
 5953.00    0.86737   0.86519   25.891
 5954.00    0.87128   0.86626   26.260
 5955.00    0.86895   0.86669   26.972
 5956.00    0.86784   0.86783   27.467
 5957.00    0.87280   0.87000   27.302
 5958.00    0.87500   0.87208   26.918
 5959.00    0.86752   0.87405   26.951
 5960.00    0.85719   0.87615   27.676
 5961.00    0.85407   0.87782   28.722
 5962.00    0.86246   0.87904   28.884
 5963.00    0.87535   0.88025   27.859
 5964.00    0.87562   0.88090   26.980
 5965.00    0.85982   0.88122   26.976
 5966.00    0.84567   0.88208   27.440
 5967.00    0.84582   0.88273   27.799
 5968.00    0.85748   0.88276   27.752
 5969.00    0.87362   0.88274   27.241
 5970.00    0.88777   0.88231   26.453
 5971.00    0.89374   0.88082   25.857
 5972.00    0.88735   0.87880   25.951
 5973.00    0.87251   0.87659   26.660
 5974.00    0.85908   0.87396   27.369
 5975.00    0.85159   0.87131   27.683
 5976.00    0.84797   0.86924   27.644
 5977.00    0.84451   0.86756   27.381
 5978.00    0.83886   0.86616   26.979
 5979.00    0.83355   0.86494   26.468
 5980.00    0.83244   0.86357   25.872
 5981.00    0.83299   0.86256   25.288
 5982.00    0.83097   0.86166   24.899
 5983.00    0.83051   0.86042   24.982
 5984.00    0.83803   0.86023   25.634
 5985.00    0.85110   0.86134   26.317
 5986.00    0.86160   0.86229   26.394
 5987.00    0.86229   0.86335   26.168
 5988.00    0.85210   0.86547   26.260
 5989.00    0.84033   0.86767   26.742
 5990.00    0.83705   0.86880   27.339
 5991.00    0.84306   0.86978   27.721
 5992.00    0.85208   0.87094   27.823
 5993.00    0.85473   0.87113   28.041
 5994.00    0.84770   0.87043   28.446
 5995.00    0.83923   0.86964   28.282
 5996.00    0.83768   0.86860   27.401
 5997.00    0.84376   0.86724   26.874
 5998.00    0.85336   0.86577   27.110
 5999.00    0.86048   0.86444   27.269
 6000.00    0.86120   0.86338   26.945
 6001.00    0.85555   0.86187   26.818
 6002.00    0.84581   0.86014   27.118
 6003.00    0.83485   0.85897   27.240
 6004.00    0.82278   0.85759   27.079
 6005.00    0.80813   0.85629   27.248
 6006.00    0.79703   0.85568   27.745
 6007.00    0.80108   0.85500   27.837
 6008.00    0.82034   0.85471   27.457
 6009.00    0.84289   0.85513   27.257
 6010.00    0.85871   0.85549   27.419
 6011.00    0.86477   0.85535   27.613
 6012.00    0.86726   0.85475   27.609
 6013.00    0.87524   0.85447   27.456
 6014.00    0.88647   0.85429   27.505
 6015.00    0.89168   0.85307   28.035
 6016.00    0.88837   0.85169   28.600
 6017.00    0.88065   0.85144   28.516
 6018.00    0.87421   0.85110   28.123
 6019.00    0.87147   0.85027   28.101
 6020.00    0.86628   0.85052   28.262
 6021.00    0.85352   0.85216   28.170
 6022.00    0.84137   0.85381   28.090
 6023.00    0.84112   0.85550   28.481
 6024.00    0.85390   0.85869   29.322
 6025.00    0.87276   0.86227   29.995
 6026.00    0.88690   0.86496   29.380
 6027.00    0.88960   0.86802   27.603
 6028.00    0.88431   0.87147   26.515
 6029.00    0.87957   0.87403   26.824
 6030.00    0.88370   0.87589   27.205
 6031.00    0.89774   0.87779   26.751
 6032.00    0.91258   0.87925   26.517
 6033.00    0.91969   0.87985   27.005
 6034.00    0.91737   0.88008   27.114
 6035.00    0.90843   0.88006   26.441
 6036.00    0.89822   0.87967   26.126
 6037.00    0.89191   0.87908   26.611
 6038.00    0.89278   0.87837   27.141
 6039.00    0.90039   0.87801   27.286
 6040.00    0.91092   0.87801   27.417
 6041.00    0.92096   0.87801   27.588
 6042.00    0.92858   0.87856   27.403
 6043.00    0.93243   0.87962   27.027
 6044.00    0.93134   0.88033   27.040
 6045.00    0.92391   0.88081   27.300
 6046.00    0.91031   0.88151   27.179
 6047.00    0.89643   0.88165   26.907
 6048.00    0.89018   0.88084   27.199
 6049.00    0.89185   0.87984   27.915
 6050.00    0.89598   0.87869   28.343
 6051.00    0.89866   0.87681   28.427
 6052.00    0.89813   0.87467   28.622
 6053.00    0.89352   0.87315   29.065
 6054.00    0.88492   0.87186   29.561
 6055.00    0.87380   0.87061   29.762
 6056.00    0.86397   0.86997   29.160
 6057.00    0.86210   0.86964   27.284
 6058.00    0.87074   0.86903   24.708
 6059.00    0.88145   0.86836   22.947
 6060.00    0.88538   0.86751   22.531
 6061.00    0.88364   0.86604   22.608
 6062.00    0.88064   0.86511   22.425
 6063.00    0.87742   0.86512   22.381
 6064.00    0.87233   0.86505   22.907
 6065.00    0.86254   0.86618   23.683
 6066.00    0.84882   0.86900   24.377
 6067.00    0.83775   0.87183   25.221
 6068.00    0.83574   0.87457   26.208
 6069.00    0.84465   0.87745   26.591
 6070.00    0.85784   0.87961   26.241
 6071.00    0.86217   0.88062   26.139
 6072.00    0.85547   0.88063   26.755
 6073.00    0.84986   0.87962   27.622
 6074.00    0.85222   0.87743   28.254
 6075.00    0.85852   0.87460   28.640
 6076.00    0.86238   0.87172   29.256
 6077.00    0.85999   0.86823   30.484
 6078.00    0.85501   0.86470   30.560
 6079.00    0.85604   0.86241   27.561
 6080.00    0.86582   0.86042   25.257
 6081.00    0.88046   0.85830   26.447
 6082.00    0.89470   0.85737   24.143
 6083.00    0.90403   0.85724   15.494
 6084.00    0.90613   0.85696   10.695
 6085.00    0.90048   0.85678    9.611
 6086.00    0.88692   0.85690    9.633
 6087.00    0.86749   0.85733    8.994
 6088.00    0.84943   0.85760    9.051
 6089.00    0.84123   0.85752   12.405
 6090.00    0.84615   0.85819   22.787
 6091.00    0.85992   0.85941   30.975
 6092.00    0.86979   0.85993   25.869
 6093.00    0.86524   0.86055   24.036
 6094.00    0.84942   0.86148   25.866
 6095.00    0.83283   0.86114   27.748
 6096.00    0.82534   0.85991   28.261
 6097.00    0.83031   0.85836   28.052
 6098.00    0.84092   0.85517   27.934
 6099.00    0.84727   0.85167   28.279
 6100.00    0.84263   0.84959   28.914
 6101.00    0.82789   0.84711   29.527
 6102.00    0.81242   0.84529   29.974
 6103.00    0.80322   0.84635   30.234
 6104.00    0.79970   0.84818   30.364
 6105.00    0.80067   0.85030   30.498
 6106.00    0.80681   0.85347   30.721
 6107.00    0.81500   0.85637   30.525
 6108.00    0.81887   0.85891   29.054
 6109.00    0.82133   0.86128   26.793
 6110.00    0.83436   0.86264   25.020
 6111.00    0.86093   0.86328   24.077
 6112.00    0.89098   0.86340   23.711
 6113.00    0.90954   0.86287   23.965
 6114.00    0.90422   0.86149   25.103
 6115.00    0.87819   0.85880   26.757
 6116.00    0.84661   0.85577   27.858
 6117.00    0.82043   0.85247   28.176
 6118.00    0.80520   0.84794   28.140
 6119.00    0.80669   0.84437   -2.000
 6120.00    0.82689   0.84230   -2.000
 6121.00    0.85501   0.83991   -2.000
 6122.00    0.87412   0.83921   -2.000
 6123.00    0.87436   0.84090   -2.000
 6124.00    0.85744   0.84232   -2.000
 6125.00    0.83894   0.84403   -2.000
 6126.00    0.83694   0.84683   -2.000
 6127.00    0.85731   0.84878   -2.000
 6128.00    0.89204   0.84948   -2.000
 6129.00    0.92082   0.84962   -2.000
 6130.00    0.92646   0.84832   23.470
 6131.00    0.90905   0.84541   23.808
 6132.00    0.87946   0.84130   25.002
 6133.00    0.85168   0.83609   26.647
 6134.00    0.83459   0.83142   28.101
 6135.00    0.82719   0.82794   29.541
 6136.00    0.82612   0.82504   30.917
 6137.00    0.83031   0.82400   31.042
 6138.00    0.83771   0.82575   29.796
 6139.00    0.84427   0.82911   28.846
 6140.00    0.84886   0.83265   28.826
 6141.00    0.85409   0.83665   28.875
 6142.00    0.85877   0.84135   28.381
 6143.00    0.85717   0.84496   27.609
 6144.00    0.85000   0.84694   26.935
 6145.00    0.84536   0.84851   26.545
 6146.00    0.84705   0.84941   26.490
 6147.00    0.85162   0.84904   26.717
 6148.00    0.85219   0.84840   27.053
 6149.00    0.84264   0.84795   27.204
 6150.00    0.82493   0.84677   26.813
 6151.00    0.80780   0.84530   25.768
 6152.00    0.79895   0.84415   24.608
 6153.00    0.80086   0.84176   24.073
 6154.00    0.80667   0.83792   24.577
 6155.00    0.80685   0.83394   26.254
 6156.00    0.80258   0.82865   28.611
 6157.00    0.80028   0.82129   30.548
 6158.00    0.79966   0.81401   31.614
 6159.00    0.79640   0.80756   32.150
 6160.00    0.78873   0.80148   32.281
 6161.00    0.77885   0.79666   31.974
 6162.00    0.77314   0.79403   31.413
 6163.00    0.77657   0.79381   30.878
 6164.00    0.78704   0.79500   30.575
 6165.00    0.79885   0.79614   30.435
 6166.00    0.80697   0.79847   30.017
 6167.00    0.80965   0.80229   29.136
 6168.00    0.80996   0.80495   28.234
 6169.00    0.81173   0.80708   27.668
 6170.00    0.81639   0.81108   27.373
 6171.00    0.82277   0.81518   27.264
 6172.00    0.82762   0.81801   27.423
 6173.00    0.82882   0.82146   27.857
 6174.00    0.82715   0.82573   28.345
 6175.00    0.82627   0.82878   28.426
 6176.00    0.83083   0.83091   27.640
 6177.00    0.83885   0.83383   26.345
 6178.00    0.84197   0.83625   25.500
 6179.00    0.83968   0.83713   25.612
 6180.00    0.84018   0.83806   26.670
 6181.00    0.84453   0.83866   28.056
 6182.00    0.84567   0.83756   28.510
 6183.00    0.84176   0.83571   27.524
 6184.00    0.83726   0.83329   25.908
 6185.00    0.83484   0.83006   24.885
 6186.00    0.83450   0.82660   25.255
 6187.00    0.83659   0.82254   26.604
 6188.00    0.84070   0.81942   27.716
 6189.00    0.84229   0.81822   28.521
 6190.00    0.83714   0.81699   29.803
 6191.00    0.83000   0.81695   30.907
 6192.00    0.82876   0.81934   30.515
 6193.00    0.83313   0.82172   29.423
 6194.00    0.83731   0.82383   29.067
 6195.00    0.83636   0.82635   29.412
 6196.00    0.82960   0.82841   29.691
 6197.00    0.82308   0.82995   29.352
 6198.00    0.82319   0.83119   28.481
 6199.00    0.82969   0.83223   27.859
 6200.00    0.83757   0.83353   27.940
 6201.00    0.84000   0.83501   28.247
 6202.00    0.83293   0.83641   28.258
 6203.00    0.81865   0.83759   28.165
 6204.00    0.80428   0.83847   28.306
 6205.00    0.79923   0.83876   28.689
 6206.00    0.80587   0.83778   29.015
 6207.00    0.81591   0.83582   28.827
 6208.00    0.82333   0.83320   28.381
 6209.00    0.82987   0.82912   28.721
 6210.00    0.83463   0.82442   30.153
 6211.00    0.83120   0.82001   31.661
 6212.00    0.81889   0.81516   32.188
 6213.00    0.80507   0.81099   31.742
 6214.00    0.79489   0.80820   31.170
 6215.00    0.78868   0.80578   31.378
 6216.00    0.78699   0.80448   32.083
 6217.00    0.79117   0.80455   32.037
 6218.00    0.79997   0.80495   31.284
 6219.00    0.80932   0.80576   30.948
 6220.00    0.81444   0.80697   31.005
 6221.00    0.81265   0.80825   30.645
 6222.00    0.80824   0.80919   30.063
 6223.00    0.80861   0.80918   29.973
 6224.00    0.81445   0.80893   30.076
 6225.00    0.82019   0.80814   29.670
 6226.00    0.81858   0.80579   29.133
 6227.00    0.80638   0.80366   29.250
 6228.00    0.79141   0.80236   30.031
 6229.00    0.78431   0.80048   30.901
 6230.00    0.78620   0.79977   31.139
 6231.00    0.79220   0.80097   30.533
 6232.00    0.79769   0.80196   29.918
 6233.00    0.80032   0.80313   30.062
 6234.00    0.80088   0.80503   30.793
 6235.00    0.80119   0.80576   31.491
 6236.00    0.80181   0.80495   31.623
 6237.00    0.80194   0.80420   31.194
 6238.00    0.79984   0.80270   30.887
 6239.00    0.79601   0.79964   31.062
 6240.00    0.79449   0.79762   31.273
 6241.00    0.79594   0.79644   31.179
 6242.00    0.79471   0.79435   31.058
 6243.00    0.78744   0.79374   31.056
 6244.00    0.77711   0.79470   30.901
 6245.00    0.76838   0.79475   30.620
 6246.00    0.76497   0.79529   30.645
 6247.00    0.76870   0.79653   30.833
 6248.00    0.77869   0.79622   30.417
 6249.00    0.78992   0.79513   29.509
 6250.00    0.79538   0.79396   29.010
 6251.00    0.79481   0.79153   28.951
 6252.00    0.79419   0.78875   28.677
 6253.00    0.79534   0.78678   28.461
 6254.00    0.79565   0.78491   29.191
 6255.00    0.79491   0.78392   30.561
 6256.00    0.79510   0.78486   31.234
 6257.00    0.79597   0.78636   31.183
 6258.00    0.79586   0.78872   31.464
 6259.00    0.79510   0.79295   32.047
 6260.00    0.79492   0.79691   32.226
 6261.00    0.79437   0.80021   32.222
 6262.00    0.79171   0.80428   32.641
 6263.00    0.78730   0.80760   33.183
 6264.00    0.78309   0.80937   33.232
 6265.00    0.78126   0.81123   33.034
 6266.00    0.78334   0.81300   32.948
 6267.00    0.78934   0.81383   32.477
 6268.00    0.79760   0.81466   31.443
 6269.00    0.80497   0.81588   30.905
 6270.00    0.80893   0.81666   30.886
 6271.00    0.80951   0.81727   29.074
 6272.00    0.80940   0.81800   25.274
 6273.00    0.81304   0.81805   22.281
 6274.00    0.82018   0.81771   21.072
 6275.00    0.82295   0.81732   21.040
 6276.00    0.81662   0.81624   21.317
 6277.00    0.80521   0.81521   21.111
 6278.00    0.79302   0.81465   20.886
 6279.00    0.78079   0.81407   22.420
 6280.00    0.77083   0.81433    0.000
 6281.00    0.76798   0.81535    0.000
 6282.00    0.77314   0.81669    0.000
 6283.00    0.78122   0.81867    0.000
 6284.00    0.78443   0.82071    0.000
 6285.00    0.77729   0.82253    0.000
 6286.00    0.76840   0.82402    0.000
 6287.00    0.77519   0.82476    0.000
 6288.00    0.79825   0.82494    0.000
 6289.00    0.82145   0.82423    0.000
 6290.00    0.83144   0.82278    0.000
 6291.00    0.82439   0.82118    0.000
 6292.00    0.80917   0.81884    0.000
 6293.00    0.79932   0.81615    0.000
 6294.00    0.79651   0.81378    0.000
 6295.00    0.79559   0.81117    0.000
 6296.00    0.79860   0.80863    0.000
 6297.00    0.80981   0.80673    0.000
 6298.00    0.82505   0.80524    0.000
 6299.00    0.83720   0.80451    0.000
 6300.00    0.84545   0.80475    0.000
 6301.00    0.85185   0.80559    0.000
 6302.00    0.85628   0.80733    0.000
 6303.00    0.85827   0.80993    0.000
 6304.00    0.85930   0.81238    0.000
 6305.00    0.85963   0.81459    0.000
 6306.00    0.85598   0.81681    0.000
 6307.00    0.84730   0.81796    0.000
 6308.00    0.83847   0.81775    0.000
 6309.00    0.83227   0.81724    0.000
 6310.00    0.82468   0.81569    0.000
 6311.00    0.81242   0.81280    0.000
 6312.00    0.79767   0.81043    0.000
 6313.00    0.78654   0.80810    0.000
 6314.00    0.78650   0.80498    0.000
 6315.00    0.79886   0.80334    0.000
 6316.00    0.81659   0.80307    0.000
 6317.00    0.83072   0.80263    0.000
 6318.00    0.83443   0.80359    0.000
 6319.00    0.82746   0.80617    0.000
 6320.00    0.81568   0.80872    0.000
 6321.00    0.80409   0.81151   27.163
 6322.00    0.79536   0.81489   26.691
 6323.00    0.79219   0.81777   26.711
 6324.00    0.79683   0.81999   26.956
 6325.00    0.80844   0.82197   27.335
 6326.00    0.82308   0.82302   28.002
 6327.00    0.83547   0.82333   28.908
 6328.00    0.84125   0.82324   29.748
 6329.00    0.84054   0.82216   30.189
 6330.00    0.83553   0.82060   30.149
 6331.00    0.82561   0.81862   30.103
 6332.00    0.81003   0.81608   30.618
 6333.00    0.79283   0.81388   31.666
 6334.00    0.77952   0.81178   32.757
 6335.00    0.77182   0.80982   33.286
 6336.00    0.77016   0.80902   33.017
 6337.00    0.77684   0.80876   32.479
 6338.00    0.79187   0.80849   32.027
 6339.00    0.80881   0.80885   31.132
 6340.00    0.82041   0.80922   29.840
 6341.00    0.82404   0.80940   29.464
 6342.00    0.82179   0.80972   30.458
 6343.00    0.81935   0.80981   31.212
 6344.00    0.82022   0.81046   30.511
 6345.00    0.82249   0.81160   29.538
 6346.00    0.82467   0.81242   28.830
 6347.00    0.82815   0.81373   27.306
 6348.00    0.83034   0.81515   25.123
 6349.00    0.82328   0.81565   23.748
 6350.00    0.80485   0.81555   23.558
 6351.00    0.78275   0.81471   23.936
 6352.00    0.76776   0.81292   24.743
 6353.00    0.76836   0.81038   26.605
 6354.00    0.78230   0.80699   29.531
 6355.00    0.79788   0.80340   32.002
 6356.00    0.80795   0.80006   32.729
 6357.00    0.81243   0.79653   32.183
 6358.00    0.81245   0.79349   31.145
 6359.00    0.80918   0.79179   30.061
 6360.00    0.80522   0.79084   29.374
 6361.00    0.80342   0.79073   29.385
 6362.00    0.80348   0.79209   29.818
 6363.00    0.80358   0.79438   30.156
 6364.00    0.80459   0.79717   30.534
 6365.00    0.80986   0.80047   31.075
 6366.00    0.82329   0.80391   30.438
 6367.00    0.84344   0.80721   27.797
 6368.00    0.85630   0.81031   25.124
 6369.00    0.84813   0.81307   23.849
 6370.00    0.82289   0.81538   23.475
 6371.00    0.79502   0.81734   23.405
 6372.00    0.77834   0.81890   24.172
 6373.00    0.78072   0.81981   26.226
 6374.00    0.80011   0.82006   28.171
 6375.00    0.82586   0.81998   28.099
 6376.00    0.84171   0.81947   26.784
 6377.00    0.83773   0.81839   25.644
 6378.00    0.81827   0.81744   24.900
 6379.00    0.79324   0.81684   24.557
 6380.00    0.77142   0.81608   24.893
 6381.00    0.75989   0.81579   26.009
 6382.00    0.76295   0.81611   27.542
 6383.00    0.77751   0.81625   28.975
 6384.00    0.79292   0.81644   29.962
 6385.00    0.80189   0.81679   30.399
 6386.00    0.80473   0.81652   30.465
 6387.00    0.80523   0.81577   30.534
 6388.00    0.80745   0.81491   30.865
 6389.00    0.81082   0.81329   30.679
 6390.00    0.81053   0.81152   28.841
 6391.00    0.80399   0.81029   26.602
 6392.00    0.79296   0.80870   25.836
 6393.00    0.78350   0.80739   26.063
 6394.00    0.78223   0.80726   25.589
 6395.00    0.78802   0.80686   24.784
 6396.00    0.79409   0.80626   25.213
 6397.00    0.79706   0.80695   26.884
 6398.00    0.79791   0.80769   28.492
 6399.00    0.79994   0.80777   29.245
 6400.00    0.80608   0.80913   29.422
 6401.00    0.81517   0.81071   29.698
 6402.00    0.82312   0.81127   30.522
 6403.00    0.82564   0.81222   31.554
 6404.00    0.82123   0.81269   32.144
 6405.00    0.81399   0.81230   32.328
 6406.00    0.80859   0.81196   32.469
 6407.00    0.80444   0.81083   32.557
 6408.00    0.79977   0.80990   32.491
 6409.00    0.79608   0.80971   32.403
 6410.00    0.79544   0.80875   32.286
 6411.00    0.79786   0.80837   31.756
 6412.00    0.80088   0.80894   30.937
 6413.00    0.80013   0.80857   30.757
 6414.00    0.79451   0.80826   31.295
 6415.00    0.78880   0.80861   31.057
 6416.00    0.78881   0.80827   29.478
 6417.00    0.79773   0.80798   27.935
 6418.00    0.81369   0.80852   27.180
 6419.00    0.82971   0.80931   26.906
 6420.00    0.83902   0.81042   26.959
 6421.00    0.83814   0.81228   27.587
 6422.00    0.82871   0.81455   28.694
 6423.00    0.81666   0.81631   29.638
 6424.00    0.80678   0.81762   30.197
 6425.00    0.80095   0.81862   30.822
 6426.00    0.79858   0.81841   31.628
 6427.00    0.79778   0.81730   32.219
 6428.00    0.79794   0.81621   32.446
 6429.00    0.79999   0.81467   32.565
 6430.00    0.80518   0.81306   32.915
 6431.00    0.81439   0.81223   33.459
 6432.00    0.82708   0.81147   32.999
 6433.00    0.84056   0.81096   30.538
 6434.00    0.84921   0.81093   27.526
 6435.00    0.84876   0.81070   25.559
 6436.00    0.84322   0.81104   24.795
 6437.00    0.83922   0.81182   24.673
 6438.00    0.83671   0.81249   24.150
 6439.00    0.83300   0.81425   23.033
 6440.00    0.82935   0.81633   23.102
 6441.00    0.82813   0.81772   25.787
 6442.00    0.82871   0.81908   29.567
 6443.00    0.82909   0.81962   30.769
 6444.00    0.82764   0.81877   30.203
 6445.00    0.82273   0.81685   30.333
 6446.00    0.81253   0.81400   30.555
 6447.00    0.79778   0.81110   29.956
 6448.00    0.78343   0.80803   29.425
 6449.00    0.77499   0.80515   29.740
 6450.00    0.77568   0.80401   30.557
 6451.00    0.78427   0.80343   31.174
 6452.00    0.79468   0.80306   31.143
 6453.00    0.80017   0.80419   30.898
 6454.00    0.79670   0.80540   31.553
 6455.00    0.78808   0.80592   33.052
 6456.00    0.78489   0.80683   33.626
 6457.00    0.79101   0.80752   32.788
 6458.00    0.80049   0.80708   32.128
 6459.00    0.80605   0.80665   32.185
 6460.00    0.80406   0.80678   32.163
 6461.00    0.80003   0.80630   31.582
 6462.00    0.80443   0.80620   30.654
 6463.00    0.81737   0.80756   29.775
 6464.00    0.82923   0.80863   29.261
 6465.00    0.83235   0.80960   29.172
 6466.00    0.82516   0.81144   29.425
 6467.00    0.81420   0.81263   30.007
 6468.00    0.80917   0.81292   30.761
 6469.00    0.81294   0.81355   30.915
 6470.00    0.82199   0.81378   30.108
 6471.00    0.83010   0.81329   29.945
 6472.00    0.83156   0.81334   31.547
 6473.00    0.82479   0.81334   32.097
 6474.00    0.81139   0.81269   29.909
 6475.00    0.79453   0.81225   31.010
 6476.00    0.77949   0.81173   34.770
 6477.00    0.77374   0.81039   31.912
 6478.00    0.77974   0.80888   17.726
 6479.00    0.78886   0.80767   12.457
 6480.00    0.79139   0.80621   11.890
 6481.00    0.78556   0.80476   12.849
 6482.00    0.77681   0.80403   13.196
 6483.00    0.77512   0.80345   12.822
 6484.00    0.78491   0.80244   12.536
 6485.00    0.79991   0.80119   12.608
 6486.00    0.81249   0.79916   12.646
 6487.00    0.81933   0.79555   11.932
 6488.00    0.82026   0.79056   11.402
 6489.00    0.81698   0.78436   13.459
 6490.00    0.81002   0.77680   21.672
 6491.00    0.79857   0.76912   34.770
 6492.00    0.78466   0.76212   33.971
 6493.00    0.77342   0.75588   29.586
 6494.00    0.76798   0.75224   30.491
 6495.00    0.76799   0.75131   32.375
 6496.00    0.77085   0.75234   32.323
 6497.00    0.77274   0.75646   31.892
 6498.00    0.77044   0.76232   32.198
 6499.00    0.76327   0.76891   32.925
 6500.00    0.75632   0.77651   33.452
 6501.00    0.75759   0.78350   33.311
 6502.00    0.77024   0.78967   32.682
 6503.00    0.79136   0.79520   32.021
 6504.00    0.81268   0.79922   31.309
 6505.00    0.82553   0.80211   30.479
 6506.00    0.82838   0.80420   30.064
 6507.00    0.82657   0.80518   30.364
 6508.00    0.82944   0.80543   30.367
 6509.00    0.84110   0.80516   29.271
 6510.00    0.85052   0.80425   28.365
 6511.00    0.84565   0.80290   28.813
 6512.00    0.82930   0.80127   29.963
 6513.00    0.81135   0.79965   30.661
 6514.00    0.79922   0.79804   30.912
 6515.00    0.79528   0.79663   31.202
 6516.00    0.79594   0.79612   31.578
 6517.00    0.79660   0.79600   31.876
 6518.00    0.79552   0.79619   31.982
 6519.00    0.79375   0.79728   31.881
 6520.00    0.79429   0.79831   31.664
 6521.00    0.79815   0.79907   31.496
 6522.00    0.80279   0.79992   31.548
 6523.00    0.80546   0.80024   31.787
 6524.00    0.80528   0.80013   31.929
 6525.00    0.80420   0.79976   31.726
 6526.00    0.80556   0.79907   31.149
 6527.00    0.80746   0.79840   30.447
 6528.00    0.80306   0.79765    0.000
 6529.00    0.79064   0.79689    0.000
 6530.00    0.77561   0.79640    0.000
 6531.00    0.76558   0.79607    0.000
 6532.00    0.76636   0.79584    0.000
 6533.00    0.77586   0.79574    0.000
 6534.00    0.78605   0.79576    0.000
 6535.00    0.79142   0.79568    0.000
 6536.00    0.79044   0.79523    0.000
 6537.00    0.78463   0.79442    0.000
 6538.00    0.77730   0.79313    0.000
 6539.00    0.77194   0.79101    0.000
 6540.00    0.77253   0.78822    0.000
 6541.00    0.78438   0.78504    0.000
 6542.00    0.81068   0.78125    0.000
 6543.00    0.84784   0.77733    0.000
 6544.00    0.88924   0.77353    0.000
 6545.00    0.93019   0.76955    0.000
 6546.00    0.96411   0.76597    0.000
 6547.00    0.97868   0.76247    0.000
 6548.00    0.96607   0.75838    0.000
 6549.00    0.93227   0.75411    0.000
 6550.00    0.88974   0.74909    0.000
 6551.00    0.84989   0.74288    0.000
 6552.00    0.81825   0.73559    0.000
 6553.00    0.79303   0.72666    0.000
 6554.00    0.77698   0.71627    0.000
 6555.00    0.78430   0.70454    0.000
 6556.00    0.83501   0.69102    0.000
 6557.00    0.94871   0.67695    0.000
 6558.00    1.13096   0.66324    0.000
 6559.00    1.36493   0.65039    0.000
 6560.00    1.60514   0.64099    0.000
 6561.00    1.78396   0.63544    0.000
 6562.00    1.84614   0.63399    0.000
 6563.00    1.76772   0.63907    0.000
 6564.00    1.57264   0.64788    0.000
 6565.00    1.32472   0.65853    0.000
 6566.00    1.08821   0.67268    0.000
 6567.00    0.90931   0.68685    0.000
 6568.00    0.80126   0.69863    0.000
 6569.00    0.75028   0.70985    0.000
 6570.00    0.73814   0.71970    0.000
 6571.00    0.74755   0.72713    0.000
 6572.00    0.76244   0.73380    0.000
 6573.00    0.77173   0.74009    0.000
 6574.00    0.77591   0.74546    0.000
 6575.00    0.78347   0.75064    0.000
 6576.00    0.80363   0.75565    0.000
 6577.00    0.84533   0.75995    0.000
 6578.00    0.91703   0.76388    0.000
 6579.00    1.02218   0.76731    0.000
 6580.00    1.15336   0.76988    0.000
 6581.00    1.28687   0.77216    0.000
 6582.00    1.38018   0.77402    0.000
 6583.00    1.39726   0.77515    0.000
 6584.00    1.33221   0.77616    0.000
 6585.00    1.20504   0.77669    0.000
 6586.00    1.05395   0.77651    0.000
 6587.00    0.91697   0.77593    0.000
 6588.00    0.81828   0.77480    0.000
 6589.00    0.76528   0.77325    0.000
 6590.00    0.74900   0.77176    0.000
 6591.00    0.75382   0.77052    0.000
 6592.00    0.76459   0.76949    0.000
 6593.00    0.77350   0.76957    0.000
 6594.00    0.78177   0.77062    0.000
 6595.00    0.79215   0.77182    0.000
 6596.00    0.80501   0.77398    0.000
 6597.00    0.81656   0.77668    0.000
 6598.00    0.82036   0.77876    0.000
 6599.00    0.81443   0.78064    0.000
 6600.00    0.80258   0.78206    0.000
 6601.00    0.79110   0.78262    0.000
 6602.00    0.78551   0.78268    0.000
 6603.00    0.78496   0.78216    0.000
 6604.00    0.78432   0.78127    0.000
 6605.00    0.78205   0.78047    0.000
 6606.00    0.77988   0.77986    0.000
 6607.00    0.77859   0.77968    0.000
 6608.00    0.77810   0.77998    0.000
 6609.00    0.77903   0.78098   34.416
 6610.00    0.78187   0.78247   33.484
 6611.00    0.78557   0.78401   32.151
 6612.00    0.78995   0.78584   31.491
 6613.00    0.79887   0.78774   31.368
 6614.00    0.81372   0.78935   31.311
 6615.00    0.82603   0.79052   31.425
 6616.00    0.82739   0.79129   31.641
 6617.00    0.82018   0.79183   30.982
 6618.00    0.81099   0.79178   29.403
 6619.00    0.80334   0.79113   28.705
 6620.00    0.79687   0.79026   29.597
 6621.00    0.78804   0.78902   30.271
 6622.00    0.77612   0.78756   29.484
 6623.00    0.76654   0.78606   28.982
 6624.00    0.76426   0.78441   29.938
 6625.00    0.76941   0.78296   31.415
 6626.00    0.77821   0.78153   32.308
 6627.00    0.78468   0.77986   32.747
 6628.00    0.78567   0.77855   32.982
 6629.00    0.78280   0.77733   32.770
 6630.00    0.78019   0.77594   32.147
 6631.00    0.78206   0.77512   31.519
 6632.00    0.78801   0.77472   30.808
 6633.00    0.79305   0.77451   29.463
 6634.00    0.79387   0.77496   27.260
 6635.00    0.78951   0.77570   24.623
 6636.00    0.77757   0.77638   22.472
 6637.00    0.75726   0.77715   21.407
 6638.00    0.73987   0.77780   21.045
 6639.00    0.74228   0.77807   20.628
 6640.00    0.76666   0.77811   20.061
 6641.00    0.80084   0.77813   19.702
 6642.00    0.82845   0.77790   19.718
 6643.00    0.83750   0.77794   20.120
 6644.00    0.83108   0.77844   20.949
 6645.00    0.82000   0.77861   22.309
 6646.00    0.80898   0.77894   24.352
 6647.00    0.79708   0.77973   26.960
 6648.00    0.78146   0.78021   28.916
 6649.00    0.76303   0.78042   29.040
 6650.00    0.75157   0.78055   28.741
 6651.00    0.75504   0.78049   29.553
 6652.00    0.76852   0.78026   30.619
 6653.00    0.78186   0.77969   30.726
 6654.00    0.78809   0.77893   30.769
 6655.00    0.78643   0.77804   31.546
 6656.00    0.78312   0.77682   31.890
 6657.00    0.78341   0.77532   30.899
 6658.00    0.78631   0.77376   29.622
 6659.00    0.78793   0.77208   29.046
 6660.00    0.78480   0.77042   29.237
 6661.00    0.77858   0.76922   29.709
 6662.00    0.77658   0.76819   29.671
 6663.00    0.78177   0.76781   29.120
 6664.00    0.78998   0.76829   28.978
 6665.00    0.79936   0.76886   29.524
 6666.00    0.81303   0.76998   29.984
 6667.00    0.83325   0.77163   29.234
 6668.00    0.85747   0.77285   26.783
 6669.00    0.87291   0.77373   23.630
 6670.00    0.86241   0.77437   21.038
 6671.00    0.82545   0.77407   19.440
 6672.00    0.77868   0.77306   18.850
 6673.00    0.74152   0.77180   19.192
 6674.00    0.72947   0.76993   20.316
 6675.00    0.74794   0.76802   21.678
 6676.00    0.79009   0.76655   22.296
 6677.00    0.83607   0.76543   21.692
 6678.00    0.86462   0.76537   20.435
 6679.00    0.87272   0.76592   19.652
 6680.00    0.87145   0.76668   20.044
 6681.00    0.87424   0.76843   21.243
 6682.00    0.88783   0.77044   22.274
 6683.00    0.90363   0.77198   -1.000
 6684.00    0.90852   0.77340   -1.000
 6685.00    0.89878   0.77459   22.726
 6686.00    0.87884   0.77536   23.424
 6687.00    0.85765   0.77567   24.374
 6688.00    0.84164   0.77571   25.027
 6689.00    0.82905   0.77537   25.289
 6690.00    0.81390   0.77456   25.510
 6691.00    0.79076   0.77370   26.226
 6692.00    0.76367   0.77262   27.379
 6693.00    0.74900   0.77139   27.753
 6694.00    0.75460   0.77039   26.749
 6695.00    0.76995   0.76941   25.454
 6696.00    0.78417   0.76884    0.000
 6697.00    0.79517   0.76856    0.000
 6698.00    0.80338   0.76823    0.000
 6699.00    0.80847   0.76837    0.000
 6700.00    0.80929   0.76856    0.000
 6701.00    0.80433   0.76850    0.000
 6702.00    0.79345   0.76860    0.000
 6703.00    0.77908   0.76852    0.000
 6704.00    0.76784   0.76821    0.000
 6705.00    0.76755   0.76794    0.000
 6706.00    0.77769   0.76739    0.000
 6707.00    0.79105   0.76655    0.000
 6708.00    0.80449   0.76566    0.000
 6709.00    0.81879   0.76422    0.000
 6710.00    0.83239   0.76239    0.000
 6711.00    0.84627   0.76040    0.000
 6712.00    0.87508   0.75806    0.000
 6713.00    0.93014   0.75602    0.000
 6714.00    0.98874   0.75423    0.000
 6715.00    1.01990   0.75272    0.000
 6716.00    1.02845   0.75197    0.000
 6717.00    1.03087   0.75201    0.000
 6718.00    1.01695   0.75279    0.000
 6719.00    0.97161   0.75382    0.000
 6720.00    0.90457   0.75515    0.000
 6721.00    0.83797   0.75706    0.000
 6722.00    0.78993   0.75880    0.000
 6723.00    0.77032   0.76006    0.000
 6724.00    0.77871   0.76126    0.000
 6725.00    0.80719   0.76233    0.000
 6726.00    0.84388   0.76323    0.000
 6727.00    0.88063   0.76385    0.000
 6728.00    0.91648   0.76419    0.000
 6729.00    0.94662   0.76455    0.000
 6730.00    0.95814   0.76476    0.000
 6731.00    0.94502   0.76462    0.000
 6732.00    0.91460   0.76422    0.000
 6733.00    0.87852   0.76369    0.000
 6734.00    0.84696   0.76294    0.000
 6735.00    0.82395   0.76202    0.000
 6736.00    0.80693   0.76095    0.000
 6737.00    0.79225   0.75974    0.000
 6738.00    0.77790   0.75877    0.000
 6739.00    0.76540   0.75771    0.000
 6740.00    0.75854   0.75659    0.000
 6741.00    0.75839   0.75567    0.000
 6742.00    0.76228   0.75479    0.000
 6743.00    0.76503   0.75413    0.000
 6744.00    0.76200   0.75334    0.000
 6745.00    0.75486   0.75256    0.000
 6746.00    0.74905   0.75209    0.000
 6747.00    0.74678   0.75161    0.000
 6748.00    0.74763   0.75152    0.000
 6749.00    0.75192   0.75156    0.000
 6750.00    0.75966   0.75199    0.000
 6751.00    0.76827   0.75300    0.000
 6752.00    0.77455   0.75402    0.000
 6753.00    0.77743   0.75570   22.297
 6754.00    0.77566   0.75755   20.564
 6755.00    0.76533   0.75913   20.104
 6756.00    0.74665   0.76089   21.330
 6757.00    0.72980   0.76242   23.801
 6758.00    0.72370   0.76342   26.504
 6759.00    0.72630   0.76402   28.704
 6760.00    0.73268   0.76420   29.853
 6761.00    0.74151   0.76365   29.358
 6762.00    0.75137   0.76282   27.995
 6763.00    0.75866   0.76181   27.712
 6764.00    0.76280   0.76037   28.777
 6765.00    0.76791   0.75904   28.974
 6766.00    0.77457   0.75800   27.593
 6767.00    0.77722   0.75733   26.910
 6768.00    0.77320   0.75719   27.751
 6769.00    0.76617   0.75740   28.757
 6770.00    0.76201   0.75811   28.820
 6771.00    0.76521   0.75949   28.245
 6772.00    0.77239   0.76096   27.414
 6773.00    0.77455   0.76229   26.410
 6774.00    0.77114   0.76355   25.632
 6775.00    0.76958   0.76444   25.630
 6776.00    0.77140   0.76478   26.501
 6777.00    0.77163   0.76438   27.831
 6778.00    0.76703   0.76339   28.726
 6779.00    0.75820   0.76194   28.187
 6780.00    0.74976   0.76004   26.277
 6781.00    0.74614   0.75814   24.075
 6782.00    0.74431   0.75639   22.783
 6783.00    0.73852   0.75481   22.934
 6784.00    0.73023   0.75376   23.806
 6785.00    0.72554   0.75317   24.347
 6786.00    0.72884   0.75298   25.084
 6787.00    0.74048   0.75312   27.026
 6788.00    0.75529   0.75341   29.177
 6789.00    0.76693   0.75375   29.503
 6790.00    0.77281   0.75396   28.523
 6791.00    0.77247   0.75416   27.978
 6792.00    0.76575   0.75414   28.632
 6793.00    0.75621   0.75417   30.243
 6794.00    0.75287   0.75446   31.227
 6795.00    0.75902   0.75459   30.574
 6796.00    0.76534   0.75492   29.752
 6797.00    0.76380   0.75542   29.829
 6798.00    0.75629   0.75575   30.161
 6799.00    0.74621   0.75626   30.056
 6800.00    0.73409   0.75655   29.695
 6801.00    0.72240   0.75649   29.292
 6802.00    0.71664   0.75656   28.744
 6803.00    0.71747   0.75628   28.160
 6804.00    0.71915   0.75579   27.881
 6805.00    0.71830   0.75546   27.836
 6806.00    0.71606   0.75482   27.568
 6807.00    0.71307   0.75440   27.165
 6808.00    0.70855   0.75406   27.210
 6809.00    0.70377   0.75347   27.817
 6810.00    0.70193   0.75342   28.577
 6811.00    0.70515   0.75342   29.187
 6812.00    0.71384   0.75322   29.522
 6813.00    0.72728   0.75337   29.237
 6814.00    0.74237   0.75362   28.159
 6815.00    0.75094   0.75398   27.072
 6816.00    0.74595   0.75441   26.874
 6817.00    0.73356   0.75473   27.509
 6818.00    0.72630   0.75526   28.374
 6819.00    0.72866   0.75588   29.031
 6820.00    0.73814   0.75635   29.284
 6821.00    0.75038   0.75662   29.073
 6822.00    0.76112   0.75664   28.584
 6823.00    0.76766   0.75673   28.295
 6824.00    0.76783   0.75672   28.441
 6825.00    0.75889   0.75643   28.555
 6826.00    0.74098   0.75609   28.356
 6827.00    0.72011   0.75574   28.561
 6828.00    0.70454   0.75560   29.655
 6829.00    0.70087   0.75546   30.826
 6830.00    0.71006   0.75510   31.129
 6831.00    0.72576   0.75474   30.843
 6832.00    0.74221   0.75430   30.562
 6833.00    0.75855   0.75338   30.423
 6834.00    0.77232   0.75203   30.481
 6835.00    0.77706   0.75025   30.874
 6836.00    0.77085   0.74823   31.499
 6837.00    0.75912   0.74636   31.865
 6838.00    0.74637   0.74447   31.552
 6839.00    0.73339   0.74298   30.517
 6840.00    0.72170   0.74211   29.068
 6841.00    0.71461   0.74184   27.682
 6842.00    0.71419   0.74241   26.839
 6843.00    0.71977   0.74336   26.834
 6844.00    0.72695   0.74460   27.235
 6845.00    0.73076   0.74608   27.123
 6846.00    0.73462   0.74738   26.490
 6847.00    0.74636   0.74840   26.071
 6848.00    0.76310   0.74880   26.070
 6849.00    0.77429   0.74851   26.194
 6850.00    0.77525   0.74804   26.127
 6851.00    0.76685   0.74708   25.914
 6852.00    0.74978   0.74565   26.385
 6853.00    0.72958   0.74436   28.007
 6854.00    0.72462   0.74299   28.502
 6855.00    0.73651   0.74183   26.686
 6856.00    0.71215   0.74108   28.158
 6857.00    0.62520   0.74045   -1.000
 6858.00    0.57318   0.74038   -1.000
 6859.00    0.63711   0.74068   20.259
 6860.00    0.72814   0.74097   13.666
 6861.00    0.74243   0.74155   12.930
 6862.00    0.71558   0.74211   14.028
 6863.00    0.71125   0.74239   14.270
 6864.00    0.72047   0.74260   13.851
 6865.00    0.71913   0.74273   13.837
 6866.00    0.71378   0.74270   14.024
 6867.00    0.71514   0.74259   14.007
 6868.00    0.72010   0.74244   13.881
 6869.00    0.72331   0.74230   13.818
 6870.00    0.72415   0.74240   13.812
 6871.00    0.72406   0.74271   13.814
 6872.00    0.72496   0.74323   13.793
 6873.00    0.72956   0.74382   13.706
 6874.00    0.74000   0.74423   13.514
 6875.00    0.75182   0.74471   13.301
 6876.00    0.75531   0.74510   13.239
 6877.00    0.74846   0.74527   13.361
 6878.00    0.73812   0.74527   13.548
 6879.00    0.72967   0.74516   13.705
 6880.00    0.72470   0.74503   13.799
 6881.00    0.72350   0.74511   13.822
 6882.00    0.72574   0.74544   13.779
 6883.00    0.73039   0.74595   13.691
 6884.00    0.73586   0.74673   13.590
 6885.00    0.74035   0.74782   13.507
 6886.00    0.74338   0.74918   13.452
 6887.00    0.74809   0.75047   13.367
 6888.00    0.75730   0.75153   13.205
 6889.00    0.76682   0.75239   13.041
 6890.00    0.77007   0.75307   12.986
 6891.00    0.76577   0.75352   13.059
 6892.00    0.75711   0.75356   13.208
 6893.00    0.74901   0.75352   13.351
 6894.00    0.74497   0.75335   13.423
 6895.00    0.74421   0.75313   13.437
 6896.00    0.74437   0.75311   13.434
 6897.00    0.74444   0.75302   13.433
 6898.00    0.74434   0.75308   13.435
 6899.00    0.74448   0.75332   13.432
 6900.00    0.74545   0.75363   13.415
 6901.00    0.74764   0.75414   13.375
 6902.00    0.74991   0.75447   13.335
 6903.00    0.74930   0.75472   13.346
 6904.00    0.74452   0.75518   13.432
 6905.00    0.73764   0.75526   13.557
 6906.00    0.73201   0.75518   13.661
 6907.00    0.73050   0.75477   13.689
 6908.00    0.73265   0.75388   13.649
 6909.00    0.73475   0.75318   13.610
 6910.00    0.73507   0.75211   13.604
 6911.00    0.73467   0.75078   13.612
 6912.00    0.73306   0.74984   13.641
 6913.00    0.72891   0.74895   13.719
 6914.00    0.72656   0.74842   13.763
 6915.00    0.73359   0.74838   13.632
 6916.00    0.74937   0.74828   13.345
 6917.00    0.76498   0.74863   13.072
 6918.00    0.77041   0.74913   12.980
 6919.00    0.76034   0.74933   13.152
 6920.00    0.74195   0.74960   13.478
 6921.00    0.72855   0.74962   13.726
 6922.00    0.72537   0.74949   13.786
 6923.00    0.72857   0.74939   13.725
 6924.00    0.72841   0.74936   13.728
 6925.00    0.71918   0.74940   13.905
 6926.00    0.71120   0.74948   14.061
 6927.00    0.71618   0.74967   13.963
 6928.00    0.72824   0.75002   13.732
 6929.00    0.73625   0.75053   13.582
 6930.00    0.73887   0.75082   13.534
 6931.00    0.73925   0.75114   13.527
 6932.00    0.73858   0.75147   13.539
 6933.00    0.73801   0.75179   13.550
 6934.00    0.73983   0.75213   13.517
 6935.00    0.74127   0.75227   13.490
 6936.00    0.73233   0.75244   13.655
 6937.00    0.71293   0.75253   14.027
 6938.00    0.69998   0.75237   14.286
 6939.00    0.70265   0.75191   14.232
 6940.00    0.71184   0.75136   14.048
 6941.00    0.72039   0.75073   13.881
 6942.00    0.73108   0.74995   13.678
 6943.00    0.74494   0.74942   13.424
 6944.00    0.75711   0.74898   13.208
 6945.00    0.76214   0.74865   13.121
 6946.00    0.75713   0.74858   13.208
 6947.00    0.74487   0.74847   13.425
 6948.00    0.73227   0.74846   13.656
 6949.00    0.72279   0.74869   13.835
 6950.00    0.71511   0.74881   13.984
 6951.00    0.70597   0.74893   14.165
 6952.00    0.69477   0.74921   14.393
 6953.00    0.69192   0.74953   14.453
 6954.00    0.70900   0.75007   14.104
 6955.00    0.73621   0.75081   13.583
 6956.00    0.75317   0.75153   13.277
 6957.00    0.75571   0.75223   13.233
 6958.00    0.75168   0.75306   13.303
 6959.00    0.74697   0.75377   13.388
 6960.00    0.74305   0.75434   13.458
 6961.00    0.73718   0.75492   13.565
 6962.00    0.72806   0.75532   13.735
 6963.00    0.72193   0.75560   -2.000
 6964.00    0.72402   0.75590   -2.000
 6965.00    0.72953   0.75602   -2.000
 6966.00    0.73284   0.75597   -2.000
 6967.00    0.73608   0.75573   -2.000
 6968.00    0.74014   0.75489   -2.000
 6969.00    0.73801   0.75386   -2.000
 6970.00    0.72598   0.75247   -2.000
 6971.00    0.71095   0.75046   -2.000
 6972.00    0.70153   0.74804   -2.000
 6973.00    0.70223   0.74535   -2.000
 6974.00    0.71511   0.74291   -2.000
 6975.00    0.73946   0.74069   -2.000
 6976.00    0.76525   0.73905   -2.000
 6977.00    0.77469   0.73836   -2.000
 6978.00    0.76334   0.73860   -2.000
 6979.00    0.74476   0.73985   -2.000
 6980.00    0.73255   0.74162   -2.000
 6981.00    0.73281   0.74378   -2.000
 6982.00    0.74306   0.74633   -2.000
 6983.00    0.75498   0.74868   -2.000
 6984.00    0.76322   0.75060   -2.000
 6985.00    0.76677   0.75208   -2.000
 6986.00    0.76574   0.75299   -2.000
 6987.00    0.76046   0.75363   -2.000
 6988.00    0.75159   0.75398   -2.000
 6989.00    0.74059   0.75417   -2.000
 6990.00    0.73062   0.75423   -2.000
 6991.00    0.72498   0.75389   -2.000
 6992.00    0.72426   0.75353   -2.000
 6993.00    0.72671   0.75304   -2.000
 6994.00    0.72974   0.75238   -2.000
 6995.00    0.73126   0.75155   -2.000
 6996.00    0.73123   0.75031   -2.000
 6997.00    0.73187   0.74901   -2.000
 6998.00    0.73715   0.74789   -2.000
 6999.00    0.74602   0.74689   -2.000
 7000.00    0.74704   0.74600   -2.000
 7001.00    0.73399   0.74512   -2.000
 7002.00    0.71925   0.74452   -2.000
 7003.00    0.71702   0.74429   -2.000
 7004.00    0.72928   0.74439   -2.000
 7005.00    0.75018   0.74456   -2.000
 7006.00    0.77053   0.74466   -2.000
 7007.00    0.78151   0.74483   -2.000
 7008.00    0.77794   0.74473   -2.000
 7009.00    0.76372   0.74451   -2.000
 7010.00    0.75137   0.74413   -2.000
 7011.00    0.74506   0.74349   -2.000
 7012.00    0.73641   0.74282   -2.000
 7013.00    0.72318   0.74181   -2.000
 7014.00    0.71382   0.74114   -2.000
 7015.00    0.71348   0.74108   -2.000
 7016.00    0.71977   0.74118   -2.000
 7017.00    0.72667   0.74156   -2.000
 7018.00    0.72745   0.74187   -2.000
 7019.00    0.71880   0.74238   -2.000
 7020.00    0.70262   0.74309   -2.000
 7021.00    0.68741   0.74362   -2.000
 7022.00    0.68309   0.74411   -2.000
 7023.00    0.68911   0.74471   -2.000
 7024.00    0.69727   0.74536   -2.000
 7025.00    0.70239   0.74611   -2.000
 7026.00    0.70213   0.74696   -2.000
 7027.00    0.69335   0.74791   -2.000
 7028.00    0.67690   0.74901   -2.000
 7029.00    0.66533   0.74982   -2.000
 7030.00    0.67251   0.75041   -2.000
 7031.00    0.69866   0.75089   -2.000
 7032.00    0.73407   0.75122   -2.000
 7033.00    0.76631   0.75179   -2.000
 7034.00    0.78579   0.75233   -2.000
 7035.00    0.79032   0.75278   -2.000
 7036.00    0.78189   0.75379   -2.000
 7037.00    0.76392   0.75525   -2.000
 7038.00    0.74649   0.75715   -2.000
 7039.00    0.74770   0.75928   -2.000
 7040.00    0.77094   0.76119   -2.000
 7041.00    0.79337   0.76310   -2.000
 7042.00    0.79689   0.76488   -2.000
 7043.00    0.78492   0.76632   -2.000
 7044.00    0.76320   0.76714   -2.000
 7045.00    0.73186   0.76728   -2.000
 7046.00    0.70139   0.76676   -2.000
 7047.00    0.69382   0.76541   -2.000
 7048.00    0.71415   0.76364   -2.000
 7049.00    0.74403   0.76115   -2.000
 7050.00    0.76504   0.75814   -2.000
 7051.00    0.76846   0.75502   -2.000
 7052.00    0.75751   0.75165   -2.000
 7053.00    0.74297   0.74868   -2.000
 7054.00    0.72899   0.74587   -2.000
 7055.00    0.71346   0.74334   -2.000
 7056.00    0.69916   0.74133   -2.000
 7057.00    0.69221   0.73949   -2.000
 7058.00    0.69251   0.73822   -2.000
 7059.00    0.69515   0.73724   -2.000
 7060.00    0.69745   0.73634   -2.000
 7061.00    0.69844   0.73574   -2.000
 7062.00    0.69579   0.73520   -2.000
 7063.00    0.68797   0.73476   -2.000
 7064.00    0.67783   0.73457   -2.000
 7065.00    0.66914   0.73435   -2.000
 7066.00    0.66161   0.73453   -2.000
 7067.00    0.65508   0.73520   -2.000
 7068.00    0.65470   0.73598   -2.000
 7069.00    0.66600   0.73704   -2.000
 7070.00    0.68954   0.73823   -2.000
 7071.00    0.72526   0.73951   -2.000
 7072.00    0.77505   0.74086   -2.000
 7073.00    0.82767   0.74189   -2.000
 7074.00    0.85182   0.74248   -2.000
 7075.00    0.83474   0.74263   -2.000
 7076.00    0.80442   0.74213   -2.000
 7077.00    0.79392   0.74107   -2.000
 7078.00    0.81600   0.73945   -2.000
 7079.00    0.85289   0.73710   -2.000
 7080.00    0.86198   0.73419   -2.000
 7081.00    0.82588   0.73066   -2.000
 7082.00    0.76774   0.72691   -2.000
 7083.00    0.71254   0.72339   -2.000
 7084.00    0.67215   0.71989   -2.000
 7085.00    0.65266   0.71657   -2.000
 7086.00    0.65567   0.71369   -2.000
 7087.00    0.67294   0.71124   -2.000
 7088.00    0.69118   0.70955   -2.000
 7089.00    0.70970   0.70858   -2.000
 7090.00    0.73475   0.70770   -2.000
 7091.00    0.75334   0.70775   -2.000
 7092.00    0.74357   0.70793   -2.000
 7093.00    0.71042   0.70861   -2.000
 7094.00    0.67723   0.70982   -2.000
 7095.00    0.65422   0.71084   -2.000
 7096.00    0.64084   0.71263   -2.000
 7097.00    0.63971   0.71405   -2.000
 7098.00    0.65240   0.71556   -2.000
 7099.00    0.67028   0.71684   -2.000
 7100.00    0.68268   0.71778   -2.000
 7101.00    0.68894   0.71886   -2.000
 7102.00    0.69305   0.71939   -2.000
 7103.00    0.69574   0.71961   -2.000
 7104.00    0.69593   0.71938   -2.000
 7105.00    0.69309   0.71900   -2.000
 7106.00    0.68798   0.71861   -2.000
 7107.00    0.68307   0.71801   -2.000
 7108.00    0.68211   0.71734   -2.000
 7109.00    0.68918   0.71672   -2.000
 7110.00    0.70472   0.71643   -2.000
 7111.00    0.72313   0.71640   -2.000
 7112.00    0.73524   0.71645   -2.000
 7113.00    0.73147   0.71665   -2.000
 7114.00    0.70966   0.71683   -2.000
 7115.00    0.67807   0.71714   -2.000
 7116.00    0.64978   0.71737   -2.000
 7117.00    0.63724   0.71727   -2.000
 7118.00    0.64148   0.71705   -2.000
 7119.00    0.65245   0.71639   -2.000
 7120.00    0.66590   0.71579   -2.000
 7121.00    0.68475   0.71504   -2.000
 7122.00    0.70349   0.71379   -2.000
 7123.00    0.70926   0.71251   -2.000
 7124.00    0.69893   0.71104   -2.000
 7125.00    0.68044   0.70983   -2.000
 7126.00    0.66377   0.70876   -2.000
 7127.00    0.65589   0.70756   -2.000
 7128.00    0.65524   0.70672   -2.000
 7129.00    0.65492   0.70658   -2.000
 7130.00    0.65090   0.70687   -2.000
 7131.00    0.64471   0.70766   -2.000
 7132.00    0.64459   0.70866   -2.000
 7133.00    0.65720   0.70982   -2.000
 7134.00    0.67577   0.71137   -2.000
 7135.00    0.68602   0.71262   -2.000
 7136.00    0.67706   0.71370   -2.000
 7137.00    0.65451   0.71444   -2.000
 7138.00    0.64987   0.71499   -2.000
 7139.00    0.67739   0.71511   -2.000
 7140.00    0.69656   0.71472   -2.000
 7141.00    0.67811   0.71418   -2.000
 7142.00    0.65752   0.71338   -2.000
 7143.00    0.66523   0.71264   -2.000
 7144.00    0.67606   0.71179   -2.000
 7145.00    0.66355   0.71080   -2.000
 7146.00    0.63584   0.71056   -2.000
 7147.00    0.60823   0.71077   -2.000
 7148.00    0.58697   0.71147   -2.000
 7149.00    0.57960   0.71283   -2.000
 7150.00    0.59645   0.71425   -2.000
 7151.00    0.63042   0.71604   -2.000
 7152.00    0.65548   0.71779   -2.000
 7153.00    0.65986   0.71934   -2.000
 7154.00    0.65365   0.72091   -2.000
 7155.00    0.64585   0.72165   -2.000
 7156.00    0.63784   0.72171   -2.000
 7157.00    0.63008   0.72119   -2.000
 7158.00    0.62447   0.72034   -2.000
 7159.00    0.62483   0.71952   -2.000
 7160.00    0.63529   0.71826   -2.000
 7161.00    0.65643   0.71677   -2.000
 7162.00    0.68280   0.71556   -2.000
 7163.00    0.70016   0.71512   -2.000
 7164.00    0.69420   0.71551   -2.000
 7165.00    0.66737   0.71633   -2.000
 7166.00    0.63591   0.71735   -2.000
 7167.00    0.61908   0.71865   -2.000
 7168.00    0.62661   0.72024   -2.000
 7169.00    0.64445   0.72199   -2.000
 7170.00    0.65253   0.72344   -2.000
 7171.00    0.64934   0.72429   -2.000
 7172.00    0.64440   0.72448   -2.000
 7173.00    0.64572   0.72411   -2.000
 7174.00    0.65467   0.72357   -2.000
 7175.00    0.66309   0.72292   -2.000
 7176.00    0.66248   0.72180   -2.000
 7177.00    0.65204   0.72033   -2.000
 7178.00    0.63607   0.71877   -2.000
 7179.00    0.62112   0.71740   -2.000
 7180.00    0.61381   0.71653   -2.000
 7181.00    0.61854   0.71559   -2.000
 7182.00    0.63215   0.71444   -2.000
 7183.00    0.64298   0.71344   -2.000
 7184.00    0.64243   0.71214   -2.000
 7185.00    0.63106   0.71131   -2.000
 7186.00    0.61770   0.71080   -2.000
 7187.00    0.61497   0.71039   -2.000
 7188.00    0.62384   0.71056   -2.000
 7189.00    0.63284   0.71048   -2.000
 7190.00    0.63767   0.71089   -2.000
 7191.00    0.64420   0.71168   -2.000
 7192.00    0.65550   0.71265   -2.000
 7193.00    0.66860   0.71375   -2.000
 7194.00    0.67737   0.71428   -2.000
 7195.00    0.67655   0.71505   -2.000
 7196.00    0.66905   0.71563   -2.000
 7197.00    0.66152   0.71597   -2.000
 7198.00    0.65156   0.71600   -2.000
 7199.00    0.63379   0.71537   -2.000
 7200.00    0.61560   0.71503   -2.000
 7201.00    0.60948   0.71465   -2.000
 7202.00    0.61626   0.71395   -2.000
 7203.00    0.62759   0.71316   -2.000
 7204.00    0.63397   0.71185   -2.000
 7205.00    0.63024   0.71124   -2.000
 7206.00    0.62066   0.71116   -2.000
 7207.00    0.61285   0.71129   -2.000
 7208.00    0.61035   0.71207   -2.000
 7209.00    0.61360   0.71263   -2.000
 7210.00    0.62168   0.71360   -2.000
 7211.00    0.63182   0.71475   -2.000
 7212.00    0.63931   0.71595   -2.000
 7213.00    0.64046   0.71732   -2.000
 7214.00    0.63493   0.71841   -2.000
 7215.00    0.62581   0.71947   -2.000
 7216.00    0.61884   0.72016   -2.000
 7217.00    0.61775   0.72081   -2.000
 7218.00    0.62169   0.72142   -2.000
