###################################################################
## OUTPUT of StarlightChains_v04.for    [Cid@UFSC - 01/Apr/2007] ##
###################################################################

## Some input info
2015ab.txt                               [arq_obs]
Base.CB07.vall.4m                        [arq_base]
Masks.EmLines.NEW.gm                     [arq_masks]
StCv04.C11.config                        [arq_config]
   66                                    [N_base]
    0                                    [N_YAV_components = # of components with extra extinction!]
    0                                    [i_FitPowerLaw (1/0 = Yes/No)]
-9.99                                    [alpha_PowerLaw]
CCM                                      [red_law_option]
 1.458241                                [q_norm = A(l_norm)/A(V)]

## (Re)Sampling Parameters
 3741.00                                 [l_ini (A)]
 7218.00                                 [l_fin (A)]
    1.00                                 [dl    (A)]     (OBS: dl_cushion =    50.00 A)

## Normalization info
 4020.00                                 [l_norm (A) - for base]
 4010.00                                 [llow_norm (A) - window for f_obs]
 4060.00                                 [lupp_norm (A) - window for f_obs]
1.405386E-16                             [fobs_norm (in input units)]

## S/N
 3691.00                                 [llow_SN (A) - window for S/N]
 7268.00                                 [lupp_SN (A) - window for S/N]
   5.498                                 [S/N in S/N window]
   4.496                                 [S/N in norm. window]
  16.124                                 [S/N_err in S/N window]
  13.184                                 [S/N_err in norm. window]
  1.0000                                 [fscale_chi2]

## etc...
    -2007424                             [idum_orig]
  2385                                   [NOl_eff]
  2385                                   [Nl_eff]
     0    NSIGMA                         [Ntot_cliped & clip_method]
  1320060                                [Nglobal_steps]
   7                                     [N_chains]
  21                                     [NEX0s_base = N_base in EX0s-fits]
 0   0   1        1   2.0   2.172E+01    [Clip-Bug, RC-Crash & Burn-In warning-flags, n_censored_weights, wei_nsig_threshold & wei_limit]
    12     12.340     11.848      0.492  [idt_all, wdt_TotTime, wdt_UsrTime & wdt_SysTime (sec)]

## Synthesis Results - Best model ##

 3.10810E-01                             [chi2/Nl_eff]
     2.69428                             [adev (%)]

   102.73595                             [sum-of-x (%)]
 1.53542E-16                             [Flux_tot (units of input spectrum!)]
 8.53046E-12                             [Mini_tot (???)]
 4.33499E-12                             [Mcor_tot (???)]

 -67.53                                  [v0_min  (km/s)]
 205.14                                  [vd_min  (km/s)]
 0.0458                                  [AV_min  (mag)]
 0.0000                                  [YAV_min (mag)]

# j     x_j(%)      Mini_j(%)     Mcor_j(%)     age_j(yr)     Z_j      (L/M)_j    YAV?  Mstars   component_j        a/Fe...       SSP_chi2r SSP_adev(%)   SSP_AV   SSP_x(%)
  1      4.8913     7.8332E-03    1.5414E-02    1.000000E+06  0.00400  1.094E-02    0   1.0000   age020_m42            0.0000     1.4389E+00     7.1003   3.6172    92.4515
  2      0.0000     0.0000E+00    0.0000E+00    3.160000E+06  0.00400  4.007E-02    0   0.9999   age045_m42            0.0000     1.3116E+00     6.3710   2.9032    98.2651
  3      0.9569     6.6030E-04    1.2328E-03    5.010000E+06  0.00400  2.539E-02    0   0.9488   age055_m42            0.0000     1.3401E+00     6.6448   3.2143    96.2534
  4      0.0000     0.0000E+00    0.0000E+00    6.610000E+06  0.00400  2.620E-02    0   0.9220   age061_m42            0.0000     1.2834E+00     6.3852   2.8233    98.7809
  5      0.0000     0.0000E+00    0.0000E+00    1.000000E+07  0.00400  1.322E-02    0   0.8862   age070_m42            0.0000     1.3890E+00     7.2420   2.4812   103.7183
  6      0.0182     4.0486E-05    6.8284E-05    1.445000E+07  0.00400  7.883E-03    0   0.8571   age078_m42            0.0000     1.4046E+00     7.2697   2.8137   100.8447
  7      0.0000     0.0000E+00    0.0000E+00    2.512000E+07  0.00400  5.251E-03    0   0.8174   age090_m42            0.0000     1.4566E+00     7.4800   2.3414   104.7587
  8      0.0000     0.0000E+00    0.0000E+00    4.000000E+07  0.00400  3.649E-03    0   0.7851   age104_m42            0.0000     1.3869E+00     7.2185   2.1212   105.2805
  9      0.0000     0.0000E+00    0.0000E+00    5.500000E+07  0.00400  3.098E-03    0   0.7629   age110_m42            0.0000     1.3091E+00     6.7588   2.3030   103.9431
 10      0.0000     0.0000E+00    0.0000E+00    1.015200E+08  0.00400  2.228E-03    0   0.7207   age116_m42            0.0000     1.2661E+00     6.5477   2.3423   103.2434
 11      0.0000     0.0000E+00    0.0000E+00    2.861200E+08  0.00400  1.093E-03    0   0.6648   age125_m42            0.0000     1.3325E+00     6.9615   1.7548   107.3336
 12      0.0000     0.0000E+00    0.0000E+00    5.088000E+08  0.00400  6.597E-04    0   0.6365   age130_m42            0.0000     1.1557E+00     6.4210   1.7737   106.8045
 13      0.0000     0.0000E+00    0.0000E+00    1.434000E+09  0.00400  2.132E-04    0   0.5798   age139_m42            0.0000     7.4564E-01     5.0496   0.8121   108.3962
 14      0.0000     0.0000E+00    0.0000E+00    4.250000E+09  0.00400  5.895E-05    0   0.5377   age158_m42            0.0000     4.5044E-01     3.4975   0.4043   102.7438
 15      0.0074     3.7085E-03    3.8035E-03    7.500000E+09  0.00400  3.510E-05    0   0.5212   age171_m42            0.0000     3.7969E-01     3.1000   0.2336   101.3390
 16     29.4823     2.5762E+01    2.5520E+01    1.300000E+10  0.00400  2.005E-05    0   0.5034   age193_m42            0.0000     3.4470E-01     2.9064   0.0840   100.1609
 17     11.8442     1.3607E+01    1.3300E+01    1.800000E+10  0.00400  1.525E-05    0   0.4967   age213_m42            0.0000     3.4993E-01     2.9365   0.0561    99.9120
 18      0.0000     0.0000E+00    0.0000E+00    1.000000E+06  0.00800  1.238E-02    0   1.0000   age020_m52            0.0000     1.4329E+00     7.0953   3.6127    92.6683
 19      1.0283     5.8607E-04    1.1494E-03    3.160000E+06  0.00800  3.074E-02    0   0.9966   age045_m52            0.0000     1.4109E+00     6.9967   3.5396    93.3283
 20      0.0000     0.0000E+00    0.0000E+00    5.010000E+06  0.00800  2.668E-02    0   0.9443   age055_m52            0.0000     1.3264E+00     6.7116   3.2920    95.6008
 21      0.0000     0.0000E+00    0.0000E+00    6.610000E+06  0.00800  2.136E-02    0   0.9177   age061_m52            0.0000     1.1145E+00     6.6733   1.9823   104.8409
 22      0.1627     2.3455E-04    4.0741E-04    1.000000E+07  0.00800  1.215E-02    0   0.8827   age070_m52            0.0000     1.4647E+00     7.6817   2.6438   104.3123
 23      0.0000     0.0000E+00    0.0000E+00    1.445000E+07  0.00800  8.717E-03    0   0.8552   age078_m52            0.0000     1.3627E+00     7.2020   2.7753   102.4093
 24      0.0000     0.0000E+00    0.0000E+00    2.512000E+07  0.00800  5.592E-03    0   0.8162   age090_m52            0.0000     1.4370E+00     7.4900   2.4021   106.1663
 25      0.0000     0.0000E+00    0.0000E+00    4.000000E+07  0.00800  3.896E-03    0   0.7841   age104_m52            0.0000     1.3771E+00     7.1876   2.3296   106.2809
 26      0.0000     0.0000E+00    0.0000E+00    1.015200E+08  0.00800  2.148E-03    0   0.7226   age116_m52            0.0000     1.2544E+00     6.6529   2.2957   104.7752
 27      0.0000     0.0000E+00    0.0000E+00    2.861200E+08  0.00800  9.925E-04    0   0.6683   age125_m52            0.0000     1.1248E+00     6.3648   1.8367   107.9081
 28      0.0000     0.0000E+00    0.0000E+00    9.047900E+08  0.00800  3.141E-04    0   0.6138   age135_m52            0.0000     7.5744E-01     5.0956   1.0756   110.5486
 29      0.0000     0.0000E+00    0.0000E+00    1.434000E+09  0.00800  1.719E-04    0   0.5853   age139_m52            0.0000     5.4854E-01     4.1190   0.4946   108.3680
 30      0.0000     0.0000E+00    0.0000E+00    2.500000E+09  0.00800  7.872E-05    0   0.5600   age150_m52            0.0000     3.6256E-01     3.1317   0.2653   103.6626
 31      0.0000     0.0000E+00    0.0000E+00    4.250000E+09  0.00800  4.336E-05    0   0.5426   age158_m52            0.0000     3.5950E-01     3.0403   0.2516   102.6209
 32      0.0000     0.0000E+00    0.0000E+00    6.250000E+09  0.00800  3.159E-05    0   0.5319   age166_m52            0.0000     3.3983E-01     3.0677   0.0726   101.6126
 33      0.0000     0.0000E+00    0.0000E+00    1.300000E+10  0.00800  1.361E-05    0   0.5073   age193_m52            0.0000     3.7385E-01     3.5537  -0.3673    99.7246
 34      5.4067     9.5817E+00    9.4087E+00    1.800000E+10  0.00800  9.886E-06    0   0.4990   age213_m52            0.0000     4.5263E-01     4.1701  -0.4485    98.1059
 35      0.0000     0.0000E+00    0.0000E+00    1.000000E+06  0.02000  1.544E-02    0   1.0000   age020_m62            0.0000     1.4347E+00     7.1139   3.6090    92.8716
 36      0.0000     0.0000E+00    0.0000E+00    3.160000E+06  0.02000  3.762E-02    0   0.9858   age045_m62            0.0000     1.4227E+00     7.0910   3.5492    93.6360
 37      0.0000     0.0000E+00    0.0000E+00    5.010000E+06  0.02000  3.296E-02    0   0.9342   age055_m62            0.0000     1.2887E+00     6.4246   3.1829    97.0662
 38      0.0000     0.0000E+00    0.0000E+00    8.710000E+06  0.02000  1.154E-02    0   0.8861   age067_m62            0.0000     2.5555E+00    11.2240   1.9823   113.0107
 39      0.0000     0.0000E+00    0.0000E+00    1.445000E+07  0.02000  7.663E-03    0   0.8472   age078_m62            0.0000     1.6713E+00     8.6014   2.2564   108.4221
 40      0.0000     0.0000E+00    0.0000E+00    2.512000E+07  0.02000  4.532E-03    0   0.8099   age090_m62            0.0000     1.7878E+00     8.8418   2.2432   108.4220
 41      0.0000     0.0000E+00    0.0000E+00    5.500000E+07  0.02000  2.733E-03    0   0.7595   age110_m62            0.0000     1.3247E+00     7.1137   2.3090   105.6711
 42      0.0000     0.0000E+00    0.0000E+00    1.609000E+08  0.02000  1.369E-03    0   0.6985   age120_m62            0.0000     1.2201E+00     6.6147   2.1847   106.7767
 43      0.0000     0.0000E+00    0.0000E+00    2.861200E+08  0.02000  9.013E-04    0   0.6714   age125_m62            0.0000     1.1450E+00     6.4924   1.9504   109.0175
 44      0.0000     0.0000E+00    0.0000E+00    5.088000E+08  0.02000  5.028E-04    0   0.6449   age130_m62            0.0000     9.3177E-01     5.8870   1.6156   109.8040
 45      0.0000     0.0000E+00    0.0000E+00    9.047900E+08  0.02000  2.428E-04    0   0.6179   age135_m62            0.0000     5.7842E-01     4.3313   1.0459   108.4445
 46      0.0000     0.0000E+00    0.0000E+00    1.434000E+09  0.02000  1.263E-04    0   0.5908   age139_m62            0.0000     4.2278E-01     3.4713   0.6087   106.5476
 47      0.0000     0.0000E+00    0.0000E+00    2.500000E+09  0.02000  5.985E-05    0   0.5673   age150_m62            0.0000     3.5997E-01     3.1491   0.2738   103.6801
 48     16.7305     8.9611E+00    9.6422E+00    4.250000E+09  0.02000  3.271E-05    0   0.5468   age158_m62            0.0000     3.9944E-01     3.6919   0.0041   101.2402
 49      5.9950     7.7230E+00    7.8525E+00    1.000000E+10  0.02000  1.360E-05    0   0.5167   age181_m62            0.0000     5.6330E-01     4.8815  -0.3038    99.1117
 50      2.5490     6.2686E+00    6.1838E+00    1.800000E+10  0.02000  7.124E-06    0   0.5013   age213_m62            0.0000     7.5673E-01     5.9006  -0.4791    96.9032
 51      0.0000     0.0000E+00    0.0000E+00    1.000000E+06  0.05000  2.592E-02    0   0.9998   age020_m72            0.0000     1.4526E+00     7.2093   3.5971    93.0346
 52      0.0000     0.0000E+00    0.0000E+00    3.160000E+06  0.05000  4.845E-02    0   0.9577   age045_m72            0.0000     1.3767E+00     6.7899   3.4413    94.4863
 53      0.0000     0.0000E+00    0.0000E+00    5.010000E+06  0.05000  3.072E-02    0   0.9147   age055_m72            0.0000     1.5075E+00     7.8670   2.8868   102.3543
 54      0.0000     0.0000E+00    0.0000E+00    6.610000E+06  0.05000  1.455E-02    0   0.8877   age061_m72            0.0000     4.2590E+00    14.0205   2.0043   116.0262
 55      3.4658     6.6918E-03    1.1225E-02    1.000000E+07  0.05000  9.074E-03    0   0.8524   age070_m72            0.0000     1.9037E+00     8.4991   3.0864   101.6952
 56      0.0000     0.0000E+00    0.0000E+00    2.512000E+07  0.05000  4.250E-03    0   0.7902   age090_m72            0.0000     1.7039E+00     8.0575   2.7745   103.8687
 57      1.6786     9.5266E-03    1.4281E-02    4.000000E+07  0.05000  3.087E-03    0   0.7618   age104_m72            0.0000     1.7959E+00     8.2655   2.5365   106.0451
 58      0.0000     0.0000E+00    0.0000E+00    1.015200E+08  0.05000  1.700E-03    0   0.7096   age116_m72            0.0000     1.3689E+00     7.1027   2.3104   107.1773
 59      0.0000     0.0000E+00    0.0000E+00    2.861200E+08  0.05000  7.384E-04    0   0.6633   age125_m72            0.0000     1.0103E+00     6.1678   1.8389   109.4930
 60      0.0000     0.0000E+00    0.0000E+00    5.088000E+08  0.05000  3.819E-04    0   0.6372   age130_m72            0.0000     6.9271E-01     4.9676   1.3807   109.5829
 61      0.0000     0.0000E+00    0.0000E+00    9.047900E+08  0.05000  1.676E-04    0   0.6110   age135_m72            0.0000     4.4774E-01     3.6385   0.7277   105.7307
 62      0.0000     0.0000E+00    0.0000E+00    1.434000E+09  0.05000  8.837E-05    0   0.5874   age139_m72            0.0000     3.8087E-01     3.3824   0.2774   105.0157
 63     11.1194     4.6022E+00    5.0697E+00    2.500000E+09  0.05000  4.233E-05    0   0.5598   age150_m72            0.0000     4.5061E-01     4.0702   0.0151   101.6049
 64      1.9525     2.3839E+00    2.4623E+00    6.250000E+09  0.05000  1.435E-05    0   0.5249   age166_m72            0.0000     6.5198E-01     5.2826  -0.3898    98.2404
 65      0.0000     0.0000E+00    0.0000E+00    1.300000E+10  0.05000  6.513E-06    0   0.5036   age193_m72            0.0000     9.3969E-01     6.5789  -0.6257    97.3342
 66      5.4471     2.1081E+01    2.0513E+01    1.800000E+10  0.05000  4.527E-06    0   0.4945   age213_m72            0.0000     1.1722E+00     7.3975  -0.7582    95.9686


## Synthesis Results - Average & Chains ##

# j      x_j: min, <> & last-chain-values for 1 ...  7 chains
  1      4.8913      1.7444      1.7655      1.9338      1.9556      1.1571      2.3213      2.1532      2.1616
  2      0.0000      0.1305      0.0000      0.0000      0.0000      0.0000      0.2197      0.1370      0.0000
  3      0.9569      0.1096      0.6086      1.0226      0.3027      0.0000      0.0000      0.8936      0.0000
  4      0.0000      0.0787      0.0000      0.0000      0.0000      0.0000      0.3904      0.0000      0.0000
  5      0.0000      0.3940      0.0000      1.4547      0.0000      0.0000      0.1209      0.0000      0.0000
  6      0.0182      0.2258      0.9107      0.0000      0.1734      1.5045      0.2809      0.0000      0.0000
  7      0.0000      0.1977      0.0000      0.4144      0.0000      1.3292      0.0000      0.0000      0.5919
  8      0.0000      0.1411      0.0000      0.0000      0.0000      0.0000      0.0000      0.0000      0.0000
  9      0.0000      0.1150      0.7123      0.0000      0.0000      0.0000      0.0000      0.0000      0.6843
 10      0.0000      0.1324      1.1632      0.0000      0.2566      0.0000      0.0000      0.0000      0.4374
 11      0.0000      0.1661      0.0000      0.1090      0.5873      0.3704      0.0000      0.0000      0.0000
 12      0.0000      0.1821      0.0000      0.0000      0.0000      0.0000      0.0000      0.0000      0.1160
 13      0.0000      0.3250      0.0000      0.0000      0.5033      0.0000      1.1472      0.7313      0.3859
 14      0.0000      1.0082      0.0000      0.0000      0.0000      0.0000      0.0000      0.0000      0.3595
 15      0.0074      3.5080      1.0310      1.6455      3.0259      2.6895      3.2647      5.3963      3.0609
 16     29.4823      9.3279     12.1200     12.6307     11.8112     10.9480     15.9119     11.2905     11.7869
 17     11.8442     11.0743      9.0267      9.9418     14.5873     13.1505      8.6929      9.9988     10.2326
 18      0.0000      0.1153      0.0000      0.0000      0.0000      0.0000      0.0000      0.0000      0.0000
 19      1.0283      0.2849      0.6497      1.2157      0.1545      0.0000      0.0000      1.0196      0.0000
 20      0.0000      0.1864      0.0000      0.4053      0.0000      0.0000      0.0000      0.0000      0.0000
 21      0.0000      0.6053      0.4211      0.0000      0.8836      0.0000      0.0000      1.1233      0.0000
 22      0.1627      0.1836      0.5551      0.0000      1.2129      0.0000      0.1846      0.0000      1.0255
 23      0.0000      0.1950      0.0000      0.0000      0.0000      0.6073      0.0000      0.0000      0.0000
 24      0.0000      0.1185      0.0000      0.0000      0.0887      0.0000      0.0000      0.0000      0.0000
 25      0.0000      0.1683      0.0000      0.0000      0.1061      0.5533      0.0000      0.0000      0.3655
 26      0.0000      0.1886      0.0000      0.6455      0.0000      0.0000      0.0000      0.0000      0.0000
 27      0.0000      0.2330      0.0168      0.0000      0.3710      0.0000      0.0000      0.0000      0.9612
 28      0.0000      0.2115      0.0000      0.0000      0.0000      0.0000      0.0000      0.0000      0.3179
 29      0.0000      0.6871      0.0000      2.0805      0.7358      0.6530      0.0000      0.0000      0.0000
 30      0.0000      1.9770      0.0000      0.0000      1.2269      0.0000      0.0000      0.0000      0.6704
 31      0.0000      2.1991      0.0000      0.0000      0.3407      0.0392      0.6039      3.2134      0.0000
 32      0.0000     12.0269     12.5154     10.1555      7.3789      9.9108      4.2664     11.5560     10.1097
 33      0.0000      0.3667      0.0000      0.5897      0.0000      0.5075      0.9805      0.3909      0.2894
 34      5.4067      2.3357      7.4617      2.4688      1.9902      2.5984      3.9140      3.5878      4.6470
 35      0.0000      0.1639      0.0000      0.0000      0.8680      0.4528      1.0848      0.0000      0.8366
 36      0.0000      0.1841      0.0000      0.0000      1.0570      0.0000      0.1855      0.0000      0.7306
 37      0.0000      0.2067      0.0000      0.1436      0.0000      0.6115      0.0000      0.0018      0.0000
 38      0.0000      0.4473      0.0000      0.1436      0.1125      0.4217      1.2173      0.4119      0.3476
 39      0.0000      0.2130      0.0000      0.0000      0.0000      0.0000      0.2941      1.8724      0.0478
 40      0.0000      0.5326      0.0000      0.0000      0.9638      0.0000      1.1871      0.5754      0.4331
 41      0.0000      0.1397      0.0000      0.0000      0.0000      0.2652      0.0000      0.0000      1.1167
 42      0.0000      0.1135      0.0000      0.0000      0.0000      0.0000      0.5153      0.0000      0.1247
 43      0.0000      0.3331      0.0000      0.0000      0.7008      0.0000      0.8696      0.0000      0.0000
 44      0.0000      0.2130      0.0596      0.0000      0.0000      0.0492      0.0000      0.0000      0.0000
 45      0.0000      0.2973      0.0000      0.0000      0.8394      0.0300      0.0000      0.0091      0.0000
 46      0.0000      0.6638      0.0000      2.3286      0.5859      0.0000      0.0000      0.0000      0.6623
 47      0.0000      4.3229      0.8555      3.7653      3.5880      0.5488      5.6607      2.7589      0.0000
 48     16.7305     12.4604     18.0147     20.0727     16.5999     13.3224     17.7414     14.5308     13.2237
 49      5.9950      3.7720      6.1184      2.6860      3.8136      3.8922      5.0261      2.6350      5.5918
 50      2.5490      0.3943      0.5400      0.0000      0.0000      0.7606      0.0000      0.0000      0.0000
 51      0.0000      0.3584      0.0000      0.2733      0.0000      1.5787      0.0000      0.6100      0.5379
 52      0.0000      0.3329      0.0000      1.3602      0.5725      1.1725      0.1347      0.3408      0.8198
 53      0.0000      0.1295      0.0000      0.0000      0.0000      0.0000      0.4333      0.3507      0.9464
 54      0.0000      0.3446      0.0000      0.0000      0.2259      0.8205      0.2545      0.0000      0.2847
 55      3.4658      0.8213      3.4724      1.1166      0.8885      1.1710      0.9309      1.5534      0.6004
 56      0.0000      0.2153      0.0111      0.0000      0.0878      0.0000      1.0099      0.5942      0.0000
 57      1.6786      0.6807      5.2059      1.3949      0.5934      0.6986      2.0009      0.0000      0.8794
 58      0.0000      0.0981      0.0000      0.0000      0.0000      0.0000      0.0000      0.0000      0.0000
 59      0.0000      0.1297      0.5056      0.0000      0.0000      0.3872      0.0194      0.0000      0.0000
 60      0.0000      0.1521      0.0000      0.0996      0.0000      0.5024      0.0000      0.7363      0.0000
 61      0.0000      0.9274      0.0000      0.0000      0.9372      2.4389      0.3925      1.2136      0.2699
 62      0.0000      1.8321      0.5094      0.0000      0.0000      4.2337      0.5857      0.0000      1.5700
 63     11.1194     17.3353     15.2778     19.5612     17.5047     18.1599     18.8531     18.3655     22.7859
 64      1.9525      1.9264      1.2492      0.0000      2.1888      3.2222      0.5933      2.7563      1.2970
 65      0.0000      0.5322      0.3473      1.9807      0.9974      0.8286      0.3676      0.0000      0.0000
 66      5.4471      2.1652      2.9525      1.7832      2.3591      1.8190      2.1126      2.4685      2.0165

# j      m_j: min, <> & last-chain-values for 1 ...  7 chains
  1  1.5414E-02  7.7586E-03  6.7685E-03  8.4892E-03  8.2325E-03  4.9133E-03  9.9763E-03  9.3240E-03  9.3224E-03
  2  0.0000E+00  1.5841E-04  0.0000E+00  0.0000E+00  0.0000E+00  0.0000E+00  2.5777E-04  1.6199E-04  0.0000E+00
  3  1.2328E-03  1.9924E-04  9.5394E-04  1.8352E-03  5.2093E-04  0.0000E+00  0.0000E+00  1.5820E-03  0.0000E+00
  4  0.0000E+00  1.3482E-04  0.0000E+00  0.0000E+00  0.0000E+00  0.0000E+00  6.4599E-04  0.0000E+00  0.0000E+00
  5  0.0000E+00  1.2852E-03  0.0000E+00  4.6831E-03  0.0000E+00  0.0000E+00  3.8120E-04  0.0000E+00  0.0000E+00
  6  6.8284E-05  1.1944E-03  4.1529E-03  0.0000E+00  8.6849E-04  7.5991E-03  1.4357E-03  0.0000E+00  0.0000E+00
  7  0.0000E+00  1.4977E-03  0.0000E+00  3.0979E-03  0.0000E+00  9.6121E-03  0.0000E+00  0.0000E+00  4.3472E-03
  8  0.0000E+00  1.4772E-03  0.0000E+00  0.0000E+00  0.0000E+00  0.0000E+00  0.0000E+00  0.0000E+00  0.0000E+00
  9  0.0000E+00  1.3775E-03  7.3568E-03  0.0000E+00  0.0000E+00  0.0000E+00  0.0000E+00  0.0000E+00  7.9505E-03
 10  0.0000E+00  2.0836E-03  1.5782E-02  0.0000E+00  3.8224E-03  0.0000E+00  0.0000E+00  0.0000E+00  6.6759E-03
 11  0.0000E+00  4.9163E-03  0.0000E+00  3.1836E-03  1.6451E-02  1.0465E-02  0.0000E+00  0.0000E+00  0.0000E+00
 12  0.0000E+00  8.5498E-03  0.0000E+00  0.0000E+00  0.0000E+00  0.0000E+00  0.0000E+00  0.0000E+00  5.2809E-03
 13  0.0000E+00  4.3009E-02  0.0000E+00  0.0000E+00  6.3039E-02  0.0000E+00  1.4669E-01  9.4223E-02  4.9510E-02
 14  0.0000E+00  4.4748E-01  0.0000E+00  0.0000E+00  0.0000E+00  0.0000E+00  0.0000E+00  0.0000E+00  1.5472E-01
 15  3.8035E-03  2.5347E+00  6.4212E-01  1.1734E+00  2.0693E+00  1.8552E+00  2.2793E+00  3.7961E+00  2.1445E+00
 16  2.5520E+01  1.1396E+01  1.2763E+01  1.5230E+01  1.3657E+01  1.2769E+01  1.8784E+01  1.3429E+01  1.3963E+01
 17  1.3300E+01  1.7551E+01  1.2331E+01  1.5551E+01  2.1881E+01  1.9897E+01  1.3312E+01  1.5428E+01  1.5725E+01
 18  0.0000E+00  4.5315E-04  0.0000E+00  0.0000E+00  0.0000E+00  0.0000E+00  0.0000E+00  0.0000E+00  0.0000E+00
 19  1.1494E-03  4.4939E-04  8.8343E-04  1.8929E-03  2.3070E-04  0.0000E+00  0.0000E+00  1.5660E-03  0.0000E+00
 20  0.0000E+00  3.2110E-04  0.0000E+00  6.8887E-04  0.0000E+00  0.0000E+00  0.0000E+00  0.0000E+00  0.0000E+00
 21  0.0000E+00  1.2655E-03  7.5876E-04  0.0000E+00  1.7483E-03  0.0000E+00  0.0000E+00  2.2864E-03  0.0000E+00
 22  4.0741E-04  6.4900E-04  1.6914E-03  0.0000E+00  4.0581E-03  0.0000E+00  6.3041E-04  0.0000E+00  3.5152E-03
 23  0.0000E+00  9.3100E-04  0.0000E+00  0.0000E+00  0.0000E+00  2.7677E-03  0.0000E+00  0.0000E+00  0.0000E+00
 24  0.0000E+00  8.4175E-04  0.0000E+00  0.0000E+00  5.9633E-04  0.0000E+00  0.0000E+00  0.0000E+00  0.0000E+00
 25  0.0000E+00  1.6479E-03  0.0000E+00  0.0000E+00  9.8327E-04  5.1724E-03  0.0000E+00  0.0000E+00  3.4704E-03
 26  0.0000E+00  3.0876E-03  0.0000E+00  1.0429E-02  0.0000E+00  0.0000E+00  0.0000E+00  0.0000E+00  0.0000E+00
 27  0.0000E+00  7.6335E-03  4.7359E-04  0.0000E+00  1.1505E-02  0.0000E+00  0.0000E+00  0.0000E+00  3.0537E-02
 28  0.0000E+00  2.0113E-02  0.0000E+00  0.0000E+00  0.0000E+00  0.0000E+00  0.0000E+00  0.0000E+00  2.9308E-02
 29  0.0000E+00  1.1383E-01  0.0000E+00  3.4020E-01  1.1538E-01  1.0329E-01  0.0000E+00  0.0000E+00  0.0000E+00
 30  0.0000E+00  6.8434E-01  0.0000E+00  0.0000E+00  4.0198E-01  0.0000E+00  0.0000E+00  0.0000E+00  2.2500E-01
 31  0.0000E+00  1.3391E+00  0.0000E+00  0.0000E+00  1.9637E-01  2.2780E-02  3.5533E-01  1.9050E+00  0.0000E+00
 32  0.0000E+00  9.8537E+00  8.8384E+00  8.2121E+00  5.7219E+00  7.7519E+00  3.3775E+00  9.2179E+00  8.0315E+00
 33  0.0000E+00  6.6517E-01  0.0000E+00  1.0555E+00  0.0000E+00  8.7876E-01  1.7184E+00  6.9031E-01  5.0898E-01
 34  9.4087E+00  5.7367E+00  1.5797E+01  5.9846E+00  4.6265E+00  6.0926E+00  9.2888E+00  8.5793E+00  1.1067E+01
 35  0.0000E+00  5.1645E-04  0.0000E+00  0.0000E+00  2.5892E-03  1.3622E-03  3.3034E-03  0.0000E+00  2.5566E-03
 36  0.0000E+00  2.3473E-04  0.0000E+00  0.0000E+00  1.2756E-03  0.0000E+00  2.2857E-04  0.0000E+00  9.0330E-04
 37  0.0000E+00  2.8503E-04  0.0000E+00  1.9546E-04  0.0000E+00  8.0511E-04  0.0000E+00  2.4157E-06  0.0000E+00
 38  0.0000E+00  1.6713E-03  0.0000E+00  5.2962E-04  3.9778E-04  1.5043E-03  4.3948E-03  1.4983E-03  1.2593E-03
 39  0.0000E+00  1.1456E-03  0.0000E+00  0.0000E+00  0.0000E+00  0.0000E+00  1.5287E-03  9.8068E-03  2.4951E-04
 40  0.0000E+00  4.6315E-03  0.0000E+00  0.0000E+00  7.9322E-03  0.0000E+00  9.9741E-03  4.8711E-03  3.6520E-03
 41  0.0000E+00  1.8887E-03  0.0000E+00  0.0000E+00  0.0000E+00  3.4230E-03  0.0000E+00  0.0000E+00  1.4642E-02
 42  0.0000E+00  2.8184E-03  0.0000E+00  0.0000E+00  0.0000E+00  0.0000E+00  1.2362E-02  0.0000E+00  3.0028E-03
 43  0.0000E+00  1.2074E-02  0.0000E+00  0.0000E+00  2.4042E-02  0.0000E+00  3.0458E-02  0.0000E+00  0.0000E+00
 44  0.0000E+00  1.3293E-02  3.2043E-03  0.0000E+00  0.0000E+00  2.9289E-03  0.0000E+00  0.0000E+00  0.0000E+00
 45  0.0000E+00  3.6817E-02  0.0000E+00  0.0000E+00  9.8386E-02  3.5444E-03  0.0000E+00  1.0950E-03  0.0000E+00
 46  0.0000E+00  1.5108E-01  0.0000E+00  5.2312E-01  1.2621E-01  0.0000E+00  0.0000E+00  0.0000E+00  1.4617E-01
 47  0.0000E+00  1.9938E+00  3.4011E-01  1.7140E+00  1.5663E+00  2.4166E-01  2.5228E+00  1.2389E+00  0.0000E+00
 48  9.6422E+00  1.0135E+01  1.2631E+01  1.6115E+01  1.2780E+01  1.0345E+01  1.3944E+01  1.1507E+01  1.0430E+01
 49  7.8525E+00  6.9733E+00  9.7497E+00  4.9010E+00  6.6728E+00  6.8694E+00  8.9781E+00  4.7427E+00  1.0024E+01
 50  6.1838E+00  1.3500E+00  1.5937E+00  0.0000E+00  0.0000E+00  2.4864E+00  0.0000E+00  0.0000E+00  0.0000E+00
 51  0.0000E+00  6.7263E-04  0.0000E+00  5.0623E-04  0.0000E+00  2.8288E-03  0.0000E+00  1.1147E-03  9.7887E-04
 52  0.0000E+00  3.2021E-04  0.0000E+00  1.2913E-03  5.2114E-04  1.0767E-03  1.2522E-04  3.1916E-04  7.6455E-04
 53  0.0000E+00  1.8759E-04  0.0000E+00  0.0000E+00  0.0000E+00  0.0000E+00  6.0662E-04  4.9464E-04  1.3296E-03
 54  0.0000E+00  1.0231E-03  0.0000E+00  0.0000E+00  6.3483E-04  2.3254E-03  7.2991E-04  0.0000E+00  8.1940E-04
 55  1.1225E-02  3.7543E-03  1.3681E-02  5.0373E-03  3.8438E-03  5.1102E-03  4.1115E-03  6.9132E-03  2.6610E-03
 56  0.0000E+00  1.9476E-03  8.6632E-05  0.0000E+00  7.5199E-04  0.0000E+00  8.8281E-03  5.2337E-03  0.0000E+00
 57  1.4281E-02  8.1736E-03  5.3883E-02  1.6532E-02  6.7438E-03  8.0081E-03  2.3216E-02  0.0000E+00  1.0240E-02
 58  0.0000E+00  1.9926E-03  0.0000E+00  0.0000E+00  0.0000E+00  0.0000E+00  0.0000E+00  0.0000E+00  0.0000E+00
 59  0.0000E+00  5.6684E-03  1.9050E-02  0.0000E+00  0.0000E+00  1.6156E-02  8.1914E-04  0.0000E+00  0.0000E+00
 60  0.0000E+00  1.2349E-02  0.0000E+00  7.9836E-03  0.0000E+00  3.8939E-02  0.0000E+00  5.8202E-02  0.0000E+00
 61  0.0000E+00  1.6452E-01  0.0000E+00  0.0000E+00  1.5736E-01  4.1302E-01  6.7268E-02  2.0960E-01  4.6430E-02
 62  0.0000E+00  5.9257E-01  1.4202E-01  0.0000E+00  0.0000E+00  1.3073E+00  1.8304E-01  0.0000E+00  4.9239E-01
 63  5.0697E+00  1.1155E+01  8.4741E+00  1.2424E+01  1.0661E+01  1.1156E+01  1.1723E+01  1.1506E+01  1.4218E+01
 64  2.4623E+00  3.4287E+00  1.9165E+00  0.0000E+00  3.6872E+00  5.4752E+00  1.0203E+00  4.7763E+00  2.2384E+00
 65  0.0000E+00  2.0024E+00  1.1263E+00  7.3553E+00  3.5516E+00  2.9764E+00  1.3364E+00  0.0000E+00  0.0000E+00
 66  2.0513E+01  1.1508E+01  1.3527E+01  9.3548E+00  1.1868E+01  9.2302E+00  1.0850E+01  1.2774E+01  1.0393E+01

# AV, chi2 & Mass for <> & i_chain = 1 ...  7 solutions
AV       0.0458      0.1463      0.1016      0.1381      0.1405      0.1450      0.1377      0.1361      0.1410
chi2 3.1081E-01  3.2081E-01  3.1771E-01  3.1860E-01  3.1855E-01  3.1906E-01  3.1847E-01  3.1845E-01  3.1851E-01
Mass 4.3350E-12  3.5152E-12  3.8405E-12  3.5227E-12  3.6856E-12  3.6757E-12  3.5961E-12  3.5618E-12  3.5997E-12
 -67.53                                  [v0_min (km/s) before EX0s...]
 205.14                                  [vd_min (km/s) before EX0s...]


## Synthetic spectrum (Best Model) ##l_obs f_obs f_syn wei
 3478    [Nl_obs]
 3741.00    0.61750   0.59645    0.000
 3742.00    0.58735   0.58226    0.000
 3743.00    0.54998   0.55936    0.000
 3744.00    0.51415   0.53280    0.000
 3745.00    0.48654   0.50746    4.890
 3746.00    0.46909   0.48788    5.060
 3747.00    0.46444   0.47835    5.102
 3748.00    0.47639   0.48238    4.996
 3749.00    0.50443   0.50127    4.864
 3750.00    0.54253   0.53285    4.863
 3751.00    0.58134   0.57127    4.972
 3752.00    0.61256   0.60845    5.015
 3753.00    0.63931   0.63654    4.940
 3754.00    0.66972   0.65051    4.866
 3755.00    0.69085   0.64996    4.877
 3756.00    0.67834   0.63917    4.980
 3757.00    0.64111   0.62508    5.083
 3758.00    0.61261   0.61404    5.064
 3759.00    0.59947   0.60932    5.003
 3760.00    0.58539   0.61031    5.075
 3761.00    0.57041   0.61414    5.210
 3762.00    0.56901   0.61774    5.182
 3763.00    0.58532   0.61925    5.057
 3764.00    0.61075   0.61839    5.068
 3765.00    0.63115   0.61621    5.199
 3766.00    0.63770   0.61452    5.265
 3767.00    0.64394   0.61528    5.239
 3768.00    0.66745   0.62002    5.242
 3769.00    0.69173   0.62938    5.356
 3770.00    0.68852   0.64298    5.574
 3771.00    0.66681   0.65938    5.744
 3772.00    0.65667   0.67655    5.702
 3773.00    0.67018   0.69278    5.586
 3774.00    0.70377   0.70741    5.601
 3775.00    0.75131   0.72088    5.670
 3776.00    0.80390   0.73404    5.600
 3777.00    0.84703   0.74742    5.398
 3778.00    0.86617   0.76065    5.214
 3779.00    0.85499   0.77236    5.186
 3780.00    0.81996   0.78042    5.357
 3781.00    0.78357   0.78250    5.575
 3782.00    0.76700   0.77688    5.644
 3783.00    0.76976   0.76302    5.635
 3784.00    0.77745   0.74205    5.707
 3785.00    0.77373   0.71703    5.847
 3786.00    0.75078   0.69212    5.952
 3787.00    0.71786   0.67093    5.972
 3788.00    0.69007   0.65507    5.929
 3789.00    0.67602   0.64375    5.903
 3790.00    0.67440   0.63435    5.945
 3791.00    0.67324   0.62382    6.007
 3792.00    0.66282   0.61006    6.017
 3793.00    0.64596   0.59290    5.954
 3794.00    0.62878   0.57447    5.893
 3795.00    0.61278   0.55863    5.992
 3796.00    0.59820   0.54983    6.268
 3797.00    0.58693   0.55180    6.420
 3798.00    0.58164   0.56620    6.273
 3799.00    0.58498   0.59168    6.155
 3800.00    0.60013   0.62385    6.275
 3801.00    0.62979   0.65667    6.443
 3802.00    0.66770   0.68459    6.457
 3803.00    0.69663   0.70447    6.404
 3804.00    0.70953   0.71635    6.434
 3805.00    0.71787   0.72266    6.608
 3806.00    0.72507   0.72644    6.852
 3807.00    0.71702   0.72942    6.947
 3808.00    0.69471   0.73087    6.832
 3809.00    0.68484   0.72826    6.729
 3810.00    0.70356   0.71913    6.768
 3811.00    0.74115   0.70287    6.873
 3812.00    0.77842   0.68159    6.932
 3813.00    0.79701   0.65914    6.905
 3814.00    0.78798   0.63888    6.869
 3815.00    0.75422   0.62203    6.980
 3816.00    0.70459   0.60817    7.245
 3817.00    0.65069   0.59640    7.465
 3818.00    0.60450   0.58615    7.518
 3819.00    0.57570   0.57712    7.486
 3820.00    0.56554   0.56895    7.463
 3821.00    0.56753   0.56099    7.467
 3822.00    0.57723   0.55222    7.452
 3823.00    0.59279   0.54205    7.366
 3824.00    0.60602   0.53101    7.312
 3825.00    0.60608   0.52054    7.470
 3826.00    0.59879   0.51179    7.758
 3827.00    0.60075   0.50439    7.834
 3828.00    0.60684   0.49670    7.638
 3829.00    0.59441   0.48711    7.454
 3830.00    0.55857   0.47519    7.487
 3831.00    0.51381   0.46216    7.779
 3832.00    0.47410   0.45041    8.094
 3833.00    0.44677   0.44219    8.052
 3834.00    0.43064   0.43872    7.839
 3835.00    0.41970   0.44033    7.917
 3836.00    0.41191   0.44706    8.183
 3837.00    0.41142   0.45925    8.155
 3838.00    0.42859   0.47774    7.863
 3839.00    0.47088   0.50279    7.695
 3840.00    0.52611   0.53315    7.743
 3841.00    0.57416   0.56601    7.881
 3842.00    0.61353   0.59774    7.962
 3843.00    0.65333   0.62511    7.894
 3844.00    0.69179   0.64605    7.729
 3845.00    0.71892   0.65968    7.601
 3846.00    0.72684   0.66656    7.624
 3847.00    0.71411   0.66866    0.000
 3848.00    0.68946   0.66838    0.000
 3849.00    0.66790   0.66728    0.000
 3850.00    0.66389   0.66571    0.000
 3851.00    0.68109   0.66303    0.000
 3852.00    0.70129   0.65800    0.000
 3853.00    0.70203   0.64970    0.000
 3854.00    0.67993   0.63822    0.000
 3855.00    0.64395   0.62449    0.000
 3856.00    0.60408   0.61076    0.000
 3857.00    0.56902   0.60058    0.000
 3858.00    0.54511   0.59740    0.000
 3859.00    0.53703   0.60278    0.000
 3860.00    0.54824   0.61547    0.000
 3861.00    0.57751   0.63201    0.000
 3862.00    0.61615   0.64815    0.000
 3863.00    0.65596   0.66039    0.000
 3864.00    0.69600   0.66683    0.000
 3865.00    0.73514   0.66716    0.000
 3866.00    0.76597   0.66210    0.000
 3867.00    0.78267   0.65276    0.000
 3868.00    0.78722   0.64086    0.000
 3869.00    0.78363   0.62901    0.000
 3870.00    0.77366   0.62045    0.000
 3871.00    0.76103   0.61749    0.000
 3872.00    0.75329   0.61991    0.000
 3873.00    0.75320   0.62499    0.000
 3874.00    0.75361   0.62906    0.000
 3875.00    0.74361   0.62967    0.000
 3876.00    0.71436   0.62697    0.000
 3877.00    0.66886   0.62231    0.000
 3878.00    0.62477   0.61684    0.000
 3879.00    0.59826   0.61184    0.000
 3880.00    0.59401   0.60803    0.000
 3881.00    0.60286   0.60427    9.312
 3882.00    0.60508   0.59792    9.119
 3883.00    0.59127   0.58780    9.129
 3884.00    0.56997   0.57530    9.275
 3885.00    0.55389   0.56311    9.332
 3886.00    0.55254   0.55513    9.055
 3887.00    0.56986   0.55564    8.610
 3888.00    0.60323   0.56664    8.431
 3889.00    0.64371   0.58669    8.562
 3890.00    0.67916   0.61177    8.634
 3891.00    0.70604   0.63707    8.474
 3892.00    0.73038   0.65885    8.285
 3893.00    0.75493   0.67584    8.252
 3894.00    0.77593   0.68836    8.418
 3895.00    0.78816   0.69696    8.648
 3896.00    0.78822   0.70273    8.687
 3897.00    0.77910   0.70700    8.586
 3898.00    0.76897   0.71047    8.655
 3899.00    0.76344   0.71262    8.936
 3900.00    0.76285   0.71289    9.166
 3901.00    0.76136   0.71151    9.191
 3902.00    0.75024   0.70902    9.099
 3903.00    0.72693   0.70724    9.060
 3904.00    0.69806   0.70925    9.195
 3905.00    0.68052   0.71707    9.434
 3906.00    0.69171   0.73052    9.562
 3907.00    0.72718   0.74769    9.541
 3908.00    0.76499   0.76590    9.519
 3909.00    0.78681   0.78234    9.623
 3910.00    0.78533   0.79439    9.899
 3911.00    0.76931   0.80061   10.257
 3912.00    0.75482   0.80088   10.511
 3913.00    0.74689   0.79558   10.552
 3914.00    0.74129   0.78548   10.419
 3915.00    0.73410   0.77145   10.270
 3916.00    0.72471   0.75417   10.221
 3917.00    0.71766   0.73464   10.144
 3918.00    0.71516   0.71466    9.869
 3919.00    0.70576   0.69637    9.516
 3920.00    0.67862   0.68103    9.292
 3921.00    0.64639   0.66820    9.230
 3922.00    0.62715   0.65560    9.249
 3923.00    0.61547   0.63990    9.227
 3924.00    0.59702   0.61817    9.101
 3925.00    0.57259   0.58881    8.977
 3926.00    0.54950   0.55217    8.988
 3927.00    0.52745   0.51039    9.136
 3928.00    0.50119   0.46661    9.304
 3929.00    0.46595   0.42445    9.292
 3930.00    0.41936   0.38772    9.041
 3931.00    0.36347   0.36015    8.821
 3932.00    0.31141   0.34500    8.845
 3933.00    0.29151   0.34436    8.991
 3934.00    0.32028   0.35850    9.086
 3935.00    0.37817   0.38556    9.200
 3936.00    0.43442   0.42195    9.434
 3937.00    0.47226   0.46286    9.681
 3938.00    0.49228   0.50335    9.827
 3939.00    0.51083   0.53971    9.961
 3940.00    0.53855   0.57038   10.142
 3941.00    0.56561   0.59594   10.194
 3942.00    0.58443   0.61895   10.028
 3943.00    0.60529   0.64218    9.871
 3944.00    0.63554   0.66607    9.882
 3945.00    0.66649   0.68936    9.950
 3946.00    0.69168   0.71127    9.902
 3947.00    0.71715   0.73154    9.670
 3948.00    0.74452   0.74935    9.385
 3949.00    0.76231   0.76333    9.312
 3950.00    0.76135   0.77307    9.492
 3951.00    0.74419   0.77966    9.624
 3952.00    0.72259   0.78351    9.472
 3953.00    0.71247   0.78336    9.147
 3954.00    0.71580   0.77867    8.896
 3955.00    0.71553   0.77005    8.922
 3956.00    0.69762   0.75721    9.181
 3957.00    0.66201   0.73835    9.331
 3958.00    0.62083   0.71143    9.207
 3959.00    0.59221   0.67622    9.035
 3960.00    0.57821   0.63498    0.000
 3961.00    0.56144   0.59013    0.000
 3962.00    0.53088   0.54300    0.000
 3963.00    0.49059   0.49481    0.000
 3964.00    0.45114   0.44747    0.000
 3965.00    0.42339   0.40419    0.000
 3966.00    0.40887   0.36941    0.000
 3967.00    0.40167   0.34798    0.000
 3968.00    0.40612   0.34364    0.000
 3969.00    0.43430   0.35759    0.000
 3970.00    0.47976   0.38825    0.000
 3971.00    0.52013   0.43193    0.000
 3972.00    0.54945   0.48422    0.000
 3973.00    0.58090   0.54058    0.000
 3974.00    0.62656   0.59684    0.000
 3975.00    0.68866   0.65023    0.000
 3976.00    0.75254   0.69896    0.000
 3977.00    0.79561   0.74136    0.000
 3978.00    0.81302   0.77595    0.000
 3979.00    0.81700   0.80192    0.000
 3980.00    0.82027   0.82019    0.000
 3981.00    0.83005   0.83345    9.423
 3982.00    0.84408   0.84437    9.172
 3983.00    0.85455   0.85467    9.034
 3984.00    0.85797   0.86510    9.064
 3985.00    0.85575   0.87603    9.178
 3986.00    0.85157   0.88724    9.197
 3987.00    0.84981   0.89708    8.961
 3988.00    0.85357   0.90519    8.534
 3989.00    0.86416   0.91233    8.024
 3990.00    0.88073   0.91798    7.356
 3991.00    0.90171   0.92106    6.636
 3992.00    0.92673   0.92082    6.361
 3993.00    0.95336   0.91789    6.884
 3994.00    0.97208   0.91378    7.952
 3995.00    0.97499   0.91069    8.653
 3996.00    0.96834   0.91144    8.841
 3997.00    0.96399   0.91762    9.155
 3998.00    0.96610   0.92730    9.482
 3999.00    0.97272   0.93696    9.385
 4000.00    0.98000   0.94399    9.174
 4001.00    0.98162   0.94582    9.293
 4002.00    0.96854   0.94042    9.587
 4003.00    0.94074   0.92991    9.695
 4004.00    0.91822   0.92064    9.620
 4005.00    0.92026   0.91747    9.529
 4006.00    0.94384   0.92100    9.438
 4007.00    0.97540   0.92972    9.320
 4008.00    1.00441   0.94165    9.237
 4009.00    1.02537   0.95454    9.230
 4010.00    1.03806   0.96627    9.246
 4011.00    1.04227   0.97594    9.219
 4012.00    1.03418   0.98342    9.160
 4013.00    1.01360   0.98921    9.159
 4014.00    0.98947   0.99324    9.366
 4015.00    0.97380   0.99529    9.774
 4016.00    0.97608   0.99680   10.036
 4017.00    0.99776   0.99853    9.906
 4018.00    1.02983   0.99908    9.640
 4019.00    1.06190   0.99772    9.460
 4020.00    1.08844   0.99508    9.285
 4021.00    1.10851   0.99170    9.086
 4022.00    1.12458   0.98803    9.013
 4023.00    1.13792   0.98572    9.080
 4024.00    1.14619   0.98569    9.069
 4025.00    1.14516   0.98615    8.973
 4026.00    1.13078   0.98389    9.136
 4027.00    1.10370   0.97542    9.632
 4028.00    1.07020   0.95930    9.974
 4029.00    1.03474   0.93907    9.831
 4030.00    0.99793   0.92053    9.521
 4031.00    0.96407   0.90843    9.394
 4032.00    0.94220   0.90662    9.574
 4033.00    0.93504   0.91668    9.913
 4034.00    0.93668   0.93687   10.008
 4035.00    0.94268   0.96226    9.743
 4036.00    0.95288   0.98615    9.449
 4037.00    0.96598   1.00284    9.381
 4038.00    0.97981   1.00923    9.583
 4039.00    1.00000   1.00525    9.820
 4040.00    1.03491   0.99246    9.692
 4041.00    1.06919   0.97180    9.358
 4042.00    1.07008   0.94528    9.369
 4043.00    1.03448   0.91884    9.730
 4044.00    0.99154   0.90149    9.918
 4045.00    0.96558   0.89955    9.817
 4046.00    0.96446   0.91158    9.801
 4047.00    0.97926   0.93185    9.838
 4048.00    0.99235   0.95456    9.577
 4049.00    0.99760   0.97397    9.189
 4050.00    1.00004   0.98554    9.126
 4051.00    1.00214   0.98814    9.388
 4052.00    1.00272   0.98313    9.623
 4053.00    1.00242   0.97352    9.656
 4054.00    1.00218   0.96274    9.582
 4055.00    0.99748   0.95258    9.536
 4056.00    0.98277   0.94442    9.606
 4057.00    0.96248   0.93949    9.792
 4058.00    0.94560   0.93656   10.017
 4059.00    0.93151   0.93216   10.161
 4060.00    0.91433   0.92346   10.139
 4061.00    0.89537   0.91150   10.042
 4062.00    0.88180   0.90193   10.027
 4063.00    0.88054   0.89969   10.118
 4064.00    0.89299   0.90427   10.247
 4065.00    0.90908   0.91333   10.342
 4066.00    0.91936   0.92562   10.329
 4067.00    0.93312   0.93834   10.130
 4068.00    0.96231   0.94663    9.789
 4069.00    0.99646   0.94786    9.574
 4070.00    1.01571   0.94482    9.684
 4071.00    1.01233   0.94148    9.971
 4072.00    0.99156   0.93749   10.151
 4073.00    0.96860   0.93073   10.167
 4074.00    0.95813   0.92165   10.120
 4075.00    0.96284   0.91376   10.084
 4076.00    0.97590   0.91196   10.103
 4077.00    0.98595   0.91918   10.221
 4078.00    0.98768   0.93442   10.388
 4079.00    0.99041   0.95374   10.372
 4080.00    1.00029   0.97205   10.080
 4081.00    1.00461   0.98625    9.810
 4082.00    0.99475   0.99683    9.834
 4083.00    0.98577   1.00621   10.145
 4084.00    0.99285   1.01680   10.571
 4085.00    1.01130   1.02968   10.846
 4086.00    1.03022   1.04348   10.791
 4087.00    1.04459   1.05490   10.507
 4088.00    1.05388   1.06097   10.238
 4089.00    1.05998   1.06049   10.198
 4090.00    1.06430   1.05346   10.415
 4091.00    1.06555   1.04103   10.654
 4092.00    1.05840   1.02390    0.000
 4093.00    1.03454   1.00134    0.000
 4094.00    0.99426   0.97404    0.000
 4095.00    0.95131   0.94445    0.000
 4096.00    0.91812   0.91423    0.000
 4097.00    0.89722   0.88401    0.000
 4098.00    0.88390   0.85491    0.000
 4099.00    0.87036   0.83016    0.000
 4100.00    0.85844   0.81562    0.000
 4101.00    0.86143   0.81583    0.000
 4102.00    0.88102   0.83006    0.000
 4103.00    0.90118   0.85413    0.000
 4104.00    0.91308   0.88292    0.000
 4105.00    0.92260   0.91087    0.000
 4106.00    0.93264   0.93386    0.000
 4107.00    0.93767   0.95043    0.000
 4108.00    0.93407   0.96151    0.000
 4109.00    0.92414   0.96965    0.000
 4110.00    0.91506   0.97747    0.000
 4111.00    0.91576   0.98639    0.000
 4112.00    0.92808   0.99593    0.000
 4113.00    0.94551   1.00430    9.935
 4114.00    0.95987   1.00990    9.853
 4115.00    0.96547   1.01148    9.903
 4116.00    0.96489   1.00837   10.084
 4117.00    0.96702   1.00237   10.348
 4118.00    0.97655   0.99715   10.574
 4119.00    0.99157   0.99441   10.610
 4120.00    1.00621   0.99378   10.449
 4121.00    1.01353   0.99512   10.238
 4122.00    1.01096   0.99823   10.148
 4123.00    1.00100   1.00146   10.296
 4124.00    0.98929   1.00204   10.639
 4125.00    0.98129   0.99818   10.974
 4126.00    0.97600   0.99023   11.080
 4127.00    0.96907   0.97957   10.878
 4128.00    0.96230   0.96753   10.603
 4129.00    0.95964   0.95527   10.608
 4130.00    0.95560   0.94456   11.107
 4131.00    0.94285   0.93865   12.141
 4132.00    0.93021   0.94032   13.245
 4133.00    0.93298   0.94993   13.518
 4134.00    0.95017   0.96529   13.021
 4135.00    0.97004   0.98179   12.560
 4136.00    0.98600   0.99519   12.499
 4137.00    0.99642   1.00286   12.741
 4138.00    1.00026   1.00252   12.732
 4139.00    0.99624   0.99334   12.065
 4140.00    0.98291   0.97654   11.321
 4141.00    0.96254   0.95631   11.067
 4142.00    0.94586   0.94011   11.102
 4143.00    0.94365   0.93384   11.047
 4144.00    0.95541   0.93704   10.997
 4145.00    0.97389   0.94515   11.166
 4146.00    0.99253   0.95399   11.368
 4147.00    1.00531   0.96062   11.299
 4148.00    1.00611   0.96377   11.005
 4149.00    0.99344   0.96403   10.709
 4150.00    0.97478   0.96228   10.560
 4151.00    0.95646   0.95918   10.613
 4152.00    0.93425   0.95606   10.831
 4153.00    0.90671   0.95489   11.103
 4154.00    0.88720   0.95723   11.247
 4155.00    0.88641   0.96355   11.168
 4156.00    0.89736   0.97391   10.989
 4157.00    0.91040   0.98730   10.882
 4158.00    0.92611   1.00125   10.928
 4159.00    0.94782   1.01360   11.100
 4160.00    0.97475   1.02345   11.248
 4161.00    1.00196   1.02993   11.255
 4162.00    1.02182   1.03141   11.157
 4163.00    1.03176   1.02774   11.037
 4164.00    1.03759   1.02050   10.938
 4165.00    1.03814   1.01068   10.919
 4166.00    1.01903   0.99947   11.066
 4167.00    0.97842   0.98843   11.368
 4168.00    0.93860   0.97706   11.631
 4169.00    0.91773   0.96347   11.662
 4170.00    0.91469   0.94763   11.441
 4171.00    0.92118   0.93270   11.132
 4172.00    0.92935   0.92291   10.984
 4173.00    0.93440   0.91967   11.103
 4174.00    0.93545   0.92156   11.395
 4175.00    0.93429   0.92655   11.636
 4176.00    0.93363   0.93342   11.568
 4177.00    0.93227   0.94196   11.244
 4178.00    0.92544   0.95129   11.026
 4179.00    0.91556   0.95907   11.112
 4180.00    0.91299   0.96424   11.443
 4181.00    0.92068   0.96806   11.808
 4182.00    0.93028   0.97172   11.906
 4183.00    0.93161   0.97473   11.673
 4184.00    0.91986   0.97580   11.341
 4185.00    0.90750   0.97425   11.107
 4186.00    0.91657   0.97270   11.038
 4187.00    0.94065   0.97485   11.067
 4188.00    0.94851   0.98019   11.065
 4189.00    0.93439   0.98572   11.059
 4190.00    0.92118   0.99038   11.198
 4191.00    0.92343   0.99407   11.417
 4192.00    0.93918   0.99396   11.445
 4193.00    0.95854   0.98661   11.192
 4194.00    0.96958   0.97283   10.840
 4195.00    0.96704   0.95633   10.693
 4196.00    0.95295   0.94000   10.977
 4197.00    0.93264   0.92630   11.471
 4198.00    0.91180   0.91811   11.619
 4199.00    0.89231   0.91594   11.405
 4200.00    0.87520   0.91874   11.274
 4201.00    0.86854   0.92719   11.336
 4202.00    0.88105   0.94119   11.440
 4203.00    0.90663   0.95810   11.568
 4204.00    0.93157   0.97591   11.753
 4205.00    0.95347   0.99348   11.780
 4206.00    0.97734   1.00890   11.442
 4207.00    1.00258   1.02013   11.057
 4208.00    1.02431   1.02605   11.018
 4209.00    1.03920   1.02758   11.194
 4210.00    1.04478   1.02635   11.260
 4211.00    1.03716   1.02256   11.322
 4212.00    1.01675   1.01632   11.635
 4213.00    0.99639   1.00949   12.032
 4214.00    0.98954   1.00568   12.124
 4215.00    0.99329   1.00881   11.890
 4216.00    0.99752   1.01825   11.572
 4217.00    0.99952   1.02823   11.335
 4218.00    1.00049   1.03337   11.259
 4219.00    0.99917   1.03031   11.365
 4220.00    0.99287   1.01588   11.610
 4221.00    0.97959   0.98904   11.848
 4222.00    0.95969   0.95331   11.929
 4223.00    0.93717   0.91480   11.852
 4224.00    0.91833   0.88029   11.734
 4225.00    0.90977   0.85810   11.715
 4226.00    0.91550   0.85619   11.855
 4227.00    0.93416   0.87449   12.043
 4228.00    0.95946   0.90350   12.160
 4229.00    0.98139   0.93362   12.231
 4230.00    0.99268   0.95871   12.262
 4231.00    0.99367   0.97455   12.121
 4232.00    0.98765   0.98168   11.822
 4233.00    0.97714   0.98347   11.671
 4234.00    0.96547   0.98163   11.836
 4235.00    0.95823   0.97931   12.126
 4236.00    0.96379   0.98112   12.290
 4237.00    0.99109   0.98782   12.267
 4238.00    1.03271   0.99831   12.140
 4239.00    1.05961   1.01231   12.038
 4240.00    1.05804   1.02778   12.009
 4241.00    1.04682   1.04098   11.991
 4242.00    1.04199   1.05051   11.966
 4243.00    1.03865   1.05558   12.028
 4244.00    1.02936   1.05293   12.197
 4245.00    1.01384   1.04155   12.347
 4246.00    0.99406   1.02490   12.395
 4247.00    0.97196   1.00731   12.394
 4248.00    0.95227   0.99136   12.387
 4249.00    0.94295   0.97924   12.362
 4250.00    0.95096   0.97375   12.376
 4251.00    0.97768   0.97354   12.556
 4252.00    1.00789   0.97401   12.791
 4253.00    1.01418   0.97445   12.712
 4254.00    0.99200   0.97745   12.259
 4255.00    0.96474   0.98270   11.778
 4256.00    0.94960   0.98609   11.499
 4257.00    0.94813   0.98515   11.458
 4258.00    0.95925   0.98318   11.594
 4259.00    0.98272   0.98543   11.783
 4260.00    1.01437   0.99570   11.871
 4261.00    1.04512   1.01344   11.766
 4262.00    1.06301   1.03260   11.611
 4263.00    1.05823   1.04712   11.662
 4264.00    1.03533   1.05402   11.887
 4265.00    1.00922   1.05070   12.016
 4266.00    0.98493   1.03538   12.050
 4267.00    0.95864   1.01077   12.231
 4268.00    0.93431   0.98088   12.530
 4269.00    0.92116   0.94901   12.663
 4270.00    0.91753   0.92126   12.548
 4271.00    0.91403   0.90542   12.342
 4272.00    0.90931   0.90343   12.155
 4273.00    0.90893   0.91178   12.021
 4274.00    0.91541   0.92920   11.992
 4275.00    0.92742   0.95366   12.101
 4276.00    0.94222   0.97853   12.279
 4277.00    0.95586   0.99750   12.397
 4278.00    0.96271   1.00752   12.429
 4279.00    0.95905   1.00999   12.421
 4280.00    0.94938   1.00908   12.387
 4281.00    0.94214   1.00579   12.319
 4282.00    0.94084   0.99932   12.236
 4283.00    0.94173   0.98910   12.191
 4284.00    0.93307   0.97513   12.272
 4285.00    0.90795   0.96034   12.473
 4286.00    0.88172   0.94671   12.506
 4287.00    0.87358   0.93325   12.130
 4288.00    0.87936   0.92102   11.624
 4289.00    0.88725   0.91480   11.356
 4290.00    0.90149   0.91683   11.371
 4291.00    0.92492   0.92328   11.557
 4292.00    0.93640   0.92738   -2.000
 4293.00    0.91497   0.92453   -2.000
 4294.00    0.86895   0.91505   -2.000
 4295.00    0.82159   0.89895   -2.000
 4296.00    0.79141   0.87570   -2.000
 4297.00    0.78234   0.84772   -2.000
 4298.00    0.77831   0.81936   -2.000
 4299.00    0.77006   0.79656   -2.000
 4300.00    0.77641   0.78174   -2.000
 4301.00    0.80077   0.77179   -2.000
 4302.00    0.79824   0.76496   -2.000
 4303.00    0.74389   0.76072   -2.000
 4304.00    0.68385   0.75689   -2.000
 4305.00    0.66403   0.75309   -2.000
 4306.00    0.67578   0.75086   -2.000
 4307.00    0.69547   0.75381   11.927
 4308.00    0.71619   0.76712   11.895
 4309.00    0.74152   0.79240   11.902
 4310.00    0.77846   0.82816   11.877
 4311.00    0.82837   0.87275   11.754
 4312.00    0.88330   0.92371   11.593
 4313.00    0.93808   0.97773   11.453
 4314.00    0.99501   1.03234   11.330
 4315.00    1.04598   1.08243   11.241
 4316.00    1.06854   1.11899   11.255
 4317.00    1.06149   1.13752   11.403
 4318.00    1.05489   1.13891   11.639
 4319.00    1.06027   1.12497   11.936
 4320.00    1.05461   1.09913   12.311
 4321.00    1.02793   1.06664   12.712
 4322.00    0.99867   1.03177   12.974
 4323.00    0.97700   1.00187   13.023
 4324.00    0.95483   0.98567   12.959
 4325.00    0.93577   0.98881   12.837
 4326.00    0.93987   1.01055   12.627
 4327.00    0.97127   1.04188   12.435
 4328.00    1.01169   1.07270   12.472
 4329.00    1.04512   1.09801   12.737
 4330.00    1.06627   1.11705    0.000
 4331.00    1.07666   1.12802    0.000
 4332.00    1.08055   1.12737    0.000
 4333.00    1.07704   1.11395    0.000
 4334.00    1.06126   1.08885    0.000
 4335.00    1.03592   1.05262    0.000
 4336.00    1.01016   1.00915    0.000
 4337.00    0.98626   0.96822    0.000
 4338.00    0.96055   0.93739    0.000
 4339.00    0.93630   0.92070    0.000
 4340.00    0.92313   0.92345    0.000
 4341.00    0.92654   0.94426    0.000
 4342.00    0.94496   0.97401    0.000
 4343.00    0.96939   1.00706    0.000
 4344.00    0.99048   1.04026    0.000
 4345.00    1.01377   1.06752    0.000
 4346.00    1.04917   1.08588    0.000
 4347.00    1.08289   1.09663    0.000
 4348.00    1.09213   1.09911    0.000
 4349.00    1.08456   1.09154    0.000
 4350.00    1.08586   1.07783    0.000
 4351.00    1.10258   1.06833   11.934
 4352.00    1.12298   1.06908   11.715
 4353.00    1.13101   1.07664   11.549
 4354.00    1.11838   1.08708   11.533
 4355.00    1.09910   1.10040   11.683
 4356.00    1.09470   1.11460   11.951
 4357.00    1.10851   1.12650   12.261
 4358.00    1.13110   1.13717   12.509
 4359.00    1.15388   1.14987   12.583
 4360.00    1.17156   1.16356   12.465
 4361.00    1.18260   1.17425   12.313
 4362.00    1.18533   1.18074   12.236
 4363.00    1.17363   1.18454   12.052
 4364.00    1.14648   1.18446   11.758
 4365.00    1.11883   1.17745   11.965
 4366.00    1.10541   1.16467   13.198
 4367.00    1.10212   1.15075   14.914
 4368.00    1.09809   1.13787   15.697
 4369.00    1.09041   1.12495   15.478
 4370.00    1.08121   1.11254   15.157
 4371.00    1.07304   1.10140   14.974
 4372.00    1.06699   1.09077   14.704
 4373.00    1.06164   1.08190   14.043
 4374.00    1.05652   1.07842   13.132
 4375.00    1.05462   1.08099   12.602
 4376.00    1.05648   1.08466   12.709
 4377.00    1.05566   1.08242   13.033
 4378.00    1.04400   1.07098   13.132
 4379.00    1.01632   1.05175   13.116
 4380.00    0.97313   1.02715   13.212
 4381.00    0.92212   0.99780   13.390
 4382.00    0.87619   0.96870   13.493
 4383.00    0.85050   0.95182   13.374
 4384.00    0.85323   0.95366   13.113
 4385.00    0.88054   0.96878   13.023
 4386.00    0.92272   0.98784   13.223
 4387.00    0.96857   1.00665   13.465
 4388.00    1.00804   1.02506   13.507
 4389.00    1.03372   1.04270   13.375
 4390.00    1.04158   1.05984   13.218
 4391.00    1.03254   1.07615   13.179
 4392.00    1.01849   1.08941   13.271
 4393.00    1.02009   1.09887   13.364
 4394.00    1.04208   1.10765   13.396
 4395.00    1.06770   1.11857   13.445
 4396.00    1.08683   1.12777   13.570
 4397.00    1.10410   1.12866   13.740
 4398.00    1.11909   1.12045   13.878
 4399.00    1.12214   1.10692   13.902
 4400.00    1.11190   1.09355   13.801
 4401.00    1.09806   1.08169   13.639
 4402.00    1.08550   1.06622   13.498
 4403.00    1.07183   1.04846   13.433
 4404.00    1.05957   1.03993   13.463
 4405.00    1.05636   1.04585   13.565
 4406.00    1.06169   1.05924   13.695
 4407.00    1.06754   1.07518   13.816
 4408.00    1.07368   1.09515   13.939
 4409.00    1.08649   1.11746   14.092
 4410.00    1.10237   1.13584   14.156
 4411.00    1.11038   1.14691   13.942
 4412.00    1.11184   1.15010   13.535
 4413.00    1.11797   1.14579   13.204
 4414.00    1.13071   1.14021   13.068
 4415.00    1.14358   1.14097   13.101
 4416.00    1.15502   1.14716   13.249
 4417.00    1.16708   1.15574   13.443
 4418.00    1.17533   1.16502   13.617
 4419.00    1.17269   1.17122   13.727
 4420.00    1.16153   1.17208   13.787
 4421.00    1.15103   1.16939   13.808
 4422.00    1.14685   1.16697   13.676
 4423.00    1.14823   1.16575   13.325
 4424.00    1.14691   1.16343   13.045
 4425.00    1.13564   1.16041   13.153
 4426.00    1.12235   1.15868   13.510
 4427.00    1.11991   1.15828   13.735
 4428.00    1.12598   1.15575   13.770
 4429.00    1.12995   1.14932   13.789
 4430.00    1.12822   1.14410   13.828
 4431.00    1.12238   1.14158   13.827
 4432.00    1.11331   1.13823   13.766
 4433.00    1.10272   1.13464   13.668
 4434.00    1.09607   1.13509   13.569
 4435.00    1.09831   1.14322   13.484
 4436.00    1.10812   1.15681   13.366
 4437.00    1.12050   1.16938   13.220
 4438.00    1.13069   1.17761   13.204
 4439.00    1.13574   1.18045   13.419
 4440.00    1.13561   1.17903   13.677
 4441.00    1.13385   1.17703   13.731
 4442.00    1.13762   1.17845   13.592
 4443.00    1.15259   1.18555   13.399
 4444.00    1.17802   1.19674   13.224
 4445.00    1.20842   1.20684   13.021
 4446.00    1.23578   1.21305   12.637
 4447.00    1.25305   1.21683   12.139
 4448.00    1.25675   1.21589   11.921
 4449.00    1.24575   1.20732   12.144
 4450.00    1.22057   1.19432   12.433
 4451.00    1.18834   1.17853   12.411
 4452.00    1.16443   1.15863   12.227
 4453.00    1.15650   1.13598   12.126
 4454.00    1.15473   1.11527   12.118
 4455.00    1.14743   1.10141   12.114
 4456.00    1.13217   1.09346   12.043
 4457.00    1.11411   1.08866   11.978
 4458.00    1.10325   1.08748   12.148
 4459.00    1.10640   1.09115   12.618
 4460.00    1.12250   1.09812   13.101
 4461.00    1.14339   1.10883    0.000
 4462.00    1.15669   1.12427    0.000
 4463.00    1.15727   1.13898    0.000
 4464.00    1.15197   1.14956    0.000
 4465.00    1.15152   1.15810    0.000
 4466.00    1.16436   1.16624    0.000
 4467.00    1.18734   1.17402    0.000
 4468.00    1.20621   1.18162    0.000
 4469.00    1.21630   1.19199    0.000
 4470.00    1.22702   1.20667    0.000
 4471.00    1.24144   1.22448    0.000
 4472.00    1.25195   1.24299    0.000
 4473.00    1.25739   1.25813    0.000
 4474.00    1.26520   1.26708    0.000
 4475.00    1.27398   1.27109    0.000
 4476.00    1.27255   1.27121    0.000
 4477.00    1.25873   1.26567    0.000
 4478.00    1.24151   1.25426    0.000
 4479.00    1.22666   1.24122    0.000
 4480.00    1.21520   1.23265    0.000
 4481.00    1.21301   1.23161    0.000
 4482.00    1.22747   1.23746   12.674
 4483.00    1.24990   1.24590   12.856
 4484.00    1.26063   1.25295   12.941
 4485.00    1.25578   1.25736   13.016
 4486.00    1.24667   1.25749   13.361
 4487.00    1.24052   1.25197   13.830
 4488.00    1.23793   1.24264   13.927
 4489.00    1.23892   1.23418   13.656
 4490.00    1.24234   1.22944   13.446
 4491.00    1.24179   1.22691   13.410
 4492.00    1.23162   1.22388   13.414
 4493.00    1.22064   1.22062   13.426
 4494.00    1.22328   1.22125   13.494
 4495.00    1.23746   1.22744   13.579
 4496.00    1.25180   1.23845   13.598
 4497.00    1.26635   1.25319   13.562
 4498.00    1.28777   1.26911   13.547
 4499.00    1.31488   1.28423   13.590
 4500.00    1.33883   1.29799   13.687
 4501.00    1.34807   1.31326   13.811
 4502.00    1.33803   1.33024   13.915
 4503.00    1.32369   1.34357   13.936
 4504.00    1.32275   1.35082   13.834
 4505.00    1.33026   1.35329   13.653
 4506.00    1.33366   1.35259   13.477
 4507.00    1.33692   1.34975   13.374
 4508.00    1.34847   1.34491   13.384
 4509.00    1.36275   1.33829   13.528
 4510.00    1.36886   1.32962   13.778
 4511.00    1.36340   1.31859   14.020
 4512.00    1.34869   1.30732   14.131
 4513.00    1.32916   1.29839   14.097
 4514.00    1.31022   1.29293   13.984
 4515.00    1.29701   1.29045   13.866
 4516.00    1.28824   1.28786   13.782
 4517.00    1.27208   1.28522   13.714
 4518.00    1.24457   1.28505   13.646
 4519.00    1.22430   1.28471   13.611
 4520.00    1.22560   1.27962   13.655
 4521.00    1.23645   1.26671   13.791
 4522.00    1.24022   1.24856   13.984
 4523.00    1.23407   1.22972   14.137
 4524.00    1.22049   1.20919   14.183
 4525.00    1.20050   1.18718   14.147
 4526.00    1.17944   1.16753   14.090
 4527.00    1.16956   1.15287   14.059
 4528.00    1.17527   1.14429   14.073
 4529.00    1.18536   1.14125   14.125
 4530.00    1.18857   1.14339   14.203
 4531.00    1.18383   1.15137   14.302
 4532.00    1.17839   1.16121   14.366
 4533.00    1.18416   1.17107   14.300
 4534.00    1.20517   1.18357   14.163
 4535.00    1.23280   1.20147   14.189
 4536.00    1.25808   1.22352   14.373
 4537.00    1.27771   1.24149   14.363
 4538.00    1.28997   1.25143   14.094
 4539.00    1.29348   1.25605   13.962
 4540.00    1.29153   1.25895   14.128
 4541.00    1.29158   1.26158   14.344
 4542.00    1.29348   1.26091   14.413
 4543.00    1.28744   1.25443   14.384
 4544.00    1.26727   1.24637   14.313
 4545.00    1.23656   1.24164   14.192
 4546.00    1.21073   1.23840   14.072
 4547.00    1.20973   1.23311   14.056
 4548.00    1.22988   1.22602   14.126
 4549.00    1.24480   1.22245   14.155
 4550.00    1.24348   1.22421    0.000
 4551.00    1.23647   1.22694    0.000
 4552.00    1.23282   1.23023    0.000
 4553.00    1.23441   1.23636    0.000
 4554.00    1.24218   1.24701    0.000
 4555.00    1.25773   1.26256    0.000
 4556.00    1.28233   1.28011    0.000
 4557.00    1.31337   1.29476    0.000
 4558.00    1.33631   1.30414    0.000
 4559.00    1.33367   1.30870    0.000
 4560.00    1.31194   1.31032    0.000
 4561.00    1.29535   1.30944    0.000
 4562.00    1.29592   1.30466    0.000
 4563.00    1.30946   1.29876    0.000
 4564.00    1.32300   1.29610    0.000
 4565.00    1.32551   1.29765    0.000
 4566.00    1.32542   1.30220    0.000
 4567.00    1.33848   1.30673    0.000
 4568.00    1.35806   1.30980    0.000
 4569.00    1.36493   1.31090    0.000
 4570.00    1.35524   1.30959    0.000
 4571.00    1.33807   1.31030    0.000
 4572.00    1.32241   1.31444    0.000
 4573.00    1.31385   1.31561    0.000
 4574.00    1.31277   1.31135    0.000
 4575.00    1.31730   1.30496    0.000
 4576.00    1.32780   1.29811    0.000
 4577.00    1.34361   1.28904    0.000
 4578.00    1.35779   1.27648    0.000
 4579.00    1.36241   1.26382    0.000
 4580.00    1.35653   1.25575    0.000
 4581.00    1.34493   1.25358    0.000
 4582.00    1.33503   1.25495    0.000
 4583.00    1.33094   1.25840    0.000
 4584.00    1.32780   1.26414    0.000
 4585.00    1.31971   1.27154    0.000
 4586.00    1.30889   1.28033    0.000
 4587.00    1.30065   1.28838    0.000
 4588.00    1.29704   1.29269    0.000
 4589.00    1.29581   1.29190    0.000
 4590.00    1.29090   1.28691    0.000
 4591.00    1.28016   1.28064    0.000
 4592.00    1.27120   1.27537    0.000
 4593.00    1.26991   1.27085    0.000
 4594.00    1.27111   1.26652    0.000
 4595.00    1.26936   1.26382    0.000
 4596.00    1.26782   1.26357    0.000
 4597.00    1.27401   1.26526    0.000
 4598.00    1.29437   1.26764    0.000
 4599.00    1.32263   1.26852    0.000
 4600.00    1.33586   1.27010    0.000
 4601.00    1.32470   1.27494    0.000
 4602.00    1.30940   1.28206    0.000
 4603.00    1.30714   1.29083    0.000
 4604.00    1.31370   1.30041    0.000
 4605.00    1.32362   1.31165    0.000
 4606.00    1.34048   1.32463    0.000
 4607.00    1.36231   1.33748    0.000
 4608.00    1.37644   1.34752    0.000
 4609.00    1.37825   1.35281    0.000
 4610.00    1.37787   1.35425    0.000
 4611.00    1.38254   1.35430    0.000
 4612.00    1.38991   1.35385    0.000
 4613.00    1.39884   1.35360    0.000
 4614.00    1.41229   1.35371    0.000
 4615.00    1.42686   1.35371    0.000
 4616.00    1.43178   1.35521    0.000
 4617.00    1.42385   1.35695    0.000
 4618.00    1.41069   1.35744    0.000
 4619.00    1.39906   1.35888    0.000
 4620.00    1.39073   1.36123    0.000
 4621.00    1.38454   1.36195    0.000
 4622.00    1.37872   1.36131    0.000
 4623.00    1.37553   1.36008    0.000
 4624.00    1.37998   1.35769    0.000
 4625.00    1.39064   1.35529    0.000
 4626.00    1.39993   1.35406    0.000
 4627.00    1.40360   1.35198    0.000
 4628.00    1.40287   1.34755    0.000
 4629.00    1.40229   1.34373    0.000
 4630.00    1.40506   1.34178    0.000
 4631.00    1.40323   1.33716    0.000
 4632.00    1.38545   1.32800    0.000
 4633.00    1.36170   1.31846    0.000
 4634.00    1.35260   1.31069    0.000
 4635.00    1.35132   1.30332    0.000
 4636.00    1.33388   1.29563    0.000
 4637.00    1.30041   1.28925    0.000
 4638.00    1.27189   1.28516    0.000
 4639.00    1.26445   1.28249    0.000
 4640.00    1.28052   1.28088    0.000
 4641.00    1.30303   1.27777    0.000
 4642.00    1.30983   1.27139    0.000
 4643.00    1.30102   1.26376    0.000
 4644.00    1.28963   1.25639    0.000
 4645.00    1.27787   1.24942    0.000
 4646.00    1.26293   1.24541    0.000
 4647.00    1.25204   1.24706    0.000
 4648.00    1.25507   1.25350    0.000
 4649.00    1.27028   1.26153    0.000
 4650.00    1.29006   1.26918    0.000
 4651.00    1.31157   1.27710    0.000
 4652.00    1.33268   1.28534    0.000
 4653.00    1.34522   1.29217    0.000
 4654.00    1.34237   1.29877    0.000
 4655.00    1.32875   1.30728    0.000
 4656.00    1.31707   1.31748    0.000
 4657.00    1.32169   1.32802    0.000
 4658.00    1.34499   1.33564    0.000
 4659.00    1.36535   1.33773    0.000
 4660.00    1.36268   1.33235    0.000
 4661.00    1.34434   1.31878    0.000
 4662.00    1.32547   1.29951    0.000
 4663.00    1.30788   1.27933    0.000
 4664.00    1.28761   1.26077    0.000
 4665.00    1.26387   1.24309    0.000
 4666.00    1.24253   1.22890    0.000
 4667.00    1.23693   1.22435    0.000
 4668.00    1.25486   1.23050    0.000
 4669.00    1.28890   1.24257    0.000
 4670.00    1.32573   1.25666    0.000
 4671.00    1.35458   1.27082    0.000
 4672.00    1.37253   1.28322    0.000
 4673.00    1.38591   1.29245    0.000
 4674.00    1.39544   1.29847    0.000
 4675.00    1.38950   1.30158    0.000
 4676.00    1.36565   1.30021    0.000
 4677.00    1.34082   1.29480    0.000
 4678.00    1.32689   1.28919    0.000
 4679.00    1.31888   1.28532    0.000
 4680.00    1.31251   1.28283    0.000
 4681.00    1.31240   1.28236    0.000
 4682.00    1.32045   1.28484    0.000
 4683.00    1.33095   1.28873    0.000
 4684.00    1.33870   1.29209    0.000
 4685.00    1.34234   1.29459    0.000
 4686.00    1.34048   1.29605    0.000
 4687.00    1.33120   1.29737    0.000
 4688.00    1.31791   1.29942    0.000
 4689.00    1.30919   1.30141    0.000
 4690.00    1.30766   1.30354    0.000
 4691.00    1.30848   1.30721    0.000
 4692.00    1.31111   1.31111    0.000
 4693.00    1.31993   1.31260    0.000
 4694.00    1.32981   1.31202    0.000
 4695.00    1.32713   1.30976    0.000
 4696.00    1.31056   1.30325    0.000
 4697.00    1.29218   1.29154    0.000
 4698.00    1.27866   1.27933    0.000
 4699.00    1.26881   1.27124    0.000
 4700.00    1.26444   1.26503    0.000
 4701.00    1.26981   1.25802    0.000
 4702.00    1.28084   1.25238    0.000
 4703.00    1.28674   1.25187    0.000
 4704.00    1.28210   1.25451    0.000
 4705.00    1.26899   1.25646    0.000
 4706.00    1.25397   1.25820    0.000
 4707.00    1.24494   1.26168    0.000
 4708.00    1.24554   1.26663    0.000
 4709.00    1.25460   1.27260    0.000
 4710.00    1.26761   1.28061    0.000
 4711.00    1.27983   1.28962    0.000
 4712.00    1.29151   1.29764    0.000
 4713.00    1.30547   1.30502    0.000
 4714.00    1.32048   1.31517    0.000
 4715.00    1.33248   1.32905    0.000
 4716.00    1.33902   1.34238    0.000
 4717.00    1.34374   1.35262    0.000
 4718.00    1.36146   1.36180    0.000
 4719.00    1.40091   1.37039    0.000
 4720.00    1.43761   1.37515    0.000
 4721.00    1.44063   1.37357    0.000
 4722.00    1.41707   1.36703    0.000
 4723.00    1.39145   1.35837    0.000
 4724.00    1.36855   1.34765    0.000
 4725.00    1.34382   1.33317    0.000
 4726.00    1.32314   1.31573    0.000
 4727.00    1.31482   1.30073    0.000
 4728.00    1.31689   1.29181    0.000
 4729.00    1.32297   1.28783    0.000
 4730.00    1.33066   1.28745    0.000
 4731.00    1.34009   1.29022    0.000
 4732.00    1.35109   1.29586    0.000
 4733.00    1.36130   1.30422    0.000
 4734.00    1.36504   1.31303    0.000
 4735.00    1.35789   1.31832    0.000
 4736.00    1.34152   1.32203    0.000
 4737.00    1.32578   1.32886    0.000
 4738.00    1.32793   1.33636    0.000
 4739.00    1.35226   1.34010    0.000
 4740.00    1.37630   1.34230    0.000
 4741.00    1.38295   1.34768    0.000
 4742.00    1.38385   1.35488    0.000
 4743.00    1.38988   1.35950    0.000
 4744.00    1.39074   1.36212    0.000
 4745.00    1.37953   1.36630    0.000
 4746.00    1.36822   1.37045    0.000
 4747.00    1.36608   1.37069    0.000
 4748.00    1.36667   1.36799    0.000
 4749.00    1.36297   1.36460    0.000
 4750.00    1.35659   1.35990    0.000
 4751.00    1.35197   1.35275    0.000
 4752.00    1.35171   1.34502    0.000
 4753.00    1.35205   1.33840    0.000
 4754.00    1.34451   1.33344    0.000
 4755.00    1.33697   1.32968    0.000
 4756.00    1.35486   1.32565    0.000
 4757.00    1.39293   1.32056    0.000
 4758.00    1.40628   1.31543    0.000
 4759.00    1.38001   1.30979    0.000
 4760.00    1.34830   1.30080    0.000
 4761.00    1.33471   1.28941   15.868
 4762.00    1.33249   1.28069   16.013
 4763.00    1.33367   1.27601   16.060
 4764.00    1.33841   1.27394   15.788
 4765.00    1.34365   1.27517   15.417
 4766.00    1.34251   1.28077   15.421
 4767.00    1.33833   1.28978   15.517
 4768.00    1.34337   1.30132   14.870
 4769.00    1.35768   1.31394   13.940
 4770.00    1.36908   1.32433   13.878
 4771.00    1.37573   1.33251   14.622
 4772.00    1.38728   1.34208   15.023
 4773.00    1.40703   1.35236   14.882
 4774.00    1.42801   1.35857   15.101
 4775.00    1.43726   1.36063   15.349
 4776.00    1.42338   1.36224   14.372
 4777.00    1.39231   1.36183   12.842
 4778.00    1.36396   1.35624   12.068
 4779.00    1.35412   1.34863   12.037
 4780.00    1.36630   1.34189   12.154
 4781.00    1.38419   1.33302   12.164
 4782.00    1.38373   1.32284   12.174
 4783.00    1.36196   1.31630   12.250
 4784.00    1.33497   1.31272   12.355
 4785.00    1.32089   1.30891   12.416
 4786.00    1.32949   1.30796   12.394
 4787.00    1.35029   1.31223   12.363
 4788.00    1.36467   1.31912   12.444
 4789.00    1.37093   1.32816   12.651
 4790.00    1.37769   1.33992   12.889
 4791.00    1.38567   1.35204   13.002
 4792.00    1.39065   1.36287   12.911
 4793.00    1.39281   1.37181   12.811
 4794.00    1.39607   1.37687   12.912
 4795.00    1.40452   1.37715   13.056
 4796.00    1.41647   1.37491   12.986
 4797.00    1.41816   1.37192   12.824
 4798.00    1.39952   1.36811   12.790
 4799.00    1.37470   1.36431   12.806
 4800.00    1.36471   1.36217   12.715
 4801.00    1.37310   1.36188   12.594
 4802.00    1.38993   1.36060   12.587
 4803.00    1.40051   1.35674   12.694
 4804.00    1.39549   1.35244   12.818
 4805.00    1.38003   1.35000   12.843
 4806.00    1.36469   1.34788   12.767
 4807.00    1.35505   1.34573   12.792
 4808.00    1.35179   1.34629   12.954
 4809.00    1.35193   1.35010   12.841
 4810.00    1.35220   1.35487   12.471
 4811.00    1.35204   1.36015   12.788
 4812.00    1.35455   1.36670   13.584
 4813.00    1.36628   1.37383   11.869
 4814.00    1.39072   1.38032    8.617
 4815.00    1.42299   1.38570    6.920
 4816.00    1.45012   1.38973    6.647
 4817.00    1.45420   1.39121    6.916
 4818.00    1.43222   1.38863    7.070
 4819.00    1.40585   1.38281    7.098
 4820.00    1.39247   1.37650    7.163
 4821.00    1.38732   1.36962    7.206
 4822.00    1.37739   1.36025    7.228
 4823.00    1.35268   1.35155    7.420
 4824.00    1.31694   1.34782    7.724
 4825.00    1.28993   1.34694    7.650
 4826.00    1.28674   1.34420    7.394
 4827.00    1.30689   1.34009    8.052
 4828.00    1.33925   1.33865   10.419
 4829.00    1.36744   1.33998   13.234
 4830.00    1.38171   1.33967   13.306
 4831.00    1.38285   1.33744   12.389
 4832.00    1.37303   1.33820   12.358
 4833.00    1.35306   1.34143   12.796
 4834.00    1.32943   1.34163   13.098
 4835.00    1.31403   1.33866   13.159
 4836.00    1.31088   1.33698   13.111
 4837.00    1.31255   1.33548   13.117
 4838.00    1.30773   1.33077   13.222
 4839.00    1.28883   1.32599   13.329
 4840.00    1.26780   1.32594   13.330
 4841.00    1.27021   1.32824   13.196
 4842.00    1.29796   1.32874   13.091
 4843.00    1.32707   1.32934   13.252
 4844.00    1.34068   1.33265   13.559
 4845.00    1.33719   1.33606   13.590
 4846.00    1.32290   1.33544   13.375
 4847.00    1.30869   1.33110   13.334
 4848.00    1.30728   1.32689    0.000
 4849.00    1.32616   1.32245    0.000
 4850.00    1.35213   1.31271    0.000
 4851.00    1.35927   1.29830    0.000
 4852.00    1.33778   1.28359    0.000
 4853.00    1.29658   1.26583    0.000
 4854.00    1.25271   1.24103    0.000
 4855.00    1.22260   1.21300    0.000
 4856.00    1.20920   1.18551    0.000
 4857.00    1.20492   1.15892    0.000
 4858.00    1.20292   1.13513    0.000
 4859.00    1.19948   1.11587    0.000
 4860.00    1.19381   1.10425    0.000
 4861.00    1.18784   1.10688    0.000
 4862.00    1.18583   1.12245    0.000
 4863.00    1.19186   1.14134    0.000
 4864.00    1.20588   1.16189    0.000
 4865.00    1.22359   1.18506    0.000
 4866.00    1.23751   1.20380    0.000
 4867.00    1.24284   1.21470    0.000
 4868.00    1.24512   1.22342    0.000
 4869.00    1.25215   1.22996    0.000
 4870.00    1.26182   1.23138    0.000
 4871.00    1.26981   1.23459    0.000
 4872.00    1.28117   1.24531    0.000
 4873.00    1.30178   1.25779    0.000
 4874.00    1.32652   1.26906    0.000
 4875.00    1.34385   1.28286   14.162
 4876.00    1.34349   1.29658   14.241
 4877.00    1.32538   1.30551   14.428
 4878.00    1.30673   1.31263   14.571
 4879.00    1.30196   1.31725   14.480
 4880.00    1.30331   1.31399   14.193
 4881.00    1.29884   1.30630   13.928
 4882.00    1.29066   1.30042   13.952
 4883.00    1.28691   1.29327   14.272
 4884.00    1.29259   1.28223   14.386
 4885.00    1.30623   1.27190   14.026
 4886.00    1.31889   1.26560   13.759
 4887.00    1.32406   1.26370   13.950
 4888.00    1.32499   1.26697   14.189
 4889.00    1.32823   1.27474   14.104
 4890.00    1.33814   1.28690   14.008
 4891.00    1.35448   1.30669   14.127
 4892.00    1.37218   1.33184   14.150
 4893.00    1.38883   1.35540   13.905
 4894.00    1.40791   1.37427   13.731
 4895.00    1.42744   1.38841   13.804
 4896.00    1.43547   1.39774   13.856
 4897.00    1.42716   1.40158   13.704
 4898.00    1.41256   1.39848   13.519
 4899.00    1.40260   1.39110   13.398
 4900.00    1.40070   1.38617   13.218
 4901.00    1.40083   1.38352   13.020
 4902.00    1.39061   1.37854   13.071
 4903.00    1.36955   1.37347   13.328
 4904.00    1.35220   1.37183   13.326
 4905.00    1.34149   1.36973   13.015
 4906.00    1.32415   1.36385   12.908
 4907.00    1.30340   1.35760   13.079
 4908.00    1.30393   1.35283   13.029
 4909.00    1.33454   1.34804   12.679
 4910.00    1.37791   1.34483   12.521
 4911.00    1.41047   1.34447   12.724
 4912.00    1.41502   1.34294   13.018
 4913.00    1.39681   1.33718   13.147
 4914.00    1.37811   1.32829   13.066
 4915.00    1.36245   1.31563   12.895
 4916.00    1.33492   1.29827   12.813
 4917.00    1.30039   1.27953   12.857
 4918.00    1.28278   1.26388   12.926
 4919.00    1.28839   1.25290   12.910
 4920.00    1.30319   1.24963   12.773
 4921.00    1.31558   1.25740   12.654
 4922.00    1.32200   1.27250   12.738
 4923.00    1.32469   1.28959   12.942
 4924.00    1.33104   1.31006   12.997
 4925.00    1.35340   1.33394   12.936
 4926.00    1.39894   1.35432   12.987
 4927.00    1.44785   1.36827   13.072
 4928.00    1.46840   1.37712   12.940
 4929.00    1.45843   1.37944   12.726
 4930.00    1.43673   1.37621   12.744
 4931.00    1.40869   1.36952   12.958
 4932.00    1.37259   1.35725   13.122
 4933.00    1.34369   1.34168   13.240
 4934.00    1.34047   1.33018   13.451
 4935.00    1.35348   1.32335   13.606
 4936.00    1.35959   1.31806   13.505
 4937.00    1.35392   1.31576   13.438
 4938.00    1.34517   1.32043   13.753
 4939.00    1.34002   1.33304   14.104
 4940.00    1.34261   1.34857    0.000
 4941.00    1.35699   1.36186    0.000
 4942.00    1.38272   1.37568    0.000
 4943.00    1.40904   1.39168    0.000
 4944.00    1.42361   1.40369    0.000
 4945.00    1.42473   1.41012    0.000
 4946.00    1.41926   1.41658    0.000
 4947.00    1.41771   1.42239    0.000
 4948.00    1.42627   1.42235    0.000
 4949.00    1.43888   1.41742    0.000
 4950.00    1.44344   1.41121    0.000
 4951.00    1.42997   1.40112    0.000
 4952.00    1.39675   1.38350    0.000
 4953.00    1.35503   1.36245    0.000
 4954.00    1.32084   1.34614    0.000
 4955.00    1.30602   1.33386    0.000
 4956.00    1.31198   1.32051    0.000
 4957.00    1.32617   1.31307    0.000
 4958.00    1.33606   1.31851    0.000
 4959.00    1.34024   1.32798    0.000
 4960.00    1.34157   1.33222    0.000
 4961.00    1.34116   1.33536    0.000
 4962.00    1.34040   1.34101    0.000
 4963.00    1.34243   1.34304    0.000
 4964.00    1.34988   1.33887    0.000
 4965.00    1.36278   1.33461    0.000
 4966.00    1.37544   1.33433    0.000
 4967.00    1.37676   1.33591    0.000
 4968.00    1.36380   1.33884    0.000
 4969.00    1.34805   1.34434    0.000
 4970.00    1.34155   1.35180    0.000
 4971.00    1.34861   1.35861    0.000
 4972.00    1.36621   1.36291    0.000
 4973.00    1.38468   1.36354    0.000
 4974.00    1.38902   1.35907    0.000
 4975.00    1.36385   1.35007    0.000
 4976.00    1.31347   1.33739    0.000
 4977.00    1.26467   1.31985    0.000
 4978.00    1.23568   1.29940    0.000
 4979.00    1.22538   1.28175    0.000
 4980.00    1.22897   1.26749    0.000
 4981.00    1.24334   1.25472    0.000
 4982.00    1.26039   1.24840    0.000
 4983.00    1.26825   1.25189    0.000
 4984.00    1.26531   1.25998    0.000
 4985.00    1.26184   1.26940    0.000
 4986.00    1.26643   1.28171    0.000
 4987.00    1.28082   1.29522    0.000
 4988.00    1.29909   1.30621    0.000
 4989.00    1.31103   1.31328    0.000
 4990.00    1.31308   1.31823    0.000
 4991.00    1.30982   1.32320    0.000
 4992.00    1.30845   1.32553    0.000
 4993.00    1.31353   1.32388    0.000
 4994.00    1.31791   1.32150    0.000
 4995.00    1.30966   1.31784    0.000
 4996.00    1.29536   1.31028    0.000
 4997.00    1.29300   1.30033    0.000
 4998.00    1.30123   1.28927    0.000
 4999.00    1.30480   1.27759    0.000
 5000.00    1.30328   1.26702    0.000
 5001.00    1.30736   1.25715    0.000
 5002.00    1.31745   1.24843    0.000
 5003.00    1.32675   1.24413    0.000
 5004.00    1.33601   1.24251    0.000
 5005.00    1.34988   1.24030    0.000
 5006.00    1.36483   1.24021    0.000
 5007.00    1.37138   1.24270    0.000
 5008.00    1.36204   1.24183    0.000
 5009.00    1.33390   1.23651    0.000
 5010.00    1.29076   1.23073    0.000
 5011.00    1.24461   1.22555    0.000
 5012.00    1.21659   1.21959    0.000
 5013.00    1.22044   1.21349    0.000
 5014.00    1.23969   1.21118    0.000
 5015.00    1.24729   1.21429    0.000
 5016.00    1.23667   1.21930    0.000
 5017.00    1.21990   1.22377    0.000
 5018.00    1.21884   1.23076    0.000
 5019.00    1.24516   1.24077    0.000
 5020.00    1.27955   1.24912    0.000
 5021.00    1.29497   1.25494    0.000
 5022.00    1.28540   1.26219    0.000
 5023.00    1.26169   1.27031    0.000
 5024.00    1.24253   1.27769    0.000
 5025.00    1.23997   1.28572    0.000
 5026.00    1.24722   1.29361    0.000
 5027.00    1.25446   1.30156    0.000
 5028.00    1.26375   1.31141    0.000
 5029.00    1.27879   1.32063   14.736
 5030.00    1.29509   1.32455   14.733
 5031.00    1.30455   1.32378   14.993
 5032.00    1.30068   1.32052   15.118
 5033.00    1.28304   1.31268   14.877
 5034.00    1.25963   1.29757   14.720
 5035.00    1.23926   1.27855   14.941
 5036.00    1.22623   1.26116   15.208
 5037.00    1.22347   1.24589   15.242
 5038.00    1.23373   1.23465   15.305
 5039.00    1.25075   1.23012   15.558
 5040.00    1.25701   1.23219   15.684
 5041.00    1.24627   1.24283   15.520
 5042.00    1.23404   1.26044   15.388
 5043.00    1.23607   1.27641   15.458
 5044.00    1.25551   1.28805   15.493
 5045.00    1.28366   1.29961   15.391
 5046.00    1.30419   1.30764   15.402
 5047.00    1.30990   1.30742   15.603
 5048.00    1.30821   1.30476   15.728
 5049.00    1.30595   1.30572   15.637
 5050.00    1.30332   1.30858   15.504
 5051.00    1.30142   1.31231   15.487
 5052.00    1.30404   1.31996   15.599
 5053.00    1.31072   1.33178   15.782
 5054.00    1.31573   1.34403   15.951
 5055.00    1.31604   1.35399   16.062
 5056.00    1.31399   1.36228   16.139
 5057.00    1.31552   1.36880   16.235
 5058.00    1.32638   1.37140   16.347
 5059.00    1.34236   1.36878   16.181
 5060.00    1.35160   1.36132   15.544
 5061.00    1.35288   1.35172   15.573
 5062.00    1.35572   1.34192   17.761
 5063.00    1.36194   1.32910   18.463
 5064.00    1.36351   1.31503   12.456
 5065.00    1.35309   1.30715    8.188
 5066.00    1.32881   1.30409    7.067
 5067.00    1.29810   1.29860    7.494
 5068.00    1.27481   1.29419    8.047
 5069.00    1.26943   1.29716    7.967
 5070.00    1.28380   1.29978    7.686
 5071.00    1.30523   1.29575    7.601
 5072.00    1.31538   1.29228    7.733
 5073.00    1.31234   1.29204    7.727
 5074.00    1.30595   1.28626    7.351
 5075.00    1.29772   1.27340    7.432
 5076.00    1.28258   1.26357    9.326
 5077.00    1.26086   1.25747   14.220
 5078.00    1.23945   1.24785   18.125
 5079.00    1.22922   1.23907   16.399
 5080.00    1.23876   1.23993   15.022
 5081.00    1.26449   1.24673   15.217
 5082.00    1.29332   1.25296   15.603
 5083.00    1.31019   1.26236   15.587
 5084.00    1.30707   1.27735   15.406
 5085.00    1.29404   1.29248   15.321
 5086.00    1.28539   1.30407   15.415
 5087.00    1.27824   1.31449   15.535
 5088.00    1.26504   1.32504   15.516
 5089.00    1.25411   1.33286   15.494
 5090.00    1.25923   1.33593   15.624
 5091.00    1.28315   1.33563   15.692
 5092.00    1.31831   1.33326   15.480
 5093.00    1.35075   1.32734   15.242
 5094.00    1.36726   1.31682   15.299
 5095.00    1.36306   1.30484   15.604
 5096.00    1.34408   1.29581   15.918
 5097.00    1.32696   1.28848   16.026
 5098.00    1.32203   1.28146   15.893
 5099.00    1.31837   1.27822   15.758
 5100.00    1.30547   1.27910   15.807
 5101.00    1.29290   1.27996   15.920
 5102.00    1.29016   1.27891   15.895
 5103.00    1.28895   1.27702   15.682
 5104.00    1.27728   1.27573   15.438
 5105.00    1.25302   1.27379   15.466
 5106.00    1.22786   1.26975   15.796
 5107.00    1.22589   1.26897   15.928
 5108.00    1.25470   1.27310   15.613
 5109.00    1.28910   1.27772   15.394
 5110.00    1.30731   1.28501   15.634
 5111.00    1.31412   1.29659   16.040
 5112.00    1.32118   1.30787   16.214
 5113.00    1.33268   1.31796   16.106
 5114.00    1.34288   1.32746   15.904
 5115.00    1.33833   1.33305   15.847
 5116.00    1.31696   1.33358   15.969
 5117.00    1.29491   1.33039   16.026
 5118.00    1.28416   1.32251   15.878
 5119.00    1.28191   1.30903   15.667
 5120.00    1.27999   1.29338   15.562
 5121.00    1.27098   1.27869   15.643
 5122.00    1.25270   1.26373   15.914
 5123.00    1.22971   1.24987   16.281
 5124.00    1.21100   1.24136   16.458
 5125.00    1.20563   1.23736   16.086
 5126.00    1.20992   1.23572   15.409
 5127.00    1.20825   1.23862   15.088
 5128.00    1.19725   1.24520   15.208
 5129.00    1.19019   1.25193   15.293
 5130.00    1.19712   1.25976   15.188
 5131.00    1.21800   1.26880   15.226
 5132.00    1.24536   1.27390   15.546
 5133.00    1.26824   1.27575   15.968
 5134.00    1.28096   1.27710   16.368
 5135.00    1.28411   1.27343   16.756
 5136.00    1.27840   1.26773   16.998
 5137.00    1.26425   1.26326   16.892
 5138.00    1.24585   1.25465   16.671
 5139.00    1.23065   1.24705   16.804
 5140.00    1.22469   1.24559   17.198
 5141.00    1.22943   1.24160   17.311
 5142.00    1.23731   1.23576   17.087
 5143.00    1.23707   1.23584   16.939
 5144.00    1.22824   1.23671   17.019
 5145.00    1.21990   1.23458   17.182
 5146.00    1.21980   1.23345   17.225
 5147.00    1.23102   1.23364   17.008
 5148.00    1.25041   1.23430   16.599
 5149.00    1.27052   1.23559   16.192
 5150.00    1.28421   1.23757   15.940
 5151.00    1.28826   1.24251   15.902
 5152.00    1.28789   1.25091   16.016
 5153.00    1.29246   1.26086   16.156
 5154.00    1.30660   1.27169   16.254
 5155.00    1.32821   1.28245   16.292
 5156.00    1.34805   1.29245   16.267
 5157.00    1.35610   1.29849   16.214
 5158.00    1.35091   1.29628   16.245
 5159.00    1.33643   1.28781   16.412
 5160.00    1.31526   1.27315   16.518
 5161.00    1.28679   1.24793   16.367
 5162.00    1.24634   1.21475   16.153
 5163.00    1.19159   1.17865   16.118
 5164.00    1.13045   1.14077   16.122
 5165.00    1.07466   1.10431   15.971
 5166.00    1.03129   1.07430   15.829
 5167.00    1.00480   1.05007   15.880
 5168.00    0.99991   1.03159   15.956
 5169.00    1.01570   1.02580   15.874
 5170.00    1.04023   1.03303   15.813
 5171.00    1.06232   1.04501   15.966
 5172.00    1.08313   1.06206   16.204
 5173.00    1.10843   1.08861   16.289
 5174.00    1.14012   1.11647   16.152
 5175.00    1.17439   1.13613   15.876
 5176.00    1.20138   1.14994   15.616
 5177.00    1.21031   1.15938   15.491
 5178.00    1.19445   1.15787   15.520
 5179.00    1.15605   1.14425   15.679
 5180.00    1.10889   1.13063   15.933
 5181.00    1.06995   1.12364   16.224
 5182.00    1.05254   1.11849   16.454
 5183.00    1.06179   1.11922   16.497
 5184.00    1.09255   1.13133   16.265
 5185.00    1.13430   1.15074   15.932
 5186.00    1.17513   1.17218   15.915
 5187.00    1.20584   1.19013   16.260
 5188.00    1.22269   1.20399   16.427
 5189.00    1.22945   1.21803   16.350
 5190.00    1.23653   1.22738    0.000
 5191.00    1.25036   1.22835    0.000
 5192.00    1.26890   1.23256    0.000
 5193.00    1.28779   1.24249    0.000
 5194.00    1.30388   1.24884    0.000
 5195.00    1.31655   1.25562    0.000
 5196.00    1.32687   1.26709    0.000
 5197.00    1.33157   1.27476    0.000
 5198.00    1.32334   1.27607    0.000
 5199.00    1.30305   1.27568    0.000
 5200.00    1.28138   1.26945    0.000
 5201.00    1.26450   1.25451    0.000
 5202.00    1.25049   1.23924    0.000
 5203.00    1.23704   1.22507    0.000
 5204.00    1.22379   1.20760    0.000
 5205.00    1.21015   1.19542    0.000
 5206.00    1.19587   1.19389    0.000
 5207.00    1.18518   1.19632    0.000
 5208.00    1.18481   1.20385    0.000
 5209.00    1.19399   1.22009    0.000
 5210.00    1.20488   1.23909    0.000
 5211.00    1.21233   1.25609   17.379
 5212.00    1.21620   1.27313   17.546
 5213.00    1.21964   1.28920   17.727
 5214.00    1.22791   1.30155   17.739
 5215.00    1.24646   1.31088   17.521
 5216.00    1.27795   1.31805   17.158
 5217.00    1.31654   1.32316   16.823
 5218.00    1.34961   1.32484   16.666
 5219.00    1.36470   1.32137   16.659
 5220.00    1.35535   1.31369   16.651
 5221.00    1.32952   1.30346   16.530
 5222.00    1.30318   1.28896   16.303
 5223.00    1.28472   1.27251   16.170
 5224.00    1.27403   1.26226   16.300
 5225.00    1.26666   1.25603   16.460
 5226.00    1.25892   1.25141   16.308
 5227.00    1.25471   1.25611   16.048
 5228.00    1.26025   1.26650   16.056
 5229.00    1.27364   1.27504   16.196
 5230.00    1.28651   1.28661   16.141
 5231.00    1.28935   1.30057   15.994
 5232.00    1.27876   1.31133   16.014
 5233.00    1.26591   1.32205   16.109
 5234.00    1.26568   1.33460   16.058
 5235.00    1.28100   1.34538   15.901
 5236.00    1.30726   1.35518   15.773
 5237.00    1.34037   1.36552   15.659
 5238.00    1.37257   1.37288   15.533
 5239.00    1.38760   1.37606   15.522
 5240.00    1.37651   1.37781   15.676
 5241.00    1.35414   1.37755   15.722
 5242.00    1.33984   1.37133   15.502
 5243.00    1.33619   1.36104   15.410
 5244.00    1.33748   1.35264   15.726
 5245.00    1.34022   1.34275   16.025
 5246.00    1.34211   1.32840   15.911
 5247.00    1.34047   1.31819   15.810
 5248.00    1.33385   1.31371   16.112
 5249.00    1.32374   1.30938   16.479
 5250.00    1.31645   1.30785   16.530
 5251.00    1.32286   1.31202   16.508
 5252.00    1.34566   1.31953   16.683
 5253.00    1.37139   1.32764   16.875
 5254.00    1.38555   1.33485   16.898
 5255.00    1.38364   1.34073   16.889
 5256.00    1.36786   1.34333   16.967
 5257.00    1.34364   1.33903   17.016
 5258.00    1.31522   1.32673   16.928
 5259.00    1.28370   1.30845   16.763
 5260.00    1.25142   1.28602   16.617
 5261.00    1.22386   1.25900   16.521
 5262.00    1.20393   1.22906   16.396
 5263.00    1.18947   1.20449   16.096
 5264.00    1.17752   1.18643   15.808
 5265.00    1.16679   1.16822   16.041
 5266.00    1.15810   1.15740   16.882
 5267.00    1.15408   1.16097   17.664
 5268.00    1.15694   1.16684   17.743
 5269.00    1.16780   1.17425   17.185
 5270.00    1.18820   1.19461   16.324
 5271.00    1.21955   1.21890   15.417
 5272.00    1.25788   1.23913   14.683
 5273.00    1.29375   1.26382   14.262
 5274.00    1.32029   1.28954   14.010
 5275.00    1.33635   1.30821   13.637
 5276.00    1.34613   1.32370   13.328
 5277.00    1.35661   1.33689   13.579
 5278.00    1.36983   1.34493   14.260
 5279.00    1.38139   1.34941   14.511
 5280.00    1.38450   1.35272   14.165
 5281.00    1.37416   1.35731   13.939
 5282.00    1.35532   1.36409   14.000
 5283.00    1.34118   1.37212   13.971
 5284.00    1.34138   1.38281   13.844
 5285.00    1.35828   1.39597   13.953
 5286.00    1.38632   1.40778   14.250
 5287.00    1.41418   1.41688   14.354
 5288.00    1.43082   1.42323   14.257
 5289.00    1.42980   1.42484   14.288
 5290.00    1.41571   1.42098   14.519
 5291.00    1.39995   1.41258   14.770
 5292.00    1.38841   1.40057   14.898
 5293.00    1.38016   1.38536   14.885
 5294.00    1.37065   1.36890   14.852
 5295.00    1.35725   1.35522   14.929
 5296.00    1.34829   1.34492   15.029
 5297.00    1.35469   1.33782   14.993
 5298.00    1.37214   1.33787   14.927
 5299.00    1.38778   1.34495   15.031
 5300.00    1.39705   1.35481   15.215
 5301.00    1.40296   1.36779   15.252
 5302.00    1.41035   1.38397   15.156
 5303.00    1.42191   1.39895   15.082
 5304.00    1.43398   1.41171   15.068
 5305.00    1.44180   1.42329   15.080
 5306.00    1.44746   1.43161   15.128
 5307.00    1.45391   1.43665   15.251
 5308.00    1.45602   1.44004   15.478
 5309.00    1.44778   1.44041   15.777
 5310.00    1.43247   1.43825   15.984
 5311.00    1.41955   1.43546   15.977
 5312.00    1.41885   1.43056   15.894
 5313.00    1.43085   1.42410   15.909
 5314.00    1.43837   1.41850   15.983
 5315.00    1.42677   1.41214   16.043
 5316.00    1.40459   1.40433   16.172
 5317.00    1.38835   1.39666   16.440
 5318.00    1.38546   1.38843   16.710
 5319.00    1.39346   1.37795   16.827
 5320.00    1.40159   1.36415   16.831
 5321.00    1.39978   1.34843   16.849
 5322.00    1.38604   1.33294   16.959
 5323.00    1.36336   1.31527   17.151
 5324.00    1.33636   1.29641   17.306
 5325.00    1.30912   1.28378   17.348
 5326.00    1.28408   1.27722   17.360
 5327.00    1.26544   1.27360   17.379
 5328.00    1.26058   1.27777   17.292
 5329.00    1.27293   1.29062   17.091
 5330.00    1.29763   1.30639   16.990
 5331.00    1.32563   1.32321   17.083
 5332.00    1.34762   1.33995   17.184
 5333.00    1.36014   1.35348   17.148
 5334.00    1.36753   1.36326   17.046
 5335.00    1.37266   1.36834   16.952
 5336.00    1.37303   1.36757   16.835
 5337.00    1.36921   1.36521   16.699
 5338.00    1.36746   1.36313   16.619
 5339.00    1.37044   1.35877   16.559
 5340.00    1.37358   1.35580   16.360
 5341.00    1.37063   1.35656   16.052
 5342.00    1.35814   1.35709   15.874
 5343.00    1.34287   1.35877   15.855
 5344.00    1.34005   1.36266   15.763
 5345.00    1.35358   1.36568   15.553
 5346.00    1.37239   1.37019   15.435
 5347.00    1.38857   1.37783   15.484
 5348.00    1.40244   1.38581   15.584
 5349.00    1.41490   1.39535   15.704
 5350.00    1.42523   1.40857   15.914
 5351.00    1.43382   1.42254   16.103
 5352.00    1.44272   1.43492   16.014
 5353.00    1.45424   1.44699   15.769
 5354.00    1.46931   1.45755   15.767
 5355.00    1.48384   1.46357   15.987
 5356.00    1.49057   1.46587   16.038
 5357.00    1.48709   1.46479   15.889
 5358.00    1.47571   1.45899   15.863
 5359.00    1.45708   1.45035   16.051
 5360.00    1.43062   1.43939   16.297
 5361.00    1.39970   1.42545   16.496
 5362.00    1.37122   1.41143   16.648
 5363.00    1.35146   1.39742   16.769
 5364.00    1.34407   1.38209   16.859
 5365.00    1.34787   1.36862   16.869
 5366.00    1.35725   1.35732   16.777
 5367.00    1.36415   1.34685   16.747
 5368.00    1.36203   1.34108   16.949
 5369.00    1.35254   1.34100   17.191
 5370.00    1.34163   1.34382   17.147
 5371.00    1.33044   1.35186   16.985
 5372.00    1.31921   1.36514   17.075
 5373.00    1.31624   1.37813   17.346
 5374.00    1.33085   1.39088   17.471
 5375.00    1.36024   1.40353   17.357
 5376.00    1.39274   1.41153   17.142
 5377.00    1.41620   1.41597   17.023
 5378.00    1.42340   1.41916   17.112
 5379.00    1.41738   1.41858   17.304
 5380.00    1.40641   1.41605   -2.000
 5381.00    1.39619   1.41460   -2.000
 5382.00    1.38854   1.41164   -2.000
 5383.00    1.38148   1.40744   -2.000
 5384.00    1.37293   1.40433   -2.000
 5385.00    1.36496   1.39972   -2.000
 5386.00    1.36206   1.39271   -2.000
 5387.00    1.36820   1.38536   -2.000
 5388.00    1.38115   1.37710   -2.000
 5389.00    1.38797   1.36701   -2.000
 5390.00    1.37747   1.35641   -2.000
 5391.00    1.35232   1.34735   -2.000
 5392.00    1.32376   1.33911   -2.000
 5393.00    1.30479   1.33032   -2.000
 5394.00    1.30207   1.32484   15.875
 5395.00    1.31024   1.32311   16.105
 5396.00    1.32037   1.32004   15.994
 5397.00    1.32721   1.31826   15.715
 5398.00    1.32990   1.31973   15.568
 5399.00    1.33125   1.31807   15.684
 5400.00    1.33239   1.31338   15.971
 5401.00    1.32952   1.30949   16.092
 5402.00    1.31884   1.30364   15.939
 5403.00    1.30052   1.29630   15.885
 5404.00    1.28114   1.29191   16.119
 5405.00    1.27316   1.28997   16.333
 5406.00    1.28267   1.29081   16.297
 5407.00    1.30344   1.29702   16.204
 5408.00    1.32490   1.30684   16.250
 5409.00    1.33823   1.31858   16.408
 5410.00    1.34361   1.33329   16.570
 5411.00    1.35106   1.34889   16.626
 5412.00    1.36637   1.36342   16.574
 5413.00    1.38573   1.37689   16.532
 5414.00    1.40426   1.38787   16.620
 5415.00    1.41994   1.39640   16.886
 5416.00    1.43267   1.40231   17.217
 5417.00    1.44314   1.40443   17.358
 5418.00    1.45044   1.40516   17.265
 5419.00    1.45169   1.40453   17.174
 5420.00    1.44450   1.40099   17.214
 5421.00    1.42815   1.39806   17.318
 5422.00    1.40437   1.39505   17.399
 5423.00    1.37734   1.38951   17.434
 5424.00    1.35286   1.38498   17.514
 5425.00    1.33711   1.37922   17.765
 5426.00    1.33376   1.37050   18.033
 5427.00    1.34199   1.36369   17.960
 5428.00    1.35348   1.35574   17.655
 5429.00    1.35582   1.34635   17.579
 5430.00    1.34416   1.34191   17.787
 5431.00    1.32294   1.33976   17.966
 5432.00    1.30182   1.33921   18.014
 5433.00    1.29191   1.34461   18.025
 5434.00    1.29972   1.35404   17.825
 5435.00    1.32427   1.36561   17.210
 5436.00    1.35453   1.37932   16.623
 5437.00    1.37623   1.39311   16.634
 5438.00    1.38782   1.40466   16.989
 5439.00    1.39741   1.41228   16.979
 5440.00    1.40977   1.41481   16.669
 5441.00    1.42330   1.41260   16.610
 5442.00    1.42976   1.40602   16.801
 5443.00    1.41976   1.39595   16.879
 5444.00    1.39264   1.38602   16.743
 5445.00    1.35641   1.37728   16.539
 5446.00    1.32438   1.36927   16.395
 5447.00    1.30819   1.36498   16.366
 5448.00    1.30821   1.36297   16.438
 5449.00    1.31838   1.36053   16.548
 5450.00    1.33568   1.35946   16.641
 5451.00    1.35825   1.35792   16.689
 5452.00    1.38118   1.35506   16.721
 5453.00    1.39756   1.35397   16.764
 5454.00    1.40100   1.35336   16.770
 5455.00    1.38933   1.35316   16.689
 5456.00    1.36843   1.35542   16.574
 5457.00    1.34755   1.35824   16.534
 5458.00    1.33335   1.36083   16.668
 5459.00    1.32983   1.36294   16.946
 5460.00    1.33868   1.36446   17.092
 5461.00    1.35704   1.36646   16.931
 5462.00    1.37558   1.36725   16.753
 5463.00    1.38428   1.36767   16.827
 5464.00    1.37842   1.36988   16.995
 5465.00    1.36104   1.37106   17.047
 5466.00    1.34364   1.37020   17.082
 5467.00    1.33721   1.36916   17.180
 5468.00    1.34460   1.36694   17.126
 5469.00    1.36218   1.36120   16.866
 5470.00    1.38240   1.35344   16.791
 5471.00    1.39885   1.34670   17.097
 5472.00    1.40968   1.33841   17.409
 5473.00    1.41500   1.32897   17.430
 5474.00    1.41465   1.32378   17.441
 5475.00    1.40770   1.32059   17.666
 5476.00    1.39268   1.31792   17.878
 5477.00    1.37185   1.31956   17.915
 5478.00    1.35263   1.32428   17.983
 5479.00    1.34081   1.32970   18.127
 5480.00    1.33759   1.33619   18.010
 5481.00    1.34615   1.34392   17.625
 5482.00    1.37142   1.35190   17.470
 5483.00    1.39912   1.35810   17.536
 5484.00    1.39883   1.36328   17.153
 5485.00    1.39213   1.36879   16.547
 5486.00    1.44721   1.37202   16.780
 5487.00    1.50058   1.37340   17.135
 5488.00    1.37775   1.37622   14.643
 5489.00    1.23430   1.37786    9.866
 5490.00    1.56517   1.37756   -2.000
 5491.00    2.46600   1.37882   -2.000
 5492.00    3.50751   1.37983   -2.000
 5493.00    4.42234   1.37875   -2.000
 5494.00    5.25801   1.37804   -2.000
 5495.00    5.95812   1.37796   -2.000
 5496.00    6.26640   1.37620   -2.000
 5497.00    5.92852   1.37338   -2.000
 5498.00    4.83207   1.37159   -2.000
 5499.00    3.21312   1.36892   -2.000
 5500.00    1.61329   1.36448   -2.000
 5501.00    0.56218   1.36145   -2.000
 5502.00    0.35855   1.35850   -2.000
 5503.00    0.75265   1.35423   -2.000
 5504.00    1.14238   1.35209   -2.000
 5505.00    1.29672   1.35010   -2.000
 5506.00    1.36314   1.34675   -2.000
 5507.00    1.41822   1.34559   -2.000
 5508.00    1.42370   1.34393   -2.000
 5509.00    1.38457   1.34136   -2.000
 5510.00    1.35099   1.34140   -2.000
 5511.00    1.34297   1.34214   -2.000
 5512.00    1.34924   1.34436   -2.000
 5513.00    1.35878   1.34975   -2.000
 5514.00    1.36765   1.35683   17.024
 5515.00    1.37914   1.36565   17.297
 5516.00    1.39789   1.37497   17.542
 5517.00    1.41982   1.38364   17.630
 5518.00    1.43627   1.39102   17.607
 5519.00    1.44385   1.39528   17.585
 5520.00    1.44430   1.39683   17.623
 5521.00    1.44134   1.39551   17.590
 5522.00    1.43765   1.39096   17.380
 5523.00    1.43129   1.38537   17.235
 5524.00    1.41879   1.37879   17.385
 5525.00    1.40013   1.37198   17.556
 5526.00    1.37979   1.36762   17.350
 5527.00    1.36660   1.36479   16.881
 5528.00    1.36493   1.36339   16.498
 5529.00    1.36514   1.36493   16.389
 5530.00    1.35811   1.36781   16.545
 5531.00    1.35221   1.37060   16.727
 5532.00    1.35836   1.37432   16.754
 5533.00    1.37247   1.37882   16.819
 5534.00    1.38435   1.38227   17.061
 5535.00    1.38876   1.38603   17.133
 5536.00    1.38710   1.39074   16.814
 5537.00    1.38707   1.39420   16.573
 5538.00    1.39446   1.39771   16.608
 5539.00    1.40632   1.40126   16.240
 5540.00    1.41738   1.40326   15.706
 5541.00    1.42571   1.40547   16.971
 5542.00    1.43102   1.40742   19.484
 5543.00    1.43301   1.40870   15.084
 5544.00    1.43299   1.41118    9.060
 5545.00    1.43446   1.41366    6.788
 5546.00    1.43826   1.41567    6.591
 5547.00    1.44011   1.41820    7.015
 5548.00    1.43810   1.41964    7.088
 5549.00    1.43673   1.41963    6.932
 5550.00    1.44008   1.41887    6.898
 5551.00    1.44771   1.41661    6.919
 5552.00    1.45716   1.41358    6.878
 5553.00    1.46555   1.41023    6.819
 5554.00    1.46944   1.40636    6.800
 5555.00    1.46542   1.40309    6.825
 5556.00    1.45295   1.39963    6.883
 5557.00    1.43560   1.39569    6.966
 5558.00    1.41925   1.39244    7.048
 5559.00    1.41025   1.38821    7.088
 5560.00    1.41092   1.38325    7.079
 5561.00    1.41812   1.37918    7.061
 5562.00    1.42611   1.37438    7.035
 5563.00    1.42886   1.36938    6.970
 5564.00    1.42412   1.36613    6.959
 5565.00    1.41415   1.36336    7.158
 5566.00    1.40258   1.36040    7.311
 5567.00    1.39305   1.35976    6.924
 5568.00    1.38885   1.36060    6.724
 5569.00    1.39310   1.36033    8.299
 5570.00    1.40954   1.36252   13.651
 5571.00    1.43986   1.36661   17.657
 5572.00    1.47463   1.36850   13.256
 5573.00    1.49724   1.37240   11.231
 5574.00    1.50333   1.37767   11.795
 5575.00    1.50013   1.37943   12.143
 5576.00    1.48907   1.38181   11.742
 5577.00    1.46575   1.38403   12.625
 5578.00    1.43263   1.38157   15.307
 5579.00    1.39937   1.37822   17.368
 5580.00    1.37544   1.37322   17.025
 5581.00    1.36491   1.36386   16.400
 5582.00    1.35929   1.35377   16.415
 5583.00    1.34557   1.34256   16.551
 5584.00    1.32626   1.33024   16.523
 5585.00    1.31429   1.31985   16.419
 5586.00    1.31424   1.31123   16.310
 5587.00    1.32217   1.30585   16.201
 5588.00    1.33270   1.30389   16.112
 5589.00    1.34216   1.30483   16.072
 5590.00    1.35148   1.30944   16.090
 5591.00    1.36155   1.31462   16.149
 5592.00    1.36525   1.32027   16.201
 5593.00    1.35367   1.32665   16.208
 5594.00    1.32784   1.33020   16.208
 5595.00    1.29774   1.33250   16.266
 5596.00    1.27764   1.33426   16.385
 5597.00    1.27817   1.33376   16.526
 5598.00    1.29666   1.33426   16.659
 5599.00    1.32278   1.33641   16.769
 5600.00    1.34775   1.33958   16.870
 5601.00    1.36668   1.34642   16.952
 5602.00    1.37986   1.35579   16.935
 5603.00    1.38958   1.36651   16.753
 5604.00    1.39653   1.37858   16.459
 5605.00    1.40091   1.38964   16.123
 5606.00    1.40392   1.39853   15.747
 5607.00    1.40543   1.40477   15.380
 5608.00    1.40195   1.40689   15.199
 5609.00    1.39101   1.40445   15.243
 5610.00    1.37541   1.39942   15.204
 5611.00    1.36045   1.39160   14.859
 5612.00    1.35078   1.38112   14.447
 5613.00    1.34772   1.37204   14.292
 5614.00    1.34774   1.36380   14.556
 5615.00    1.34762   1.35655   15.130
 5616.00    1.34821   1.35331   15.495
 5617.00    1.35069   1.35148   15.363
 5618.00    1.35377   1.35041   15.221
 5619.00    1.35525   1.35181   15.410
 5620.00    1.35375   1.35309   15.610
 5621.00    1.35131   1.35349   15.551
 5622.00    1.35360   1.35532   15.489
 5623.00    1.36051   1.35798   15.637
 5624.00    1.36275   1.36062   15.859
 5625.00    1.35772   1.36523   15.999
 5626.00    1.35605   1.37100   16.060
 5627.00    1.36574   1.37630   16.018
 5628.00    1.38394   1.38195   15.779
 5629.00    1.40188   1.38638   15.522
 5630.00    1.40961   1.38837   15.688
 5631.00    1.40484   1.38866   16.265
 5632.00    1.39515   1.38682   16.578
 5633.00    1.38824   1.38325   16.391
 5634.00    1.38696   1.37864   16.310
 5635.00    1.38767   1.37347   16.548
 5636.00    1.38204   1.36921   16.666
 5637.00    1.36664   1.36546   16.571
 5638.00    1.34592   1.36262   16.702
 5639.00    1.32869   1.36195   17.093
 5640.00    1.32392   1.36194   17.226
 5641.00    1.33150   1.36323   17.024
 5642.00    1.34213   1.36621   16.977
 5643.00    1.34812   1.36884   17.197
 5644.00    1.34717   1.37232   17.350
 5645.00    1.34219   1.37616   17.329
 5646.00    1.33959   1.37876   17.329
 5647.00    1.34410   1.38141   17.342
 5648.00    1.35679   1.38279   17.183
 5649.00    1.37367   1.38207   16.975
 5650.00    1.38716   1.38104   17.031
 5651.00    1.39069   1.37771   17.298
 5652.00    1.38097   1.37133   17.423
 5653.00    1.36029   1.36530   17.290
 5654.00    1.33579   1.35836   17.056
 5655.00    1.31660   1.34978   16.832
 5656.00    1.30988   1.34334   16.652
 5657.00    1.31437   1.33860   16.523
 5658.00    1.32313   1.33528   16.449
 5659.00    1.33189   1.33531   16.422
 5660.00    1.34068   1.33701   16.410
 5661.00    1.35344   1.34017   16.337
 5662.00    1.37273   1.34570   16.169
 5663.00    1.39107   1.35129   16.045
 5664.00    1.39869   1.35638   16.117
 5665.00    1.39834   1.36231   16.291
 5666.00    1.39993   1.36815   16.372
 5667.00    1.40839   1.37361   16.390
 5668.00    1.42190   1.37938   16.462
 5669.00    1.43250   1.38523   16.513
 5670.00    1.43205   1.39132   16.428
 5671.00    1.42004   1.39726   16.317
 5672.00    1.40161   1.40193   16.358
 5673.00    1.38337   1.40556   16.585
 5674.00    1.37134   1.40809   16.918
 5675.00    1.36906   1.40850   17.228
 5676.00    1.37663   1.40672   17.402
 5677.00    1.39000   1.40353   17.423
 5678.00    1.40242   1.39921   17.342
 5679.00    1.40635   1.39370   17.218
 5680.00    1.39807   1.38783   17.126
 5681.00    1.38164   1.38210   17.165
 5682.00    1.36483   1.37731   17.340
 5683.00    1.35448   1.37401   17.460
 5684.00    1.35295   1.37187   17.366
 5685.00    1.35590   1.37148   17.146
 5686.00    1.35761   1.37346   16.894
 5687.00    1.35557   1.37691   16.537
 5688.00    1.35043   1.38093   16.069
 5689.00    1.34536   1.38604   15.667
 5690.00    1.34414   1.39119   15.422
 5691.00    1.34933   1.39491   15.220
 5692.00    1.35944   1.39688   15.035
 5693.00    1.36782   1.39726   15.067
 5694.00    1.36874   1.39562   15.417
 5695.00    1.36153   1.39118   15.910
 5696.00    1.35064   1.38576   16.334
 5697.00    1.34406   1.37935   16.614
 5698.00    1.34471   1.37206   16.710
 5699.00    1.34714   1.36513   16.554
 5700.00    1.34676   1.35750   16.244
 5701.00    1.34438   1.35095   16.044
 5702.00    1.34217   1.34473   16.046
 5703.00    1.34110   1.33723   16.107
 5704.00    1.33916   1.33189   16.202
 5705.00    1.33207   1.32659   16.465
 5706.00    1.31956   1.32138   16.510
 5707.00    1.30686   1.32052   15.648
 5708.00    1.29896   1.32061   14.901
 5709.00    1.29786   1.32327   16.047
 5710.00    1.30186   1.33118   17.136
 5711.00    1.30722   1.33948   12.838
 5712.00    1.31520   1.35022    8.610
 5713.00    1.33115   1.36366    7.142
 5714.00    1.35263   1.37510    7.170
 5715.00    1.36936   1.38701    7.445
 5716.00    1.37746   1.39880    7.352
 5717.00    1.38142   1.40724    7.159
 5718.00    1.38542   1.41493    7.144
 5719.00    1.39025   1.42146    7.309
 5720.00    1.39262   1.42479    7.326
 5721.00    1.38757   1.42659    6.925
 5722.00    1.37558   1.42741    6.896
 5723.00    1.36254   1.42642    8.695
 5724.00    1.35464   1.42412   14.323
 5725.00    1.35661   1.42132   20.279
 5726.00    1.37049   1.41872   17.708
 5727.00    1.39496   1.41689   15.617
 5728.00    1.42425   1.41528   15.984
 5729.00    1.45027   1.41460   16.513
 5730.00    1.46741   1.41517   16.318
 5731.00    1.47350   1.41623   16.164
 5732.00    1.46963   1.41788   16.298
 5733.00    1.45942   1.41923   16.409
 5734.00    1.44751   1.42064   16.332
 5735.00    1.43672   1.42226   16.131
 5736.00    1.42380   1.42256   15.978
 5737.00    1.40436   1.42258   15.983
 5738.00    1.38203   1.42291   16.002
 5739.00    1.36584   1.42272   15.839
 5740.00    1.36382   1.42249    0.000
 5741.00    1.37930   1.42200    0.000
 5742.00    1.40723   1.42104    0.000
 5743.00    1.43703   1.42059    0.000
 5744.00    1.45760   1.41955    0.000
 5745.00    1.46261   1.41723    0.000
 5746.00    1.45603   1.41501    0.000
 5747.00    1.44652   1.41219    0.000
 5748.00    1.43974   1.40873    0.000
 5749.00    1.43750   1.40590    0.000
 5750.00    1.43823   1.40308    0.000
 5751.00    1.44132   1.40079    0.000
 5752.00    1.45095   1.40020    0.000
 5753.00    1.46802   1.39986    0.000
 5754.00    1.48257   1.39998    0.000
 5755.00    1.48489   1.40121    0.000
 5756.00    1.47607   1.40165    0.000
 5757.00    1.46227   1.40176    0.000
 5758.00    1.44854   1.40266    0.000
 5759.00    1.43659   1.40263    0.000
 5760.00    1.42406   1.40299    0.000
 5761.00    1.41098   1.40546    0.000
 5762.00    1.40376   1.40808    0.000
 5763.00    1.40696   1.41142    0.000
 5764.00    1.41753   1.41598    0.000
 5765.00    1.42996   1.41989    0.000
 5766.00    1.44017   1.42328    0.000
 5767.00    1.44526   1.42609    0.000
 5768.00    1.44361   1.42676    0.000
 5769.00    1.43703   1.42610    0.000
 5770.00    1.43109   1.42516    0.000
 5771.00    1.42956   1.42213    0.000
 5772.00    1.43118   1.41810    0.000
 5773.00    1.43060   1.41408    0.000
 5774.00    1.42048   1.40787    0.000
 5775.00    1.39862   1.40061    0.000
 5776.00    1.37078   1.39303    0.000
 5777.00    1.34647   1.38380    0.000
 5778.00    1.33498   1.37411    0.000
 5779.00    1.33784   1.36493    0.000
 5780.00    1.34766   1.35728    0.000
 5781.00    1.35771   1.35200    0.000
 5782.00    1.36580   1.34826    0.000
 5783.00    1.37321   1.34821    0.000
 5784.00    1.38286   1.35130    0.000
 5785.00    1.39458   1.35568    0.000
 5786.00    1.40483   1.36305    0.000
 5787.00    1.41216   1.37033    0.000
 5788.00    1.41805   1.37775    0.000
 5789.00    1.42319   1.38669    0.000
 5790.00    1.42669   1.39347    0.000
 5791.00    1.42727   1.39967    0.000
 5792.00    1.42455   1.40602    0.000
 5793.00    1.42139   1.41110    0.000
 5794.00    1.42266   1.41576    0.000
 5795.00    1.43009   1.41973    0.000
 5796.00    1.44224   1.42381    0.000
 5797.00    1.45778   1.42754    0.000
 5798.00    1.47587   1.43024    0.000
 5799.00    1.49497   1.43268    0.000
 5800.00    1.51096   1.43397    0.000
 5801.00    1.51380   1.43450    0.000
 5802.00    1.49413   1.43457    0.000
 5803.00    1.45799   1.43338    0.000
 5804.00    1.42332   1.43263   -2.000
 5805.00    1.40627   1.43204   -2.000
 5806.00    1.40463   1.43079   -2.000
 5807.00    1.37465   1.43056   -2.000
 5808.00    1.27076   1.43050   -2.000
 5809.00    1.11984   1.42993   -2.000
 5810.00    0.99141   1.42965   -2.000
 5811.00    0.92783   1.42928   -2.000
 5812.00    0.93506   1.42903   -2.000
 5813.00    0.98719   1.42885   -2.000
 5814.00    1.04553   1.42931   -2.000
 5815.00    1.08555   1.43108   -2.000
 5816.00    1.10634   1.43323   -2.000
 5817.00    1.13607   1.43592   -2.000
 5818.00    1.20085   1.43913   -2.000
 5819.00    1.28588   1.44243   -2.000
 5820.00    1.36046   1.44552   -2.000
 5821.00    1.41331   1.44797   -2.000
 5822.00    1.44759   1.45007   -2.000
 5823.00    1.47016   1.45163   -2.000
 5824.00    1.48484   1.45267    0.000
 5825.00    1.48727   1.45315    0.000
 5826.00    1.47373   1.45341    0.000
 5827.00    1.45008   1.45358    0.000
 5828.00    1.42678   1.45280    0.000
 5829.00    1.41296   1.45189    0.000
 5830.00    1.41132   1.45117    0.000
 5831.00    1.41505   1.44979    0.000
 5832.00    1.41618   1.44827    0.000
 5833.00    1.41275   1.44755    0.000
 5834.00    1.40784   1.44709    0.000
 5835.00    1.40751   1.44672    0.000
 5836.00    1.41397   1.44701    0.000
 5837.00    1.42140   1.44770    0.000
 5838.00    1.42209   1.44862    0.000
 5839.00    1.41133   1.44915    0.000
 5840.00    1.39057   1.44880    0.000
 5841.00    1.36841   1.44757    0.000
 5842.00    1.35558   1.44557    0.000
 5843.00    1.36055   1.44226    0.000
 5844.00    1.38297   1.43739    0.000
 5845.00    1.41168   1.43209    0.000
 5846.00    1.43463   1.42593    0.000
 5847.00    1.44491   1.41890    0.000
 5848.00    1.44330   1.41196    0.000
 5849.00    1.43742   1.40442    0.000
 5850.00    1.43214   1.39648    0.000
 5851.00    1.42595   1.38912    0.000
 5852.00    1.41547   1.38258    0.000
 5853.00    1.39808   1.37680    0.000
 5854.00    1.37370   1.37127    0.000
 5855.00    1.34572   1.36762    0.000
 5856.00    1.32199   1.36636    0.000
 5857.00    1.31246   1.36658    0.000
 5858.00    1.31966   1.36865    0.000
 5859.00    1.33737   1.37095    0.000
 5860.00    1.35820   1.37439    0.000
 5861.00    1.37680   1.37937    0.000
 5862.00    1.39088   1.38398    0.000
 5863.00    1.40020   1.38808    0.000
 5864.00    1.40251   1.39204    0.000
 5865.00    1.39494   1.39637    0.000
 5866.00    1.38151   1.40039    0.000
 5867.00    1.37235   1.40389    0.000
 5868.00    1.37583   1.40666    0.000
 5869.00    1.39454   1.40857    0.000
 5870.00    1.42083   1.40987    0.000
 5871.00    1.44065   1.41016    0.000
 5872.00    1.44512   1.40911    0.000
 5873.00    1.43291   1.40673    0.000
 5874.00    1.40915   1.40332    0.000
 5875.00    1.38320   1.39904    0.000
 5876.00    1.36446   1.39407    0.000
 5877.00    1.35955   1.38789    0.000
 5878.00    1.36865   1.38070    0.000
 5879.00    1.38608   1.37280    0.000
 5880.00    1.40266   1.36287    0.000
 5881.00    1.40938   1.34985    0.000
 5882.00    1.40257   1.33393    0.000
 5883.00    1.38237   1.31477    0.000
 5884.00    1.34877   1.29196    0.000
 5885.00    1.30319   1.26747    0.000
 5886.00    1.25177   1.24009    0.000
 5887.00    1.20407   1.21226    0.000
 5888.00    1.17041   1.19174    0.000
 5889.00    1.15681   1.17438    0.000
 5890.00    1.15931   1.16067    0.000
 5891.00    1.16959   1.15577    0.000
 5892.00    1.18290   1.15368    0.000
 5893.00    1.19622   1.15836    0.000
 5894.00    1.20499   1.17303    0.000
 5895.00    1.20637   1.18929    0.000
 5896.00    1.20318   1.20861    0.000
 5897.00    1.20323   1.23125    0.000
 5898.00    1.21730   1.25333    0.000
 5899.00    1.24946   1.27711    0.000
 5900.00    1.28898   1.29952    0.000
 5901.00    1.32315   1.31763   16.317
 5902.00    1.34935   1.33355   16.353
 5903.00    1.36874   1.34657   15.902
 5904.00    1.37997   1.35617   15.489
 5905.00    1.38145   1.36332   15.469
 5906.00    1.37370   1.36785   15.537
 5907.00    1.36112   1.37031   15.415
 5908.00    1.35218   1.37139   15.343
 5909.00    1.35203   1.37153   15.482
 5910.00    1.35792   1.37030   15.556
 5911.00    1.36547   1.36794   15.410
 5912.00    1.37293   1.36650   15.340
 5913.00    1.37877   1.36518   15.468
 5914.00    1.38029   1.36496   15.452
 5915.00    1.37547   1.36561   15.215
 5916.00    1.36448   1.36639   15.231
 5917.00    1.35169   1.36925   15.655
 5918.00    1.34508   1.37202   15.957
 5919.00    1.34747   1.37446   15.815
 5920.00    1.35354   1.37760   15.609
 5921.00    1.35861   1.37977   15.672
 5922.00    1.36255   1.38131   15.981
 5923.00    1.36642   1.38256   16.354
 5924.00    1.37036   1.38240   16.575
 5925.00    1.37194   1.38218   16.662
 5926.00    1.36715   1.38160   16.889
 5927.00    1.35730   1.37994   17.279
 5928.00    1.34959   1.37967   17.490
 5929.00    1.34807   1.37952   17.390
 5930.00    1.35102   1.37908   17.223
 5931.00    1.35511   1.37904   17.111
 5932.00    1.35770   1.37892   16.975
 5933.00    1.35951   1.38049   16.862
 5934.00    1.36403   1.38186   16.923
 5935.00    1.37301   1.38236   17.044
 5936.00    1.38523   1.38348   16.912
 5937.00    1.39761   1.38397   16.641
 5938.00    1.40665   1.38413   16.639
 5939.00    1.41166   1.38469   16.842
 5940.00    1.41457   1.38476   16.792
 5941.00    1.41697   1.38473   16.448
 5942.00    1.41931   1.38475   16.157
 5943.00    1.42077   1.38411   16.032
 5944.00    1.41962   1.38338   15.983
 5945.00    1.41397   1.38197   16.041
 5946.00    1.40259   1.37985   16.302
 5947.00    1.38647   1.37850   16.647
 5948.00    1.36883   1.37724   16.813
 5949.00    1.35455   1.37497   16.770
 5950.00    1.34874   1.37272   16.679
 5951.00    1.35436   1.37221   16.604
 5952.00    1.37103   1.37271   16.542
 5953.00    1.39386   1.37317   16.584
 5954.00    1.41580   1.37415   16.827
 5955.00    1.43181   1.37622   17.169
 5956.00    1.44021   1.37966   17.405
 5957.00    1.44336   1.38361   17.489
 5958.00    1.44520   1.38714   17.519
 5959.00    1.44748   1.39096   17.612
 5960.00    1.44961   1.39461   17.821
 5961.00    1.44937   1.39811   18.039
 5962.00    1.44528   1.40086   18.105
 5963.00    1.43942   1.40275   17.992
 5964.00    1.43568   1.40518   17.785
 5965.00    1.43705   1.40674   17.610
 5966.00    1.44428   1.40795   17.525
 5967.00    1.45487   1.40886   17.424
 5968.00    1.46487   1.40877   17.216
 5969.00    1.47119   1.40835   17.014
 5970.00    1.47190   1.40690   16.966
 5971.00    1.46625   1.40443   17.095
 5972.00    1.45409   1.40102   17.302
 5973.00    1.43541   1.39685   17.380
 5974.00    1.41278   1.39273   17.234
 5975.00    1.39304   1.38864   17.060
 5976.00    1.38212   1.38485   17.008
 5977.00    1.38050   1.38193   16.950
 5978.00    1.38477   1.37904   16.812
 5979.00    1.38962   1.37682   16.805
 5980.00    1.39102   1.37483   17.043
 5981.00    1.38852   1.37266   17.296
 5982.00    1.38415   1.37242   17.409
 5983.00    1.38111   1.37297   17.606
 5984.00    1.38084   1.37356   17.975
 5985.00    1.38143   1.37522   18.150
 5986.00    1.38027   1.37761   18.017
 5987.00    1.37618   1.38111   18.078
 5988.00    1.37182   1.38447   18.508
 5989.00    1.37359   1.38721   18.718
 5990.00    1.38317   1.39035   18.451
 5991.00    1.39417   1.39273   18.295
 5992.00    1.40037   1.39388   18.492
 5993.00    1.39994   1.39396   18.547
 5994.00    1.39377   1.39265   18.272
 5995.00    1.38437   1.39125   18.139
 5996.00    1.37520   1.38975   18.289
 5997.00    1.36984   1.38731   18.302
 5998.00    1.36971   1.38497   18.057
 5999.00    1.37344   1.38179   17.940
 6000.00    1.37867   1.37817   18.046
 6001.00    1.38285   1.37637   18.047
 6002.00    1.38378   1.37419   17.861
 6003.00    1.38028   1.37154   17.741
 6004.00    1.37394   1.36924   17.612
 6005.00    1.36826   1.36614   17.136
 6006.00    1.36337   1.36567   16.607
 6007.00    1.35634   1.36632   16.711
 6008.00    1.34778   1.36562   17.370
 6009.00    1.34197   1.36533   17.729
 6010.00    1.34058   1.36457   17.489
 6011.00    1.34133   1.36489   17.196
 6012.00    1.33952   1.36586   17.175
 6013.00    1.33097   1.36463   17.367
 6014.00    1.31840   1.36332   17.546
 6015.00    1.30957   1.36290   17.510
 6016.00    1.30870   1.36205   17.494
 6017.00    1.31515   1.36171   17.895
 6018.00    1.32582   1.36176   18.429
 6019.00    1.33681   1.36257   18.360
 6020.00    1.34565   1.36522   17.859
 6021.00    1.35170   1.36786   17.670
 6022.00    1.35561   1.37184   17.934
 6023.00    1.35890   1.37697   18.279
 6024.00    1.36324   1.38177   18.235
 6025.00    1.36965   1.38801   17.624
 6026.00    1.37734   1.39387   16.960
 6027.00    1.38459   1.39933   16.766
 6028.00    1.39077   1.40461   16.813
 6029.00    1.39672   1.40894   16.635
 6030.00    1.40472   1.41322   16.419
 6031.00    1.41617   1.41644   16.542
 6032.00    1.42830   1.41863   16.774
 6033.00    1.43634   1.42026   16.693
 6034.00    1.43739   1.42116   16.491
 6035.00    1.43081   1.42193   16.550
 6036.00    1.41796   1.42191   16.782
 6037.00    1.40208   1.42163   16.931
 6038.00    1.38794   1.42203   17.050
 6039.00    1.38042   1.42212   17.281
 6040.00    1.38267   1.42312   17.512
 6041.00    1.39432   1.42434   17.573
 6042.00    1.41009   1.42551   17.540
 6043.00    1.42353   1.42726   17.600
 6044.00    1.43108   1.42855   17.872
 6045.00    1.43243   1.42963   18.321
 6046.00    1.43021   1.43001   18.682
 6047.00    1.42711   1.42987   18.741
 6048.00    1.42351   1.42887   18.647
 6049.00    1.41834   1.42702   18.601
 6050.00    1.41042   1.42449   18.568
 6051.00    1.40040   1.42161   18.469
 6052.00    1.39200   1.41878   18.338
 6053.00    1.39012   1.41568   18.187
 6054.00    1.39860   1.41301   17.928
 6055.00    1.41583   1.41062   17.621
 6056.00    1.43278   1.40885   17.543
 6057.00    1.44121   1.40688   17.706
 6058.00    1.43924   1.40522   17.646
 6059.00    1.43019   1.40402   17.226
 6060.00    1.42070   1.40263   16.976
 6061.00    1.41477   1.40215   17.131
 6062.00    1.41089   1.40125   17.282
 6063.00    1.40625   1.40230   17.208
 6064.00    1.39962   1.40557   17.245
 6065.00    1.39371   1.40883   17.531
 6066.00    1.39500   1.41334   17.707
 6067.00    1.40675   1.41782   17.597
 6068.00    1.42590   1.42258   17.476
 6069.00    1.44533   1.42751   17.457
 6070.00    1.45650   1.43023   17.338
 6071.00    1.45585   1.43119   17.180
 6072.00    1.44679   1.43082   17.360
 6073.00    1.43570   1.42821   17.871
 6074.00    1.42905   1.42446   18.175
 6075.00    1.42858   1.41927   18.067
 6076.00    1.43083   1.41338   17.926
 6077.00    1.43192   1.40820   17.963
 6078.00    1.42953   1.40247   18.070
 6079.00    1.42363   1.39724   18.199
 6080.00    1.41648   1.39338   18.420
 6081.00    1.41220   1.39043   18.663
 6082.00    1.41474   1.38820   18.709
 6083.00    1.42239   1.38677   18.459
 6084.00    1.42861   1.38582   18.008
 6085.00    1.42906   1.38566   17.539
 6086.00    1.42311   1.38575   17.223
 6087.00    1.41275   1.38537   17.120
 6088.00    1.40175   1.38583   17.189
 6089.00    1.39450   1.38689   17.312
 6090.00    1.39366   1.38798   17.368
 6091.00    1.39581   1.38946   17.418
 6092.00    1.39435   1.39105   17.608
 6093.00    1.38778   1.39211   17.851
 6094.00    1.37937   1.39224   17.918
 6095.00    1.37249   1.39160   17.826
 6096.00    1.36888   1.39072   17.778
 6097.00    1.36705   1.38869   17.874
 6098.00    1.36417   1.38545   18.076
 6099.00    1.35976   1.38054   18.210
 6100.00    1.35545   1.37640   18.135
 6101.00    1.35329   1.37599   18.027
 6102.00    1.35520   1.37585   18.140
 6103.00    1.36231   1.37640   18.392
 6104.00    1.37412   1.37785   18.557
 6105.00    1.38736   1.38031   18.672
 6106.00    1.39700   1.38613   18.849
 6107.00    1.39825   1.39156   18.900
 6108.00    1.38953   1.39489   18.660
 6109.00    1.37585   1.39809   18.449
 6110.00    1.36490   1.40081   18.579
 6111.00    1.36159   1.40262   18.793
 6112.00    1.36679   1.40315   18.743
 6113.00    1.37689   1.40093   18.643
 6114.00    1.38624   1.39755   18.715
 6115.00    1.38996   1.39451   18.569
 6116.00    1.38547   1.38960   17.916
 6117.00    1.37367   1.38365   17.250
 6118.00    1.35966   1.37787   17.038
 6119.00    1.35241   1.37198   17.199
 6120.00    1.35708   1.36923   17.450
 6121.00    1.36864   1.36813   17.574
 6122.00    1.37908   1.36695   17.547
 6123.00    1.38429   1.36771   17.589
 6124.00    1.38494   1.36901   17.788
 6125.00    1.38601   1.37177   17.850
 6126.00    1.39006   1.37514   17.666
 6127.00    1.39311   1.37658   17.668
 6128.00    1.39112   1.37649   18.039
 6129.00    1.38456   1.37432   18.266
 6130.00    1.37520   1.37116   18.125
 6131.00    1.36386   1.36635   18.275
 6132.00    1.35112   1.35981   19.000
 6133.00    1.33784   1.35266   19.498
 6134.00    1.32427   1.34535   19.153
 6135.00    1.31014   1.34189   18.496
 6136.00    1.29760   1.34121   18.098
 6137.00    1.29204   1.34182   18.049
 6138.00    1.29714   1.34421   18.229
 6139.00    1.31242   1.34828   18.444
 6140.00    1.33424   1.35622   18.602
 6141.00    1.35684   1.36519   18.777
 6142.00    1.37503   1.37212   18.967
 6143.00    1.38535   1.37714   19.014
 6144.00    1.38617   1.38075   18.828
 6145.00    1.37766   1.38382   18.447
 6146.00    1.36201   1.38542   17.809
 6147.00    1.34288   1.38478   16.800
 6148.00    1.32330   1.38335   15.596
 6149.00    1.30541   1.38096   14.546
 6150.00    1.29242   1.37794   13.869
 6151.00    1.28795   1.37362   13.641
 6152.00    1.29138   1.36784   13.791
 6153.00    1.29765   1.36162   14.137
 6154.00    1.30130   1.35353   14.558
 6155.00    1.29834   1.34410   15.033
 6156.00    1.28753   1.33277   15.576
 6157.00    1.27109   1.32022   16.188
 6158.00    1.25586   1.30733   16.808
 6159.00    1.25011   1.29522   17.326
 6160.00    1.25488   1.28564   17.727
 6161.00    1.26463   1.27830   18.088
 6162.00    1.27455   1.27369   18.404
 6163.00    1.28245   1.27062   18.611
 6164.00    1.28895   1.27028   18.779
 6165.00    1.29640   1.27305   19.043
 6166.00    1.30657   1.27664   19.329
 6167.00    1.32005   1.28160   19.340
 6168.00    1.33602   1.28765   18.764
 6169.00    1.35202   1.29421   17.601
 6170.00    1.36360   1.30065   16.375
 6171.00    1.36756   1.30662   15.529
 6172.00    1.36744   1.31302   14.966
 6173.00    1.36877   1.32061   14.525
 6174.00    1.36967   1.32749   14.504
 6175.00    1.36522   1.33322   15.225
 6176.00    1.35688   1.33840   16.226
 6177.00    1.35071   1.34246   16.555
 6178.00    1.35234   1.34596   16.271
 6179.00    1.36211   1.34810   16.079
 6180.00    1.36998   1.34896   16.161
 6181.00    1.36583   1.34807   16.359
 6182.00    1.35332   1.34532   16.536
 6183.00    1.34213   1.34104   16.675
 6184.00    1.33621   1.33602   16.939
 6185.00    1.33409   1.33043   17.463
 6186.00    1.33120   1.32418   18.072
 6187.00    1.32278   1.31911   18.467
 6188.00    1.30692   1.31406   18.583
 6189.00    1.28475   1.31127   18.557
 6190.00    1.26033   1.31183   18.564
 6191.00    1.23977   1.31311   18.657
 6192.00    1.22985   1.31603   18.663
 6193.00    1.23182   1.31916   18.518
 6194.00    1.23703   1.32307   18.536
 6195.00    1.23746   1.32850   18.928
 6196.00    1.23447   1.33230   19.411
 6197.00    1.23347   1.33545   19.416
 6198.00    1.23864   1.33905   18.520
 6199.00    1.24978   1.34233   17.076
 6200.00    1.26100   1.34546   15.981
 6201.00    1.26654   1.34764   15.524
 6202.00    1.26514   1.34954   15.308
 6203.00    1.26031   1.35163   15.163
 6204.00    1.25951   1.35269   15.493
 6205.00    1.26808   1.35179   16.434
 6206.00    1.28587   1.34910   17.286
 6207.00    1.30977   1.34485   17.514
 6208.00    1.33529   1.33883   17.613
 6209.00    1.35608   1.33191   -2.000
 6210.00    1.36395   1.32338   -2.000
 6211.00    1.35035   1.31478   -2.000
 6212.00    1.30871   1.30719   -2.000
 6213.00    1.24159   1.30017   -2.000
 6214.00    1.16342   1.29510   -2.000
 6215.00    1.09642   1.29100   -2.000
 6216.00    1.06353   1.28787   -2.000
 6217.00    1.06746   1.28720   -2.000
 6218.00    1.08860   1.28777   -2.000
 6219.00    1.11338   1.28927   -2.000
 6220.00    1.14228   1.29113   -2.000
 6221.00    1.17489   1.29153   15.551
 6222.00    1.20578   1.29215   15.477
 6223.00    1.23107   1.29263   16.033
 6224.00    1.24995   1.29211   16.998
 6225.00    1.26175   1.29074   17.893
 6226.00    1.26547   1.28822   18.298
 6227.00    1.26151   1.28579   18.250
 6228.00    1.25289   1.28409   18.196
 6229.00    1.24675   1.28393   18.348
 6230.00    1.25168   1.28430   18.575
 6231.00    1.26923   1.28580   18.558
 6232.00    1.29330   1.28735   18.050
 6233.00    1.31481   1.28876   17.321
 6234.00    1.32558   1.29102   16.839
 6235.00    1.32410   1.29131   16.627
 6236.00    1.31424   1.29123   16.479
 6237.00    1.29881   1.28964   16.537
 6238.00    1.27940   1.28677   17.073
 6239.00    1.25925   1.28410   17.748
 6240.00    1.24292   1.28050   17.769
 6241.00    1.23433   1.27834   17.080
 6242.00    1.23568   1.27689   16.265
 6243.00    1.24616   1.27651   15.692
 6244.00    1.26187   1.27732   15.501
 6245.00    1.27633   1.27768   15.795
 6246.00    1.28327   1.27818   16.595
 6247.00    1.28116   1.27796   17.581
 6248.00    1.27278   1.27626   18.216
 6249.00    1.26317   1.27338   18.428
 6250.00    1.25590   1.27032   18.540
 6251.00    1.24836   1.26600   18.703
 6252.00    1.23725   1.26165   18.881
 6253.00    1.22683   1.25761   18.968
 6254.00    1.22430   1.25420   18.887
 6255.00    1.23230   1.25335   18.680
 6256.00    1.24832   1.25454   18.438
 6257.00    1.26551   1.25869   18.201
 6258.00    1.27703   1.26366   17.949
 6259.00    1.28083   1.26979   17.623
 6260.00    1.27707   1.27680   17.248
 6261.00    1.26496   1.28396   17.015
 6262.00    1.24649   1.29138   17.059
 6263.00    1.22980   1.29754   17.279
 6264.00    1.22294   1.30301   17.511
 6265.00    1.22748   1.30765   17.717
 6266.00    1.23846   1.31099   17.870
 6267.00    1.24582   1.31345   17.845
 6268.00    1.24381   1.31606   17.561
 6269.00    1.23794   1.31857   17.114
 6270.00    1.23663   1.32034   16.766
 6271.00    1.24404   1.32135   16.849
 6272.00    1.25979   1.32215   17.279
 6273.00    1.27947   1.32270   17.215
 6274.00    1.29632   1.32277   16.133
 6275.00    1.30297   1.32220   14.626
 6276.00    1.29418   1.32143   13.401
 6277.00    1.26904   1.32068   12.799
 6278.00    1.23280   1.32066   12.920
 6279.00    1.19696   1.32168   13.763
 6280.00    1.17301   1.32287    0.000
 6281.00    1.16803   1.32541    0.000
 6282.00    1.18123   1.32791    0.000
 6283.00    1.20410   1.33126    0.000
 6284.00    1.23027   1.33534    0.000
 6285.00    1.25913   1.33825    0.000
 6286.00    1.28834   1.34074    0.000
 6287.00    1.31118   1.34142    0.000
 6288.00    1.32227   1.34103    0.000
 6289.00    1.32075   1.34009    0.000
 6290.00    1.31198   1.33756    0.000
 6291.00    1.30580   1.33411    0.000
 6292.00    1.30716   1.32973    0.000
 6293.00    1.31369   1.32475    0.000
 6294.00    1.32111   1.32041    0.000
 6295.00    1.32627   1.31641    0.000
 6296.00    1.32956   1.31315    0.000
 6297.00    1.33368   1.31083    0.000
 6298.00    1.33687   1.30912    0.000
 6299.00    1.33360   1.30896    0.000
 6300.00    1.32383   1.31051    0.000
 6301.00    1.31388   1.31338    0.000
 6302.00    1.31008   1.31702    0.000
 6303.00    1.31536   1.32064    0.000
 6304.00    1.32553   1.32459    0.000
 6305.00    1.33219   1.32825    0.000
 6306.00    1.33268   1.33098    0.000
 6307.00    1.33040   1.33219    0.000
 6308.00    1.32899   1.33193    0.000
 6309.00    1.32984   1.33071    0.000
 6310.00    1.32994   1.32808    0.000
 6311.00    1.32456   1.32479    0.000
 6312.00    1.31386   1.32069    0.000
 6313.00    1.30183   1.31682    0.000
 6314.00    1.29126   1.31415    0.000
 6315.00    1.28357   1.31233    0.000
 6316.00    1.28046   1.31213    0.000
 6317.00    1.28354   1.31291    0.000
 6318.00    1.29327   1.31557    0.000
 6319.00    1.30837   1.31979    0.000
 6320.00    1.32530   1.32376    0.000
 6321.00    1.33960   1.32938   20.220
 6322.00    1.34807   1.33488   20.028
 6323.00    1.35018   1.34006   20.040
 6324.00    1.34938   1.34441   20.122
 6325.00    1.35012   1.34736   20.033
 6326.00    1.35359   1.35024   19.813
 6327.00    1.35829   1.35117   19.629
 6328.00    1.36153   1.35146   19.514
 6329.00    1.36048   1.35038   19.414
 6330.00    1.35326   1.34792   19.268
 6331.00    1.34105   1.34523   19.056
 6332.00    1.32999   1.34155   18.832
 6333.00    1.32629   1.33844   18.666
 6334.00    1.33083   1.33582   18.581
 6335.00    1.34010   1.33403   18.578
 6336.00    1.34823   1.33262   18.655
 6337.00    1.35110   1.33142   18.756
 6338.00    1.34983   1.33120   18.745
 6339.00    1.34726   1.33152   18.654
 6340.00    1.34457   1.33293   18.849
 6341.00    1.34310   1.33392   19.440
 6342.00    1.34565   1.33560   19.799
 6343.00    1.35315   1.33760   19.539
 6344.00    1.36228   1.33912   19.362
 6345.00    1.36793   1.34082   19.781
 6346.00    1.36580   1.34204   20.354
 6347.00    1.35615   1.34333   20.573
 6348.00    1.34540   1.34371   20.618
 6349.00    1.33942   1.34260   20.726
 6350.00    1.33903   1.34025   20.748
 6351.00    1.34049   1.33682   20.632
 6352.00    1.33723   1.33199   20.647
 6353.00    1.32696   1.32608   20.824
 6354.00    1.31441   1.31972   20.744
 6355.00    1.30349   1.31319   20.291
 6356.00    1.29336   1.30685   19.912
 6357.00    1.28104   1.30143   19.823
 6358.00    1.26413   1.29778   19.794
 6359.00    1.24612   1.29583   19.662
 6360.00    1.23684   1.29549   19.513
 6361.00    1.24299   1.29722   19.407
 6362.00    1.26395   1.30127   19.288
 6363.00    1.29330   1.30694   19.117
 6364.00    1.32091   1.31342   18.930
 6365.00    1.33835   1.32098   18.821
 6366.00    1.34213   1.32882   18.904
 6367.00    1.33716   1.33657   19.232
 6368.00    1.33429   1.34378   19.751
 6369.00    1.33749   1.34993   20.232
 6370.00    1.34177   1.35518   20.329
 6371.00    1.34191   1.35887   20.018
 6372.00    1.33633   1.36133   19.583
 6373.00    1.32953   1.36248   19.096
 6374.00    1.32964   1.36277   18.439
 6375.00    1.33937   1.36233   17.673
 6376.00    1.35497   1.36102   17.008
 6377.00    1.37096   1.35982   16.584
 6378.00    1.38255   1.35852   16.445
 6379.00    1.38841   1.35739   16.512
 6380.00    1.39031   1.35647   16.629
 6381.00    1.39059   1.35582   16.693
 6382.00    1.39028   1.35576   16.686
 6383.00    1.38653   1.35542   16.698
 6384.00    1.37590   1.35523   16.885
 6385.00    1.36217   1.35461   17.407
 6386.00    1.35322   1.35326   18.282
 6387.00    1.35126   1.35130   18.992
 6388.00    1.35248   1.34842   18.860
 6389.00    1.35021   1.34581   18.361
 6390.00    1.33902   1.34320   18.401
 6391.00    1.32063   1.34093   18.975
 6392.00    1.30188   1.33931   19.538
 6393.00    1.28945   1.33788   19.919
 6394.00    1.28763   1.33675   20.272
 6395.00    1.29630   1.33529   20.566
 6396.00    1.31153   1.33602   20.676
 6397.00    1.32721   1.33776   20.688
 6398.00    1.33843   1.33978   20.769
 6399.00    1.34564   1.34232   20.922
 6400.00    1.35250   1.34433   21.028
 6401.00    1.36227   1.34637   20.968
 6402.00    1.37417   1.34737   20.719
 6403.00    1.38045   1.34882   20.434
 6404.00    1.37559   1.35051   20.193
 6405.00    1.36635   1.35084   19.789
 6406.00    1.36113   1.35025   18.940
 6407.00    1.35785   1.34927   17.595
 6408.00    1.35011   1.34811   16.074
 6409.00    1.33504   1.34693   14.907
 6410.00    1.31650   1.34591   14.381
 6411.00    1.30612   1.34574   14.495
 6412.00    1.31071   1.34555   15.153
 6413.00    1.32217   1.34499   16.148
 6414.00    1.32978   1.34457   17.161
 6415.00    1.33109   1.34427   17.862
 6416.00    1.32948   1.34405   18.118
 6417.00    1.33083   1.34452   18.154
 6418.00    1.33692   1.34595   18.287
 6419.00    1.34189   1.34734   18.704
 6420.00    1.34024   1.34929   19.445
 6421.00    1.33229   1.35149   20.370
 6422.00    1.32059   1.35385   21.118
 6423.00    1.30746   1.35606   21.193
 6424.00    1.29536   1.35789   20.619
 6425.00    1.28696   1.35888   20.097
 6426.00    1.28376   1.35848   20.066
 6427.00    1.28564   1.35802   20.415
 6428.00    1.29286   1.35704   20.803
 6429.00    1.30642   1.35617   20.829
 6430.00    1.32415   1.35534   20.290
 6431.00    1.33958   1.35470   19.348
 6432.00    1.34648   1.35446   18.437
 6433.00    1.34191   1.35410   18.005
 6434.00    1.33006   1.35476   18.095
 6435.00    1.32132   1.35665   18.364
 6436.00    1.32157   1.35907   18.583
 6437.00    1.32924   1.36158   18.820
 6438.00    1.34185   1.36425   19.193
 6439.00    1.35812   1.36669   19.667
 6440.00    1.37567   1.36870   19.704
 6441.00    1.38976   1.36996   18.629
 6442.00    1.39244   1.37052   17.160
 6443.00    1.37616   1.36971   16.518
 6444.00    1.34602   1.36640   16.668
 6445.00    1.31822   1.36190   16.795
 6446.00    1.30259   1.35774   17.031
 6447.00    1.29897   1.35334   18.347
 6448.00    1.30277   1.34984   20.140
 6449.00    1.30882   1.34702   19.994
 6450.00    1.31678   1.34510   19.575
 6451.00    1.32908   1.34447   21.724
 6452.00    1.34209   1.34542   21.699
 6453.00    1.34894   1.34825   12.830
 6454.00    1.35179   1.35126    8.054
 6455.00    1.35970   1.35397    6.885
 6456.00    1.37744   1.35599    7.118
 6457.00    1.40456   1.35601    7.252
 6458.00    1.43881   1.35586    6.966
 6459.00    1.47383   1.35653    6.832
 6460.00    1.49372   1.35661    6.757
 6461.00    1.48288   1.35708    6.479
 6462.00    1.44585   1.35734    6.705
 6463.00    1.40041   1.35820    8.764
 6464.00    1.35892   1.35853   14.076
 6465.00    1.32691   1.35956   18.115
 6466.00    1.30605   1.36102   16.410
 6467.00    1.29652   1.36198   16.193
 6468.00    1.29942   1.36328   18.415
 6469.00    1.31364   1.36328   20.292
 6470.00    1.33110   1.36282   20.524
 6471.00    1.34373   1.36177   20.424
 6472.00    1.35357   1.36103   20.385
 6473.00    1.36689   1.35962   20.127
 6474.00    1.38508   1.35800   19.853
 6475.00    1.40410   1.35651   19.780
 6476.00    1.41568   1.35408   19.528
 6477.00    1.41259   1.35127   18.775
 6478.00    1.39439   1.34876   17.930
 6479.00    1.36535   1.34671   17.460
 6480.00    1.33154   1.34457   17.420
 6481.00    1.29986   1.34250   17.751
 6482.00    1.27717   1.34042   18.483
 6483.00    1.26957   1.33803   19.309
 6484.00    1.28101   1.33486   19.124
 6485.00    1.30586   1.33080   17.632
 6486.00    1.32445   1.32544   16.237
 6487.00    1.32127   1.31833   15.759
 6488.00    1.29954   1.30931   15.974
 6489.00    1.27117   1.29795   16.557
 6490.00    1.24744   1.28633   17.500
 6491.00    1.23423   1.27507   18.771
 6492.00    1.22978   1.26478   19.941
 6493.00    1.23036   1.25733   20.625
 6494.00    1.23425   1.25196   21.059
 6495.00    1.24068   1.25084   21.427
 6496.00    1.24890   1.25276   21.358
 6497.00    1.25743   1.25831   20.772
 6498.00    1.26419   1.26699   20.244
 6499.00    1.27015   1.27715   20.074
 6500.00    1.28002   1.28906   20.013
 6501.00    1.29434   1.30022   19.831
 6502.00    1.30682   1.31108   19.573
 6503.00    1.31278   1.32036   19.294
 6504.00    1.31312   1.32811   18.957
 6505.00    1.31157   1.33445   18.561
 6506.00    1.31216   1.33895   18.193
 6507.00    1.31399   1.34196   18.053
 6508.00    1.31184   1.34360   18.377
 6509.00    1.30844   1.34408   19.006
 6510.00    1.31547   1.34351   19.279
 6511.00    1.33730   1.34226   18.893
 6512.00    1.36605   1.34087   18.232
 6513.00    1.38855   1.33925   17.702
 6514.00    1.39237   1.33776   17.506
 6515.00    1.37707   1.33708   17.680
 6516.00    1.35391   1.33666   18.163
 6517.00    1.33221   1.33696   18.862
 6518.00    1.31595   1.33762   19.654
 6519.00    1.30776   1.33896   20.309
 6520.00    1.30952   1.34051   20.566
 6521.00    1.32035   1.34191   20.438
 6522.00    1.33636   1.34333   20.208
 6523.00    1.35142   1.34449   20.080
 6524.00    1.35931   1.34539   20.080
 6525.00    1.35840   1.34582   20.012
 6526.00    1.35201   1.34587   19.665
 6527.00    1.34629   1.34581   19.291
 6528.00    1.34693   1.34573    0.000
 6529.00    1.35336   1.34595    0.000
 6530.00    1.36031   1.34659    0.000
 6531.00    1.36417   1.34742    0.000
 6532.00    1.36484   1.34838    0.000
 6533.00    1.36655   1.34942    0.000
 6534.00    1.37302   1.35036    0.000
 6535.00    1.37849   1.35101    0.000
 6536.00    1.37471   1.35106    0.000
 6537.00    1.36543   1.35033    0.000
 6538.00    1.36039   1.34874    0.000
 6539.00    1.36157   1.34601    0.000
 6540.00    1.36462   1.34253    0.000
 6541.00    1.36456   1.33796    0.000
 6542.00    1.35845   1.33342    0.000
 6543.00    1.34778   1.32859    0.000
 6544.00    1.33696   1.32366    0.000
 6545.00    1.33064   1.31877    0.000
 6546.00    1.33030   1.31375    0.000
 6547.00    1.33079   1.30892    0.000
 6548.00    1.32587   1.30346    0.000
 6549.00    1.31512   1.29763    0.000
 6550.00    1.30288   1.29085    0.000
 6551.00    1.29545   1.28284    0.000
 6552.00    1.29527   1.27343    0.000
 6553.00    1.29571   1.26195    0.000
 6554.00    1.29046   1.24858    0.000
 6555.00    1.28274   1.23305    0.000
 6556.00    1.27776   1.21635    0.000
 6557.00    1.27515   1.19900    0.000
 6558.00    1.27217   1.18281    0.000
 6559.00    1.26757   1.17096    0.000
 6560.00    1.26497   1.16252    0.000
 6561.00    1.27397   1.15858    0.000
 6562.00    1.29758   1.15944    0.000
 6563.00    1.32389   1.16522    0.000
 6564.00    1.33841   1.17479    0.000
 6565.00    1.33428   1.18751    0.000
 6566.00    1.31631   1.20303    0.000
 6567.00    1.30097   1.21856    0.000
 6568.00    1.30045   1.23351    0.000
 6569.00    1.31315   1.24697    0.000
 6570.00    1.32961   1.25792    0.000
 6571.00    1.33831   1.26739    0.000
 6572.00    1.33539   1.27549    0.000
 6573.00    1.32804   1.28258    0.000
 6574.00    1.32296   1.28887    0.000
 6575.00    1.32086   1.29473    0.000
 6576.00    1.32140   1.30012    0.000
 6577.00    1.32627   1.30512    0.000
 6578.00    1.34118   1.30990    0.000
 6579.00    1.37349   1.31385    0.000
 6580.00    1.41823   1.31736    0.000
 6581.00    1.45659   1.31991    0.000
 6582.00    1.47631   1.32184    0.000
 6583.00    1.47841   1.32296    0.000
 6584.00    1.46886   1.32323    0.000
 6585.00    1.45371   1.32265    0.000
 6586.00    1.43394   1.32089    0.000
 6587.00    1.40649   1.31859    0.000
 6588.00    1.37404   1.31542    0.000
 6589.00    1.34572   1.31241    0.000
 6590.00    1.32816   1.30979    0.000
 6591.00    1.32240   1.30734    0.000
 6592.00    1.32377   1.30603    0.000
 6593.00    1.32512   1.30547    0.000
 6594.00    1.32573   1.30621    0.000
 6595.00    1.32986   1.30787    0.000
 6596.00    1.33618   1.31041    0.000
 6597.00    1.33874   1.31331    0.000
 6598.00    1.33675   1.31605    0.000
 6599.00    1.33383   1.31846    0.000
 6600.00    1.33041   1.31981    0.000
 6601.00    1.32507   1.32032    0.000
 6602.00    1.32140   1.32000    0.000
 6603.00    1.32587   1.31930    0.000
 6604.00    1.34007   1.31836    0.000
 6605.00    1.35938   1.31763    0.000
 6606.00    1.37382   1.31727    0.000
 6607.00    1.37380   1.31742    0.000
 6608.00    1.36015   1.31859    0.000
 6609.00    1.34211   1.32031   19.882
 6610.00    1.33045   1.32304   19.327
 6611.00    1.33276   1.32592   19.325
 6612.00    1.34800   1.32916   19.545
 6613.00    1.36852   1.33226   19.271
 6614.00    1.38484   1.33495   18.725
 6615.00    1.39076   1.33714   18.442
 6616.00    1.38938   1.33821   18.285
 6617.00    1.38628   1.33852   17.957
 6618.00    1.37979   1.33773   17.691
 6619.00    1.36723   1.33653   17.823
 6620.00    1.35414   1.33440   18.268
 6621.00    1.34730   1.33199   18.679
 6622.00    1.34552   1.32913   18.729
 6623.00    1.34309   1.32613   18.455
 6624.00    1.33520   1.32310   18.461
 6625.00    1.32225   1.31998   19.138
 6626.00    1.31275   1.31700   19.918
 6627.00    1.31279   1.31407   20.072
 6628.00    1.31645   1.31172   19.954
 6629.00    1.31815   1.30960   20.152
 6630.00    1.32390   1.30823   20.535
 6631.00    1.33946   1.30723   20.681
 6632.00    1.35993   1.30669   20.388
 6633.00    1.37600   1.30665   19.831
 6634.00    1.38053   1.30715   19.469
 6635.00    1.37327   1.30795   19.451
 6636.00    1.36252   1.30869   19.359
 6637.00    1.35303   1.30961   18.989
 6638.00    1.33913   1.31034   18.782
 6639.00    1.31983   1.31103   18.981
 6640.00    1.30705   1.31144   19.212
 6641.00    1.30776   1.31161   19.170
 6642.00    1.31428   1.31174   19.069
 6643.00    1.31800   1.31184   19.095
 6644.00    1.31769   1.31213   19.134
 6645.00    1.31720   1.31244   19.136
 6646.00    1.32236   1.31296   19.268
 6647.00    1.33389   1.31333   19.527
 6648.00    1.34503   1.31378   19.615
 6649.00    1.34932   1.31414   19.488
 6650.00    1.34473   1.31424   19.508
 6651.00    1.33400   1.31396   19.757
 6652.00    1.32370   1.31327   19.853
 6653.00    1.31972   1.31231   19.645
 6654.00    1.32439   1.31078   19.424
 6655.00    1.33307   1.30895   19.395
 6656.00    1.33588   1.30636   19.498
 6657.00    1.32972   1.30392   19.502
 6658.00    1.32059   1.30117   19.172
 6659.00    1.31463   1.29854   18.716
 6660.00    1.31395   1.29626   18.626
 6661.00    1.31481   1.29427   18.905
 6662.00    1.30973   1.29339   19.072
 6663.00    1.29638   1.29300   18.977
 6664.00    1.27996   1.29376   18.913
 6665.00    1.27132   1.29488   18.965
 6666.00    1.28102   1.29680   18.966
 6667.00    1.30501   1.29871   18.912
 6668.00    1.32753   1.30052   18.973
 6669.00    1.33952   1.30205   19.216
 6670.00    1.34219   1.30230   19.555
 6671.00    1.34289   1.30168   19.806
 6672.00    1.34885   1.30040   19.808
 6673.00    1.35553   1.29869   19.674
 6674.00    1.35214   1.29636   19.662
 6675.00    1.33928   1.29418   19.776
 6676.00    1.32618   1.29221   19.832
 6677.00    1.31694   1.29113   19.770
 6678.00    1.31031   1.29074   19.658
 6679.00    1.30497   1.29134   19.572
 6680.00    1.30084   1.29265   19.517
 6681.00    1.29932   1.29446   19.356
 6682.00    1.30110   1.29675   19.004
 6683.00    1.30238   1.29910   18.726
 6684.00    1.29893   1.30158   18.814
 6685.00    1.29341   1.30310   19.090
 6686.00    1.29169   1.30428   19.165
 6687.00    1.29573   1.30479   18.983
 6688.00    1.30529   1.30470   18.757
 6689.00    1.32173   1.30396   18.690
 6690.00    1.34314   1.30280   18.839
 6691.00    1.35787   1.30152   18.996
 6692.00    1.35460   1.29992   18.971
 6693.00    1.33565   1.29865   18.980
 6694.00    1.31200   1.29729   19.281
 6695.00    1.29509   1.29632   19.698
 6696.00    1.29082   1.29548    0.000
 6697.00    1.29475   1.29502    0.000
 6698.00    1.30003   1.29491    0.000
 6699.00    1.30601   1.29495    0.000
 6700.00    1.31409   1.29514    0.000
 6701.00    1.32297   1.29518    0.000
 6702.00    1.32969   1.29541    0.000
 6703.00    1.33118   1.29505    0.000
 6704.00    1.32640   1.29460    0.000
 6705.00    1.31770   1.29366    0.000
 6706.00    1.30811   1.29205    0.000
 6707.00    1.29922   1.29006    0.000
 6708.00    1.29223   1.28729    0.000
 6709.00    1.28881   1.28428    0.000
 6710.00    1.29020   1.28062    0.000
 6711.00    1.29666   1.27691    0.000
 6712.00    1.30824   1.27329    0.000
 6713.00    1.32500   1.26999    0.000
 6714.00    1.34506   1.26733    0.000
 6715.00    1.36350   1.26537    0.000
 6716.00    1.37393   1.26480    0.000
 6717.00    1.37033   1.26494    0.000
 6718.00    1.35108   1.26615    0.000
 6719.00    1.32144   1.26802    0.000
 6720.00    1.29375   1.27052    0.000
 6721.00    1.28381   1.27333    0.000
 6722.00    1.29252   1.27614    0.000
 6723.00    1.30258   1.27914    0.000
 6724.00    1.30591   1.28160    0.000
 6725.00    1.31178   1.28374    0.000
 6726.00    1.32428   1.28533    0.000
 6727.00    1.33577   1.28682    0.000
 6728.00    1.34274   1.28776    0.000
 6729.00    1.34985   1.28834    0.000
 6730.00    1.35932   1.28835    0.000
 6731.00    1.36967   1.28801    0.000
 6732.00    1.38684   1.28735    0.000
 6733.00    1.41934   1.28617    0.000
 6734.00    1.44851   1.28485    0.000
 6735.00    1.43731   1.28307    0.000
 6736.00    1.39033   1.28126    0.000
 6737.00    1.35006   1.27932    0.000
 6738.00    1.32786   1.27756    0.000
 6739.00    1.30168   1.27578    0.000
 6740.00    1.26949   1.27418    0.000
 6741.00    1.24859   1.27262    0.000
 6742.00    1.23360   1.27121    0.000
 6743.00    1.20447   1.26991    0.000
 6744.00    1.17357   1.26890    0.000
 6745.00    1.17443   1.26817    0.000
 6746.00    1.20816   1.26751    0.000
 6747.00    1.24699   1.26743    0.000
 6748.00    1.26970   1.26773    0.000
 6749.00    1.26897   1.26888    0.000
 6750.00    1.24963   1.27038    0.000
 6751.00    1.22526   1.27269    0.000
 6752.00    1.21208   1.27546    0.000
 6753.00    1.22211   1.27862   17.757
 6754.00    1.25320   1.28206   18.442
 6755.00    1.29206   1.28531   18.677
 6756.00    1.32283   1.28853   18.540
 6757.00    1.33476   1.29082   18.369
 6758.00    1.33143   1.29269   18.385
 6759.00    1.32293   1.29357   18.620
 6760.00    1.31192   1.29366   18.884
 6761.00    1.29558   1.29296   18.935
 6762.00    1.27153   1.29167   18.794
 6763.00    1.23977   1.29002   18.663
 6764.00    1.20497   1.28820   18.703
 6765.00    1.18431   1.28668   18.573
 6766.00    1.21404   1.28549   17.113
 6767.00    1.30873   1.28510   14.393
 6768.00    1.41651   1.28536   12.065
 6769.00    1.47142   1.28645   10.695
 6770.00    1.45542   1.28814    9.888
 6771.00    1.37896   1.29028    9.434
 6772.00    1.25639   1.29269    9.612
 6773.00    1.13334   1.29492   10.637
 6774.00    1.10570   1.29673   11.905
 6775.00    1.21582   1.29758   12.288
 6776.00    1.36819   1.29774   11.938
 6777.00    1.45589   1.29680   11.660
 6778.00    1.47109   1.29507   11.707
 6779.00    1.45045   1.29257   12.090
 6780.00    1.42281   1.28959   12.818
 6781.00    1.40638   1.28652   13.743
 6782.00    1.40917   1.28354   14.358
 6783.00    1.42619   1.28114   14.348
 6784.00    1.44014   1.27916   14.150
 6785.00    1.43979   1.27796   14.145
 6786.00    1.43031   1.27726   14.194
 6787.00    1.41734   1.27713   14.154
 6788.00    1.39711   1.27740   14.173
 6789.00    1.36128   1.27792   14.430
 6790.00    1.30489   1.27864   14.949
 6791.00    1.25304   1.27935   15.363
 6792.00    1.26046   1.28020   14.918
 6793.00    1.33086   1.28102   13.729
 6794.00    1.39343   1.28190   12.761
 6795.00    1.40253   1.28287   12.411
 6796.00    1.37727   1.28389   12.535
 6797.00    1.34705   1.28491   12.982
 6798.00    1.32561   1.28579   13.693
 6799.00    1.31566   1.28670   14.511
 6800.00    1.31304   1.28723   15.107
 6801.00    1.31310   1.28763   15.397
 6802.00    1.31510   1.28772   15.651
 6803.00    1.32796   1.28760   15.765
 6804.00    1.36284   1.28731   15.233
 6805.00    1.39936   1.28685   14.279
 6806.00    1.39516   1.28636   13.639
 6807.00    1.35853   1.28591   13.494
 6808.00    1.34307   1.28555   13.596
 6809.00    1.35245   1.28533   13.849
 6810.00    1.34119   1.28524   14.345
 6811.00    1.30879   1.28533   14.937
 6812.00    1.29936   1.28565   15.213
 6813.00    1.32048   1.28626   15.117
 6814.00    1.34183   1.28693   14.930
 6815.00    1.35304   1.28793   14.540
 6816.00    1.36533   1.28895   13.691
 6817.00    1.37755   1.29015   12.770
 6818.00    1.37772   1.29123   12.337
 6819.00    1.36660   1.29226   12.481
 6820.00    1.35244   1.29316   13.048
 6821.00    1.32846   1.29390   13.972
 6822.00    1.28869   1.29437   15.194
 6823.00    1.26874   1.29453   16.273
 6824.00    1.30962   1.29448   16.419
 6825.00    1.37511   1.29424   15.426
 6826.00    1.39730   1.29399   13.890
 6827.00    1.38453   1.29359   12.508
 6828.00    1.38354   1.29314   11.602
 6829.00    1.38424   1.29256   11.116
 6830.00    1.34936   1.29175   10.996
 6831.00    1.28620   1.29069   11.502
 6832.00    1.23167   1.28912   12.970
 6833.00    1.21222   1.28723   14.924
 6834.00    1.23171   1.28487   15.871
 6835.00    1.26455   1.28226   15.714
 6836.00    1.28226   1.27948   15.618
 6837.00    1.28840   1.27677   15.815
 6838.00    1.29670   1.27450   16.029
 6839.00    1.29987   1.27280   16.286
 6840.00    1.28902   1.27199   16.555
 6841.00    1.27918   1.27193   16.212
 6842.00    1.28618   1.27274   15.020
 6843.00    1.29985   1.27404   13.860
 6844.00    1.30621   1.27575   13.291
 6845.00    1.31122   1.27738   13.034
 6846.00    1.31833   1.27874   12.881
 6847.00    1.30791   1.27961   13.240
 6848.00    1.27419   1.27983   14.342
 6849.00    1.25567   1.27930   15.223
 6850.00    1.28522   1.27813   14.590
 6851.00    1.34761   1.27638   12.929
 6852.00    1.40487   1.27435   11.359
 6853.00    1.42274   1.27222   10.379
 6854.00    1.39320   1.27028    9.991
 6855.00    1.34383   1.26868    9.986
 6856.00    1.28779   1.26749   10.315
 6857.00    1.19949   1.26684   11.279
 6858.00    1.09999   1.26662   13.061
 6859.00    1.09169   1.26685   14.832
 6860.00    1.19970   1.26737   15.424
 6861.00    1.30033   1.26808   15.428
 6862.00    1.31344   1.26879   15.671
 6863.00    1.29635   1.26945   15.912
 6864.00    1.30219   1.26993   15.896
 6865.00    1.31075   1.27023   15.933
 6866.00    1.30444   1.27046   16.082
 6867.00    1.30150   1.27067   15.888
 6868.00    1.31014   1.27097   15.383
 6869.00    1.31273   1.27148   15.204
 6870.00    1.30336   1.27214   15.290
 6871.00    1.29823   1.27304   14.766
 6872.00    1.30300   1.27409   13.690
 6873.00    1.30569   1.27533   13.004
 6874.00    1.30780   1.27661   12.845
 6875.00    1.32448   1.27780   12.675
 6876.00    1.33605   1.27891   12.483
 6877.00    1.29644   1.27972   12.826
 6878.00    1.22952   1.28050   13.695
 6879.00    1.22341   1.28111   14.171
 6880.00    1.29425   1.28196   13.669
 6881.00    1.37193   1.28281   12.658
 6882.00    1.40387   1.28408   11.752
 6883.00    1.38333   1.28563   11.273
 6884.00    1.33058   1.28755   11.286
 6885.00    1.27763   1.28970   11.739
 6886.00    1.24302   1.29193   12.509
 6887.00    1.22708   1.29423   13.374
 6888.00    1.21877   1.29624   14.179
 6889.00    1.20763   1.29803   14.867
 6890.00    1.20710   1.29938   15.215
 6891.00    1.23625   1.30037   14.995
 6892.00    1.26622   1.30090   14.554
 6893.00    1.25027   1.30116   14.413
 6894.00    1.21329   1.30129   14.470
 6895.00    1.21787   1.30132   14.325
 6896.00    1.25787   1.30146   14.135
 6897.00    1.28409   1.30170   14.298
 6898.00    1.29342   1.30220   14.627
 6899.00    1.30826   1.30283   14.636
 6900.00    1.31070   1.30369   14.469
 6901.00    1.27456   1.30461   14.560
 6902.00    1.23638   1.30552   14.814
 6903.00    1.24847   1.30628   14.836
 6904.00    1.28884   1.30682   14.563
 6905.00    1.30525   1.30696   14.188
 6906.00    1.30004   1.30663   13.818
 6907.00    1.30305   1.30590   13.474
 6908.00    1.31698   1.30473   13.148
 6909.00    1.32298   1.30329   12.869
 6910.00    1.29982   1.30155   12.773
 6911.00    1.25077   1.29992   12.901
 6912.00    1.22888   1.29835   12.978
 6913.00    1.27130   1.29713   12.682
 6914.00    1.32587   1.29618   12.057
 6915.00    1.33229   1.29558   11.402
 6916.00    1.31412   1.29533   11.035
 6917.00    1.31074   1.29514   11.110
 6918.00    1.30273   1.29515   11.545
 6919.00    1.26974   1.29496   12.166
 6920.00    1.24744   1.29480   12.829
 6921.00    1.26483   1.29445   13.395
 6922.00    1.28883   1.29411   13.730
 6923.00    1.28648   1.29375   13.829
 6924.00    1.27692   1.29344   13.881
 6925.00    1.28281   1.29341   14.012
 6926.00    1.29144   1.29341   14.099
 6927.00    1.28581   1.29379   14.019
 6928.00    1.26889   1.29420   13.851
 6929.00    1.25098   1.29485   13.689
 6930.00    1.23975   1.29555   13.517
 6931.00    1.24210   1.29631   13.277
 6932.00    1.26340   1.29716   12.930
 6933.00    1.29177   1.29790   12.570
 6934.00    1.29642   1.29861   12.402
 6935.00    1.27732   1.29909   12.427
 6936.00    1.28067   1.29938   12.363
 6937.00    1.31804   1.29939   12.161
 6938.00    1.33764   1.29908   12.159
 6939.00    1.31564   1.29854   12.453
 6940.00    1.29040   1.29774   12.682
 6941.00    1.28779   1.29688   12.643
 6942.00    1.29240   1.29592   12.567
 6943.00    1.29129   1.29505   12.552
 6944.00    1.29003   1.29434   12.412
 6945.00    1.29026   1.29380   12.142
 6946.00    1.28262   1.29355   11.976
 6947.00    1.25948   1.29343   11.944
 6948.00    1.22592   1.29361   11.819
 6949.00    1.22012   1.29392   11.464
 6950.00    1.29168   1.29455   10.950
 6951.00    1.40011   1.29536   10.439
 6952.00    1.43026   1.29654   10.085
 6953.00    1.36451   1.29798    9.964
 6954.00    1.29183   1.29970   10.082
 6955.00    1.25168   1.30164   10.366
 6956.00    1.21714   1.30370   10.664
 6957.00    1.19405   1.30585   10.871
 6958.00    1.22181   1.30789   10.988
 6959.00    1.29335   1.30989   11.114
 6960.00    1.35683   1.31157   11.356
 6961.00    1.37905   1.31309   11.589
 6962.00    1.36029   1.31420   11.566
 6963.00    1.32811   1.31501   11.453
 6964.00    1.31881   1.31536   11.616
 6965.00    1.33993   1.31526   11.880
 6966.00    1.36899   1.31466   11.728
 6967.00    1.37063   1.31342   11.264
 6968.00    1.32361   1.31161   10.985
 6969.00    1.26538   1.30905   11.048
 6970.00    1.25372   1.30598   11.256
 6971.00    1.27922   1.30234   11.069
 6972.00    1.29388   1.29851   10.188
 6973.00    1.29024   1.29471    9.273
 6974.00    1.28720   1.29132    8.921
 6975.00    1.28308   1.28871    9.062
 6976.00    1.26762   1.28713    9.336
 6977.00    1.25231   1.28684    9.384
 6978.00    1.25466   1.28782    9.144
 6979.00    1.26888   1.29001    9.131
 6980.00    1.27879   1.29310    9.825
 6981.00    1.28114   1.29676   10.876
 6982.00    1.28018   1.30061   11.321
 6983.00    1.27667   1.30426   11.178
 6984.00    1.27322   1.30749   11.119
 6985.00    1.28123   1.31009   11.174
 6986.00    1.30429   1.31206   11.120
 6987.00    1.32073   1.31336   11.053
 6988.00    1.31730   1.31413   11.104
 6989.00    1.32289   1.31438   11.090
 6990.00    1.35055   1.31421   10.842
 6991.00    1.34348   1.31369   10.541
 6992.00    1.27046   1.31287   10.390
 6993.00    1.21062   1.31175   10.361
 6994.00    1.23010   1.31039   10.393
 6995.00    1.27495   1.30881   10.539
 6996.00    1.28221   1.30710   10.796
 6997.00    1.27395   1.30533   10.962
 6998.00    1.28206   1.30363   10.912
 6999.00    1.28825   1.30208   10.841
 7000.00    1.27620   1.30076   10.941
 7001.00    1.26885   1.29973   -2.000
 7002.00    1.28649   1.29898   -2.000
 7003.00    1.31704   1.29855   -2.000
 7004.00    1.32969   1.29828   -2.000
 7005.00    1.29294   1.29817   -2.000
 7006.00    1.22203   1.29798   -2.000
 7007.00    1.19101   1.29773   -2.000
 7008.00    1.22961   1.29721   -2.000
 7009.00    1.27923   1.29655   -2.000
 7010.00    1.29423   1.29564   -2.000
 7011.00    1.28895   1.29465   -2.000
 7012.00    1.27893   1.29365   -2.000
 7013.00    1.25588   1.29288   -2.000
 7014.00    1.22361   1.29241   -2.000
 7015.00    1.20819   1.29235   -2.000
 7016.00    1.22021   1.29270   -2.000
 7017.00    1.24278   1.29341   -2.000
 7018.00    1.25645   1.29445   -2.000
 7019.00    1.25263   1.29561   -2.000
 7020.00    1.24167   1.29696   -2.000
 7021.00    1.24529   1.29827   -2.000
 7022.00    1.25723   1.29971   -2.000
 7023.00    1.24649   1.30108   -2.000
 7024.00    1.22125   1.30260   -2.000
 7025.00    1.22688   1.30411   -2.000
 7026.00    1.26301   1.30575   -2.000
 7027.00    1.28189   1.30731   -2.000
 7028.00    1.27076   1.30883   -2.000
 7029.00    1.26148   1.31025   -2.000
 7030.00    1.28061   1.31155   -2.000
 7031.00    1.32770   1.31282   -2.000
 7032.00    1.35904   1.31408   -2.000
 7033.00    1.32176   1.31557   -2.000
 7034.00    1.24964   1.31728   -2.000
 7035.00    1.23088   1.31947   -2.000
 7036.00    1.27144   1.32207   -2.000
 7037.00    1.30976   1.32519   -2.000
 7038.00    1.32604   1.32865   -2.000
 7039.00    1.33996   1.33232   -2.000
 7040.00    1.35205   1.33592   -2.000
 7041.00    1.34729   1.33915   -2.000
 7042.00    1.32795   1.34174   -2.000
 7043.00    1.31255   1.34333   -2.000
 7044.00    1.32060   1.34379   -2.000
 7045.00    1.35704   1.34283   -2.000
 7046.00    1.39143   1.34049   -2.000
 7047.00    1.38274   1.33669   -2.000
 7048.00    1.32627   1.33164   -2.000
 7049.00    1.25192   1.32549   -2.000
 7050.00    1.20748   1.31860   -2.000
 7051.00    1.22196   1.31124   -2.000
 7052.00    1.25882   1.30382   -2.000
 7053.00    1.26172   1.29660   -2.000
 7054.00    1.22584   1.28992   -2.000
 7055.00    1.18424   1.28386   -2.000
 7056.00    1.17543   1.27862   -2.000
 7057.00    1.21494   1.27411   -2.000
 7058.00    1.26838   1.27042   -2.000
 7059.00    1.28723   1.26735   -2.000
 7060.00    1.25416   1.26500   -2.000
 7061.00    1.18879   1.26316   -2.000
 7062.00    1.14402   1.26197   -2.000
 7063.00    1.15472   1.26129   -2.000
 7064.00    1.19060   1.26125   -2.000
 7065.00    1.20758   1.26183   -2.000
 7066.00    1.20037   1.26301   -2.000
 7067.00    1.19149   1.26484   -2.000
 7068.00    1.21270   1.26710   -2.000
 7069.00    1.26554   1.26982   -2.000
 7070.00    1.29773   1.27263   -2.000
 7071.00    1.27911   1.27543   -2.000
 7072.00    1.25353   1.27784   -2.000
 7073.00    1.25734   1.27967   -2.000
 7074.00    1.26384   1.28064   -2.000
 7075.00    1.24936   1.28055   -2.000
 7076.00    1.23633   1.27928   -2.000
 7077.00    1.24912   1.27670   -2.000
 7078.00    1.28382   1.27287   -2.000
 7079.00    1.31653   1.26782   -2.000
 7080.00    1.31603   1.26176   -2.000
 7081.00    1.28104   1.25491   -2.000
 7082.00    1.25046   1.24759   -2.000
 7083.00    1.23987   1.24012   -2.000
 7084.00    1.22006   1.23287   -2.000
 7085.00    1.19086   1.22610   -2.000
 7086.00    1.20028   1.22013   -2.000
 7087.00    1.24710   1.21506   -2.000
 7088.00    1.26117   1.21114   -2.000
 7089.00    1.23359   1.20823   -2.000
 7090.00    1.24011   1.20658   -2.000
 7091.00    1.28270   1.20583   -2.000
 7092.00    1.26685   1.20622   -2.000
 7093.00    1.18738   1.20728   -2.000
 7094.00    1.15304   1.20914   -2.000
 7095.00    1.19345   1.21145   -2.000
 7096.00    1.23038   1.21405   -2.000
 7097.00    1.23932   1.21691   -2.000
 7098.00    1.26660   1.21953   -2.000
 7099.00    1.29287   1.22224   -2.000
 7100.00    1.24306   1.22431   -2.000
 7101.00    1.15825   1.22638   -2.000
 7102.00    1.16723   1.22764   -2.000
 7103.00    1.24985   1.22886   -2.000
 7104.00    1.26223   1.22939   -2.000
 7105.00    1.19470   1.22992   -2.000
 7106.00    1.16066   1.23003   -2.000
 7107.00    1.18460   1.23027   -2.000
 7108.00    1.20450   1.23042   -2.000
 7109.00    1.21058   1.23079   -2.000
 7110.00    1.23654   1.23129   -2.000
 7111.00    1.26390   1.23197   -2.000
 7112.00    1.24722   1.23277   -2.000
 7113.00    1.21202   1.23353   -2.000
 7114.00    1.21767   1.23421   -2.000
 7115.00    1.24436   1.23457   -2.000
 7116.00    1.23261   1.23456   -2.000
 7117.00    1.19748   1.23399   -2.000
 7118.00    1.19214   1.23287   -2.000
 7119.00    1.20799   1.23115   -2.000
 7120.00    1.20329   1.22886   -2.000
 7121.00    1.17829   1.22613   -2.000
 7122.00    1.15794   1.22302   -2.000
 7123.00    1.14658   1.21976   -2.000
 7124.00    1.14057   1.21651   -2.000
 7125.00    1.15522   1.21349   -2.000
 7126.00    1.19602   1.21094   -2.000
 7127.00    1.21783   1.20898   -2.000
 7128.00    1.18472   1.20787   -2.000
 7129.00    1.14840   1.20754   -2.000
 7130.00    1.16734   1.20815   -2.000
 7131.00    1.20300   1.20944   -2.000
 7132.00    1.20141   1.21144   -2.000
 7133.00    1.19381   1.21380   -2.000
 7134.00    1.21688   1.21642   -2.000
 7135.00    1.22424   1.21902   -2.000
 7136.00    1.18979   1.22143   -2.000
 7137.00    1.20633   1.22355   -2.000
 7138.00    1.32665   1.22522   -2.000
 7139.00    1.42166   1.22652   -2.000
 7140.00    1.36356   1.22737   -2.000
 7141.00    1.19226   1.22795   -2.000
 7142.00    1.02673   1.22831   -2.000
 7143.00    0.97010   1.22867   -2.000
 7144.00    1.04130   1.22916   -2.000
 7145.00    1.14107   1.23000   -2.000
 7146.00    1.16942   1.23131   -2.000
 7147.00    1.11237   1.23319   -2.000
 7148.00    1.01530   1.23562   -2.000
 7149.00    0.95289   1.23854   -2.000
 7150.00    0.98206   1.24173   -2.000
 7151.00    1.10766   1.24495   -2.000
 7152.00    1.26035   1.24792   -2.000
 7153.00    1.31076   1.25027   -2.000
 7154.00    1.22586   1.25183   -2.000
 7155.00    1.12667   1.25225   -2.000
 7156.00    1.09942   1.25165   -2.000
 7157.00    1.11073   1.24969   -2.000
 7158.00    1.12190   1.24702   -2.000
 7159.00    1.14013   1.24321   -2.000
 7160.00    1.16699   1.23944   -2.000
 7161.00    1.18069   1.23504   -2.000
 7162.00    1.17481   1.23160   -2.000
 7163.00    1.16755   1.22812   -2.000
 7164.00    1.16368   1.22616   -2.000
 7165.00    1.14820   1.22449   -2.000
 7166.00    1.12634   1.22430   -2.000
 7167.00    1.12779   1.22432   -2.000
 7168.00    1.16153   1.22523   -2.000
 7169.00    1.20479   1.22601   -2.000
 7170.00    1.22572   1.22694   -2.000
 7171.00    1.20562   1.22739   -2.000
 7172.00    1.18211   1.22748   -2.000
 7173.00    1.22178   1.22700   -2.000
 7174.00    1.29499   1.22601   -2.000
 7175.00    1.29360   1.22460   -2.000
 7176.00    1.19358   1.22284   -2.000
 7177.00    1.06024   1.22091   -2.000
 7178.00    0.93208   1.21885   -2.000
 7179.00    0.82837   1.21683   -2.000
 7180.00    0.84792   1.21484   -2.000
 7181.00    1.08763   1.21295   -2.000
 7182.00    1.39498   1.21118   -2.000
 7183.00    1.49436   1.20957   -2.000
 7184.00    1.39583   1.20815   -2.000
 7185.00    1.30092   1.20700   -2.000
 7186.00    1.21433   1.20618   -2.000
 7187.00    1.03390   1.20577   -2.000
 7188.00    0.88519   1.20578   -2.000
 7189.00    0.97747   1.20625   -2.000
 7190.00    1.22076   1.20707   -2.000
 7191.00    1.36231   1.20824   -2.000
 7192.00    1.34611   1.20954   -2.000
 7193.00    1.27747   1.21095   -2.000
 7194.00    1.25772   1.21226   -2.000
 7195.00    1.31374   1.21342   -2.000
 7196.00    1.33979   1.21431   -2.000
 7197.00    1.23270   1.21489   -2.000
 7198.00    1.09093   1.21513   -2.000
 7199.00    1.06906   1.21502   -2.000
 7200.00    1.14686   1.21461   -2.000
 7201.00    1.21611   1.21398   -2.000
 7202.00    1.23116   1.21322   -2.000
 7203.00    1.20275   1.21248   -2.000
 7204.00    1.16513   1.21190   -2.000
 7205.00    1.13889   1.21164   -2.000
 7206.00    1.09839   1.21180   -2.000
 7207.00    1.03794   1.21249   -2.000
 7208.00    1.03580   1.21369   -2.000
 7209.00    1.13566   1.21540   -2.000
 7210.00    1.23550   1.21749   -2.000
 7211.00    1.24055   1.21991   -2.000
 7212.00    1.20543   1.22245   -2.000
 7213.00    1.20830   1.22508   -2.000
 7214.00    1.23344   1.22764   -2.000
 7215.00    1.22746   1.23012   -2.000
 7216.00    1.15763   1.23249   -2.000
 7217.00    1.03647   1.23473   -2.000
 7218.00    0.93076   1.23691   -2.000
