###################################################################
## OUTPUT of StarlightChains_v04.for    [Cid@UFSC - 01/Apr/2007] ##
###################################################################

## Some input info
2015bb.txt                               [arq_obs]
Base.CB07.vall.4m                        [arq_base]
Masks.EmLines.NEW.gm                     [arq_masks]
StCv04.C11.config                        [arq_config]
   66                                    [N_base]
    0                                    [N_YAV_components = # of components with extra extinction!]
    0                                    [i_FitPowerLaw (1/0 = Yes/No)]
-9.99                                    [alpha_PowerLaw]
CCM                                      [red_law_option]
 1.458241                                [q_norm = A(l_norm)/A(V)]

## (Re)Sampling Parameters
 3741.00                                 [l_ini (A)]
 7218.00                                 [l_fin (A)]
    1.00                                 [dl    (A)]     (OBS: dl_cushion =    50.00 A)

## Normalization info
 4020.00                                 [l_norm (A) - for base]
 4010.00                                 [llow_norm (A) - window for f_obs]
 4060.00                                 [lupp_norm (A) - window for f_obs]
8.889013E-17                             [fobs_norm (in input units)]

## S/N
 3691.00                                 [llow_SN (A) - window for S/N]
 7268.00                                 [lupp_SN (A) - window for S/N]
   8.718                                 [S/N in S/N window]
   8.150                                 [S/N in norm. window]
  17.172                                 [S/N_err in S/N window]
  16.053                                 [S/N_err in norm. window]
  1.0000                                 [fscale_chi2]

## etc...
    -2007425                             [idum_orig]
  2384                                   [NOl_eff]
  2372                                   [Nl_eff]
    12    NSIGMA                         [Ntot_cliped & clip_method]
  1951390                                [Nglobal_steps]
   7                                     [N_chains]
  31                                     [NEX0s_base = N_base in EX0s-fits]
 0   0   1        4   2.0   3.062E+01    [Clip-Bug, RC-Crash & Burn-In warning-flags, n_censored_weights, wei_nsig_threshold & wei_limit]
    18     17.871     17.369      0.502  [idt_all, wdt_TotTime, wdt_UsrTime & wdt_SysTime (sec)]

## Synthesis Results - Best model ##

 4.13352E-01                             [chi2/Nl_eff]
     3.00064                             [adev (%)]

   106.45070                             [sum-of-x (%)]
 1.41537E-16                             [Flux_tot (units of input spectrum!)]
 3.13467E-12                             [Mini_tot (???)]
 1.63643E-12                             [Mcor_tot (???)]

-143.88                                  [v0_min  (km/s)]
 147.45                                  [vd_min  (km/s)]
 0.2998                                  [AV_min  (mag)]
 0.0000                                  [YAV_min (mag)]

# j     x_j(%)      Mini_j(%)     Mcor_j(%)     age_j(yr)     Z_j      (L/M)_j    YAV?  Mstars   component_j        a/Fe...       SSP_chi2r SSP_adev(%)   SSP_AV   SSP_x(%)
  1      0.0000     0.0000E+00    0.0000E+00    1.000000E+06  0.00400  1.094E-02    0   1.0000   age020_m42            0.0000     1.5248E+00     5.3242   3.3422    88.4618
  2      0.5653     5.9843E-04    1.1462E-03    3.160000E+06  0.00400  4.007E-02    0   0.9999   age045_m42            0.0000     1.2504E+00     4.6555   2.5913    95.8492
  3      0.0000     0.0000E+00    0.0000E+00    5.010000E+06  0.00400  2.539E-02    0   0.9488   age055_m42            0.0000     1.3162E+00     4.7894   2.9179    93.1371
  4      0.0000     0.0000E+00    0.0000E+00    6.610000E+06  0.00400  2.620E-02    0   0.9220   age061_m42            0.0000     1.2070E+00     4.5468   2.5086    96.5095
  5      5.3663     1.7218E-02    2.9228E-02    1.000000E+07  0.00400  1.322E-02    0   0.8862   age070_m42            0.0000     1.2102E+00     4.7454   2.1760   101.0695
  6      2.1497     1.1567E-02    1.8990E-02    1.445000E+07  0.00400  7.883E-03    0   0.8571   age078_m42            0.0000     1.2841E+00     4.8327   2.5173    97.8048
  7      4.4823     3.6207E-02    5.6692E-02    2.512000E+07  0.00400  5.251E-03    0   0.8174   age090_m42            0.0000     1.2480E+00     4.8714   2.0326   102.3094
  8      0.0000     0.0000E+00    0.0000E+00    4.000000E+07  0.00400  3.649E-03    0   0.7851   age104_m42            0.0000     1.1422E+00     4.7089   1.8042   103.2165
  9      0.0000     0.0000E+00    0.0000E+00    5.500000E+07  0.00400  3.098E-03    0   0.7629   age110_m42            0.0000     1.1169E+00     4.5825   1.9787   102.2090
 10      0.0000     0.0000E+00    0.0000E+00    1.015200E+08  0.00400  2.228E-03    0   0.7207   age116_m42            0.0000     1.1416E+00     4.6110   2.0111   101.8118
 11      0.0000     0.0000E+00    0.0000E+00    2.861200E+08  0.00400  1.093E-03    0   0.6648   age125_m42            0.0000     1.1931E+00     5.0293   1.4205   106.2068
 12      0.0000     0.0000E+00    0.0000E+00    5.088000E+08  0.00400  6.597E-04    0   0.6365   age130_m42            0.0000     1.1136E+00     4.8465   1.4287   106.1178
 13      0.0000     0.0000E+00    0.0000E+00    1.434000E+09  0.00400  2.132E-04    0   0.5798   age139_m42            0.0000     6.6181E-01     3.8110   0.4499   108.4518
 14     17.5528     1.2630E+01    1.3008E+01    4.250000E+09  0.00400  5.895E-05    0   0.5377   age158_m42            0.0000     5.6931E-01     3.4588   0.0538   101.9745
 15      3.9599     4.7852E+00    4.7775E+00    7.500000E+09  0.00400  3.510E-05    0   0.5212   age171_m42            0.0000     6.6121E-01     3.6788  -0.1134   100.3588
 16      1.1524     2.4378E+00    2.3508E+00    1.300000E+10  0.00400  2.005E-05    0   0.5034   age193_m42            0.0000     7.8965E-01     3.9895  -0.2584    98.9392
 17      0.0000     0.0000E+00    0.0000E+00    1.800000E+10  0.00400  1.525E-05    0   0.4967   age213_m42            0.0000     7.5768E-01     3.9207  -0.2869    98.7196
 18      0.5967     2.0445E-03    3.9164E-03    1.000000E+06  0.00800  1.238E-02    0   1.0000   age020_m52            0.0000     1.5146E+00     5.3166   3.3386    88.6321
 19      1.7458     2.4089E-03    4.5986E-03    3.160000E+06  0.00800  3.074E-02    0   0.9966   age045_m52            0.0000     1.4607E+00     5.2064   3.2586    89.5435
 20      0.0000     0.0000E+00    0.0000E+00    5.010000E+06  0.00800  2.668E-02    0   0.9443   age055_m52            0.0000     1.2927E+00     4.7937   3.0002    92.2808
 21      3.6109     7.1703E-03    1.2605E-02    6.610000E+06  0.00800  2.136E-02    0   0.9177   age061_m52            0.0000     9.0189E-01     4.1191   1.6777   102.0332
 22      0.0000     0.0000E+00    0.0000E+00    1.000000E+07  0.00800  1.215E-02    0   0.8827   age070_m52            0.0000     1.2964E+00     5.0095   2.3474   101.2933
 23      0.8830     4.2967E-03    7.0388E-03    1.445000E+07  0.00800  8.717E-03    0   0.8552   age078_m52            0.0000     1.2092E+00     4.7135   2.4766    99.4570
 24      0.3592     2.7249E-03    4.2604E-03    2.512000E+07  0.00800  5.592E-03    0   0.8162   age090_m52            0.0000     1.1987E+00     4.8658   2.0916   103.8207
 25      0.2705     2.9451E-03    4.4235E-03    4.000000E+07  0.00800  3.896E-03    0   0.7841   age104_m52            0.0000     1.1256E+00     4.7570   2.0103   104.3763
 26      0.0000     0.0000E+00    0.0000E+00    1.015200E+08  0.00800  2.148E-03    0   0.7226   age116_m52            0.0000     1.0406E+00     4.5354   1.9668   103.2833
 27      0.0000     0.0000E+00    0.0000E+00    2.861200E+08  0.00800  9.925E-04    0   0.6683   age125_m52            0.0000     1.0158E+00     4.7187   1.4914   107.2514
 28      0.0000     0.0000E+00    0.0000E+00    9.047900E+08  0.00800  3.141E-04    0   0.6138   age135_m52            0.0000     8.0610E-01     4.2762   0.7106   110.8109
 29      0.0000     0.0000E+00    0.0000E+00    1.434000E+09  0.00800  1.719E-04    0   0.5853   age139_m52            0.0000     6.4501E-01     3.8181   0.1387   108.0329
 30      0.0000     0.0000E+00    0.0000E+00    2.500000E+09  0.00800  7.872E-05    0   0.5600   age150_m52            0.0000     7.1478E-01     3.8224  -0.0853   102.8642
 31      0.0000     0.0000E+00    0.0000E+00    4.250000E+09  0.00800  4.336E-05    0   0.5426   age158_m52            0.0000     7.5287E-01     3.8976  -0.0969   101.7047
 32      0.0000     0.0000E+00    0.0000E+00    6.250000E+09  0.00800  3.159E-05    0   0.5319   age166_m52            0.0000     9.6430E-01     4.4151  -0.2751   100.5864
 33      0.0000     0.0000E+00    0.0000E+00    1.300000E+10  0.00800  1.361E-05    0   0.5073   age193_m52            0.0000     1.3107E+00     5.2406  -0.7132    98.5244
 34      0.8494     3.6445E+00    3.4836E+00    1.800000E+10  0.00800  9.886E-06    0   0.4990   age213_m52            0.0000     1.6485E+00     5.9563  -0.7917    96.7359
 35      0.1090     2.9950E-04    5.7371E-04    1.000000E+06  0.02000  1.544E-02    0   1.0000   age020_m62            0.0000     1.5204E+00     5.3376   3.3340    88.8513
 36      0.0000     0.0000E+00    0.0000E+00    3.160000E+06  0.02000  3.762E-02    0   0.9858   age045_m62            0.0000     1.4906E+00     5.2838   3.2742    89.5841
 37      0.0472     6.0757E-05    1.0873E-04    5.010000E+06  0.02000  3.296E-02    0   0.9342   age055_m62            0.0000     1.2405E+00     4.6181   2.8781    94.2919
 38      6.7305     2.4738E-02    4.1990E-02    8.710000E+06  0.02000  1.154E-02    0   0.8861   age067_m62            0.0000     2.6626E+00     7.6643   1.7192   108.3653
 39      0.0000     0.0000E+00    0.0000E+00    1.445000E+07  0.02000  7.663E-03    0   0.8472   age078_m62            0.0000     1.4845E+00     5.5934   1.9659   105.1393
 40      0.0000     0.0000E+00    0.0000E+00    2.512000E+07  0.02000  4.532E-03    0   0.8099   age090_m62            0.0000     1.6079E+00     5.8263   1.9527   105.2025
 41      0.0446     6.9220E-04    1.0070E-03    5.500000E+07  0.02000  2.733E-03    0   0.7595   age110_m62            0.0000     1.0975E+00     4.6204   1.9947   103.4799
 42      0.0000     0.0000E+00    0.0000E+00    1.609000E+08  0.02000  1.369E-03    0   0.6985   age120_m62            0.0000     1.0834E+00     4.6624   1.8485   105.6307
 43      0.0000     0.0000E+00    0.0000E+00    2.861200E+08  0.02000  9.013E-04    0   0.6714   age125_m62            0.0000     1.0892E+00     4.8081   1.6001   108.5639
 44      0.0000     0.0000E+00    0.0000E+00    5.088000E+08  0.02000  5.028E-04    0   0.6449   age130_m62            0.0000     1.0147E+00     4.6346   1.2497   110.0511
 45      0.0000     0.0000E+00    0.0000E+00    9.047900E+08  0.02000  2.428E-04    0   0.6179   age135_m62            0.0000     7.4158E-01     3.9608   0.6826   108.4204
 46      0.0000     0.0000E+00    0.0000E+00    1.434000E+09  0.02000  1.263E-04    0   0.5908   age139_m62            0.0000     7.0681E-01     3.8147   0.2518   106.0716
 47      0.0000     0.0000E+00    0.0000E+00    2.500000E+09  0.02000  5.985E-05    0   0.5673   age150_m62            0.0000     9.2605E-01     4.3446  -0.0762   102.7364
 48      3.2057     4.1569E+00    4.3541E+00    4.250000E+09  0.02000  3.271E-05    0   0.5468   age158_m62            0.0000     1.3073E+00     5.3315  -0.3450   100.1419
 49      0.8689     2.7100E+00    2.6823E+00    1.000000E+10  0.02000  1.360E-05    0   0.5167   age181_m62            0.0000     1.9402E+00     6.6378  -0.6491    97.7614
 50      2.1052     1.2534E+01    1.2036E+01    1.800000E+10  0.02000  7.124E-06    0   0.5013   age213_m62            0.0000     2.4872E+00     7.6432  -0.8173    95.1873
 51      1.2894     2.1100E-03    4.0411E-03    1.000000E+06  0.05000  2.592E-02    0   0.9998   age020_m72            0.0000     1.5479E+00     5.4149   3.3244    88.8991
 52      4.6848     4.1013E-03    7.5239E-03    3.160000E+06  0.05000  4.845E-02    0   0.9577   age045_m72            0.0000     1.3930E+00     4.9969   3.1533    90.9796
 53      2.4403     3.3694E-03    5.9038E-03    5.010000E+06  0.05000  3.072E-02    0   0.9147   age055_m72            0.0000     1.4264E+00     5.3315   2.6105    98.4705
 54      0.0000     0.0000E+00    0.0000E+00    6.610000E+06  0.05000  1.455E-02    0   0.8877   age061_m72            0.0000     4.5868E+00    10.2407   1.7731   110.1218
 55      0.0000     0.0000E+00    0.0000E+00    1.000000E+07  0.05000  9.074E-03    0   0.8524   age070_m72            0.0000     1.7979E+00     6.0770   2.8256    97.3041
 56      0.0000     0.0000E+00    0.0000E+00    2.512000E+07  0.05000  4.250E-03    0   0.7902   age090_m72            0.0000     1.5420E+00     5.5916   2.4857   100.6917
 57      0.0000     0.0000E+00    0.0000E+00    4.000000E+07  0.05000  3.087E-03    0   0.7618   age104_m72            0.0000     1.6116E+00     5.7675   2.2387   103.3045
 58      0.0000     0.0000E+00    0.0000E+00    1.015200E+08  0.05000  1.700E-03    0   0.7096   age116_m72            0.0000     1.1865E+00     4.9459   1.9815   105.7664
 59      0.0000     0.0000E+00    0.0000E+00    2.861200E+08  0.05000  7.384E-04    0   0.6633   age125_m72            0.0000     1.0242E+00     4.6780   1.4790   109.4906
 60      0.0000     0.0000E+00    0.0000E+00    5.088000E+08  0.05000  3.819E-04    0   0.6372   age130_m72            0.0000     8.0658E-01     4.0614   1.0107   109.9061
 61     18.9675     4.8003E+00    5.6182E+00    9.047900E+08  0.05000  1.676E-04    0   0.6110   age135_m72            0.0000     9.1318E-01     4.4062   0.3686   105.2044
 62      8.5715     4.1141E+00    4.6292E+00    1.434000E+09  0.05000  8.837E-05    0   0.5874   age139_m72            0.0000     1.0148E+00     4.5512  -0.0761   104.2042
 63      9.2530     9.2718E+00    9.9424E+00    2.500000E+09  0.05000  4.233E-05    0   0.5598   age150_m72            0.0000     1.4791E+00     5.6892  -0.3332   100.4179
 64      0.0000     0.0000E+00    0.0000E+00    6.250000E+09  0.05000  1.435E-05    0   0.5249   age166_m72            0.0000     2.1119E+00     7.0156  -0.7338    96.7763
 65      1.4698     9.5722E+00    9.2340E+00    1.300000E+10  0.05000  6.513E-06    0   0.5036   age193_m72            0.0000     2.8631E+00     8.3116  -0.9593    95.3274
 66      3.1187     2.9221E+01    2.7679E+01    1.800000E+10  0.05000  4.527E-06    0   0.4945   age213_m72            0.0000     3.4188E+00     9.1388  -1.0000    90.1407


## Synthesis Results - Average & Chains ##

# j      x_j: min, <> & last-chain-values for 1 ...  7 chains
  1      0.0000      0.2359      0.0000      0.5807      0.0991      0.0000      0.0000      0.0629      0.0000
  2      0.5653      2.1230      2.1358      2.1575      2.1198      2.1679      2.6796      2.3894      3.2619
  3      0.0000      0.5120      0.7615      0.3778      0.4036      1.0539      1.5386      0.0000      0.0439
  4      0.0000      0.3351      0.0000      0.0000      0.0000      0.0000      0.0000      0.6252      0.5541
  5      5.3663      4.6047      3.9541      4.7549      5.7810      5.0473      5.0861      4.5845      3.8528
  6      2.1497      0.6441      1.2498      0.0000      0.7972      0.9404      0.9405      0.0000      1.2311
  7      4.4823      3.7449      4.3644      3.0724      3.8726      3.6681      2.8299      3.2929      4.5726
  8      0.0000      0.2815      0.6966      2.0928      0.0000      0.0000      0.3847      0.0000      0.2043
  9      0.0000      0.2954      0.3357      1.2681      0.0000      0.0000      0.8427      1.1747      0.0000
 10      0.0000      0.2479      0.0683      0.0000      0.0000      0.7234      0.0000      0.0000      0.0000
 11      0.0000      0.1171      0.0000      0.0000      0.0000      0.0000      0.0000      0.0000      0.0000
 12      0.0000      0.2085      0.4052      0.0000      0.0000      0.0802      0.0000      0.0000      0.7633
 13      0.0000      0.8908      0.4195      0.0899      0.0000      0.8167      0.0000      0.0000      0.0000
 14     17.5528      8.9536      9.5306     10.0303      9.3356     10.6074      9.3969      9.2617     11.3312
 15      3.9599      3.7701      3.2407      3.4881      2.6448      3.7651      6.7516      3.0175      4.4254
 16      1.1524      0.8536      1.7426      1.9723      3.7348      0.0000      0.0000      2.2753      1.3174
 17      0.0000      0.8745      1.2398      0.7978      0.0000      1.4225      0.0000      0.8339      0.5546
 18      0.5967      1.1694      1.2002      1.5891      1.2532      1.5968      0.8845      0.6079      1.1167
 19      1.7458      0.7687      1.5623      0.9990      1.8602      0.8116      0.8089      1.2194      0.5721
 20      0.0000      0.4688      0.0000      0.2681      0.4145      1.0533      0.0000      0.1012      0.0000
 21      3.6109      2.3443      3.3726      2.1659      3.2739      1.9831      2.6515      2.5405      3.2488
 22      0.0000      0.1360      0.0000      0.0000      0.0427      0.0000      0.0000      0.0000      0.0000
 23      0.8830      0.3311      0.0000      0.0000      0.9608      0.0000      0.3288      0.7723      0.9501
 24      0.3592      0.2318      0.0617      0.0000      0.7059      0.1788      0.4907      1.2901      0.2898
 25      0.2705      1.7863      0.0000      2.6085      2.1893      1.0083      2.2333      2.6936      1.6077
 26      0.0000      0.1391      0.0000      0.0000      0.0000      0.5951      0.0000      0.0000      0.0000
 27      0.0000      0.1749      0.5910      0.0000      0.0000      0.0000      0.0000      0.0000      0.0000
 28      0.0000      0.3685      0.0000      0.4013      0.0000      0.0667      0.0000      0.0000      0.0000
 29      0.0000      0.6010      0.0000      0.3526      0.0000      0.0000      0.0000      0.0000      0.0000
 30      0.0000      1.5982      1.1200      1.4838      1.7258      2.6698      0.2886      0.0000      2.3379
 31      0.0000      0.5070      0.2104      0.0000      0.1849      0.2036      0.2546      0.8800      0.0130
 32      0.0000      0.1820      0.0000      0.0000      0.0000      0.1359      0.0000      0.0000      0.0000
 33      0.0000      0.0850      0.0000      0.0000      0.0000      0.0000      0.0000      0.5615      0.0000
 34      0.8494      3.5879      3.6063      3.1472      3.8847      3.3792      4.5008      3.2552      3.3472
 35      0.1090      0.3322      0.1188      0.8552      1.0273      1.0381      0.7555      0.3357      0.5178
 36      0.0000      0.2412      0.0000      0.2763      0.0000      0.0000      0.5562      1.2179      0.2522
 37      0.0472      0.2334      1.2216      0.4401      0.7296      0.6779      0.0000      0.0000      0.0000
 38      6.7305      4.5259      4.8368      5.5682      4.6589      4.4509      5.1192      3.9726      5.8822
 39      0.0000      0.4667      0.4128      0.8577      0.0000      0.2662      0.0000      0.7309      0.8126
 40      0.0000      0.4019      1.6099      0.0000      0.0000      0.0000      1.3197      0.0690      0.0000
 41      0.0446      0.5854      1.0906      0.0384      2.5568      0.5594      1.1925      0.0000      0.2846
 42      0.0000      0.1606      0.1058      0.0000      0.0000      0.5969      0.0000      0.0000      0.5968
 43      0.0000      0.1406      0.0000      0.0000      0.0000      0.0000      0.0000      0.4538      0.0000
 44      0.0000      0.1830      0.0000      0.0000      0.0000      0.0000      0.0000      0.0000      0.0000
 45      0.0000      0.4377      0.0000      0.0000      0.0000      0.0000      0.0000      0.0000      0.0000
 46      0.0000      1.6221      0.5157      1.6021      0.0000      0.0000      0.2718      0.4700      0.0648
 47      0.0000      1.5756      0.9258      0.1418      1.4726      1.5570      0.0000      2.3824      2.1493
 48      3.2057      0.9645      1.1825      2.1043      1.1560      1.4076      1.0937      2.9905      0.9923
 49      0.8689      1.4628      1.2301      1.6533      2.7855      1.5357      0.9290      1.4353      1.2962
 50      2.1052      2.8949      2.9233      2.5635      2.6708      2.5903      2.5313      2.9534      2.5232
 51      1.2894      1.7434      1.6007      1.9560      2.3835      1.7320      1.8100      1.8531      1.8433
 52      4.6848      1.7949      2.4542      1.7989      1.4845      1.6146      1.8639      2.0879      2.1992
 53      2.4403      1.8572      1.7209      1.6905      1.0157      2.1410      1.0207      2.7642      1.0684
 54      0.0000      0.2367      0.0000      0.0000      0.0000      0.0000      0.6530      0.0000      0.0000
 55      0.0000      1.3943      1.4068      1.2236      0.0000      1.3211      1.0898      2.5490      1.5970
 56      0.0000      0.2581      0.2418      0.0000      0.1679      0.0000      0.0327      0.0000      0.0000
 57      0.0000      0.2718      0.0000      0.3914      0.0000      0.4160      0.0000      0.0084      0.0000
 58      0.0000      0.1556      0.4773      0.0000      0.0000      0.0279      0.0000      0.0000      0.0000
 59      0.0000      0.1385      0.0000      0.0000      0.0000      0.0000      0.0000      0.0000      0.0000
 60      0.0000      0.3460      0.0000      0.3948      0.0000      0.4218      0.0000      0.1121      0.4306
 61     18.9675     21.1768     21.7063     20.4118     21.7387     21.1413     23.4361     21.5375     21.4736
 62      8.5715     10.8268     11.2242     11.2418      9.0685     11.6837     13.0239     10.8596      9.4874
 63      9.2530      4.3598      4.6259      4.5391      4.6744      4.8970      4.2432      3.9845      4.5358
 64      0.0000      0.1105      0.3274      0.0000      0.5214      0.0050      0.0000      0.0000      0.0000
 65      1.4698      1.0235      1.4726      1.4773      1.4816      1.1619      1.1410      0.9627      1.4535
 66      3.1187      1.7285      1.5317      1.8742      1.8725      1.6164      1.9804      1.5876      1.8366

# j      m_j: min, <> & last-chain-values for 1 ...  7 chains
  1  0.0000E+00  1.8266E-03  0.0000E+00  4.3873E-03  6.9714E-04  0.0000E+00  0.0000E+00  4.7858E-04  0.0000E+00
  2  1.1462E-03  4.4882E-03  4.4098E-03  4.4499E-03  4.0724E-03  4.6441E-03  5.6313E-03  4.9613E-03  6.8457E-03
  3  0.0000E+00  1.6210E-03  2.3545E-03  1.1670E-03  1.1611E-03  3.3808E-03  4.8422E-03  0.0000E+00  1.3784E-04
  4  0.0000E+00  9.9919E-04  0.0000E+00  0.0000E+00  0.0000E+00  0.0000E+00  0.0000E+00  1.8308E-03  1.6401E-03
  5  2.9228E-02  2.6152E-02  2.1932E-02  2.6345E-02  2.9835E-02  2.9046E-02  2.8713E-02  2.5571E-02  2.1721E-02
  6  1.8990E-02  5.9330E-03  1.1243E-02  0.0000E+00  6.6729E-03  8.7775E-03  8.6119E-03  0.0000E+00  1.1257E-02
  7  5.6692E-02  4.9389E-02  5.6214E-02  3.9530E-02  4.6412E-02  4.9018E-02  3.7100E-02  4.2652E-02  5.9864E-02
  8  0.0000E+00  5.1313E-03  1.2401E-02  3.7217E-02  0.0000E+00  0.0000E+00  6.9701E-03  0.0000E+00  3.6973E-03
  9  0.0000E+00  6.1627E-03  6.8391E-03  2.5812E-02  0.0000E+00  0.0000E+00  1.7476E-02  2.4069E-02  0.0000E+00
 10  0.0000E+00  6.7941E-03  1.8271E-03  0.0000E+00  0.0000E+00  2.0089E-02  0.0000E+00  0.0000E+00  0.0000E+00
 11  0.0000E+00  6.0339E-03  0.0000E+00  0.0000E+00  0.0000E+00  0.0000E+00  0.0000E+00  0.0000E+00  0.0000E+00
 12  0.0000E+00  1.7045E-02  3.2352E-02  0.0000E+00  0.0000E+00  6.6468E-03  0.0000E+00  0.0000E+00  6.1936E-02
 13  0.0000E+00  2.0525E-01  9.4390E-02  2.0204E-02  0.0000E+00  1.9066E-01  0.0000E+00  0.0000E+00  0.0000E+00
 14  1.3008E+01  6.9191E+00  7.1929E+00  7.5619E+00  6.5558E+00  8.3059E+00  7.2184E+00  7.0293E+00  8.6924E+00
 15  4.7775E+00  4.7430E+00  3.9816E+00  4.2810E+00  3.0236E+00  4.7995E+00  8.4432E+00  3.7283E+00  5.5266E+00
 16  2.3508E+00  1.8157E+00  3.6200E+00  4.0930E+00  7.2194E+00  0.0000E+00  0.0000E+00  4.7534E+00  2.7819E+00
 17  0.0000E+00  2.4130E+00  3.3413E+00  2.1476E+00  0.0000E+00  3.9773E+00  0.0000E+00  2.2600E+00  1.5192E+00
 18  3.9164E-03  8.0029E-03  8.0214E-03  1.0610E-02  7.7932E-03  1.1073E-02  6.0172E-03  4.0858E-03  7.5865E-03
 19  4.5986E-03  2.1114E-03  4.1909E-03  2.6769E-03  4.6430E-03  2.2587E-03  2.2086E-03  3.2895E-03  1.5599E-03
 20  0.0000E+00  1.4058E-03  0.0000E+00  7.8425E-04  1.1296E-03  3.2003E-03  0.0000E+00  2.9800E-04  0.0000E+00
 21  1.2605E-02  8.5332E-03  1.1989E-02  7.6912E-03  1.0829E-02  7.3143E-03  9.5940E-03  9.0819E-03  1.1739E-02
 22  0.0000E+00  8.3737E-04  0.0000E+00  0.0000E+00  2.3872E-04  0.0000E+00  0.0000E+00  0.0000E+00  0.0000E+00
 23  7.0388E-03  2.7524E-03  0.0000E+00  0.0000E+00  7.2568E-03  0.0000E+00  2.7170E-03  6.3048E-03  7.8392E-03
 24  4.2604E-03  2.8667E-03  7.4506E-04  0.0000E+00  7.9329E-03  2.2403E-03  6.0318E-03  1.5668E-02  3.5576E-03
 25  4.4235E-03  3.0458E-02  0.0000E+00  4.3391E-02  3.3922E-02  1.7421E-02  3.7854E-02  4.5107E-02  2.7212E-02
 26  0.0000E+00  3.9653E-03  0.0000E+00  0.0000E+00  0.0000E+00  1.7185E-02  0.0000E+00  0.0000E+00  0.0000E+00
 27  0.0000E+00  9.9791E-03  3.2928E-02  0.0000E+00  0.0000E+00  0.0000E+00  0.0000E+00  0.0000E+00  0.0000E+00
 28  0.0000E+00  6.1011E-02  0.0000E+00  6.4815E-02  0.0000E+00  1.1196E-02  0.0000E+00  0.0000E+00  0.0000E+00
 29  0.0000E+00  1.7336E-01  0.0000E+00  9.9233E-02  0.0000E+00  0.0000E+00  0.0000E+00  0.0000E+00  0.0000E+00
 30  0.0000E+00  9.6322E-01  6.5924E-01  8.7243E-01  9.4519E-01  1.6304E+00  1.7289E-01  0.0000E+00  1.3988E+00
 31  0.0000E+00  5.3753E-01  2.1790E-01  0.0000E+00  1.7811E-01  2.1876E-01  2.6828E-01  9.1633E-01  1.3690E-02
 32  0.0000E+00  2.5959E-01  0.0000E+00  0.0000E+00  0.0000E+00  1.9640E-01  0.0000E+00  0.0000E+00  0.0000E+00
 33  0.0000E+00  2.6843E-01  0.0000E+00  0.0000E+00  0.0000E+00  0.0000E+00  0.0000E+00  1.7414E+00  0.0000E+00
 34  3.4836E+00  1.5343E+01  1.5061E+01  1.3130E+01  1.5096E+01  1.4642E+01  1.9133E+01  1.3672E+01  1.4209E+01
 35  5.7371E-04  1.8231E-03  6.3690E-04  4.5782E-03  5.1226E-03  5.7716E-03  4.1210E-03  1.8092E-03  2.8205E-03
 36  0.0000E+00  5.3558E-04  0.0000E+00  5.9845E-04  0.0000E+00  0.0000E+00  1.2274E-03  2.6555E-03  5.5574E-04
 37  1.0873E-04  5.6046E-04  2.8649E-03  1.0309E-03  1.5920E-03  1.6494E-03  0.0000E+00  0.0000E+00  0.0000E+00
 38  4.1990E-02  2.9443E-02  3.0730E-02  3.5339E-02  2.7542E-02  2.9339E-02  3.3104E-02  2.5381E-02  3.7986E-02
 39  0.0000E+00  4.3717E-03  3.7764E-03  7.8377E-03  0.0000E+00  2.5261E-03  0.0000E+00  6.7240E-03  7.5561E-03
 40  0.0000E+00  6.0848E-03  2.3805E-02  0.0000E+00  0.0000E+00  0.0000E+00  1.9861E-02  1.0259E-03  0.0000E+00
 41  1.0070E-03  1.3783E-02  2.5076E-02  8.8188E-04  5.4704E-02  1.3344E-02  2.7910E-02  0.0000E+00  6.6517E-03
 42  0.0000E+00  6.9420E-03  4.4680E-03  0.0000E+00  0.0000E+00  2.6144E-02  0.0000E+00  0.0000E+00  2.5610E-02
 43  0.0000E+00  8.8715E-03  0.0000E+00  0.0000E+00  0.0000E+00  0.0000E+00  0.0000E+00  2.8126E-02  0.0000E+00
 44  0.0000E+00  1.9889E-02  0.0000E+00  0.0000E+00  0.0000E+00  0.0000E+00  0.0000E+00  0.0000E+00  0.0000E+00
 45  0.0000E+00  9.4378E-02  0.0000E+00  0.0000E+00  0.0000E+00  0.0000E+00  0.0000E+00  0.0000E+00  0.0000E+00
 46  0.0000E+00  6.4286E-01  1.9959E-01  6.1942E-01  0.0000E+00  0.0000E+00  1.0708E-01  1.8294E-01  2.5497E-02
 47  0.0000E+00  1.2653E+00  7.2611E-01  1.1108E-01  1.0746E+00  1.2669E+00  0.0000E+00  1.8790E+00  1.7134E+00
 48  4.3541E+00  1.3659E+00  1.6355E+00  2.9074E+00  1.4878E+00  2.0200E+00  1.5397E+00  4.1596E+00  1.3951E+00
 49  2.6823E+00  4.7086E+00  3.8670E+00  5.1918E+00  8.1476E+00  5.0087E+00  2.9724E+00  4.5373E+00  4.1417E+00
 50  1.2036E+01  1.7259E+01  1.7021E+01  1.4910E+01  1.4469E+01  1.5647E+01  1.5001E+01  1.7293E+01  1.4932E+01
 51  4.0411E-03  5.6973E-03  5.1086E-03  6.2360E-03  7.0782E-03  5.7352E-03  5.8797E-03  5.9477E-03  5.9797E-03
 52  7.5239E-03  3.0060E-03  4.0140E-03  2.9391E-03  2.2592E-03  2.7399E-03  3.1028E-03  3.4340E-03  3.6561E-03
 53  5.9038E-03  4.6851E-03  4.2398E-03  4.1604E-03  2.3284E-03  5.4726E-03  2.5594E-03  6.8484E-03  2.6755E-03
 54  0.0000E+00  1.2237E-03  0.0000E+00  0.0000E+00  0.0000E+00  0.0000E+00  3.3551E-03  0.0000E+00  0.0000E+00
 55  0.0000E+00  1.1097E-02  1.0935E-02  9.5003E-03  0.0000E+00  1.0654E-02  8.6216E-03  1.9924E-02  1.2617E-02
 56  0.0000E+00  4.0663E-03  3.7199E-03  0.0000E+00  2.4028E-03  0.0000E+00  5.1229E-04  0.0000E+00  0.0000E+00
 57  0.0000E+00  5.6837E-03  0.0000E+00  7.9842E-03  0.0000E+00  8.8124E-03  0.0000E+00  1.7323E-04  0.0000E+00
 58  0.0000E+00  5.5021E-03  1.6483E-02  0.0000E+00  0.0000E+00  1.0005E-03  0.0000E+00  0.0000E+00  0.0000E+00
 59  0.0000E+00  1.0539E-02  0.0000E+00  0.0000E+00  0.0000E+00  0.0000E+00  0.0000E+00  0.0000E+00  0.0000E+00
 60  0.0000E+00  4.8912E-02  0.0000E+00  5.4445E-02  0.0000E+00  6.0410E-02  0.0000E+00  1.5562E-02  6.0431E-02
 61  5.6182E+00  6.5407E+00  6.5476E+00  6.1505E+00  6.1014E+00  6.6164E+00  7.1954E+00  6.5332E+00  6.5839E+00
 62  4.6292E+00  6.0971E+00  6.1732E+00  6.1762E+00  4.6408E+00  6.6670E+00  7.2907E+00  6.0063E+00  5.3038E+00
 63  9.9424E+00  4.8849E+00  5.0618E+00  4.9615E+00  4.7592E+00  5.5595E+00  4.7258E+00  4.3845E+00  5.0448E+00
 64  0.0000E+00  3.4245E-01  9.9101E-01  0.0000E+00  1.4682E+00  1.5819E-02  0.0000E+00  0.0000E+00  0.0000E+00
 65  9.2340E+00  6.7048E+00  9.4217E+00  9.4414E+00  8.8202E+00  7.7128E+00  7.4303E+00  6.1937E+00  9.4520E+00
 66  2.7679E+01  1.5997E+01  1.3844E+01  1.6921E+01  1.5748E+01  1.5157E+01  1.8219E+01  1.4429E+01  1.6873E+01

# AV, chi2 & Mass for <> & i_chain = 1 ...  7 solutions
AV       0.2998      0.3348      0.3408      0.3343      0.3116      0.3302      0.3360      0.3383      0.3355
chi2 4.1335E-01  4.2130E-01  4.1949E-01  4.1931E-01  4.1856E-01  4.1944E-01  4.1915E-01  4.1972E-01  4.1940E-01
Mass 1.6364E-12  1.6450E-12  1.6980E-12  1.6850E-12  1.7546E-12  1.6134E-12  1.6574E-12  1.6827E-12  1.6586E-12
-143.88                                  [v0_min (km/s) before EX0s...]
 147.45                                  [vd_min (km/s) before EX0s...]


## Synthetic spectrum (Best Model) ##l_obs f_obs f_syn wei
 3478    [Nl_obs]
 3741.00    0.89103   0.70928    0.000
 3742.00    0.74250   0.68377    0.000
 3743.00    0.59361   0.65299    0.000
 3744.00    0.48526   0.61820    0.000
 3745.00    0.43561   0.58233   -1.000
 3746.00    0.45907   0.55189   21.783
 3747.00    0.53344   0.53471   18.746
 3748.00    0.59125   0.53916   16.913
 3749.00    0.59262   0.56829   16.874
 3750.00    0.56205   0.61579   17.792
 3751.00    0.55390   0.66855   18.054
 3752.00    0.62113   0.71340   16.100
 3753.00    0.75990   0.74102   13.160
 3754.00    0.89616   0.74788   11.159
 3755.00    0.95050   0.73822   10.521
 3756.00    0.88264   0.72217   11.330
 3757.00    0.74659   0.71135   13.394
 3758.00    0.67417   0.71141   14.833
 3759.00    0.72073   0.71884   13.875
 3760.00    0.82561   0.72742   12.112
 3761.00    0.89761   0.73221   11.141
 3762.00    0.86613   0.72931   11.546
 3763.00    0.73969   0.71840   13.519
 3764.00    0.60513   0.70084   16.525
 3765.00    0.56215   0.67762   17.789
 3766.00    0.67539   0.65351   14.806
 3767.00    0.90099   0.63550   -1.000
 3768.00    1.10382   0.62815   -1.000
 3769.00    1.16301   0.63464   -1.000
 3770.00    1.03963   0.65582   -1.000
 3771.00    0.86584   0.68609   11.549
 3772.00    0.83269   0.71736   12.009
 3773.00    0.88590   0.74553   11.288
 3774.00    0.83723   0.77080   11.944
 3775.00    0.75241   0.79518   13.291
 3776.00    0.83153   0.81924   12.026
 3777.00    1.00651   0.84161    9.935
 3778.00    1.06230   0.86086    9.414
 3779.00    1.00853   0.87510    9.915
 3780.00    0.98629   0.88241   10.139
 3781.00    0.99037   0.88153   10.097
 3782.00    0.93823   0.87159   10.658
 3783.00    0.85506   0.85267   11.695
 3784.00    0.81605   0.82651   12.254
 3785.00    0.81901   0.79889   12.210
 3786.00    0.82907   0.77675   12.062
 3787.00    0.86348   0.76182   11.581
 3788.00    0.93801   0.75146   10.661
 3789.00    0.98912   0.74136   10.110
 3790.00    0.96018   0.72633   10.415
 3791.00    0.90919   0.70244   10.999
 3792.00    0.91001   0.66976   10.989
 3793.00    0.93337   0.63211   -1.000
 3794.00    0.90991   0.59628   -1.000
 3795.00    0.81009   0.57050   -1.000
 3796.00    0.65739   0.56276   15.212
 3797.00    0.52625   0.57864   19.003
 3798.00    0.47195   0.61685   21.189
 3799.00    0.47380   0.66775   -1.000
 3800.00    0.49346   0.71867   -1.000
 3801.00    0.52607   0.76039   -1.000
 3802.00    0.58420   0.78823   -1.000
 3803.00    0.67941   0.80249   14.719
 3804.00    0.80130   0.80901   12.480
 3805.00    0.90781   0.81550   11.016
 3806.00    0.95813   0.82695   10.437
 3807.00    0.93895   0.84198   10.650
 3808.00    0.88523   0.85307   11.297
 3809.00    0.87589   0.85306   11.417
 3810.00    0.93820   0.84019   10.659
 3811.00    1.00714   0.81824    9.929
 3812.00    1.01042   0.79526    9.897
 3813.00    0.92000   0.77856   10.870
 3814.00    0.76888   0.76888   13.006
 3815.00    0.63997   0.76225   15.626
 3816.00    0.58188   0.75437   17.186
 3817.00    0.58250   0.74368   17.167
 3818.00    0.62692   0.73386   15.951
 3819.00    0.71539   0.73002   13.978
 3820.00    0.83128   0.73137   12.030
 3821.00    0.93312   0.73085   10.717
 3822.00    0.97492   0.72259   10.257
 3823.00    0.92887   0.70792   10.766
 3824.00    0.83400   0.69256   11.990
 3825.00    0.77898   0.67992   12.837
 3826.00    0.79647   0.66901   12.555
 3827.00    0.84559   0.65598   11.826
 3828.00    0.86318   0.63673   11.585
 3829.00    0.79999   0.60910   12.500
 3830.00    0.67397   0.57438   14.837
 3831.00    0.55574   0.53911   17.994
 3832.00    0.49520   0.51211   20.194
 3833.00    0.50353   0.49893   19.860
 3834.00    0.55704   0.50146   17.952
 3835.00    0.61297   0.51780   16.314
 3836.00    0.64112   0.54337   15.598
 3837.00    0.63641   0.57545   15.713
 3838.00    0.62807   0.61295   15.922
 3839.00    0.64933   0.65367   15.400
 3840.00    0.67943   0.69458   14.718
 3841.00    0.67954   0.73128   14.716
 3842.00    0.67235   0.76002   14.873
 3843.00    0.71059   0.78051   14.073
 3844.00    0.80332   0.79394   12.448
 3845.00    0.90102   0.80184   11.099
 3846.00    0.89776   0.80591   11.139
 3847.00    0.74086   0.80748    0.000
 3848.00    0.57216   0.80875    0.000
 3849.00    0.56173   0.81236    0.000
 3850.00    0.67520   0.81748    0.000
 3851.00    0.79155   0.81967    0.000
 3852.00    0.87732   0.81653    0.000
 3853.00    0.93763   0.80902    0.000
 3854.00    0.94266   0.79848    0.000
 3855.00    0.87931   0.78739    0.000
 3856.00    0.80737   0.77876    0.000
 3857.00    0.79407   0.77481    0.000
 3858.00    0.84619   0.77877    0.000
 3859.00    0.92573   0.79206    0.000
 3860.00    0.97527   0.81013    0.000
 3861.00    0.96765   0.82567    0.000
 3862.00    0.93812   0.83426    0.000
 3863.00    0.91528   0.83592    0.000
 3864.00    0.87322   0.83339    0.000
 3865.00    0.79626   0.82901    0.000
 3866.00    0.72197   0.82283    0.000
 3867.00    0.69163   0.81354    0.000
 3868.00    0.71495   0.80066    0.000
 3869.00    0.77353   0.78701    0.000
 3870.00    0.82765   0.77804    0.000
 3871.00    0.83548   0.77779    0.000
 3872.00    0.77173   0.78492    0.000
 3873.00    0.66623   0.79213    0.000
 3874.00    0.60361   0.79231    0.000
 3875.00    0.61744   0.78439    0.000
 3876.00    0.65719   0.77204    0.000
 3877.00    0.68771   0.76055    0.000
 3878.00    0.72411   0.75251    0.000
 3879.00    0.77419   0.74462    0.000
 3880.00    0.81717   0.73252    0.000
 3881.00    0.82379   0.71510   12.139
 3882.00    0.77251   0.69147   12.945
 3883.00    0.67693   0.65957   14.773
 3884.00    0.58406   0.62186   17.122
 3885.00    0.53366   0.58790   18.738
 3886.00    0.53907   0.56783   18.550
 3887.00    0.57376   0.56773   17.429
 3888.00    0.58970   0.58941   16.958
 3889.00    0.58232   0.62742   17.173
 3890.00    0.58634   0.67013   17.055
 3891.00    0.61113   0.70768   16.363
 3892.00    0.63768   0.73644   15.682
 3893.00    0.65754   0.75724   15.208
 3894.00    0.67940   0.77301   14.719
 3895.00    0.71971   0.78628   13.894
 3896.00    0.78634   0.79741   12.717
 3897.00    0.84929   0.80657   11.775
 3898.00    0.86553   0.81535   11.554
 3899.00    0.84114   0.82413   11.889
 3900.00    0.81975   0.82968   12.199
 3901.00    0.83590   0.82949   11.963
 3902.00    0.89548   0.82651   11.167
 3903.00    0.95910   0.82534   10.426
 3904.00    0.97515   0.82973   10.255
 3905.00    0.93706   0.84279   10.672
 3906.00    0.87188   0.86298   11.469
 3907.00    0.80860   0.88394   12.367
 3908.00    0.77210   0.90004   12.952
 3909.00    0.78102   0.90919   12.804
 3910.00    0.83932   0.91165   11.914
 3911.00    0.92616   0.90822   10.797
 3912.00    1.00403   0.90081    9.960
 3913.00    1.03212   0.89151    9.689
 3914.00    0.99157   0.88020   10.085
 3915.00    0.91014   0.86637   10.987
 3916.00    0.83510   0.85097   11.975
 3917.00    0.80047   0.83550   12.493
 3918.00    0.81100   0.82224   12.330
 3919.00    0.83423   0.81388   11.987
 3920.00    0.84610   0.81034   11.819
 3921.00    0.86757   0.80778   11.526
 3922.00    0.91047   0.80116   10.983
 3923.00    0.93578   0.78638   10.686
 3924.00    0.91205   0.76191   10.964
 3925.00    0.85826   0.72948   11.652
 3926.00    0.79732   0.69188   12.542
 3927.00    0.72340   0.65120   13.824
 3928.00    0.62905   0.60971   15.897
 3929.00    0.52573   0.57044   19.021
 3930.00    0.44586   0.53778   22.429
 3931.00    0.43384   0.51734   23.050
 3932.00    0.49060   0.51431   20.383
 3933.00    0.55598   0.53065   17.986
 3934.00    0.59259   0.56359   16.875
 3935.00    0.62245   0.60661   16.066
 3936.00    0.67326   0.65203   14.853
 3937.00    0.74949   0.69341   13.342
 3938.00    0.83134   0.72615   12.029
 3939.00    0.88456   0.74843   11.305
 3940.00    0.90137   0.76287   11.094
 3941.00    0.90655   0.77429   11.031
 3942.00    0.90913   0.78650   11.000
 3943.00    0.89416   0.80198   11.184
 3944.00    0.86680   0.81983   11.537
 3945.00    0.85604   0.83548   11.682
 3946.00    0.86928   0.84647   11.504
 3947.00    0.88621   0.85471   11.284
 3948.00    0.89135   0.86218   11.219
 3949.00    0.88081   0.86824   11.353
 3950.00    0.84979   0.87129   11.768
 3951.00    0.79556   0.87177   12.570
 3952.00    0.73562   0.87083   13.594
 3953.00    0.70237   0.86693   14.237
 3954.00    0.71616   0.85873   13.963
 3955.00    0.77111   0.84796   12.968
 3956.00    0.82000   0.83509   12.195
 3957.00    0.80468   0.81665   12.427
 3958.00    0.72910   0.78854   13.715
 3959.00    0.64232   0.75031   15.568
 3960.00    0.57069   0.70615    0.000
 3961.00    0.51570   0.66015    0.000
 3962.00    0.47718   0.61207    0.000
 3963.00    0.45778   0.56039    0.000
 3964.00    0.46216   0.50656    0.000
 3965.00    0.48511   0.45597    0.000
 3966.00    0.49413   0.41719    0.000
 3967.00    0.46581   0.39901    0.000
 3968.00    0.44166   0.40646    0.000
 3969.00    0.47053   0.43872    0.000
 3970.00    0.51928   0.48925    0.000
 3971.00    0.53455   0.54885    0.000
 3972.00    0.53682   0.61019    0.000
 3973.00    0.56896   0.66898    0.000
 3974.00    0.62139   0.72244    0.000
 3975.00    0.66994   0.76947    0.000
 3976.00    0.72579   0.80981    0.000
 3977.00    0.79530   0.84228    0.000
 3978.00    0.83750   0.86537    0.000
 3979.00    0.82907   0.87911    0.000
 3980.00    0.82467   0.88660    0.000
 3981.00    0.87669   0.89292   11.407
 3982.00    0.96165   0.90169   10.399
 3983.00    1.03175   0.91322    9.692
 3984.00    1.06431   0.92536    9.396
 3985.00    1.06100   0.93662    9.425
 3986.00    1.04144   0.94680    9.602
 3987.00    1.02156   0.95497    9.789
 3988.00    1.00025   0.96130    9.997
 3989.00    0.97739   0.96743   10.231
 3990.00    0.96429   0.97283   10.370
 3991.00    0.96693   0.97444   10.342
 3992.00    0.97589   0.97020   10.247
 3993.00    0.97385   0.96179   10.269
 3994.00    0.94519   0.95374   10.580
 3995.00    0.90176   0.95067   11.089
 3996.00    0.88694   0.95585   11.275
 3997.00    0.92493   0.96942   10.812
 3998.00    0.99806   0.98577   10.019
 3999.00    1.06622   0.99676    9.379
 4000.00    1.08685   0.99821    9.201
 4001.00    1.05821   0.99026    9.450
 4002.00    1.02414   0.97508    9.764
 4003.00    1.01679   0.95850    9.835
 4004.00    1.03480   0.94976    9.664
 4005.00    1.05299   0.95346    9.497
 4006.00    1.03886   0.96554    9.626
 4007.00    0.99451   0.97956   10.055
 4008.00    0.95624   0.99245   10.458
 4009.00    0.94546   1.00327   10.577
 4010.00    0.96429   1.01158   10.370
 4011.00    1.03102   1.01800    9.699
 4012.00    1.16052   1.02318    8.617
 4013.00    1.28216   1.02753    7.799
 4014.00    1.28204   1.03094    7.800
 4015.00    1.16817   1.03311    8.560
 4016.00    1.04941   1.03531    9.529
 4017.00    0.98195   1.03792   10.184
 4018.00    0.95749   1.03748   10.444
 4019.00    0.96178   1.03111   10.397
 4020.00    0.98098   1.02017   10.194
 4021.00    0.98785   1.00798   10.123
 4022.00    0.96230   0.99783   10.392
 4023.00    0.93420   0.99351   10.704
 4024.00    0.94964   0.99627   10.530
 4025.00    0.99804   1.00145   10.020
 4026.00    1.03182   1.00139    9.692
 4027.00    1.02119   0.99076    9.792
 4028.00    0.96867   0.97047   10.323
 4029.00    0.91549   0.94874   10.923
 4030.00    0.90922   0.93534   10.998
 4031.00    0.95693   0.93529   10.450
 4032.00    1.03430   0.94931    9.668
 4033.00    1.10699   0.97459    9.033
 4034.00    1.14213   1.00485    8.756
 4035.00    1.12031   1.03211    8.926
 4036.00    1.05542   1.04970    9.475
 4037.00    1.00963   1.05505    9.905
 4038.00    1.02080   1.04949    9.796
 4039.00    1.03160   1.03609    9.694
 4040.00    0.98369   1.01710   10.166
 4041.00    0.91137   0.99286   10.973
 4042.00    0.86949   0.96595   11.501
 4043.00    0.86222   0.94507   11.598
 4044.00    0.87662   0.94114   11.407
 4045.00    0.91504   0.95721   10.928
 4046.00    0.97997   0.98392   10.204
 4047.00    1.05928   1.00898    9.440
 4048.00    1.12256   1.02554    8.908
 4049.00    1.12670   1.03085    8.875
 4050.00    1.06952   1.02538    9.350
 4051.00    1.01340   1.01319    9.868
 4052.00    0.99678   0.99918   10.032
 4053.00    0.98877   0.98738   10.114
 4054.00    0.96808   0.98030   10.330
 4055.00    0.96308   0.97781   10.383
 4056.00    1.00000   0.97909   10.000
 4057.00    1.07139   0.98260    9.334
 4058.00    1.13032   0.98379    8.847
 4059.00    1.10876   0.97755    9.019
 4060.00    1.01398   0.96342    9.862
 4061.00    0.94249   0.94776   10.610
 4062.00    0.93825   0.94040   10.658
 4063.00    0.95338   0.94550   10.489
 4064.00    0.95134   0.95749   10.512
 4065.00    0.94084   0.96983   10.629
 4066.00    0.93676   0.97997   10.675
 4067.00    0.94345   0.98537   10.599
 4068.00    0.95188   0.98304   10.506
 4069.00    0.94822   0.97508   10.546
 4070.00    0.94344   0.96824   10.600
 4071.00    0.96471   0.96503   10.366
 4072.00    1.00099   0.95996    9.990
 4073.00    1.00946   0.94837    9.906
 4074.00    0.97988   0.93354   10.205
 4075.00    0.93701   0.92432   10.672
 4076.00    0.89861   0.92854   11.128
 4077.00    0.87211   0.94671   11.466
 4078.00    0.87325   0.97141   11.452
 4079.00    0.91315   0.99247   10.951
 4080.00    0.96065   1.00285   10.410
 4081.00    0.97091   1.00296   10.300
 4082.00    0.96021   0.99946   10.414
 4083.00    0.97536   0.99933   10.253
 4084.00    1.00613   1.00583    9.939
 4085.00    1.00982   1.01746    9.903
 4086.00    0.98467   1.02873   10.156
 4087.00    0.95855   1.03424   10.432
 4088.00    0.94796   1.03217   10.549
 4089.00    0.95135   1.02332   10.511
 4090.00    0.95053   1.00901   10.520
 4091.00    0.92752   0.99057   10.781
 4092.00    0.88751   0.96723    0.000
 4093.00    0.84990   0.93711    0.000
 4094.00    0.83157   0.90152    0.000
 4095.00    0.84194   0.86297    0.000
 4096.00    0.87907   0.82222    0.000
 4097.00    0.92346   0.78013    0.000
 4098.00    0.93493   0.74076    0.000
 4099.00    0.89686   0.71305    0.000
 4100.00    0.85790   0.70829    0.000
 4101.00    0.86373   0.73002    0.000
 4102.00    0.89018   0.77047    0.000
 4103.00    0.90290   0.81760    0.000
 4104.00    0.91344   0.86089    0.000
 4105.00    0.93012   0.89332    0.000
 4106.00    0.91881   0.91383    0.000
 4107.00    0.86761   0.92590    0.000
 4108.00    0.83187   0.93486    0.000
 4109.00    0.85736   0.94544    0.000
 4110.00    0.92496   0.95962    0.000
 4111.00    0.98867   0.97618    0.000
 4112.00    1.00903   0.99137    0.000
 4113.00    0.98050   1.00146   10.199
 4114.00    0.94124   1.00452   10.624
 4115.00    0.93226   1.00000   10.727
 4116.00    0.97005   0.98970   10.309
 4117.00    1.03679   0.97929    9.645
 4118.00    1.08447   0.97419    9.221
 4119.00    1.08061   0.97497    9.254
 4120.00    1.03088   0.97993    9.700
 4121.00    0.97081   0.98759   10.301
 4122.00    0.94900   0.99567   10.537
 4123.00    0.97397   1.00035   10.267
 4124.00    1.00479   0.99849    9.952
 4125.00    1.01053   0.99053    9.896
 4126.00    0.99013   0.97927   10.100
 4127.00    0.95125   0.96762   10.513
 4128.00    0.90206   0.95665   11.086
 4129.00    0.85311   0.94720   11.722
 4130.00    0.81858   0.94208   12.216
 4131.00    0.81794   0.94553   12.226
 4132.00    0.86585   0.95877   11.549
 4133.00    0.94112   0.97928   10.626
 4134.00    0.99768   1.00156   10.023
 4135.00    1.02138   1.01948    9.791
 4136.00    1.02907   1.03007    9.718
 4137.00    1.02340   1.03084    9.771
 4138.00    0.99323   1.01949   10.068
 4139.00    0.94383   0.99703   10.595
 4140.00    0.89590   0.96882   11.162
 4141.00    0.86636   0.94531   11.543
 4142.00    0.86166   0.93759   11.606
 4143.00    0.87396   0.94712   11.442
 4144.00    0.89091   0.96448   11.224
 4145.00    0.91550   0.97987   10.923
 4146.00    0.95768   0.98840   10.442
 4147.00    1.01255   0.98946    9.876
 4148.00    1.06157   0.98601    9.420
 4149.00    1.08179   0.98135    9.244
 4150.00    1.05829   0.97606    9.449
 4151.00    1.00056   0.97040    9.994
 4152.00    0.93841   0.96585   10.656
 4153.00    0.91066   0.96490   10.981
 4154.00    0.93617   0.96884   10.682
 4155.00    0.98016   0.97779   10.202
 4156.00    0.99507   0.99084   10.050
 4157.00    0.97590   1.00469   10.247
 4158.00    0.94371   1.01621   10.596
 4159.00    0.91802   1.02456   10.893
 4160.00    0.90982   1.03047   10.991
 4161.00    0.91796   1.03293   10.894
 4162.00    0.93642   1.03070   10.679
 4163.00    0.96190   1.02521   10.396
 4164.00    0.99383   1.01792   10.062
 4165.00    1.03219   1.00986    9.688
 4166.00    1.06417   1.00235    9.397
 4167.00    1.05775   0.99411    9.454
 4168.00    1.00604   0.98123    9.940
 4169.00    0.95568   0.96260   10.464
 4170.00    0.94311   0.94282   10.603
 4171.00    0.95130   0.92938   10.512
 4172.00    0.95799   0.92605   10.439
 4173.00    0.96750   0.93043   10.336
 4174.00    0.98142   0.93785   10.189
 4175.00    0.98297   0.94524   10.173
 4176.00    0.96703   0.95271   10.341
 4177.00    0.95328   0.96129   10.490
 4178.00    0.95332   0.96961   10.490
 4179.00    0.95757   0.97536   10.443
 4180.00    0.96640   0.97903   10.348
 4181.00    0.99718   0.98262   10.028
 4182.00    1.03724   0.98586    9.641
 4183.00    1.03884   0.98709    9.626
 4184.00    0.99936   0.98474   10.006
 4185.00    0.97452   0.98093   10.261
 4186.00    0.98101   0.98153   10.194
 4187.00    0.97944   0.98827   10.210
 4188.00    0.96778   0.99781   10.333
 4189.00    0.99191   1.00738   10.082
 4190.00    1.05193   1.01576    9.506
 4191.00    1.09309   1.01936    9.148
 4192.00    1.08921   1.01312    9.181
 4193.00    1.05961   0.99701    9.437
 4194.00    1.03276   0.97658    9.683
 4195.00    1.02961   0.95746    9.712
 4196.00    1.05035   0.94294    9.521
 4197.00    1.07713   0.93565    9.284
 4198.00    1.09118   0.93538    9.164
 4199.00    1.08056   0.93891    9.254
 4200.00    1.04726   0.94556    9.549
 4201.00    1.00512   0.95652    9.949
 4202.00    0.97104   0.97049   10.298
 4203.00    0.95621   0.98568   10.458
 4204.00    0.95283   1.00102   10.495
 4205.00    0.94697   1.01430   10.560
 4206.00    0.94819   1.02351   10.546
 4207.00    0.97338   1.02811   10.274
 4208.00    1.00794   1.02947    9.921
 4209.00    1.02302   1.02906    9.775
 4210.00    1.01569   1.02572    9.845
 4211.00    1.00184   1.01788    9.982
 4212.00    0.99410   1.00725   10.059
 4213.00    0.99771   0.99940   10.023
 4214.00    1.00978   1.00134    9.903
 4215.00    1.02345   1.01445    9.771
 4216.00    1.03359   1.03187    9.675
 4217.00    1.03447   1.04539    9.667
 4218.00    1.01691   1.04944    9.834
 4219.00    0.98105   1.04003   10.193
 4220.00    0.94924   1.01526   10.535
 4221.00    0.93604   0.97803   10.683
 4222.00    0.91737   0.93531   10.901
 4223.00    0.86993   0.89680   11.495
 4224.00    0.81255   0.87432   12.307
 4225.00    0.78684   0.87747   12.709
 4226.00    0.83054   0.90564   12.040
 4227.00    0.93402   0.94535   10.706
 4228.00    1.01534   0.98074    9.849
 4229.00    1.01860   1.00219    9.817
 4230.00    0.98540   1.00721   10.148
 4231.00    0.96862   1.00084   10.324
 4232.00    0.96740   0.99133   10.337
 4233.00    0.96429   0.98318   10.370
 4234.00    0.95406   0.97873   10.482
 4235.00    0.93978   0.98019   10.641
 4236.00    0.92875   0.98692   10.767
 4237.00    0.93026   0.99756   10.750
 4238.00    0.95167   1.01170   10.508
 4239.00    0.98381   1.02754   10.165
 4240.00    1.00051   1.04171    9.995
 4241.00    0.99917   1.05204   10.008
 4242.00    1.00993   1.05650    9.902
 4243.00    1.03550   1.05173    9.657
 4244.00    1.03695   1.03753    9.644
 4245.00    1.00469   1.01863    9.953
 4246.00    0.97598   1.00067   10.246
 4247.00    0.97062   0.98678   10.303
 4248.00    0.97433   0.97865   10.263
 4249.00    0.98238   0.97764   10.179
 4250.00    1.00700   0.98146    9.931
 4251.00    1.04152   0.98564    9.601
 4252.00    1.05704   0.98966    9.460
 4253.00    1.03546   0.99554    9.658
 4254.00    0.98377   1.00192   10.165
 4255.00    0.94162   1.00361   10.620
 4256.00    0.95771   0.99786   10.442
 4257.00    1.01820   0.98894    9.821
 4258.00    1.06248   0.98519    9.412
 4259.00    1.07868   0.99333    9.271
 4260.00    1.09737   1.01352    9.113
 4261.00    1.11322   1.03836    8.983
 4262.00    1.09157   1.05880    9.161
 4263.00    1.02833   1.06867    9.725
 4264.00    0.95371   1.06490   10.485
 4265.00    0.90944   1.04792   10.996
 4266.00    0.92260   1.02157   10.839
 4267.00    0.96596   0.99003   10.353
 4268.00    0.98868   0.95739   10.114
 4269.00    0.98518   0.93009   10.150
 4270.00    0.97764   0.91542   10.231
 4271.00    0.96593   0.91576   10.354
 4272.00    0.94224   0.92857   10.607
 4273.00    0.92613   0.95124   10.795
 4274.00    0.94144   0.97940   10.638
 4275.00    0.97592   1.00531   10.252
 4276.00    1.00362   1.02202    9.924
 4277.00    1.02205   1.02708    9.774
 4278.00    1.03547   1.02355    9.798
 4279.00    1.02932   1.01700    9.926
 4280.00    0.99513   1.01061   10.076
 4281.00    0.96072   1.00488   -2.000
 4282.00    0.95391   0.99821   -2.000
 4283.00    0.96146   0.98853   -2.000
 4284.00    0.95652   0.97548   -2.000
 4285.00    0.93088   0.95925   -2.000
 4286.00    0.89456   0.94119   -2.000
 4287.00    0.86944   0.92633   -2.000
 4288.00    0.86103   0.92158   -2.000
 4289.00    0.84030   0.92933   -2.000
 4290.00    0.79988   0.94401   -2.000
 4291.00    0.79152   0.95651   -2.000
 4292.00    0.84494   0.96091   -2.000
 4293.00    0.91332   0.95588   -2.000
 4294.00    0.94756   0.94110   -2.000
 4295.00    0.94735   0.91730   -2.000
 4296.00    0.92902   0.88803    9.826
 4297.00    0.90280   0.85970    9.985
 4298.00    0.87854   0.83955   10.020
 4299.00    0.86719   0.83024   10.089
 4300.00    0.86573   0.82939   10.252
 4301.00    0.85402   0.83340   10.365
 4302.00    0.82485   0.83761   10.371
 4303.00    0.79425   0.83774   10.422
 4304.00    0.77301   0.83317   10.619
 4305.00    0.75792   0.82720   10.887
 4306.00    0.75784   0.82584   11.022
 4307.00    0.79378   0.83430   10.825
 4308.00    0.84867   0.85303   10.519
 4309.00    0.86804   0.87878   10.605
 4310.00    0.84549   0.90824   11.061
 4311.00    0.83411   0.94039   11.247
 4312.00    0.86458   0.97628   10.985
 4313.00    0.92386   1.01579   10.803
 4314.00    0.98716   1.05382   10.913
 4315.00    1.03241   1.08230   11.086
 4316.00    1.04945   1.09631   11.089
 4317.00    1.04041   1.09523   10.880
 4318.00    1.01241   1.08084   10.695
 4319.00    0.97518   1.05607   10.826
 4320.00    0.94059   1.02348   11.137
 4321.00    0.91843   0.98669   11.180
 4322.00    0.90666   0.95373   10.987
 4323.00    0.89822   0.93557   10.962
 4324.00    0.90153   0.93971   11.125
 4325.00    0.92844   0.96346   11.209
 4326.00    0.95946   0.99480   11.212
 4327.00    0.96528   1.02147   11.285
 4328.00    0.96243   1.03818   11.250
 4329.00    0.98623   1.04579   10.885
 4330.00    1.02236   1.04605    0.000
 4331.00    1.03097   1.03852    0.000
 4332.00    1.00832   1.02054    0.000
 4333.00    0.97427   0.98773    0.000
 4334.00    0.93620   0.93811    0.000
 4335.00    0.89889   0.87736    0.000
 4336.00    0.88573   0.81781    0.000
 4337.00    0.90860   0.77243    0.000
 4338.00    0.92623   0.75237    0.000
 4339.00    0.90204   0.76241    0.000
 4340.00    0.87951   0.79647    0.000
 4341.00    0.90865   0.84282    0.000
 4342.00    0.95371   0.89207    0.000
 4343.00    0.96527   0.93756    0.000
 4344.00    0.96620   0.97478    0.000
 4345.00    0.99145   1.00176    0.000
 4346.00    1.02113   1.01697    0.000
 4347.00    1.02402   1.01824    0.000
 4348.00    1.00346   1.00695    0.000
 4349.00    0.97763   0.99203    0.000
 4350.00    0.95850   0.98530    0.000
 4351.00    0.95082   0.99197   11.381
 4352.00    0.95344   1.00907   11.538
 4353.00    0.96428   1.03057   11.844
 4354.00    0.98365   1.05014   11.510
 4355.00    1.01096   1.06312   10.421
 4356.00    1.04220   1.07012    9.523
 4357.00    1.07058   1.07645    9.210
 4358.00    1.08789   1.08654    9.230
 4359.00    1.08954   1.10011    9.278
 4360.00    1.07748   1.11410    9.226
 4361.00    1.05820   1.12551    9.252
 4362.00    1.04050   1.13124    9.806
 4363.00    1.02980   1.12825   11.014
 4364.00    1.02650   1.11657   12.072
 4365.00    1.03246   1.10086   12.233
 4366.00    1.05063   1.08686   12.119
 4367.00    1.06863   1.07699   12.254
 4368.00    1.06051   1.07012   12.415
 4369.00    1.02593   1.06324   12.392
 4370.00    0.99653   1.05327   12.300
 4371.00    0.99431   1.04050   12.311
 4372.00    1.01776   1.03058   12.505
 4373.00    1.05355   1.03039   12.724
 4374.00    1.08473   1.04132   12.646
 4375.00    1.10248   1.05707   12.353
 4376.00    1.10602   1.06794   12.264
 4377.00    1.09002   1.06613   12.470
 4378.00    1.04636   1.04816   12.719
 4379.00    0.98045   1.01476   12.854
 4380.00    0.91232   0.97274   12.924
 4381.00    0.86607   0.93578   13.008
 4382.00    0.86008   0.91736   13.143
 4383.00    0.89072   0.92097   13.274
 4384.00    0.93516   0.93948   13.303
 4385.00    0.96758   0.96290   13.260
 4386.00    0.97278   0.98450   13.262
 4387.00    0.96582   1.00146   13.357
 4388.00    0.97446   1.01442   13.491
 4389.00    0.99688   1.02525   13.510
 4390.00    1.01044   1.03405   13.319
 4391.00    1.00399   1.04043   13.148
 4392.00    0.98262   1.04656   13.260
 4393.00    0.96478   1.05564   13.479
 4394.00    0.96793   1.06669   13.440
 4395.00    0.98723   1.07440   13.190
 4396.00    1.00579   1.07464   13.007
 4397.00    1.01471   1.06765   12.990
 4398.00    1.01300   1.05759   13.108
 4399.00    1.00351   1.04773   13.309
 4400.00    0.99398   1.03631   13.509
 4401.00    0.99806   1.02156   13.563
 4402.00    1.01909   1.00787   13.395
 4403.00    1.03320   1.00126   13.144
 4404.00    1.02150   1.00302   12.984
 4405.00    1.00496   1.01244   12.951
 4406.00    1.01090   1.02972   13.006
 4407.00    1.03586   1.05272   13.101
 4408.00    1.06218   1.07537   13.201
 4409.00    1.07788   1.09116   13.292
 4410.00    1.08223   1.09493   13.358
 4411.00    1.08717   1.08480   13.355
 4412.00    1.09928   1.06669   13.248
 4413.00    1.10673   1.05194   13.051
 4414.00    1.09725   1.04833   12.869
 4415.00    1.07235   1.05714   12.882
 4416.00    1.04336   1.07421   13.121
 4417.00    1.02598   1.09110   13.321
 4418.00    1.02792   1.10035   13.241
 4419.00    1.04194   1.10050   12.942
 4420.00    1.05378   1.09590   12.674
 4421.00    1.05045   1.09156   12.719
 4422.00    1.03723   1.08924   13.079
 4423.00    1.03978   1.08877   13.356
 4424.00    1.06352   1.08947   13.283
 4425.00    1.08110   1.09045   13.059
 4426.00    1.07956   1.08998   12.912
 4427.00    1.07665   1.08675   12.897
 4428.00    1.08400   1.08222   12.984
 4429.00    1.09431   1.07685   13.091
 4430.00    1.10129   1.06894   13.088
 4431.00    1.10635   1.05930   12.859
 4432.00    1.10944   1.05277   12.520
 4433.00    1.10747   1.05545   12.328
 4434.00    1.10274   1.06923   12.212
 4435.00    1.10179   1.08934   11.862
 4436.00    1.10133   1.10707   11.396
 4437.00    1.09229   1.11416   11.227
 4438.00    1.08743   1.10784   11.361
 4439.00    1.11135   1.09309   11.439
 4440.00    1.14704   1.07954   11.283
 4441.00    1.14887   1.07598   11.022
 4442.00    1.11956   1.08484   10.869
 4443.00    1.10286   1.10091   10.973
 4444.00    1.11244   1.11691   11.232
 4445.00    1.13017   1.12865   11.368
 4446.00    1.14498   1.13375   11.302
 4447.00    1.15441   1.13171   11.198
 4448.00    1.14811   1.12463   11.267
 4449.00    1.11876   1.11345   11.600
 4450.00    1.08982   1.09724   11.908
 4451.00    1.09050   1.07655   11.798
 4452.00    1.10073   1.05525   11.588
 4453.00    1.08251   1.03848   11.818
 4454.00    1.05017   1.02811   12.292
 4455.00    1.03968   1.02273   12.421
 4456.00    1.04166   1.02053   12.271
 4457.00    1.02897   1.02035   12.274
 4458.00    1.01220   1.02210   12.412
 4459.00    1.01518   1.02791   12.419
 4460.00    1.03074   1.03941   12.220
 4461.00    1.03901   1.05364    0.000
 4462.00    1.03832   1.06610    0.000
 4463.00    1.03908   1.07395    0.000
 4464.00    1.05123   1.07580    0.000
 4465.00    1.07614   1.07248    0.000
 4466.00    1.10075   1.06752    0.000
 4467.00    1.11617   1.06606    0.000
 4468.00    1.13551   1.07195    0.000
 4469.00    1.17128   1.08649    0.000
 4470.00    1.21341   1.10771    0.000
 4471.00    1.24595   1.13084    0.000
 4472.00    1.26323   1.15120    0.000
 4473.00    1.26478   1.16619    0.000
 4474.00    1.25041   1.17368    0.000
 4475.00    1.22436   1.17092    0.000
 4476.00    1.19734   1.15682    0.000
 4477.00    1.17579   1.13485    0.000
 4478.00    1.15560   1.11316    0.000
 4479.00    1.13409   1.10102    0.000
 4480.00    1.11745   1.10367    0.000
 4481.00    1.11478   1.11892    0.000
 4482.00    1.13184   1.13909   13.330
 4483.00    1.15868   1.15511   13.401
 4484.00    1.16852   1.16027   13.383
 4485.00    1.14982   1.15355   13.243
 4486.00    1.11892   1.14004   13.280
 4487.00    1.09485   1.12735   13.590
 4488.00    1.08626   1.12034   13.894
 4489.00    1.09207   1.11852   13.980
 4490.00    1.10341   1.11789   13.930
 4491.00    1.10970   1.11575   13.846
 4492.00    1.10377   1.11346   13.750
 4493.00    1.09128   1.11437   13.723
 4494.00    1.08754   1.12088   13.897
 4495.00    1.09247   1.13243   14.178
 4496.00    1.09073   1.14563   14.253
 4497.00    1.08434   1.15733   14.099
 4498.00    1.09387   1.16773   14.002
 4499.00    1.12660   1.17989   13.999
 4500.00    1.17029   1.19509   13.878
 4501.00    1.20614   1.21067   13.667
 4502.00    1.21854   1.22263   13.596
 4503.00    1.20993   1.22820   13.679
 4504.00    1.19827   1.22749   13.733
 4505.00    1.20011   1.22341   13.679
 4506.00    1.22040   1.21913   13.580
 4507.00    1.24008   1.21553   13.528
 4508.00    1.23208   1.21093   13.601
 4509.00    1.20137   1.20349   13.851
 4510.00    1.17655   1.19305   14.218
 4511.00    1.17497   1.18137   14.347
 4512.00    1.19394   1.17121   13.954
 4513.00    1.20919   1.16438   13.554
 4514.00    1.19807   1.16113   13.769
 4515.00    1.17863   1.16142   14.345
 4516.00    1.18119   1.16460   14.549
 4517.00    1.19314   1.16851   14.353
 4518.00    1.18701   1.16988   14.210
 4519.00    1.17412   1.16602   14.212
 4520.00    1.17651   1.15650   14.244
 4521.00    1.17869   1.14193   14.334
 4522.00    1.15605   1.12314   14.546
 4523.00    1.11896   1.10191   14.799
 4524.00    1.09078   1.08085   14.963
 4525.00    1.07549   1.06315   15.026
 4526.00    1.06829   1.05188   15.055
 4527.00    1.07105   1.04828   15.097
 4528.00    1.08267   1.05087   15.160
 4529.00    1.08887   1.05596   15.205
 4530.00    1.07982   1.06030   15.195
 4531.00    1.06654   1.06452   15.142
 4532.00    1.06378   1.07265   15.073
 4533.00    1.07348   1.08811   14.996
 4534.00    1.08851   1.10942   14.931
 4535.00    1.09847   1.13069   14.919
 4536.00    1.10253   1.14608   14.928
 4537.00    1.11569   1.15322   14.818
 4538.00    1.14264   1.15399   14.617
 4539.00    1.16269   1.15187   14.623
 4540.00    1.16098   1.14865   14.893
 4541.00    1.14702   1.14477   14.998
 4542.00    1.13264   1.14051   14.797
 4543.00    1.11867   1.13554   14.821
 4544.00    1.10377   1.12913   15.276
 4545.00    1.08977   1.12120   15.612
 4546.00    1.07999   1.11357   15.464
 4547.00    1.07779   1.10840   15.209
 4548.00    1.08473   1.10560   15.158
 4549.00    1.09892   1.10400   15.235
 4550.00    1.11189   1.10292    0.000
 4551.00    1.11171   1.10316    0.000
 4552.00    1.10216   1.10737    0.000
 4553.00    1.10379   1.11796    0.000
 4554.00    1.12442   1.13442    0.000
 4555.00    1.15306   1.15359    0.000
 4556.00    1.18236   1.17129    0.000
 4557.00    1.21240   1.18381    0.000
 4558.00    1.23390   1.18875    0.000
 4559.00    1.23038   1.18525    0.000
 4560.00    1.20322   1.17529    0.000
 4561.00    1.17069   1.16376    0.000
 4562.00    1.14102   1.15625    0.000
 4563.00    1.11190   1.15634    0.000
 4564.00    1.09158   1.16327    0.000
 4565.00    1.09556   1.17282    0.000
 4566.00    1.12350   1.17975    0.000
 4567.00    1.15960   1.18071    0.000
 4568.00    1.18797   1.17745    0.000
 4569.00    1.19932   1.17479    0.000
 4570.00    1.19682   1.17524    0.000
 4571.00    1.19106   1.17856    0.000
 4572.00    1.18721   1.18283    0.000
 4573.00    1.18529   1.18482    0.000
 4574.00    1.18551   1.18165    0.000
 4575.00    1.18618   1.17228    0.000
 4576.00    1.17855   1.15823    0.000
 4577.00    1.15562   1.14300    0.000
 4578.00    1.12727   1.13010    0.000
 4579.00    1.11063   1.12147    0.000
 4580.00    1.11192   1.11773    0.000
 4581.00    1.12607   1.11864    0.000
 4582.00    1.14071   1.12342    0.000
 4583.00    1.14605   1.13171    0.000
 4584.00    1.14615   1.14257    0.000
 4585.00    1.14779   1.15371    0.000
 4586.00    1.14610   1.16195    0.000
 4587.00    1.13726   1.16474    0.000
 4588.00    1.13333   1.16171    0.000
 4589.00    1.14449   1.15492    0.000
 4590.00    1.16016   1.14717    0.000
 4591.00    1.16541   1.14079    0.000
 4592.00    1.15860   1.13733    0.000
 4593.00    1.14717   1.13692    0.000
 4594.00    1.14136   1.13866    0.000
 4595.00    1.14481   1.14114    0.000
 4596.00    1.14879   1.14281    0.000
 4597.00    1.14667   1.14341    0.000
 4598.00    1.14427   1.14370    0.000
 4599.00    1.14742   1.14438    0.000
 4600.00    1.15365   1.14617    0.000
 4601.00    1.16122   1.14969    0.000
 4602.00    1.17435   1.15590    0.000
 4603.00    1.19358   1.16567    0.000
 4604.00    1.21114   1.17891    0.000
 4605.00    1.22057   1.19365    0.000
 4606.00    1.22173   1.20640    0.000
 4607.00    1.21598   1.21412    0.000
 4608.00    1.20445   1.21577    0.000
 4609.00    1.19414   1.21276    0.000
 4610.00    1.19738   1.20818    0.000
 4611.00    1.21455   1.20463    0.000
 4612.00    1.23032   1.20289    0.000
 4613.00    1.23309   1.20255    0.000
 4614.00    1.22282   1.20227    0.000
 4615.00    1.20734   1.20143    0.000
 4616.00    1.19823   1.20108    0.000
 4617.00    1.20209   1.20236    0.000
 4618.00    1.21586   1.20531    0.000
 4619.00    1.22305   1.20923    0.000
 4620.00    1.20339   1.21254    0.000
 4621.00    1.16700   1.21371    0.000
 4622.00    1.14918   1.21249    0.000
 4623.00    1.16225   1.20955    0.000
 4624.00    1.19063   1.20565    0.000
 4625.00    1.21829   1.20179    0.000
 4626.00    1.23574   1.19921    0.000
 4627.00    1.23738   1.19809    0.000
 4628.00    1.22196   1.19719    0.000
 4629.00    1.19517   1.19514    0.000
 4630.00    1.16858   1.19117    0.000
 4631.00    1.15559   1.18521    0.000
 4632.00    1.16359   1.17776    0.000
 4633.00    1.18063   1.16970    0.000
 4634.00    1.18671   1.16205    0.000
 4635.00    1.18000   1.15581    0.000
 4636.00    1.17076   1.15219    0.000
 4637.00    1.16188   1.15195    0.000
 4638.00    1.15149   1.15426    0.000
 4639.00    1.14261   1.15670    0.000
 4640.00    1.13685   1.15612    0.000
 4641.00    1.12339   1.14992    0.000
 4642.00    1.09272   1.13801    0.000
 4643.00    1.05750   1.12356    0.000
 4644.00    1.03901   1.11145    0.000
 4645.00    1.04532   1.10613    0.000
 4646.00    1.06962   1.10948    0.000
 4647.00    1.09291   1.12006    0.000
 4648.00    1.10106   1.13386    0.000
 4649.00    1.10258   1.14589    0.000
 4650.00    1.11239   1.15273    0.000
 4651.00    1.13299   1.15429    0.000
 4652.00    1.15805   1.15358    0.000
 4653.00    1.17863   1.15529    0.000
 4654.00    1.19103   1.16288    0.000
 4655.00    1.20168   1.17620    0.000
 4656.00    1.21187   1.19129    0.000
 4657.00    1.20683   1.20247    0.000
 4658.00    1.17803   1.20524    0.000
 4659.00    1.13918   1.19832    0.000
 4660.00    1.10705   1.18313    0.000
 4661.00    1.08668   1.16193    0.000
 4662.00    1.07384   1.13727    0.000
 4663.00    1.05933   1.11269    0.000
 4664.00    1.04189   1.09264    0.000
 4665.00    1.03356   1.08154    0.000
 4666.00    1.04321   1.08220    0.000
 4667.00    1.06743   1.09371    0.000
 4668.00    1.09658   1.11166    0.000
 4669.00    1.12028   1.13065    0.000
 4670.00    1.13665   1.14686    0.000
 4671.00    1.15335   1.15902    0.000
 4672.00    1.17062   1.16724    0.000
 4673.00    1.17744   1.17157    0.000
 4674.00    1.17069   1.17166    0.000
 4675.00    1.15937   1.16731    0.000
 4676.00    1.14694   1.15949    0.000
 4677.00    1.12953   1.15089    0.000
 4678.00    1.11718   1.14480    0.000
 4679.00    1.13123   1.14326    0.000
 4680.00    1.16740   1.14618    0.000
 4681.00    1.19540   1.15178    0.000
 4682.00    1.19984   1.15753    0.000
 4683.00    1.18701   1.16151    0.000
 4684.00    1.16402   1.16314    0.000
 4685.00    1.13522   1.16274    0.000
 4686.00    1.11017   1.16120    0.000
 4687.00    1.10051   1.15972    0.000
 4688.00    1.10620   1.15940    0.000
 4689.00    1.11916   1.16112    0.000
 4690.00    1.14003   1.16521    0.000
 4691.00    1.17145   1.17072    0.000
 4692.00    1.19459   1.17527    0.000
 4693.00    1.18364   1.17602    0.000
 4694.00    1.14538   1.17143    0.000
 4695.00    1.10960   1.16189    0.000
 4696.00    1.09490   1.14941    0.000
 4697.00    1.10229   1.13675    0.000
 4698.00    1.11655   1.12632    0.000
 4699.00    1.11999   1.11955    0.000
 4700.00    1.11404   1.11662    0.000
 4701.00    1.10947   1.11668    0.000
 4702.00    1.10625   1.11823    0.000
 4703.00    1.09815   1.11966    0.000
 4704.00    1.08365   1.12023    0.000
 4705.00    1.06813   1.12078    0.000
 4706.00    1.06407   1.12297    0.000
 4707.00    1.08012   1.12768    0.000
 4708.00    1.10844   1.13404    0.000
 4709.00    1.13406   1.14018    0.000
 4710.00    1.14776   1.14491    0.000
 4711.00    1.15059   1.14895    0.000
 4712.00    1.15561   1.15445    0.000
 4713.00    1.17033   1.16346    0.000
 4714.00    1.18115   1.17620    0.000
 4715.00    1.17346   1.19067    0.000
 4716.00    1.15094   1.20393    0.000
 4717.00    1.12821   1.21380    0.000
 4718.00    1.12165   1.21966    0.000
 4719.00    1.13770   1.22215    0.000
 4720.00    1.16562   1.22197    0.000
 4721.00    1.18974   1.21883    0.000
 4722.00    1.19982   1.21149    0.000
 4723.00    1.19580   1.19886    0.000
 4724.00    1.18839   1.18143    0.000
 4725.00    1.18476   1.16207    0.000
 4726.00    1.18100   1.14525    0.000
 4727.00    1.17305   1.13488    0.000
 4728.00    1.16279   1.13251    0.000
 4729.00    1.15313   1.13701    0.000
 4730.00    1.14557   1.14530    0.000
 4731.00    1.14231   1.15417    0.000
 4732.00    1.14625   1.16169    0.000
 4733.00    1.15494   1.16734    0.000
 4734.00    1.16057   1.17177    0.000
 4735.00    1.16235   1.17598    0.000
 4736.00    1.16819   1.18039    0.000
 4737.00    1.17887   1.18469    0.000
 4738.00    1.18555   1.18845    0.000
 4739.00    1.18548   1.19176    0.000
 4740.00    1.18422   1.19511    0.000
 4741.00    1.18176   1.19883    0.000
 4742.00    1.17203   1.20282    0.000
 4743.00    1.15720   1.20685    0.000
 4744.00    1.14804   1.21046    0.000
 4745.00    1.15056   1.21299    0.000
 4746.00    1.16347   1.21369    0.000
 4747.00    1.18300   1.21189    0.000
 4748.00    1.20436   1.20727    0.000
 4749.00    1.22169   1.20014    0.000
 4750.00    1.22800   1.19154    0.000
 4751.00    1.21528   1.18314    0.000
 4752.00    1.18156   1.17668    0.000
 4753.00    1.14568   1.17333    0.000
 4754.00    1.13348   1.17308    0.000
 4755.00    1.14290   1.17455    0.000
 4756.00    1.15210   1.17534    0.000
 4757.00    1.14916   1.17295    0.000
 4758.00    1.13633   1.16580    0.000
 4759.00    1.12665   1.15421    0.000
 4760.00    1.13132   1.14050    0.000
 4761.00    1.14103   1.12810   17.595
 4762.00    1.14153   1.12029   17.563
 4763.00    1.14136   1.11914   17.501
 4764.00    1.15466   1.12483   17.336
 4765.00    1.17139   1.13555   17.314
 4766.00    1.17424   1.14833   17.628
 4767.00    1.16595   1.16023   17.893
 4768.00    1.15691   1.16970   17.751
 4769.00    1.14632   1.17706   17.757
 4770.00    1.13387   1.18384   18.360
 4771.00    1.13418   1.19114   18.684
 4772.00    1.15605   1.19871   17.930
 4773.00    1.18078   1.20523   17.181
 4774.00    1.18789   1.20926   17.350
 4775.00    1.18168   1.20993   17.879
 4776.00    1.17606   1.20716   17.966
 4777.00    1.17786   1.20157   17.871
 4778.00    1.18374   1.19407   18.006
 4779.00    1.18099   1.18560   18.064
 4780.00    1.16721   1.17719   17.788
 4781.00    1.16172   1.16965   17.580
 4782.00    1.17126   1.16348   17.759
 4783.00    1.17007   1.15895   18.108
 4784.00    1.14718   1.15627   18.275
 4785.00    1.13251   1.15577   18.124
 4786.00    1.14445   1.15802   17.828
 4787.00    1.16156   1.16366   17.776
 4788.00    1.16518   1.17302   18.111
 4789.00    1.16251   1.18569   18.542
 4790.00    1.16449   1.20003   18.693
 4791.00    1.17274   1.21325   18.427
 4792.00    1.18051   1.22214   18.046
 4793.00    1.17719   1.22446   18.112
 4794.00    1.16580   1.22019   18.646
 4795.00    1.16454   1.21178   18.949
 4796.00    1.17631   1.20312   18.785
 4797.00    1.18301   1.19767   18.743
 4798.00    1.17896   1.19669   18.911
 4799.00    1.17792   1.19872   18.685
 4800.00    1.18540   1.20071   18.136
 4801.00    1.19256   1.19999   18.027
 4802.00    1.19308   1.19586   18.428
 4803.00    1.18775   1.18970   18.657
 4804.00    1.17889   1.18389   18.531
 4805.00    1.16922   1.18045   18.535
 4806.00    1.16410   1.18014   18.740
 4807.00    1.16893   1.18253   18.748
 4808.00    1.18006   1.18657   18.506
 4809.00    1.18749   1.19134   18.330
 4810.00    1.18853   1.19646   18.332
 4811.00    1.18795   1.20209   18.393
 4812.00    1.18939   1.20847   18.410
 4813.00    1.19448   1.21544   18.354
 4814.00    1.20556   1.22220   18.267
 4815.00    1.22374   1.22734   18.232
 4816.00    1.24359   1.22916   18.314
 4817.00    1.25457   1.22623   18.501
 4818.00    1.24618   1.21813   18.608
 4819.00    1.21461   1.20611   18.471
 4820.00    1.17218   1.19314   18.330
 4821.00    1.13803   1.18276   18.501
 4822.00    1.11995   1.17734   18.780
 4823.00    1.11578   1.17679   18.797
 4824.00    1.12048   1.17887   18.761
 4825.00    1.12829   1.18079   18.998
 4826.00    1.13432   1.18085   19.133
 4827.00    1.13649   1.17900   18.757
 4828.00    1.13752   1.17646   18.472
 4829.00    1.14137   1.17478   18.886
 4830.00    1.14840   1.17499   19.474
 4831.00    1.15529   1.17701   19.420
 4832.00    1.15608   1.17961   19.041
 4833.00    1.15008   1.18098   18.951
 4834.00    1.14886   1.17970   19.043
 4835.00    1.16044   1.17543   18.967
 4836.00    1.17425   1.16917   18.682
 4837.00    1.17662   1.16274   18.431
 4838.00    1.16649   1.15797   18.600
 4839.00    1.15418   1.15601   19.228
 4840.00    1.15675   1.15691   19.592
 4841.00    1.17844   1.15968   19.239
 4842.00    1.19822   1.16251   18.905
 4843.00    1.19601   1.16352   19.152
 4844.00    1.17235   1.16165   19.598
 4845.00    1.14144   1.15724   19.729
 4846.00    1.12262   1.15160   19.554
 4847.00    1.12231   1.14570   19.282
 4848.00    1.12588   1.13903    0.000
 4849.00    1.11890   1.12970    0.000
 4850.00    1.09938   1.11578    0.000
 4851.00    1.07096   1.09668    0.000
 4852.00    1.04024   1.07329    0.000
 4853.00    1.02405   1.04675    0.000
 4854.00    1.04775   1.01716    0.000
 4855.00    1.11846   0.98372    0.000
 4856.00    1.21492   0.94699    0.000
 4857.00    1.30168   0.91108    0.000
 4858.00    1.34259   0.88362    0.000
 4859.00    1.32792   0.87246    0.000
 4860.00    1.27813   0.88138    0.000
 4861.00    1.21484   0.90791    0.000
 4862.00    1.15086   0.94469    0.000
 4863.00    1.09642   0.98288    0.000
 4864.00    1.05898   1.01530    0.000
 4865.00    1.03501   1.03778    0.000
 4866.00    1.01299   1.04953    0.000
 4867.00    0.99061   1.05270    0.000
 4868.00    0.97591   1.05174    0.000
 4869.00    0.97482   1.05177    0.000
 4870.00    0.98697   1.05661    0.000
 4871.00    1.00462   1.06739    0.000
 4872.00    1.01855   1.08273    0.000
 4873.00    1.03249   1.10014    0.000
 4874.00    1.05702   1.11731    0.000
 4875.00    1.08802   1.13250   19.895
 4876.00    1.11180   1.14423   19.175
 4877.00    1.12624   1.15121   19.097
 4878.00    1.13718   1.15279   21.603
 4879.00    1.14277   1.14931   20.795
 4880.00    1.13644   1.14209   13.517
 4881.00    1.11775   1.13284    9.373
 4882.00    1.09213   1.12322    8.568
 4883.00    1.06716   1.11441    9.259
 4884.00    1.04971   1.10698    9.761
 4885.00    1.04279   1.10102    9.621
 4886.00    1.04587   1.09692    9.503
 4887.00    1.05620   1.09622    9.467
 4888.00    1.07202   1.10165    9.284
 4889.00    1.09607   1.11566    9.109
 4890.00    1.12920   1.13826    9.040
 4891.00    1.16234   1.16606    8.630
 4892.00    1.18493   1.19331    7.971
 4893.00    1.19548   1.21432    8.331
 4894.00    1.19715   1.22575   11.294
 4895.00    1.19175   1.22741   17.650
 4896.00    1.18090   1.22171   19.935
 4897.00    1.16790   1.21234   17.311
 4898.00    1.15730   1.20288   16.730
 4899.00    1.15386   1.19595   17.526
 4900.00    1.15798   1.19288   17.617
 4901.00    1.16301   1.19351   17.187
 4902.00    1.16652   1.19622   17.108
 4903.00    1.17739   1.19819   17.299
 4904.00    1.19714   1.19654   17.438
 4905.00    1.20881   1.18992   17.505
 4906.00    1.20169   1.17966   17.589
 4907.00    1.18674   1.16944   17.702
 4908.00    1.17803   1.16335   17.769
 4909.00    1.17999   1.16369   17.671
 4910.00    1.18896   1.16954   17.484
 4911.00    1.19598   1.17695   17.533
 4912.00    1.19442   1.18037   17.953
 4913.00    1.18361   1.17490   18.505
 4914.00    1.16503   1.15841   18.895
 4915.00    1.14007   1.13294   19.030
 4916.00    1.10980   1.10432   19.058
 4917.00    1.07647   1.08012   19.264
 4918.00    1.05078   1.06639   19.663
 4919.00    1.04993   1.06559   19.894
 4920.00    1.07632   1.07633   19.730
 4921.00    1.11338   1.09524   19.319
 4922.00    1.14445   1.11876   19.003
 4923.00    1.16160   1.14410   19.091
 4924.00    1.16935   1.16888   19.480
 4925.00    1.17951   1.19054   19.693
 4926.00    1.19037   1.20645   19.631
 4927.00    1.18836   1.21445   19.653
 4928.00    1.17429   1.21376   19.847
 4929.00    1.16410   1.20542   19.965
 4930.00    1.16713   1.19215   19.916
 4931.00    1.18046   1.17721   19.836
 4932.00    1.19137   1.16302   19.828
 4933.00    1.18503   1.15069   19.906
 4934.00    1.16120   1.14083   20.052
 4935.00    1.13297   1.13475   20.225
 4936.00    1.11431   1.13467   20.370
 4937.00    1.11447   1.14223   20.416
 4938.00    1.13245   1.15681   20.284
 4939.00    1.15844   1.17519   19.986
 4940.00    1.17906   1.19304    0.000
 4941.00    1.18526   1.20703    0.000
 4942.00    1.18393   1.21624    0.000
 4943.00    1.18652   1.22183    0.000
 4944.00    1.18677   1.22583    0.000
 4945.00    1.17373   1.22965    0.000
 4946.00    1.15714   1.23339    0.000
 4947.00    1.15353   1.23594    0.000
 4948.00    1.16063   1.23570    0.000
 4949.00    1.16616   1.23110    0.000
 4950.00    1.16474   1.22107    0.000
 4951.00    1.15732   1.20534    0.000
 4952.00    1.14744   1.18510    0.000
 4953.00    1.14064   1.16356    0.000
 4954.00    1.14381   1.14586    0.000
 4955.00    1.15822   1.13715    0.000
 4956.00    1.17315   1.13988    0.000
 4957.00    1.17810   1.15216    0.000
 4958.00    1.17518   1.16841    0.000
 4959.00    1.17037   1.18224    0.000
 4960.00    1.16436   1.18926    0.000
 4961.00    1.15581   1.18847    0.000
 4962.00    1.14484   1.18184    0.000
 4963.00    1.13264   1.17291    0.000
 4964.00    1.12108   1.16527    0.000
 4965.00    1.11247   1.16143    0.000
 4966.00    1.10948   1.16244    0.000
 4967.00    1.11446   1.16798    0.000
 4968.00    1.12831   1.17675    0.000
 4969.00    1.14619   1.18687    0.000
 4970.00    1.15671   1.19617    0.000
 4971.00    1.15453   1.20252    0.000
 4972.00    1.14600   1.20416    0.000
 4973.00    1.13608   1.20011    0.000
 4974.00    1.12203   1.19025    0.000
 4975.00    1.10101   1.17518    0.000
 4976.00    1.07458   1.15601    0.000
 4977.00    1.05014   1.13424    0.000
 4978.00    1.03877   1.11206    0.000
 4979.00    1.04338   1.09262    0.000
 4980.00    1.05605   1.07959    0.000
 4981.00    1.07006   1.07599    0.000
 4982.00    1.08481   1.08257    0.000
 4983.00    1.10414   1.09717    0.000
 4984.00    1.13271   1.11531    0.000
 4985.00    1.16603   1.13216    0.000
 4986.00    1.19094   1.14435    0.000
 4987.00    1.19934   1.15111    0.000
 4988.00    1.19190   1.15381    0.000
 4989.00    1.17445   1.15475    0.000
 4990.00    1.15533   1.15579    0.000
 4991.00    1.14122   1.15758    0.000
 4992.00    1.13545   1.15942    0.000
 4993.00    1.13686   1.15967    0.000
 4994.00    1.14094   1.15659    0.000
 4995.00    1.14361   1.14923    0.000
 4996.00    1.14238   1.13808    0.000
 4997.00    1.13700   1.12497    0.000
 4998.00    1.12901   1.11210    0.000
 4999.00    1.12053   1.10099    0.000
 5000.00    1.11523   1.09203    0.000
 5001.00    1.12027   1.08511    0.000
 5002.00    1.14039   1.08060    0.000
 5003.00    1.16665   1.07956    0.000
 5004.00    1.18250   1.08271    0.000
 5005.00    1.17772   1.08902    0.000
 5006.00    1.15112   1.09533    0.000
 5007.00    1.11069   1.09768    0.000
 5008.00    1.07038   1.09353    0.000
 5009.00    1.04473   1.08338    0.000
 5010.00    1.04028   1.07045    0.000
 5011.00    1.04581   1.05893    0.000
 5012.00    1.04570   1.05191    0.000
 5013.00    1.03832   1.05029    0.000
 5014.00    1.02995   1.05319    0.000
 5015.00    1.02490   1.05903    0.000
 5016.00    1.02559   1.06642    0.000
 5017.00    1.03356   1.07454    0.000
 5018.00    1.04756   1.08292    0.000
 5019.00    1.06197   1.09133    0.000
 5020.00    1.07282   1.09947    0.000
 5021.00    1.08284   1.10692    0.000
 5022.00    1.09380   1.11312    0.000
 5023.00    1.10025   1.11794    0.000
 5024.00    1.09858   1.12208    0.000
 5025.00    1.09420   1.12696    0.000
 5026.00    1.09560   1.13394    0.000
 5027.00    1.10857   1.14322    0.000
 5028.00    1.13041   1.15331    0.000
 5029.00    1.14808   1.16148   21.192
 5030.00    1.15175   1.16476   21.112
 5031.00    1.14287   1.16119   21.170
 5032.00    1.12679   1.15060   21.362
 5033.00    1.10786   1.13444   21.466
 5034.00    1.08913   1.11494   21.406
 5035.00    1.07218   1.09449   21.406
 5036.00    1.05655   1.07571   21.526
 5037.00    1.04059   1.06200   21.540
 5038.00    1.02707   1.05719   21.497
 5039.00    1.02453   1.06398   21.812
 5040.00    1.04050   1.08177   22.307
 5041.00    1.07633   1.10600   22.060
 5042.00    1.11937   1.12958   21.184
 5043.00    1.14575   1.14585   20.869
 5044.00    1.14432   1.15135   21.335
 5045.00    1.12275   1.14689   21.683
 5046.00    1.09494   1.13675   21.496
 5047.00    1.07446   1.12659   21.279
 5048.00    1.06907   1.12111   21.352
 5049.00    1.07951   1.12256   21.581
 5050.00    1.10166   1.13054   21.668
 5051.00    1.12771   1.14279   21.384
 5052.00    1.14747   1.15649   20.970
 5053.00    1.15212   1.16932   20.886
 5054.00    1.14275   1.18012   21.052
 5055.00    1.12929   1.18853   21.017
 5056.00    1.12178   1.19446   20.829
 5057.00    1.12509   1.19735   20.903
 5058.00    1.13231   1.19612   21.230
 5059.00    1.13082   1.18973   21.466
 5060.00    1.11825   1.17821   21.526
 5061.00    1.10166   1.16326   21.568
 5062.00    1.08883   1.14797   21.633
 5063.00    1.08466   1.13550   21.620
 5064.00    1.08803   1.12779   21.403
 5065.00    1.09417   1.12484   21.033
 5066.00    1.09974   1.12523   20.966
 5067.00    1.10429   1.12701   21.375
 5068.00    1.11099   1.12868   21.094
 5069.00    1.12257   1.12958   19.692
 5070.00    1.13520   1.12967   19.842
 5071.00    1.14164   1.12892   22.847
 5072.00    1.13686   1.12672   20.709
 5073.00    1.12046   1.12189   12.951
 5074.00    1.09841   1.11341    9.223
 5075.00    1.07841   1.10146    8.669
 5076.00    1.06413   1.08800    9.377
 5077.00    1.05585   1.07642    9.740
 5078.00    1.05216   1.07005    9.504
 5079.00    1.05318   1.07077    9.328
 5080.00    1.06296   1.07817    9.418
 5081.00    1.08201   1.09019    9.512
 5082.00    1.10092   1.10414    9.043
 5083.00    1.11124   1.11772    8.393
 5084.00    1.11512   1.12963    9.156
 5085.00    1.11920   1.13957   13.554
 5086.00    1.12818   1.14794   23.342
 5087.00    1.13912   1.15527   25.526
 5088.00    1.13999   1.16164   21.198
 5089.00    1.12872   1.16637   20.772
 5090.00    1.12338   1.16800   22.269
 5091.00    1.13597   1.16489   22.513
 5092.00    1.15665   1.15615   21.783
 5093.00    1.16839   1.14245   21.389
 5094.00    1.15860   1.12638   21.542
 5095.00    1.12915   1.11177   21.996
 5096.00    1.09811   1.10229   22.393
 5097.00    1.07947   1.09984   22.574
 5098.00    1.07363   1.10364   22.713
 5099.00    1.07559   1.11063   22.856
 5100.00    1.07960   1.11698   22.756
 5101.00    1.08057   1.11980   22.349
 5102.00    1.07542   1.11812   21.896
 5103.00    1.06659   1.11287   21.660
 5104.00    1.06073   1.10622   21.766
 5105.00    1.05818   1.10064   22.094
 5106.00    1.05321   1.09823   22.337
 5107.00    1.05007   1.10020   22.465
 5108.00    1.06286   1.10663   22.684
 5109.00    1.09499   1.11657   22.540
 5110.00    1.13533   1.12845   21.263
 5111.00    1.16937   1.14062   19.558
 5112.00    1.18529   1.15171   18.618
 5113.00    1.18087   1.16057   18.258
 5114.00    1.16306   1.16608   17.640
 5115.00    1.14152   1.16707   17.000
 5116.00    1.12556   1.16258   17.184
 5117.00    1.12115   1.15237   18.212
 5118.00    1.12787   1.13733   19.353
 5119.00    1.13397   1.11954   20.257
 5120.00    1.12339   1.10173   21.173
 5121.00    1.09310   1.08653   21.999
 5122.00    1.05377   1.07567   22.320
 5123.00    1.02310   1.06963   22.379
 5124.00    1.01598   1.06791   22.720
 5125.00    1.02962   1.06961   23.033
 5126.00    1.05084   1.07404   22.695
 5127.00    1.07358   1.08072   22.206
 5128.00    1.09758   1.08915   22.315
 5129.00    1.12133   1.09841   22.576
 5130.00    1.14075   1.10711   22.168
 5131.00    1.14919   1.11358   21.502
 5132.00    1.14176   1.11631   21.368
 5133.00    1.12113   1.11461   21.750
 5134.00    1.09666   1.10892   22.157
 5135.00    1.08143   1.10089   22.134
 5136.00    1.08177   1.09268   21.613
 5137.00    1.08641   1.08601   21.117
 5138.00    1.08192   1.08161   21.097
 5139.00    1.07063   1.07925   21.419
 5140.00    1.06240   1.07827   21.737
 5141.00    1.06374   1.07794   21.911
 5142.00    1.07593   1.07778   21.944
 5143.00    1.09433   1.07755   21.870
 5144.00    1.11077   1.07725   21.783
 5145.00    1.11646   1.07690   21.855
 5146.00    1.10854   1.07637   22.141
 5147.00    1.09413   1.07548   22.448
 5148.00    1.08100   1.07441   22.616
 5149.00    1.07060   1.07405   22.745
 5150.00    1.06298   1.07591   22.787
 5151.00    1.06046   1.08147   22.356
 5152.00    1.06601   1.09122   21.543
 5153.00    1.08138   1.10420   21.118
 5154.00    1.10332   1.11811   21.327
 5155.00    1.12279   1.13006   21.536
 5156.00    1.13368   1.13746   21.412
 5157.00    1.13669   1.13846   21.498
 5158.00    1.13249   1.13197   22.071
 5159.00    1.11881   1.11742   22.656
 5160.00    1.09543   1.09456   22.909
 5161.00    1.06552   1.06395   23.069
 5162.00    1.02959   1.02770   23.228
 5163.00    0.98487   0.98985   23.111
 5164.00    0.93514   0.95556   22.853
 5165.00    0.89294   0.92929   23.035
 5166.00    0.87130   0.91295   23.606
 5167.00    0.87716   0.90583   23.731
 5168.00    0.90063   0.90640   23.180
 5169.00    0.91956   0.91416   22.621
 5170.00    0.92854   0.92996   22.481
 5171.00    0.94108   0.95427   22.730
 5172.00    0.96473   0.98505   23.025
 5173.00    0.99498   1.01722   22.932
 5174.00    1.02189   1.04415   22.633
 5175.00    1.03562   1.06006   22.712
 5176.00    1.03548   1.06169   23.152
 5177.00    1.02802   1.04911   23.423
 5178.00    1.01610   1.02588   23.450
 5179.00    0.99987   0.99882   23.578
 5180.00    0.98545   0.97648   23.767
 5181.00    0.98249   0.96651   23.707
 5182.00    0.99416   0.97248   23.559
 5183.00    1.01588   0.99226   23.731
 5184.00    1.03744   1.01909   24.163
 5185.00    1.04898   1.04474   24.418
 5186.00    1.05118   1.06288   24.197
 5187.00    1.05219   1.07098   23.575
 5188.00    1.05890   1.07054   23.039
 5189.00    1.07324   1.06557   22.976
 5190.00    1.08917   1.06074    0.000
 5191.00    1.09783   1.05958    0.000
 5192.00    1.09600   1.06366    0.000
 5193.00    1.08667   1.07255    0.000
 5194.00    1.07765   1.08444    0.000
 5195.00    1.07673   1.09688    0.000
 5196.00    1.08560   1.10721    0.000
 5197.00    1.10073   1.11293    0.000
 5198.00    1.11540   1.11210    0.000
 5199.00    1.12217   1.10385    0.000
 5200.00    1.11547   1.08879    0.000
 5201.00    1.09373   1.06911    0.000
 5202.00    1.06128   1.04836    0.000
 5203.00    1.02815   1.03057    0.000
 5204.00    1.00866   1.01935    0.000
 5205.00    1.01162   1.01711    0.000
 5206.00    1.03226   1.02449    0.000
 5207.00    1.05815   1.04012    0.000
 5208.00    1.07620   1.06079    0.000
 5209.00    1.08313   1.08215    0.000
 5210.00    1.09065   1.10014    0.000
 5211.00    1.10561   1.11243   22.759
 5212.00    1.11789   1.11938   22.632
 5213.00    1.11989   1.12353   22.593
 5214.00    1.11860   1.12798   22.585
 5215.00    1.12346   1.13448   22.460
 5216.00    1.13790   1.14237   22.175
 5217.00    1.15680   1.14879   21.889
 5218.00    1.16750   1.15009   21.908
 5219.00    1.16134   1.14344   22.197
 5220.00    1.13923   1.12822   22.265
 5221.00    1.10771   1.10672   22.033
 5222.00    1.07574   1.08385   22.088
 5223.00    1.05063   1.06565   22.693
 5224.00    1.03657   1.05705   23.468
 5225.00    1.03710   1.05971   23.888
 5226.00    1.05408   1.07117   23.679
 5227.00    1.07970   1.08629   23.057
 5228.00    1.09790   1.09979   22.567
 5229.00    1.10167   1.10888   22.533
 5230.00    1.09694   1.11419   22.966
 5231.00    1.09339   1.11856   23.525
 5232.00    1.09920   1.12496   23.607
 5233.00    1.11549   1.13460   23.027
 5234.00    1.13612   1.14656   22.214
 5235.00    1.15252   1.15865   21.840
 5236.00    1.15772   1.16880   22.404
 5237.00    1.15269   1.17593   23.436
 5238.00    1.14486   1.17999   23.642
 5239.00    1.13981   1.18134   22.987
 5240.00    1.13905   1.18006   22.568
 5241.00    1.14014   1.17582   22.674
 5242.00    1.13931   1.16822   22.880
 5243.00    1.13690   1.15753   22.826
 5244.00    1.13616   1.14502   22.459
 5245.00    1.13814   1.13275   22.095
 5246.00    1.14041   1.12285   22.075
 5247.00    1.13681   1.11674   22.263
 5248.00    1.12341   1.11485   22.308
 5249.00    1.10844   1.11677   22.277
 5250.00    1.10496   1.12182   22.411
 5251.00    1.11618   1.12947   22.540
 5252.00    1.13651   1.13922   22.368
 5253.00    1.15709   1.15010   22.056
 5254.00    1.16960   1.15997   21.918
 5255.00    1.17052   1.16557   21.942
 5256.00    1.16016   1.16336   21.904
 5257.00    1.14059   1.15108   21.596
 5258.00    1.11454   1.12885   20.977
 5259.00    1.08434   1.09950   20.263
 5260.00    1.05339   1.06764   19.707
 5261.00    1.02730   1.03812   19.411
 5262.00    1.00787   1.01440   19.306
 5263.00    0.98762   0.99788   19.151
 5264.00    0.96219   0.98812   18.840
 5265.00    0.94188   0.98418   18.651
 5266.00    0.94116   0.98573   18.683
 5267.00    0.96750   0.99309   18.474
 5268.00    1.01550   1.00647   17.879
 5269.00    1.06500   1.02491   17.589
 5270.00    1.10010   1.04634   17.964
 5271.00    1.12239   1.06850   18.404
 5272.00    1.13662   1.08986   18.392
 5273.00    1.14073   1.10962   18.369
 5274.00    1.13540   1.12687   18.788
 5275.00    1.12956   1.14007   19.491
 5276.00    1.13066   1.14758   20.089
 5277.00    1.13889   1.14887   20.307
 5278.00    1.15114   1.14557   20.220
 5279.00    1.16396   1.14127   20.236
 5280.00    1.17573   1.14013   20.446
 5281.00    1.18711   1.14510   20.428
 5282.00    1.19777   1.15662   20.081
 5283.00    1.20569   1.17263   19.872
 5284.00    1.21161   1.18968   20.022
 5285.00    1.21969   1.20454   20.286
 5286.00    1.23060   1.21506   20.481
 5287.00    1.23990   1.22049   20.656
 5288.00    1.24409   1.22081   20.787
 5289.00    1.24251   1.21614   20.715
 5290.00    1.23510   1.20657   20.504
 5291.00    1.22172   1.19242   20.444
 5292.00    1.20308   1.17475   20.650
 5293.00    1.18116   1.15583   20.998
 5294.00    1.15980   1.13886   21.260
 5295.00    1.14362   1.12708   21.255
 5296.00    1.13461   1.12275   21.157
 5297.00    1.13349   1.12626   21.308
 5298.00    1.14599   1.13637   21.502
 5299.00    1.17714   1.15081   21.201
 5300.00    1.21287   1.16699   20.666
 5301.00    1.22823   1.18258   20.636
 5302.00    1.21794   1.19588   21.183
 5303.00    1.19659   1.20602   21.808
 5304.00    1.18248   1.21309   22.095
 5305.00    1.18815   1.21772   21.962
 5306.00    1.20942   1.22059   21.704
 5307.00    1.23085   1.22185   21.658
 5308.00    1.24071   1.22122   21.701
 5309.00    1.23516   1.21832   21.552
 5310.00    1.22018   1.21312   21.428
 5311.00    1.20557   1.20624   21.687
 5312.00    1.19479   1.19877   22.111
 5313.00    1.18759   1.19199   22.223
 5314.00    1.18634   1.18676   22.049
 5315.00    1.19190   1.18318   21.893
 5316.00    1.19683   1.18042   21.812
 5317.00    1.19179   1.17698   21.764
 5318.00    1.17524   1.17120   21.874
 5319.00    1.15342   1.16186   22.251
 5320.00    1.13799   1.14847   22.722
 5321.00    1.13502   1.13136   23.007
 5322.00    1.13405   1.11174   23.016
 5323.00    1.12297   1.09191   22.839
 5324.00    1.10429   1.07528   22.632
 5325.00    1.08605   1.06565   22.520
 5326.00    1.07183   1.06591   22.529
 5327.00    1.06590   1.07653   22.547
 5328.00    1.07768   1.09517   22.329
 5329.00    1.11146   1.11747   21.848
 5330.00    1.15791   1.13884   21.484
 5331.00    1.19997   1.15579   21.507
 5332.00    1.21991   1.16644   21.779
 5333.00    1.21326   1.17038   22.026
 5334.00    1.19609   1.16830   22.058
 5335.00    1.18561   1.16189   21.880
 5336.00    1.18694   1.15376   21.710
 5337.00    1.19680   1.14681   21.766
 5338.00    1.20757   1.14329   22.135
 5339.00    1.21367   1.14390   22.652
 5340.00    1.21464   1.14755   22.872
 5341.00    1.21088   1.15209   22.665
 5342.00    1.20181   1.15551   22.453
 5343.00    1.18816   1.15702   22.478
 5344.00    1.17325   1.15734   22.565
 5345.00    1.16251   1.15824   22.592
 5346.00    1.16160   1.16161   22.650
 5347.00    1.16944   1.16861   22.753
 5348.00    1.17819   1.17931   22.763
 5349.00    1.18520   1.19270   22.685
 5350.00    1.19565   1.20722   22.672
 5351.00    1.21349   1.22118   22.631
 5352.00    1.23676   1.23317   22.286
 5353.00    1.25429   1.24208   21.856
 5354.00    1.25105   1.24714   21.900
 5355.00    1.22880   1.24782   22.310
 5356.00    1.20467   1.24401   22.391
 5357.00    1.18695   1.23608   22.170
 5358.00    1.17229   1.22496   22.347
 5359.00    1.15881   1.21202   22.977
 5360.00    1.14845   1.19866   23.413
 5361.00    1.14308   1.18592   23.267
 5362.00    1.14289   1.17407   22.725
 5363.00    1.14488   1.16270   22.297
 5364.00    1.14328   1.15114   22.374
 5365.00    1.13131   1.13932   22.657
 5366.00    1.10375   1.12850   -2.000
 5367.00    1.06139   1.12117   -2.000
 5368.00    1.01471   1.12013   -2.000
 5369.00    0.98830   1.12697   -2.000
 5370.00    1.00808   1.14095   -2.000
 5371.00    1.07757   1.15908   -2.000
 5372.00    1.17959   1.17727   -2.000
 5373.00    1.28658   1.19197   -2.000
 5374.00    1.36832   1.20124   -2.000
 5375.00    1.40150   1.20493   -2.000
 5376.00    1.38003   1.20420   -2.000
 5377.00    1.32639   1.20080   -2.000
 5378.00    1.27328   1.19656   -2.000
 5379.00    1.23723   1.19297   -2.000
 5380.00    1.21840   1.19096   -2.000
 5381.00    1.20540   1.19057   20.515
 5382.00    1.18793   1.19095   21.215
 5383.00    1.16980   1.19068   21.970
 5384.00    1.15923   1.18838   22.504
 5385.00    1.15729   1.18335   22.586
 5386.00    1.16132   1.17580   22.258
 5387.00    1.16927   1.16662   21.927
 5388.00    1.17857   1.15692   21.930
 5389.00    1.18501   1.14751   22.230
 5390.00    1.18444   1.13867   22.587
 5391.00    1.17480   1.13050   22.728
 5392.00    1.15863   1.12337   22.636
 5393.00    1.14406   1.11821   22.703
 5394.00    1.13772   1.11606   23.084
 5395.00    1.13975   1.11728   23.306
 5396.00    1.14611   1.12094   23.105
 5397.00    1.15113   1.12475   22.951
 5398.00    1.15144   1.12587   23.146
 5399.00    1.14778   1.12227   23.383
 5400.00    1.14058   1.11378   23.473
 5401.00    1.12814   1.10239   23.712
 5402.00    1.11160   1.09138   24.147
 5403.00    1.09699   1.08386   24.298
 5404.00    1.09122   1.08163   24.124
 5405.00    1.09872   1.08492   24.289
 5406.00    1.11558   1.09288   24.757
 5407.00    1.13016   1.10424   24.490
 5408.00    1.13780   1.11777   23.446
 5409.00    1.14429   1.13230   22.820
 5410.00    1.15303   1.14673   22.987
 5411.00    1.16141   1.16004   23.325
 5412.00    1.16782   1.17135   23.324
 5413.00    1.17325   1.18001   23.023
 5414.00    1.17763   1.18561   22.795
 5415.00    1.17958   1.18800   23.027
 5416.00    1.18006   1.18749   23.510
 5417.00    1.18175   1.18476   23.539
 5418.00    1.18357   1.18082   23.078
 5419.00    1.18166   1.17677   22.771
 5420.00    1.17682   1.17353   22.905
 5421.00    1.17394   1.17145   23.314
 5422.00    1.17500   1.17006   23.642
 5423.00    1.17798   1.16812   23.554
 5424.00    1.17872   1.16426   23.144
 5425.00    1.17424   1.15780   22.806
 5426.00    1.16874   1.14924   22.757
 5427.00    1.16887   1.13986   22.995
 5428.00    1.17150   1.13123   23.357
 5429.00    1.16887   1.12470   23.604
 5430.00    1.16313   1.12135   23.634
 5431.00    1.16271   1.12215   23.538
 5432.00    1.17082   1.12796   23.574
 5433.00    1.18514   1.13905   23.915
 5434.00    1.20092   1.15463   24.253
 5435.00    1.21454   1.17265   24.155
 5436.00    1.22791   1.19007   23.818
 5437.00    1.24354   1.20367   23.652
 5438.00    1.25678   1.21077   23.594
 5439.00    1.25930   1.20995   23.449
 5440.00    1.24559   1.20144   23.400
 5441.00    1.21793   1.18726   23.652
 5442.00    1.19070   1.17105   23.948
 5443.00    1.17728   1.15702   23.952
 5444.00    1.17519   1.14864   23.803
 5445.00    1.17415   1.14711   23.806
 5446.00    1.16703   1.15092   24.037
 5447.00    1.15396   1.15653   24.365
 5448.00    1.14421   1.16015   24.503
 5449.00    1.14510   1.15946   24.279
 5450.00    1.15205   1.15452   23.874
 5451.00    1.15585   1.14776   23.557
 5452.00    1.15024   1.14255   23.450
 5453.00    1.13775   1.14147   23.464
 5454.00    1.13190   1.14492   23.294
 5455.00    1.14087   1.15108   22.879
 5456.00    1.15689   1.15706   22.635
 5457.00    1.16866   1.16047   22.823
 5458.00    1.17084   1.16048   23.240
 5459.00    1.16480   1.15821   23.569
 5460.00    1.15764   1.15579   23.648
 5461.00    1.15525   1.15504   23.560
 5462.00    1.15838   1.15660   23.589
 5463.00    1.16455   1.15989   23.779
 5464.00    1.16989   1.16349   23.807
 5465.00    1.17255   1.16582   23.568
 5466.00    1.17367   1.16577   23.376
 5467.00    1.17366   1.16288   23.394
 5468.00    1.17065   1.15705   23.454
 5469.00    1.16154   1.14857   23.382
 5470.00    1.14377   1.13825   23.193
 5471.00    1.12016   1.12738   23.222
 5472.00    1.09960   1.11752   23.823
 5473.00    1.09189   1.11030   23.957
 5474.00    1.10268   1.10689   22.156
 5475.00    1.12332   1.10753   21.333
 5476.00    1.13757   1.11152   -2.000
 5477.00    1.15429   1.11779   -2.000
 5478.00    1.19294   1.12542   -2.000
 5479.00    1.20872   1.13365   -2.000
 5480.00    1.12770   1.14183   -2.000
 5481.00    1.00690   1.14922   -2.000
 5482.00    1.00133   1.15497   -2.000
 5483.00    1.15969   1.15852   -2.000
 5484.00    1.40946   1.16006   -2.000
 5485.00    1.65609   1.16038   -2.000
 5486.00    1.85639   1.16042   -2.000
 5487.00    2.12066   1.16089   -2.000
 5488.00    2.60255   1.16189   -2.000
 5489.00    3.22576   1.16295   -2.000
 5490.00    3.69317   1.16351   -2.000
 5491.00    3.62825   1.16349   -2.000
 5492.00    2.85936   1.16305   -2.000
 5493.00    1.85356   1.16239   -2.000
 5494.00    1.28258   1.16162   -2.000
 5495.00    1.18604   1.16064   -2.000
 5496.00    1.21193   1.15917   -2.000
 5497.00    1.20448   1.15682   -2.000
 5498.00    1.18185   1.15345   -2.000
 5499.00    1.17038   1.14924   -2.000
 5500.00    1.17805   1.14483    8.492
 5501.00    1.19183   1.14098    8.391
 5502.00    1.19461   1.13816    8.362
 5503.00    1.18579   1.13663    8.432
 5504.00    1.17248   1.13611    8.556
 5505.00    1.15660   1.13583    8.648
 5506.00    1.13896   1.13498    8.700
 5507.00    1.12467   1.13309    8.894
 5508.00    1.11791   1.13040    9.188
 5509.00    1.11654   1.12797    8.929
 5510.00    1.11841   1.12731    8.310
 5511.00    1.12683   1.12984    9.029
 5512.00    1.14363   1.13606   13.506
 5513.00    1.16333   1.14539   24.208
 5514.00    1.17879   1.15639   26.622
 5515.00    1.18624   1.16726   21.375
 5516.00    1.18569   1.17634   20.671
 5517.00    1.18064   1.18246   22.527
 5518.00    1.17552   1.18499   23.634
 5519.00    1.17347   1.18378   23.576
 5520.00    1.17369   1.17890   23.427
 5521.00    1.17084   1.17083   23.551
 5522.00    1.16195   1.16087   23.874
 5523.00    1.15021   1.15089   24.162
 5524.00    1.14233   1.14286   24.228
 5525.00    1.14515   1.13840   24.068
 5526.00    1.15673   1.13813   23.857
 5527.00    1.16513   1.14128   23.831
 5528.00    1.16433   1.14612   23.945
 5529.00    1.15992   1.15091   23.825
 5530.00    1.15901   1.15459   23.362
 5531.00    1.16542   1.15699   22.871
 5532.00    1.17971   1.15889   22.698
 5533.00    1.19923   1.16136   23.025
 5534.00    1.21785   1.16502   23.649
 5535.00    1.22814   1.16966   23.998
 5536.00    1.22898   1.17440   23.910
 5537.00    1.22574   1.17824   23.797
 5538.00    1.22149   1.18044   23.893
 5539.00    1.21545   1.18082   24.109
 5540.00    1.20737   1.18001   24.330
 5541.00    1.19906   1.17925   24.483
 5542.00    1.19494   1.17970   24.473
 5543.00    1.19924   1.18199   24.224
 5544.00    1.20889   1.18603   23.840
 5545.00    1.21591   1.19090   23.536
 5546.00    1.21803   1.19522   23.430
 5547.00    1.21893   1.19772   23.525
 5548.00    1.22262   1.19773   23.729
 5549.00    1.23074   1.19547   23.874
 5550.00    1.23962   1.19170   23.767
 5551.00    1.24249   1.18745   23.350
 5552.00    1.23496   1.18370   22.930
 5553.00    1.21712   1.18093   22.883
 5554.00    1.19523   1.17905   23.194
 5555.00    1.17801   1.17748   23.604
 5556.00    1.17012   1.17552   23.964
 5557.00    1.17163   1.17274   24.219
 5558.00    1.17916   1.16902   24.271
 5559.00    1.18723   1.16449   24.133
 5560.00    1.19019   1.15956   24.134
 5561.00    1.18651   1.15483   24.485
 5562.00    1.18363   1.15068   24.687
 5563.00    1.18941   1.14734   24.253
 5564.00    1.20122   1.14510   23.740
 5565.00    1.21219   1.14394   23.784
 5566.00    1.22007   1.14342   24.127
 5567.00    1.22525   1.14353   24.241
 5568.00    1.22772   1.14455   24.117
 5569.00    1.22695   1.14640   23.954
 5570.00    1.22239   1.14905   23.747
 5571.00    1.21435   1.15261   23.572
 5572.00    1.20487   1.15682   23.800
 5573.00    1.19809   1.16122   24.448
 5574.00    1.19963   1.16534   24.627
 5575.00    1.21020   1.16848   23.833
 5576.00    1.22166   1.17010   22.970
 5577.00    1.22676   1.16992   22.739
 5578.00    1.22612   1.16748   22.888
 5579.00    1.22207   1.16218   22.934
 5580.00    1.21405   1.15352   22.658
 5581.00    1.19902   1.14159   22.305
 5582.00    1.17311   1.12742   22.475
 5583.00    1.13935   1.11288   23.182
 5584.00    1.10982   1.10037   23.438
 5585.00    1.09182   1.09195   22.884
 5586.00    1.08198   1.08863   22.513
 5587.00    1.07752   1.09023   22.622
 5588.00    1.08108   1.09564   22.307
 5589.00    1.09376   1.10363   21.390
 5590.00    1.11239   1.11284   20.806
 5591.00    1.13350   1.12137   20.770
 5592.00    1.15443   1.12770   20.556
 5593.00    1.17047   1.13122   19.811
 5594.00    1.17527   1.13161   18.933
 5595.00    1.16690   1.12891   18.385
 5596.00    1.15044   1.12428   18.412
 5597.00    1.13837   1.11985   18.783
 5598.00    1.14509   1.11818   18.888
 5599.00    1.16899   1.12106   18.682
 5600.00    1.19359   1.12900   18.741
 5601.00    1.20960   1.14115   19.310
 5602.00    1.21888   1.15558   20.173
 5603.00    1.22574   1.16994   20.990
 5604.00    1.23268   1.18218   21.465
 5605.00    1.23630   1.19097   21.582
 5606.00    1.23076   1.19572   21.589
 5607.00    1.21862   1.19605   21.688
 5608.00    1.20841   1.19136   21.930
 5609.00    1.20322   1.18163   22.207
 5610.00    1.19926   1.16859   22.371
 5611.00    1.18892   1.15495   22.545
 5612.00    1.16632   1.14301   22.966
 5613.00    1.13658   1.13460   23.513
 5614.00    1.11273   1.13081   23.804
 5615.00    1.10644   1.13150   23.695
 5616.00    1.12187   1.13511   23.429
 5617.00    1.14888   1.13912   23.570
 5618.00    1.17110   1.14121   24.294
 5619.00    1.18052   1.14073   24.262
 5620.00    1.17863   1.13868   23.099
 5621.00    1.17426   1.13668   24.574
 5622.00    1.17605   1.13637   30.619
 5623.00    1.18318   1.13907   25.281
 5624.00    1.19123   1.14510   12.909
 5625.00    1.20084   1.15344    8.436
 5626.00    1.21318   1.16234    7.674
 5627.00    1.22373   1.16988    8.157
 5628.00    1.22678   1.17459    8.389
 5629.00    1.22120   1.17576    8.187
 5630.00    1.20980   1.17346    8.117
 5631.00    1.19779   1.16841    8.359
 5632.00    1.18902   1.16187    8.669
 5633.00    1.18301   1.15526    8.409
 5634.00    1.17958   1.14945    7.863
 5635.00    1.18228   1.14473    8.664
 5636.00    1.19101   1.14143   13.300
 5637.00    1.19713   1.13981   24.999
 5638.00    1.19433   1.13980   28.276
 5639.00    1.18644   1.14121   22.622
 5640.00    1.18084   1.14384   21.811
 5641.00    1.18265   1.14740   23.340
 5642.00    1.19028   1.15141   23.720
 5643.00    1.19459   1.15524   23.444
 5644.00    1.19046   1.15848   23.820
 5645.00    1.18264   1.16115   24.489
 5646.00    1.17745   1.16338   24.727
 5647.00    1.17758   1.16488   24.383
 5648.00    1.18083   1.16499   23.879
 5649.00    1.18094   1.16313   23.839
 5650.00    1.17447   1.15921   24.242
 5651.00    1.16302   1.15299   24.296
 5652.00    1.14849   1.14405   23.895
 5653.00    1.13155   1.13338   23.915
 5654.00    1.11510   1.12347   24.600
 5655.00    1.10446   1.11613   25.202
 5656.00    1.10203   1.11176   25.252
 5657.00    1.10620   1.11061   25.060
 5658.00    1.11475   1.11296   24.906
 5659.00    1.12561   1.11826   24.784
 5660.00    1.13531   1.12503   24.660
 5661.00    1.14000   1.13164   24.524
 5662.00    1.14021   1.13711   24.308
 5663.00    1.14067   1.14136   23.953
 5664.00    1.14536   1.14480   23.661
 5665.00    1.15540   1.14805   23.724
 5666.00    1.16754   1.15196   23.971
 5667.00    1.17623   1.15723   23.895
 5668.00    1.17984   1.16370   23.388
 5669.00    1.18074   1.17045   22.748
 5670.00    1.18192   1.17662   22.199
 5671.00    1.18510   1.18173   21.750
 5672.00    1.18848   1.18516   21.154
 5673.00    1.18903   1.18630   20.208
 5674.00    1.18790   1.18514   19.209
 5675.00    1.18766   1.18197   18.588
 5676.00    1.18566   1.17685   18.472
 5677.00    1.17776   1.17002   18.782
 5678.00    1.16657   1.16257   19.301
 5679.00    1.15758   1.15569   19.826
 5680.00    1.15108   1.14991   20.511
 5681.00    1.14562   1.14519   21.587
 5682.00    1.14464   1.14169   22.677
 5683.00    1.15155   1.13998   23.108
 5684.00    1.16193   1.14060   22.975
 5685.00    1.16913   1.14374   22.832
 5686.00    1.17253   1.14909   22.909
 5687.00    1.17629   1.15606   23.121
 5688.00    1.18592   1.16351   23.175
 5689.00    1.20137   1.17007   22.942
 5690.00    1.21097   1.17483   22.795
 5691.00    1.20513   1.17721   22.912
 5692.00    1.19003   1.17669   22.664
 5693.00    1.17588   1.17322   21.602
 5694.00    1.16490   1.16762   20.305
 5695.00    1.15607   1.16059   19.380
 5696.00    1.15009   1.15282   18.948
 5697.00    1.14758   1.14551   18.927
 5698.00    1.14730   1.13971   19.193
 5699.00    1.14589   1.13532   19.698
 5700.00    1.13877   1.13136   20.558
 5701.00    1.12701   1.12681   21.767
 5702.00    1.12027   1.12119   22.897
 5703.00    1.12403   1.11433   23.447
 5704.00    1.13238   1.10693   23.356
 5705.00    1.13764   1.10073   22.960
 5706.00    1.13674   1.09702   22.722
 5707.00    1.13104   1.09706   22.803
 5708.00    1.12529   1.10195   22.974
 5709.00    1.12356   1.11100   23.060
 5710.00    1.12759   1.12266   23.134
 5711.00    1.13921   1.13553   23.161
 5712.00    1.16043   1.14806   22.914
 5713.00    1.18787   1.15923   22.394
 5714.00    1.21252   1.16889   21.937
 5715.00    1.22916   1.17697   21.904
 5716.00    1.23931   1.18374   22.506
 5717.00    1.24673   1.18952   23.310
 5718.00    1.25397   1.19412   23.268
 5719.00    1.25721   1.19717   22.518
 5720.00    1.24909   1.19836   22.304
 5721.00    1.23404   1.19729   22.789
 5722.00    1.22662   1.19418   23.034
 5723.00    1.23005   1.19039   22.745
 5724.00    1.23468   1.18689   22.529
 5725.00    1.23353   1.18367   22.616
 5726.00    1.22648   1.18071   22.747
 5727.00    1.21848   1.17888   22.784
 5728.00    1.21595   1.17891   22.789
 5729.00    1.21921   1.18046   22.813
 5730.00    1.22364   1.18282   22.858
 5731.00    1.22657   1.18525   22.918
 5732.00    1.22782   1.18721   22.994
 5733.00    1.22727   1.18844   23.120
 5734.00    1.22439   1.18878   23.323
 5735.00    1.21846   1.18841   23.530
 5736.00    1.21001   1.18756   23.603
 5737.00    1.20320   1.18646   23.467
 5738.00    1.20326   1.18547   23.142
 5739.00    1.21121   1.18513   22.757
 5740.00    1.22293   1.18551    0.000
 5741.00    1.22926   1.18595    0.000
 5742.00    1.22340   1.18542    0.000
 5743.00    1.21131   1.18368    0.000
 5744.00    1.20360   1.18153    0.000
 5745.00    1.20258   1.17938    0.000
 5746.00    1.20504   1.17668    0.000
 5747.00    1.20815   1.17279    0.000
 5748.00    1.20995   1.16791    0.000
 5749.00    1.20911   1.16327    0.000
 5750.00    1.20564   1.16068    0.000
 5751.00    1.20153   1.16099    0.000
 5752.00    1.19886   1.16370    0.000
 5753.00    1.19777   1.16759    0.000
 5754.00    1.19624   1.17100    0.000
 5755.00    1.19053   1.17245    0.000
 5756.00    1.17873   1.17132    0.000
 5757.00    1.16395   1.16818    0.000
 5758.00    1.15322   1.16486    0.000
 5759.00    1.15563   1.16369    0.000
 5760.00    1.17560   1.16572    0.000
 5761.00    1.20828   1.17047    0.000
 5762.00    1.24313   1.17691    0.000
 5763.00    1.26802   1.18365    0.000
 5764.00    1.27703   1.18921    0.000
 5765.00    1.27445   1.19260    0.000
 5766.00    1.26695   1.19349    0.000
 5767.00    1.25842   1.19214    0.000
 5768.00    1.24931   1.18943    0.000
 5769.00    1.23746   1.18622    0.000
 5770.00    1.22351   1.18311    0.000
 5771.00    1.21247   1.18050    0.000
 5772.00    1.20694   1.17812    0.000
 5773.00    1.20422   1.17499    0.000
 5774.00    1.19900   1.16999    0.000
 5775.00    1.18646   1.16220    0.000
 5776.00    1.16949   1.15168    0.000
 5777.00    1.15846   1.14006    0.000
 5778.00    1.15794   1.12944    0.000
 5779.00    1.16331   1.12098    0.000
 5780.00    1.16781   1.11534    0.000
 5781.00    1.16716   1.11360    0.000
 5782.00    1.16529   1.11639    0.000
 5783.00    1.17093   1.12270    0.000
 5784.00    1.18083   1.13083    0.000
 5785.00    1.18178   1.13911    0.000
 5786.00    1.17183   1.14644    0.000
 5787.00    1.16033   1.15285    0.000
 5788.00    1.15090   1.15874    0.000
 5789.00    1.14072   1.16417   -2.000
 5790.00    1.13062   1.16904   -2.000
 5791.00    1.12677   1.17298   -2.000
 5792.00    1.13836   1.17557   -2.000
 5793.00    1.17073   1.17720   -2.000
 5794.00    1.21255   1.17927   -2.000
 5795.00    1.24423   1.18254   -2.000
 5796.00    1.26008   1.18650   -2.000
 5797.00    1.26676   1.19026   -2.000
 5798.00    1.27163   1.19291   -2.000
 5799.00    1.27815   1.19353   -2.000
 5800.00    1.28200   1.19208   -2.000
 5801.00    1.27747   1.18948   -2.000
 5802.00    1.26829   1.18680   -2.000
 5803.00    1.26281   1.18479   -2.000
 5804.00    1.26414   1.18389   -2.000
 5805.00    1.26907   1.18429   -2.000
 5806.00    1.26907   1.18568   -2.000
 5807.00    1.25853   1.18726   -2.000
 5808.00    1.24433   1.18822   -2.000
 5809.00    1.23591   1.18806    0.000
 5810.00    1.23223   1.18663    0.000
 5811.00    1.22703   1.18441    0.000
 5812.00    1.21673   1.18275    0.000
 5813.00    1.20389   1.18306    0.000
 5814.00    1.19905   1.18554    0.000
 5815.00    1.21139   1.18940    0.000
 5816.00    1.23944   1.19378    0.000
 5817.00    1.27174   1.19785    0.000
 5818.00    1.28979   1.20096    0.000
 5819.00    1.28298   1.20300    0.000
 5820.00    1.25935   1.20426    0.000
 5821.00    1.23277   1.20500    0.000
 5822.00    1.21200   1.20535    0.000
 5823.00    1.19962   1.20558    0.000
 5824.00    1.19234   1.20590    0.000
 5825.00    1.18588   1.20624    0.000
 5826.00    1.17832   1.20624    0.000
 5827.00    1.17134   1.20564    0.000
 5828.00    1.16975   1.20447    0.000
 5829.00    1.17575   1.20270    0.000
 5830.00    1.18600   1.20047    0.000
 5831.00    1.19442   1.19848    0.000
 5832.00    1.19452   1.19722    0.000
 5833.00    1.18336   1.19653    0.000
 5834.00    1.16366   1.19644    0.000
 5835.00    1.14420   1.19749    0.000
 5836.00    1.13725   1.19966    0.000
 5837.00    1.14681   1.20217    0.000
 5838.00    1.16564   1.20415    0.000
 5839.00    1.18368   1.20496    0.000
 5840.00    1.19312   1.20409    0.000
 5841.00    1.19401   1.20144    0.000
 5842.00    1.19257   1.19729    0.000
 5843.00    1.18870   1.19226    0.000
 5844.00    1.17630   1.18710    0.000
 5845.00    1.15781   1.18218    0.000
 5846.00    1.14405   1.17723    0.000
 5847.00    1.14020   1.17174    0.000
 5848.00    1.14314   1.16528    0.000
 5849.00    1.14621   1.15831    0.000
 5850.00    1.14439   1.15179    0.000
 5851.00    1.14320   1.14584    0.000
 5852.00    1.15334   1.13982    0.000
 5853.00    1.17288   1.13419    0.000
 5854.00    1.18952   1.13082    0.000
 5855.00    1.19480   1.13078    0.000
 5856.00    1.18693   1.13347    0.000
 5857.00    1.17001   1.13773    0.000
 5858.00    1.15174   1.14245    0.000
 5859.00    1.13947   1.14731    0.000
 5860.00    1.13760   1.15220    0.000
 5861.00    1.14469   1.15632    0.000
 5862.00    1.15565   1.15928    0.000
 5863.00    1.16610   1.16190    0.000
 5864.00    1.17205   1.16519    0.000
 5865.00    1.16849   1.16890    0.000
 5866.00    1.15403   1.17234    0.000
 5867.00    1.13721   1.17491    0.000
 5868.00    1.12975   1.17610    0.000
 5869.00    1.13668   1.17593    0.000
 5870.00    1.15486   1.17466    0.000
 5871.00    1.17352   1.17230    0.000
 5872.00    1.18410   1.16891    0.000
 5873.00    1.19020   1.16492    0.000
 5874.00    1.19627   1.16066    0.000
 5875.00    1.19549   1.15609    0.000
 5876.00    1.18009   1.15155    0.000
 5877.00    1.15236   1.14758    0.000
 5878.00    1.12262   1.14372    0.000
 5879.00    1.10504   1.13848    0.000
 5880.00    1.10444   1.13071    0.000
 5881.00    1.10749   1.11952    0.000
 5882.00    1.09936   1.10344    0.000
 5883.00    1.07705   1.08093    0.000
 5884.00    1.04597   1.05151    0.000
 5885.00    1.01566   1.01747    0.000
 5886.00    0.99210   0.98609    0.000
 5887.00    0.97375   0.96496    0.000
 5888.00    0.95875   0.95444    0.000
 5889.00    0.94895   0.95089    0.000
 5890.00    0.94625   0.95132    0.000
 5891.00    0.95041   0.95337    0.000
 5892.00    0.96033   0.95919    0.000
 5893.00    0.97492   0.97302    0.000
 5894.00    0.99401   0.99354    0.000
 5895.00    1.01844   1.01676    0.000
 5896.00    1.04822   1.04141    0.000
 5897.00    1.08143   1.06624    0.000
 5898.00    1.11291   1.08884    0.000
 5899.00    1.13527   1.10772    0.000
 5900.00    1.14491   1.12217    0.000
 5901.00    1.14446   1.13191   22.849
 5902.00    1.14262   1.13816   23.409
 5903.00    1.15032   1.14268   23.416
 5904.00    1.16808   1.14616   22.862
 5905.00    1.18575   1.14839   22.514
 5906.00    1.19533   1.14956   22.601
 5907.00    1.19508   1.14983   22.770
 5908.00    1.18868   1.14859   22.824
 5909.00    1.18236   1.14534   22.868
 5910.00    1.17777   1.14092   23.022
 5911.00    1.17239   1.13715   23.309
 5912.00    1.16530   1.13507   23.579
 5913.00    1.15831   1.13521   23.600
 5914.00    1.15453   1.13724   23.386
 5915.00    1.15610   1.14047   23.149
 5916.00    1.15988   1.14434   23.013
 5917.00    1.16016   1.14793   22.994
 5918.00    1.15581   1.15076   23.070
 5919.00    1.15017   1.15307   23.179
 5920.00    1.14769   1.15489   23.204
 5921.00    1.15040   1.15599   23.069
 5922.00    1.15327   1.15629   22.911
 5923.00    1.15024   1.15546   22.914
 5924.00    1.14494   1.15349   23.031
 5925.00    1.14553   1.15080   23.126
 5926.00    1.15435   1.14829   23.248
 5927.00    1.16705   1.14718   23.477
 5928.00    1.17422   1.14740   23.643
 5929.00    1.16886   1.14777   23.570
 5930.00    1.15542   1.14783   23.466
 5931.00    1.14372   1.14845   23.578
 5932.00    1.14009   1.15026   23.762
 5933.00    1.14581   1.15247   23.765
 5934.00    1.15695   1.15427   23.609
 5935.00    1.16806   1.15538   23.437
 5936.00    1.17605   1.15533   23.301
 5937.00    1.17938   1.15430   23.261
 5938.00    1.17708   1.15347   23.463
 5939.00    1.17034   1.15344   23.917
 5940.00    1.16363   1.15398   24.296
 5941.00    1.16115   1.15481   24.330
 5942.00    1.16358   1.15536   24.198
 5943.00    1.16692   1.15479   24.126
 5944.00    1.16290   1.15272   24.088
 5945.00    1.14784   1.14999   24.048
 5946.00    1.12829   1.14786   24.129
 5947.00    1.11441   1.14622   24.363
 5948.00    1.11439   1.14416   24.546
 5949.00    1.12903   1.14217   24.471
 5950.00    1.14989   1.14156   24.112
 5951.00    1.16726   1.14208   23.624
 5952.00    1.17538   1.14265   23.265
 5953.00    1.17360   1.14348   23.204
 5954.00    1.16628   1.14542   23.458
 5955.00    1.15897   1.14875   23.833
 5956.00    1.15590   1.15315   23.956
 5957.00    1.15772   1.15786   23.695
 5958.00    1.16112   1.16202   23.326
 5959.00    1.16219   1.16514   23.215
 5960.00    1.15863   1.16721   23.608
 5961.00    1.15257   1.16821   24.255
 5962.00    1.14980   1.16864   24.421
 5963.00    1.15275   1.16951   24.001
 5964.00    1.15927   1.17102   23.678
 5965.00    1.16781   1.17280   23.744
 5966.00    1.17852   1.17458   23.965
 5967.00    1.19091   1.17583   24.156
 5968.00    1.20277   1.17585   24.337
 5969.00    1.20947   1.17427   24.590
 5970.00    1.20646   1.17095   24.938
 5971.00    1.19647   1.16593   25.112
 5972.00    1.18705   1.16004   24.790
 5973.00    1.17948   1.15459   24.376
 5974.00    1.17047   1.15054   24.554
 5975.00    1.16296   1.14818   25.024
 5976.00    1.16351   1.14717   24.868
 5977.00    1.17102   1.14642   24.193
 5978.00    1.17841   1.14491   23.807
 5979.00    1.18121   1.14219   23.902
 5980.00    1.17919   1.13887   24.187
 5981.00    1.17566   1.13666   24.396
 5982.00    1.17434   1.13653   24.383
 5983.00    1.17415   1.13798   24.146
 5984.00    1.17164   1.14053   23.844
 5985.00    1.16631   1.14410   23.799
 5986.00    1.16006   1.14804   24.192
 5987.00    1.15491   1.15144   24.624
 5988.00    1.15313   1.15434   24.526
 5989.00    1.15769   1.15708   24.003
 5990.00    1.16951   1.15915   23.533
 5991.00    1.18395   1.15975   23.400
 5992.00    1.19409   1.15860   23.663
 5993.00    1.19543   1.15605   24.161
 5994.00    1.18792   1.15310   24.620
 5995.00    1.17716   1.15070   24.829
 5996.00    1.16880   1.14901   24.765
 5997.00    1.16278   1.14752   24.666
 5998.00    1.15685   1.14556   24.785
 5999.00    1.15057   1.14321   25.154
 6000.00    1.14446   1.14125   25.540
 6001.00    1.13888   1.13952   25.459
 6002.00    1.13391   1.13715   24.802
 6003.00    1.12932   1.13410   24.208
 6004.00    1.12422   1.13129   24.121
 6005.00    1.11718   1.13031   24.307
 6006.00    1.10942   1.13162   24.387
 6007.00    1.10621   1.13357   24.229
 6008.00    1.11099   1.13444   23.934
 6009.00    1.12137   1.13412   23.732
 6010.00    1.13100   1.13361   23.608
 6011.00    1.13228   1.13324   23.218
 6012.00    1.12453   1.13226   22.558
 6013.00    1.11675   1.13055   22.124
 6014.00    1.11634   1.12893   22.059
 6015.00    1.12319   1.12756   21.957
 6016.00    1.13223   1.12622   21.702
 6017.00    1.13639   1.12555   21.713
 6018.00    1.13386   1.12628   22.136
 6019.00    1.12983   1.12837   22.600
 6020.00    1.12947   1.13156   22.807
 6021.00    1.13498   1.13594   22.831
 6022.00    1.14674   1.14114   22.893
 6023.00    1.16352   1.14644   23.177
 6024.00    1.18159   1.15183   23.562
 6025.00    1.19530   1.15729   23.683
 6026.00    1.20023   1.16222   23.648
 6027.00    1.19546   1.16632   23.999
 6028.00    1.18709   1.16990   24.663
 6029.00    1.18528   1.17301   24.891
 6030.00    1.19246   1.17534   24.440
 6031.00    1.20226   1.17679   23.825
 6032.00    1.20664   1.17746   23.613
 6033.00    1.20050   1.17750   24.074
 6034.00    1.18774   1.17701   24.713
 6035.00    1.17789   1.17598   24.608
 6036.00    1.17428   1.17466   24.037
 6037.00    1.17499   1.17366   23.947
 6038.00    1.18123   1.17338   24.097
 6039.00    1.19484   1.17413   23.593
 6040.00    1.20953   1.17587   22.697
 6041.00    1.21572   1.17799   22.245
 6042.00    1.21282   1.18005   22.277
 6043.00    1.20701   1.18190   22.340
 6044.00    1.20269   1.18318   22.162
 6045.00    1.20086   1.18352   21.811
 6046.00    1.19905   1.18299   21.686
 6047.00    1.19389   1.18158   22.135
 6048.00    1.18496   1.17901   22.926
 6049.00    1.17375   1.17537   23.545
 6050.00    1.16139   1.17134   23.924
 6051.00    1.15007   1.16761   24.186
 6052.00    1.14520   1.16451   24.041
 6053.00    1.15068   1.16246   23.289
 6054.00    1.16324   1.16176   22.443
 6055.00    1.17706   1.16202   22.069
 6056.00    1.18979   1.16237   22.269
 6057.00    1.20119   1.16202   22.823
 6058.00    1.21090   1.16056   23.247
 6059.00    1.21702   1.15811   23.182
 6060.00    1.21535   1.15527   22.864
 6061.00    1.20357   1.15288   22.716
 6062.00    1.18505   1.15257   22.951
 6063.00    1.16699   1.15586   23.486
 6064.00    1.15794   1.16195   23.884
 6065.00    1.16232   1.16884   23.893
 6066.00    1.17664   1.17540   23.868
 6067.00    1.19360   1.18113   23.931
 6068.00    1.20582   1.18556   23.483
 6069.00    1.20978   1.18807   22.465
 6070.00    1.20771   1.18820   21.808
 6071.00    1.20325   1.18604   21.959
 6072.00    1.19856   1.18197   22.454
 6073.00    1.19427   1.17632   22.814
 6074.00    1.18981   1.16958   23.074
 6075.00    1.18479   1.16268   23.348
 6076.00    1.17963   1.15679   23.563
 6077.00    1.17499   1.15209   23.651
 6078.00    1.17142   1.14804   23.660
 6079.00    1.16913   1.14513   23.710
 6080.00    1.16769   1.14388   23.938
 6081.00    1.16554   1.14363   24.318
 6082.00    1.16038   1.14372   24.628
 6083.00    1.15216   1.14411   24.691
 6084.00    1.14336   1.14463   24.525
 6085.00    1.13566   1.14476   24.382
 6086.00    1.12908   1.14414   24.591
 6087.00    1.12359   1.14343   25.051
 6088.00    1.11977   1.14370   25.230
 6089.00    1.11905   1.14504   24.937
 6090.00    1.12282   1.14725   24.490
 6091.00    1.12986   1.15028   24.246
 6092.00    1.13695   1.15312   24.372
 6093.00    1.14271   1.15430   24.623
 6094.00    1.14804   1.15359   24.517
 6095.00    1.15418   1.15146   24.097
 6096.00    1.16142   1.14787   23.804
 6097.00    1.16718   1.14241   23.779
 6098.00    1.16805   1.13494   23.860
 6099.00    1.16494   1.12756   23.857
 6100.00    1.16178   1.12442   23.635
 6101.00    1.16017   1.12665   23.162
 6102.00    1.15848   1.13127   22.562
 6103.00    1.15256   1.13609   22.152
 6104.00    1.14009   1.14094   22.251
 6105.00    1.12783   1.14631   22.927
 6106.00    1.12606   1.15181   23.924
 6107.00    1.13737   1.15572   24.481
 6108.00    1.15665   1.15764   24.039
 6109.00    1.17440   1.15903   23.496
 6110.00    1.18245   1.16037   23.840
 6111.00    1.18113   1.16065   24.494
 6112.00    1.17518   1.15874   24.398
 6113.00    1.16694   1.15473   24.038
 6114.00    1.15693   1.14984   24.309
 6115.00    1.14564   1.14422   24.926
 6116.00    1.13426   1.13724   25.167
 6117.00    1.12520   1.12961   25.053
 6118.00    1.12107   1.12283   24.888
 6119.00    1.12342   1.11887   24.566
 6120.00    1.13118   1.11939   24.107
 6121.00    1.13964   1.12280   24.092
 6122.00    1.14412   1.12653   24.788
 6123.00    1.14357   1.13024   25.400
 6124.00    1.14037   1.13415   25.251
 6125.00    1.13944   1.13801   25.038
 6126.00    1.14360   1.14127   25.323
 6127.00    1.15037   1.14283   25.464
 6128.00    1.15540   1.14148   24.986
 6129.00    1.15550   1.13708   24.524
 6130.00    1.15011   1.13005   24.355
 6131.00    1.14181   1.12047   23.709
 6132.00    1.13370   1.10890   22.186
 6133.00    1.12757   1.09762   20.399
 6134.00    1.12405   1.09084   19.018
 6135.00    1.12280   1.09171   18.394
 6136.00    1.12308   1.09822   18.545
 6137.00    1.12417   1.10596   19.231
 6138.00    1.12575   1.11338   20.257
 6139.00    1.12805   1.12192   21.546
 6140.00    1.13143   1.13162   22.705
 6141.00    1.13541   1.13967   22.940
 6142.00    1.13555   1.14404   22.527
 6143.00    1.12488   1.14533   22.851
 6144.00    1.10546   1.14476   24.147
 6145.00    1.08936   1.14296   24.998
 6146.00    1.08402   1.14059   24.859
 6147.00    1.08811   1.13846   24.958
 6148.00    1.09710   1.13712   25.667
 6149.00    1.10596   1.13630   26.038
 6150.00    1.11109   1.13500   25.657
 6151.00    1.11133   1.13214   25.112
 6152.00    1.10910   1.12773   24.829
 6153.00    1.10869   1.12176   24.594
 6154.00    1.11074   1.11337   23.223
 6155.00    1.11122   1.10256   20.458
 6156.00    1.10321   1.08988   19.143
 6157.00    1.08103   1.07558   21.491
 6158.00    1.04873   1.06146   22.832
 6159.00    1.01808   1.05141   15.907
 6160.00    0.99926   1.04770   10.757
 6161.00    0.99671   1.04913    9.387
 6162.00    1.00539   1.05308    9.760
 6163.00    1.01547   1.05793   10.112
 6164.00    1.02275   1.06310    9.853
 6165.00    1.02873   1.06706    9.563
 6166.00    1.03687   1.06945    9.581
 6167.00    1.04905   1.07301    9.785
 6168.00    1.06116   1.07930    9.537
 6169.00    1.06815   1.08619    8.780
 6170.00    1.07266   1.09205    9.059
 6171.00    1.07992   1.09761   12.718
 6172.00    1.08861   1.10326   23.861
 6173.00    1.09395   1.10839   30.619
 6174.00    1.09363   1.11288   25.657
 6175.00    1.08901   1.11712   23.829
 6176.00    1.08510   1.12062   25.646
 6177.00    1.08617   1.12309   25.989
 6178.00    1.09073   1.12506   24.978
 6179.00    1.09518   1.12607   25.109
 6180.00    1.09813   1.12524   26.080
 6181.00    1.10045   1.12243   26.354
 6182.00    1.10434   1.11742   25.268
 6183.00    1.11066   1.11026   23.367
 6184.00    1.11658   1.10243   21.643
 6185.00    1.11772   1.09533   20.577
 6186.00    1.11042   1.08939   20.072
 6187.00    1.09502   1.08445   20.084
 6188.00    1.07756   1.08139   20.902
 6189.00    1.06526   1.08303   22.548
 6190.00    1.06330   1.08919   24.055
 6191.00    1.07857   1.09601   24.619
 6192.00    1.12102   1.10167   24.970
 6193.00    1.19471   1.10651   -2.000
 6194.00    1.29291   1.11037   -2.000
 6195.00    1.40478   1.11225   -2.000
 6196.00    1.51655   1.11211   -2.000
 6197.00    1.59432   1.11226   -2.000
 6198.00    1.58443   1.11461   -2.000
 6199.00    1.46521   1.11832   -2.000
 6200.00    1.27083   1.12178   -2.000
 6201.00    1.07274   1.12455   -2.000
 6202.00    0.95433   1.12685   -2.000
 6203.00    0.94316   1.12840   -2.000
 6204.00    0.99528   1.12811   -2.000
 6205.00    1.05719   1.12534   20.552
 6206.00    1.09470   1.12021   20.057
 6207.00    1.09985   1.11304   20.934
 6208.00    1.08667   1.10455   22.634
 6209.00    1.06803   1.09530   24.209
 6210.00    1.04913   1.08550   25.394
 6211.00    1.03425   1.07677   26.174
 6212.00    1.02798   1.07072   26.541
 6213.00    1.03148   1.06773   26.532
 6214.00    1.04208   1.06739   26.220
 6215.00    1.05531   1.06799   25.610
 6216.00    1.06660   1.06850   24.751
 6217.00    1.07403   1.07016   24.008
 6218.00    1.07877   1.07354   23.779
 6219.00    1.08450   1.07757   23.914
 6220.00    1.09440   1.08061   23.963
 6221.00    1.10508   1.08174   23.970
 6222.00    1.10903   1.08154   24.265
 6223.00    1.10252   1.08011   24.625
 6224.00    1.08694   1.07704   24.427
 6225.00    1.06794   1.07261   23.484
 6226.00    1.05260   1.06723   22.208
 6227.00    1.04474   1.06231   21.318
 6228.00    1.04485   1.06066   21.301
 6229.00    1.05152   1.06315   21.992
 6230.00    1.06183   1.06797   22.942
 6231.00    1.07182   1.07377   24.106
 6232.00    1.07845   1.07876   25.576
 6233.00    1.08219   1.08131   26.727
 6234.00    1.08414   1.08089   26.819
 6235.00    1.08189   1.07770   26.476
 6236.00    1.07323   1.07269   26.582
 6237.00    1.06130   1.06713   26.766
 6238.00    1.05170   1.06246   26.394
 6239.00    1.04815   1.05851   25.884
 6240.00    1.05049   1.05526   25.789
 6241.00    1.05349   1.05464   25.852
 6242.00    1.05325   1.05648   25.670
 6243.00    1.05322   1.05921   25.383
 6244.00    1.05764   1.06265   25.105
 6245.00    1.06514   1.06602   24.469
 6246.00    1.07143   1.06762   23.512
 6247.00    1.07244   1.06656   23.101
 6248.00    1.06709   1.06237   23.717
 6249.00    1.05893   1.05560   24.788
 6250.00    1.05201   1.04856   25.345
 6251.00    1.04776   1.04287   24.895
 6252.00    1.04563   1.03875   23.804
 6253.00    1.04437   1.03596   22.988
 6254.00    1.04681   1.03522   23.037
 6255.00    1.06125   1.03769   23.928
 6256.00    1.09040   1.04382   24.198
 6257.00    1.12618   1.05236   21.296
 6258.00    1.15919   1.06103   16.795
 6259.00    1.18351   1.06958   13.598
 6260.00    1.19291   1.07745   11.909
 6261.00    1.18022   1.08266   11.179
 6262.00    1.14467   1.08525   11.275
 6263.00    1.09523   1.08746   12.551
 6264.00    1.04865   1.08996   15.491
 6265.00    1.02442   1.09155   19.942
 6266.00    1.02811   1.09218   24.285
 6267.00    1.04807   1.09316   26.400
 6268.00    1.07000   1.09516   26.182
 6269.00    1.08352   1.09753   25.448
 6270.00    1.08423   1.09925   25.231
 6271.00    1.07406   1.09969   25.437
 6272.00    1.05993   1.09916   25.733
 6273.00    1.05092   1.09804   25.813
 6274.00    1.05149   1.09625   25.517
 6275.00    1.05956   1.09402   24.951
 6276.00    1.06771   1.09163   24.601
 6277.00    1.06785   1.08957   24.985
 6278.00    1.06243   1.08939   25.858
 6279.00    1.06139   1.09163   26.309
 6280.00    1.06748   1.09550    0.000
 6281.00    1.07600   1.10006    0.000
 6282.00    1.08249   1.10422    0.000
 6283.00    1.08525   1.10820    0.000
 6284.00    1.08650   1.11190    0.000
 6285.00    1.08962   1.11433    0.000
 6286.00    1.09336   1.11495    0.000
 6287.00    1.09356   1.11342    0.000
 6288.00    1.08862   1.11023    0.000
 6289.00    1.08041   1.10633    0.000
 6290.00    1.07406   1.10224    0.000
 6291.00    1.07445   1.09836    0.000
 6292.00    1.08096   1.09405    0.000
 6293.00    1.08913   1.08862    0.000
 6294.00    1.09444   1.08339    0.000
 6295.00    1.09446   1.08008    0.000
 6296.00    1.09094   1.07862    0.000
 6297.00    1.08764   1.07759    0.000
 6298.00    1.08725   1.07679    0.000
 6299.00    1.09081   1.07813    0.000
 6300.00    1.09748   1.08258    0.000
 6301.00    1.10557   1.08844    0.000
 6302.00    1.11361   1.09363    0.000
 6303.00    1.11952   1.09813    0.000
 6304.00    1.12005   1.10258    0.000
 6305.00    1.11458   1.10583    0.000
 6306.00    1.10813   1.10616    0.000
 6307.00    1.10503   1.10351    0.000
 6308.00    1.10351   1.09941    0.000
 6309.00    1.10031   1.09498    0.000
 6310.00    1.09488   1.08996    0.000
 6311.00    1.08984   1.08399    0.000
 6312.00    1.09017   1.07838    0.000
 6313.00    1.09646   1.07503    0.000
 6314.00    1.10155   1.07332    0.000
 6315.00    1.10031   1.07249    0.000
 6316.00    1.09540   1.07437    0.000
 6317.00    1.09227   1.07950    0.000
 6318.00    1.09512   1.08579    0.000
 6319.00    1.10325   1.09164    0.000
 6320.00    1.11054   1.09755    0.000
 6321.00    1.11297   1.10385   25.768
 6322.00    1.11186   1.10909   25.389
 6323.00    1.10951   1.11241   25.216
 6324.00    1.10694   1.11425   25.344
 6325.00    1.10400   1.11568   25.659
 6326.00    1.09974   1.11628   25.956
 6327.00    1.09350   1.11459   26.214
 6328.00    1.08547   1.11137   26.613
 6329.00    1.07675   1.10799   27.007
 6330.00    1.06916   1.10432   26.932
 6331.00    1.06476   1.09930   26.596
 6332.00    1.06482   1.09331   26.791
 6333.00    1.06709   1.08911   27.588
 6334.00    1.06714   1.08822   28.211
 6335.00    1.06520   1.08902   28.196
 6336.00    1.06580   1.08975   27.792
 6337.00    1.07044   1.09094   27.421
 6338.00    1.07658   1.09262   27.357
 6339.00    1.08089   1.09342   27.450
 6340.00    1.08112   1.09297   27.338
 6341.00    1.07855   1.09270   27.158
 6342.00    1.07694   1.09420   27.265
 6343.00    1.07878   1.09690   27.271
 6344.00    1.08464   1.09980   26.524
 6345.00    1.09351   1.10303   25.545
 6346.00    1.10305   1.10609   25.245
 6347.00    1.10990   1.10779   25.485
 6348.00    1.11108   1.10783   25.584
 6349.00    1.10622   1.10624   25.520
 6350.00    1.09783   1.10247   25.631
 6351.00    1.09079   1.09636   25.702
 6352.00    1.08858   1.08933   25.393
 6353.00    1.08776   1.08288   25.148
 6354.00    1.08267   1.07633   25.505
 6355.00    1.07353   1.06894   26.040
 6356.00    1.06484   1.06244   25.992
 6357.00    1.06143   1.05866   25.521
 6358.00    1.06599   1.05711   25.029
 6359.00    1.07667   1.05721   24.170
 6360.00    1.08766   1.05992   22.696
 6361.00    1.09068   1.06558   21.199
 6362.00    1.08155   1.07286   20.251
 6363.00    1.06646   1.08042   19.927
 6364.00    1.05464   1.08812   19.905
 6365.00    1.05023   1.09585   19.535
 6366.00    1.05260   1.10243   19.347
 6367.00    1.05798   1.10732   22.126
 6368.00    1.06367   1.11150   28.567
 6369.00    1.07115   1.11567   22.802
 6370.00    1.08091   1.11898   12.567
 6371.00    1.08860   1.12034    8.966
 6372.00    1.09046   1.12015    8.625
 6373.00    1.08745   1.11935    9.291
 6374.00    1.08249   1.11797    9.476
 6375.00    1.07812   1.11566    9.219
 6376.00    1.07561   1.11306    9.136
 6377.00    1.07459   1.11117    9.381
 6378.00    1.07480   1.11044    9.598
 6379.00    1.07681   1.11088    9.096
 6380.00    1.08022   1.11183    8.567
 6381.00    1.08294   1.11269    9.999
 6382.00    1.08320   1.11384   16.799
 6383.00    1.08074   1.11533   30.619
 6384.00    1.07775   1.11601   30.619
 6385.00    1.07791   1.11466   26.060
 6386.00    1.08014   1.11169   25.783
 6387.00    1.07802   1.10843   27.727
 6388.00    1.06904   1.10517   28.043
 6389.00    1.05726   1.10128   27.027
 6390.00    1.04746   1.09728   25.608
 6391.00    1.04277   1.09507   23.735
 6392.00    1.04479   1.09500   21.712
 6393.00    1.05316   1.09560   20.142
 6394.00    1.06405   1.09627   19.410
 6395.00    1.07187   1.09673   19.693
 6396.00    1.07604   1.09645   20.738
 6397.00    1.08072   1.09646   21.808
 6398.00    1.08759   1.09917   22.473
 6399.00    1.09520   1.10375   22.906
 6400.00    1.10288   1.10706   23.171
 6401.00    1.11047   1.10856   23.207
 6402.00    1.11499   1.10931   23.487
 6403.00    1.11255   1.10898   24.672
 6404.00    1.10448   1.10658   26.296
 6405.00    1.09522   1.10340   26.886
 6406.00    1.08488   1.10182   26.524
 6407.00    1.07145   1.10111   26.544
 6408.00    1.05816   1.09971   27.050
 6409.00    1.05070   1.09894   27.283
 6410.00    1.04933   1.09993   27.162
 6411.00    1.05119   1.10131   27.090
 6412.00    1.05654   1.10150   27.005
 6413.00    1.06634   1.10062   26.636
 6414.00    1.07693   1.09964   26.131
 6415.00    1.08310   1.09904   25.748
 6416.00    1.08370   1.09856   25.373
 6417.00    1.08112   1.09821   24.905
 6418.00    1.07912   1.09936   24.741
 6419.00    1.08137   1.10343   25.200
 6420.00    1.08960   1.10942   25.802
 6421.00    1.10219   1.11446   25.893
 6422.00    1.11309   1.11714   25.680
 6423.00    1.11770   1.11799   25.458
 6424.00    1.11906   1.11765   24.695
 6425.00    1.12148   1.11594   23.148
 6426.00    1.12380   1.11239   21.654
 6427.00    1.12241   1.10771   20.874
 6428.00    1.11507   1.10410   20.810
 6429.00    1.10229   1.10333   21.361
 6430.00    1.08806   1.10432   22.614
 6431.00    1.07781   1.10494   24.505
 6432.00    1.07636   1.10511   26.273
 6433.00    1.08477   1.10596   27.021
 6434.00    1.09864   1.10718   26.836
 6435.00    1.11187   1.10751   26.247
 6436.00    1.12006   1.10817   25.498
 6437.00    1.12346   1.11171   24.774
 6438.00    1.12724   1.11751   24.338
 6439.00    1.13164   1.12276   24.319
 6440.00    1.12830   1.12594   24.648
 6441.00    1.11492   1.12668   25.208
 6442.00    1.10123   1.12456   25.848
 6443.00    1.09484   1.11981   26.019
 6444.00    1.09427   1.11346   24.896
 6445.00    1.09386   1.10594   22.846
 6446.00    1.08791   1.09762   21.107
 6447.00    1.07734   1.09104   20.113
 6448.00    1.07030   1.08896   19.662
 6449.00    1.07188   1.09074   19.802
 6450.00    1.08048   1.09414   20.927
 6451.00    1.09132   1.09776   23.003
 6452.00    1.09923   1.10115   24.909
 6453.00    1.10326   1.10448   25.189
 6454.00    1.10670   1.10743   23.659
 6455.00    1.11164   1.10890   21.795
 6456.00    1.11710   1.10871   21.027
 6457.00    1.11958   1.10759   21.297
 6458.00    1.11512   1.10547   21.676
 6459.00    1.10460   1.10247   21.988
 6460.00    1.09309   1.10093   22.860
 6461.00    1.08374   1.10281   24.140
 6462.00    1.07738   1.10645   24.779
 6463.00    1.07568   1.10957   24.786
 6464.00    1.08056   1.11190   25.163
 6465.00    1.09073   1.11402   25.833
 6466.00    1.10167   1.11557   25.797
 6467.00    1.10738   1.11560   24.951
 6468.00    1.10397   1.11443   23.951
 6469.00    1.09579   1.11372   22.997
 6470.00    1.09111   1.11433   22.052
 6471.00    1.09190   1.11489   21.380
 6472.00    1.09495   1.11458   21.344
 6473.00    1.09718   1.11415   22.102
 6474.00    1.09734   1.11360   23.546
 6475.00    1.09721   1.11182   24.959
 6476.00    1.09851   1.10884   25.448
 6477.00    1.09829   1.10579   25.438
 6478.00    1.09254   1.10270   25.911
 6479.00    1.08217   1.09965   26.831
 6480.00    1.07239   1.09814   27.487
 6481.00    1.07056   1.09891   27.408
 6482.00    1.08039   1.10025   26.761
 6483.00    1.09589   1.10019   26.332
 6484.00    1.10797   1.09848   26.570
 6485.00    1.11226   1.09489   26.842
 6486.00    1.10676   1.08772   26.491
 6487.00    1.08888   1.07594   26.038
 6488.00    1.06041   1.06148   26.069
 6489.00    1.03161   1.04677   26.272
 6490.00    1.01188   1.03244   26.173
 6491.00    1.00150   1.01926   25.853
 6492.00    0.99672   1.01006   25.649
 6493.00    0.99478   1.00773   25.800
 6494.00    0.99617   1.01192   26.042
 6495.00    1.00523   1.02042   25.469
 6496.00    1.02313   1.03151   24.081
 6497.00    1.04377   1.04471   23.219
 6498.00    1.06011   1.05900   23.472
 6499.00    1.06883   1.07228   24.135
 6500.00    1.07052   1.08323   24.569
 6501.00    1.06910   1.09156   25.063
 6502.00    1.06874   1.09791   25.909
 6503.00    1.07192   1.10265   26.800
 6504.00    1.07890   1.10551   27.367
 6505.00    1.08770   1.10662   27.584
 6506.00    1.09520   1.10687   27.571
 6507.00    1.09814   1.10688   27.429
 6508.00    1.09516   1.10617   27.192
 6509.00    1.08757   1.10429   26.859
 6510.00    1.07868   1.10173   26.585
 6511.00    1.07271   1.09879   26.626
 6512.00    1.07197   1.09562   26.897
 6513.00    1.07584   1.09310   26.956
 6514.00    1.08144   1.09193   26.666
 6515.00    1.08506   1.09196   26.333
 6516.00    1.08607   1.09306   26.247
 6517.00    1.08693   1.09574   26.483
 6518.00    1.08881   1.09928   26.748
 6519.00    1.09082   1.10190   26.561
 6520.00    1.09202   1.10304   26.066
 6521.00    1.09202   1.10376   25.855
 6522.00    1.09107   1.10427   26.020
 6523.00    1.08989   1.10358   26.176
 6524.00    1.08928   1.10174   26.039
 6525.00    1.08971   1.10008   25.624
 6526.00    1.09094   1.09933   25.244
 6527.00    1.09230   1.09907   25.223
 6528.00    1.09370   1.09881    0.000
 6529.00    1.09548   1.09854    0.000
 6530.00    1.09758   1.09865    0.000
 6531.00    1.09928   1.09969    0.000
 6532.00    1.09903   1.10174    0.000
 6533.00    1.09630   1.10375    0.000
 6534.00    1.09465   1.10462    0.000
 6535.00    1.09818   1.10452    0.000
 6536.00    1.10518   1.10407    0.000
 6537.00    1.11134   1.10276    0.000
 6538.00    1.11613   1.09925    0.000
 6539.00    1.12377   1.09352    0.000
 6540.00    1.14283   1.08753    0.000
 6541.00    1.17863   1.08240    0.000
 6542.00    1.22374   1.07746    0.000
 6543.00    1.26358   1.07226    0.000
 6544.00    1.28497   1.06805    0.000
 6545.00    1.28063   1.06570    0.000
 6546.00    1.25295   1.06368    0.000
 6547.00    1.21040   1.06005    0.000
 6548.00    1.16329   1.05460    0.000
 6549.00    1.12134   1.04834    0.000
 6550.00    1.09183   1.04115    0.000
 6551.00    1.07983   1.03165    0.000
 6552.00    1.08987   1.01944    0.000
 6553.00    1.13736   1.00539    0.000
 6554.00    1.25500   0.98876    0.000
 6555.00    1.46686   0.96714    0.000
 6556.00    1.76597   0.94267    0.000
 6557.00    2.10319   0.92165    0.000
 6558.00    2.38706   0.90571    0.000
 6559.00    2.53175   0.89313    0.000
 6560.00    2.49234   0.88810    0.000
 6561.00    2.27983   0.89723    0.000
 6562.00    1.96271   0.91777    0.000
 6563.00    1.62811   0.94092    0.000
 6564.00    1.35325   0.96272    0.000
 6565.00    1.17711   0.98318    0.000
 6566.00    1.09088   1.00055    0.000
 6567.00    1.06496   1.01297    0.000
 6568.00    1.06604   1.02148    0.000
 6569.00    1.07022   1.02794    0.000
 6570.00    1.06828   1.03312    0.000
 6571.00    1.06202   1.03804    0.000
 6572.00    1.06063   1.04376    0.000
 6573.00    1.07304   1.05021    0.000
 6574.00    1.10666   1.05656    0.000
 6575.00    1.17383   1.06217    0.000
 6576.00    1.28774   1.06677    0.000
 6577.00    1.44076   1.07010    0.000
 6578.00    1.60086   1.07229    0.000
 6579.00    1.72513   1.07399    0.000
 6580.00    1.77255   1.07595    0.000
 6581.00    1.72757   1.07786    0.000
 6582.00    1.60471   1.07905    0.000
 6583.00    1.44127   1.07954    0.000
 6584.00    1.28461   1.07951    0.000
 6585.00    1.16586   1.07815    0.000
 6586.00    1.09479   1.07460    0.000
 6587.00    1.06400   1.07007    0.000
 6588.00    1.05633   1.06588    0.000
 6589.00    1.05834   1.06164    0.000
 6590.00    1.06175   1.05746    0.000
 6591.00    1.06039   1.05568    0.000
 6592.00    1.05184   1.05779    0.000
 6593.00    1.04170   1.06206    0.000
 6594.00    1.03858   1.06641    0.000
 6595.00    1.04420   1.07066    0.000
 6596.00    1.05451   1.07511    0.000
 6597.00    1.06439   1.07913    0.000
 6598.00    1.06999   1.08155    0.000
 6599.00    1.07083   1.08192    0.000
 6600.00    1.06767   1.08059    0.000
 6601.00    1.05940   1.07795    0.000
 6602.00    1.04586   1.07443    0.000
 6603.00    1.03207   1.07125    0.000
 6604.00    1.02467   1.06956    0.000
 6605.00    1.02693   1.06899    0.000
 6606.00    1.03629   1.06905    0.000
 6607.00    1.04309   1.07077    0.000
 6608.00    1.04007   1.07498    0.000
 6609.00    1.03194   1.07992   26.103
 6610.00    1.02819   1.08362   27.053
 6611.00    1.03498   1.08658   27.477
 6612.00    1.05275   1.09006   26.878
 6613.00    1.07531   1.09334   26.251
 6614.00    1.09519   1.09498   26.360
 6615.00    1.10829   1.09528   26.700
 6616.00    1.11446   1.09501   26.634
 6617.00    1.11699   1.09389   26.313
 6618.00    1.11860   1.09154   25.976
 6619.00    1.11877   1.08864   25.481
 6620.00    1.11633   1.08559   24.932
 6621.00    1.11132   1.08223   24.881
 6622.00    1.10451   1.07895   25.374
 6623.00    1.09693   1.07664   25.564
 6624.00    1.08885   1.07503   25.143
 6625.00    1.07969   1.07297   25.004
 6626.00    1.07090   1.07015   25.557
 6627.00    1.06632   1.06715   26.111
 6628.00    1.06592   1.06469   26.080
 6629.00    1.06425   1.06291   25.702
 6630.00    1.05817   1.06168   25.470
 6631.00    1.04992   1.06133   25.732
 6632.00    1.04418   1.06248   26.372
 6633.00    1.04557   1.06494   26.770
 6634.00    1.05451   1.06775   26.569
 6635.00    1.06683   1.06994   26.018
 6636.00    1.07888   1.07069   25.540
 6637.00    1.08863   1.07039   25.463
 6638.00    1.09301   1.07037   25.797
 6639.00    1.08864   1.07052   26.252
 6640.00    1.07749   1.06955   26.516
 6641.00    1.06655   1.06828   26.423
 6642.00    1.06151   1.06889   26.097
 6643.00    1.06379   1.07087   25.852
 6644.00    1.06781   1.07214   25.863
 6645.00    1.06479   1.07274   26.105
 6646.00    1.05420   1.07385   26.327
 6647.00    1.04357   1.07513   26.207
 6648.00    1.04074   1.07557   25.772
 6649.00    1.05012   1.07530   25.341
 6650.00    1.06854   1.07490   25.198
 6651.00    1.08778   1.07450   25.449
 6652.00    1.10139   1.07379   25.848
 6653.00    1.10596   1.07244   25.983
 6654.00    1.10078   1.07046   25.808
 6655.00    1.08841   1.06799   25.608
 6656.00    1.07565   1.06470   25.696
 6657.00    1.06902   1.06071   26.212
 6658.00    1.06741   1.05706   26.846
 6659.00    1.06492   1.05412   27.044
 6660.00    1.05707   1.05148   26.590
 6661.00    1.04313   1.04992   25.867
 6662.00    1.02795   1.05077   25.796
 6663.00    1.01881   1.05342   26.834
 6664.00    1.02089   1.05642   27.681
 6665.00    1.03295   1.05965   26.893
 6666.00    1.04370   1.06330   25.806
 6667.00    1.04285   1.06661   25.854
 6668.00    1.03348   1.06859   26.249
 6669.00    1.02436   1.06881   25.888
 6670.00    1.02040   1.06692   25.478
 6671.00    1.02305   1.06297   25.780
 6672.00    1.03166   1.05844   26.014
 6673.00    1.04264   1.05461   25.527
 6674.00    1.04931   1.05089   25.328
 6675.00    1.04771   1.04739   26.061
 6676.00    1.04124   1.04661   26.539
 6677.00    1.03660   1.04947   25.884
 6678.00    1.03970   1.05341   25.368
 6679.00    1.05060   1.05680   25.860
 6680.00    1.06127   1.06047   26.488
 6681.00    1.06479   1.06436   26.449
 6682.00    1.06116   1.06731   26.363
 6683.00    1.05320   1.06907   26.729
 6684.00    1.04374   1.07008   27.041
 6685.00    1.03588   1.07043   26.885
 6686.00    1.03306   1.07024   26.587
 6687.00    1.03788   1.06974   26.455
 6688.00    1.05082   1.06861   26.416
 6689.00    1.06726   1.06648   26.288
 6690.00    1.07772   1.06385   25.950
 6691.00    1.07623   1.06147   25.455
 6692.00    1.06393   1.05930   25.033
 6693.00    1.04687   1.05730   24.970
 6694.00    1.03330   1.05614   25.460
 6695.00    1.02728   1.05623   26.053
 6696.00    1.02715   1.05690    0.000
 6697.00    1.02945   1.05757    0.000
 6698.00    1.03128   1.05825    0.000
 6699.00    1.03268   1.05882    0.000
 6700.00    1.03549   1.05895    0.000
 6701.00    1.03722   1.05860    0.000
 6702.00    1.03270   1.05829    0.000
 6703.00    1.02464   1.05819    0.000
 6704.00    1.02236   1.05780    0.000
 6705.00    1.02946   1.05688    0.000
 6706.00    1.04370   1.05537    0.000
 6707.00    1.06572   1.05297    0.000
 6708.00    1.09945   1.04966    0.000
 6709.00    1.14726   1.04584    0.000
 6710.00    1.20675   1.04135    0.000
 6711.00    1.26647   1.03647    0.000
 6712.00    1.31030   1.03274    0.000
 6713.00    1.32805   1.03083    0.000
 6714.00    1.31710   1.02986    0.000
 6715.00    1.28105   1.02997    0.000
 6716.00    1.22882   1.03246    0.000
 6717.00    1.17343   1.03680    0.000
 6718.00    1.12750   1.04065    0.000
 6719.00    1.09639   1.04335    0.000
 6720.00    1.07873   1.04610    0.000
 6721.00    1.06924   1.04911    0.000
 6722.00    1.06530   1.05117    0.000
 6723.00    1.07508   1.05205    0.000
 6724.00    1.10877   1.05301    0.000
 6725.00    1.16545   1.05449    0.000
 6726.00    1.23196   1.05565    0.000
 6727.00    1.28463   1.05615    0.000
 6728.00    1.30265   1.05649    0.000
 6729.00    1.28289   1.05662    0.000
 6730.00    1.23522   1.05614    0.000
 6731.00    1.17545   1.05489    0.000
 6732.00    1.11998   1.05322    0.000
 6733.00    1.08091   1.05152    0.000
 6734.00    1.06208   1.04988    0.000
 6735.00    1.05664   1.04786    0.000
 6736.00    1.05528   1.04545    0.000
 6737.00    1.05338   1.04358    0.000
 6738.00    1.05013   1.04272    0.000
 6739.00    1.04707   1.04184    0.000
 6740.00    1.04533   1.04032    0.000
 6741.00    1.04396   1.03909    0.000
 6742.00    1.04189   1.03849    0.000
 6743.00    1.03945   1.03753    0.000
 6744.00    1.03845   1.03613    0.000
 6745.00    1.04154   1.03527    0.000
 6746.00    1.04825   1.03481    0.000
 6747.00    1.05344   1.03454    0.000
 6748.00    1.05203   1.03542    0.000
 6749.00    1.04216   1.03755    0.000
 6750.00    1.02771   1.04002    0.000
 6751.00    1.01780   1.04302    0.000
 6752.00    1.01887   1.04703    0.000
 6753.00    1.03038   1.05115   14.692
 6754.00    1.04345   1.05469   14.176
 6755.00    1.04466   1.05763   14.698
 6756.00    1.03345   1.05977   16.238
 6757.00    1.02427   1.06090   17.680
 6758.00    1.02743   1.06096   18.064
 6759.00    1.04211   1.05979   17.865
 6760.00    1.05900   1.05737   17.477
 6761.00    1.06565   1.05436   16.557
 6762.00    1.06013   1.05146   14.593
 6763.00    1.05156   1.04877   11.952
 6764.00    1.04771   1.04598    9.989
 6765.00    1.05156   1.04387    9.278
 6766.00    1.06251   1.04376    9.329
 6767.00    1.07699   1.04531    9.319
 6768.00    1.08915   1.04734    9.157
 6769.00    1.09354   1.04999    9.261
 6770.00    1.09107   1.05377    9.307
 6771.00    1.08657   1.05776    8.801
 6772.00    1.08062   1.06105    8.850
 6773.00    1.07175   1.06335   11.485
 6774.00    1.06472   1.06439   19.321
 6775.00    1.06595   1.06384   25.533
 6776.00    1.07174   1.06178   20.930
 6777.00    1.07355   1.05837   18.302
 6778.00    1.07106   1.05400   18.526
 6779.00    1.06923   1.04947   18.902
 6780.00    1.06932   1.04530   18.936
 6781.00    1.06912   1.04216   19.580
 6782.00    1.06571   1.04060   20.679
 6783.00    1.05756   1.04037   21.325
 6784.00    1.04685   1.04108   21.507
 6785.00    1.03907   1.04271   21.684
 6786.00    1.04139   1.04441   21.490
 6787.00    1.05422   1.04519   20.533
 6788.00    1.06231   1.04553   19.456
 6789.00    1.05407   1.04593   18.939
 6790.00    1.04305   1.04579   19.008
 6791.00    1.04476   1.04530   19.488
 6792.00    1.05115   1.04533   20.316
 6793.00    1.05202   1.04592   21.423
 6794.00    1.05678   1.04674   22.533
 6795.00    1.07114   1.04794   23.244
 6796.00    1.07682   1.04923   23.278
 6797.00    1.06077   1.05013   22.568
 6798.00    1.03894   1.05079   21.269
 6799.00    1.02933   1.05145   19.834
 6800.00    1.03030   1.05145   18.853
 6801.00    1.03323   1.05071   18.616
 6802.00    1.03327   1.05020   19.080
 6803.00    1.03005   1.04980   20.053
 6804.00    1.02683   1.04879   21.167
 6805.00    1.02542   1.04795   22.086
 6806.00    1.02313   1.04787   22.734
 6807.00    1.01496   1.04759   22.770
 6808.00    0.99740   1.04684   21.503
 6809.00    0.98148   1.04666   19.307
 6810.00    0.99271   1.04724   17.375
 6811.00    1.03354   1.04780   16.280
 6812.00    1.07262   1.04806   16.105
 6813.00    1.08754   1.04854   16.817
 6814.00    1.08183   1.04964   18.321
 6815.00    1.06567   1.05104   20.373
 6816.00    1.04728   1.05227   22.362
 6817.00    1.03461   1.05326   23.554
 6818.00    1.03404   1.05418   23.731
 6819.00    1.04261   1.05527   23.458
 6820.00    1.04866   1.05621   23.599
 6821.00    1.04462   1.05617   24.297
 6822.00    1.03165   1.05517   24.841
 6823.00    1.01922   1.05426   24.446
 6824.00    1.01982   1.05376   22.965
 6825.00    1.03397   1.05299   21.198
 6826.00    1.05107   1.05201   20.013
 6827.00    1.06453   1.05186   19.423
 6828.00    1.07381   1.05260   19.085
 6829.00    1.07823   1.05302   19.163
 6830.00    1.07650   1.05231   20.102
 6831.00    1.06991   1.05082   21.593
 6832.00    1.06146   1.04875   22.359
 6833.00    1.05235   1.04549   21.607
 6834.00    1.04376   1.04102   19.820
 6835.00    1.04184   1.03612   17.900
 6836.00    1.05201   1.03177   16.454
 6837.00    1.06618   1.02864   15.731
 6838.00    1.07022   1.02718   15.841
 6839.00    1.06145   1.02738   16.868
 6840.00    1.04743   1.02920   18.815
 6841.00    1.03827   1.03255   21.125
 6842.00    1.04019   1.03677   22.581
 6843.00    1.04794   1.04068   22.911
 6844.00    1.05095   1.04360   22.915
 6845.00    1.04395   1.04554   22.955
 6846.00    1.02912   1.04657   22.976
 6847.00    1.01632   1.04639   22.952
 6848.00    1.01409   1.04450   22.909
 6849.00    1.01908   1.04148   22.878
 6850.00    1.02406   1.03868   22.904
 6851.00    1.02844   1.03590   23.058
 6852.00    1.03276   1.03249   23.240
 6853.00    1.03227   1.02977   23.019
 6854.00    1.02405   1.02856   22.271
 6855.00    1.01415   1.02764   21.615
 6856.00    1.00954   1.02724   21.238
 6857.00    1.01026   1.02842   20.344
 6858.00    1.01234   1.03000   19.447
 6859.00    1.01157   1.03088   21.186
 6860.00    1.00828   1.03204   25.518
 6861.00    1.00972   1.03338   20.935
 6862.00    1.01967   1.03365   12.646
 6863.00    1.03166   1.03334    9.431
 6864.00    1.03782   1.03312    9.149
 6865.00    1.03550   1.03216    9.761
 6866.00    1.02813   1.03081    9.909
 6867.00    1.02397   1.03080    9.723
 6868.00    1.02726   1.03167    9.673
 6869.00    1.03384   1.03190    9.689
 6870.00    1.03759   1.03240    9.659
 6871.00    1.03481   1.03431    9.657
 6872.00    1.02799   1.03642    9.720
 6873.00    1.02507   1.03752    9.758
 6874.00    1.02770   1.03846    9.733
 6875.00    1.02842   1.03933    9.723
 6876.00    1.02431   1.03913    9.762
 6877.00    1.02053   1.03831    9.799
 6878.00    1.01906   1.03813    9.813
 6879.00    1.01612   1.03810    9.841
 6880.00    1.01090   1.03785    9.892
 6881.00    1.00701   1.03903    9.930
 6882.00    1.00532   1.04196    9.947
 6883.00    1.00322   1.04481    9.968
 6884.00    1.00067   1.04735    9.993
 6885.00    1.00114   1.05062    9.989
 6886.00    1.00788   1.05363    9.922
 6887.00    1.02159   1.05529    9.789
 6888.00    1.03722   1.05639    9.641
 6889.00    1.04719   1.05697    9.549
 6890.00    1.05190   1.05651    9.507
 6891.00    1.05746   1.05584    9.457
 6892.00    1.06323   1.05559    9.405
 6893.00    1.06328   1.05502    9.405
 6894.00    1.05634   1.05425    9.467
 6895.00    1.04635   1.05439    9.557
 6896.00    1.03851   1.05524    9.629
 6897.00    1.03705   1.05573    9.643
 6898.00    1.04274   1.05603    9.590
 6899.00    1.05238   1.05699    9.502
 6900.00    1.05912   1.05836    9.442
 6901.00    1.05674   1.05939    9.463
 6902.00    1.04660   1.06000    9.555
 6903.00    1.03475   1.06053    9.664
 6904.00    1.02567   1.06075    9.750
 6905.00    1.02213   1.06023    9.783
 6906.00    1.02646   1.05896    9.742
 6907.00    1.03876   1.05698    9.627
 6908.00    1.05450   1.05426    9.483
 6909.00    1.06527   1.05171    9.387
 6910.00    1.06084   1.04974    9.427
 6911.00    1.03910   1.04783    9.624
 6912.00    1.01596   1.04675    9.843
 6913.00    1.00881   1.04740    9.913
 6914.00    1.01798   1.04861    9.823
 6915.00    1.03465   1.04959    9.665
 6916.00    1.05113   1.05089    9.514
 6917.00    1.06327   1.05190    9.405
 6918.00    1.07151   1.05159    9.333
 6919.00    1.07595   1.05050    9.294
 6920.00    1.07256   1.04929    9.323
 6921.00    1.05846   1.04811    9.448
 6922.00    1.03635   1.04684    9.649
 6923.00    1.01429   1.04602    9.859
 6924.00    1.00351   1.04620    9.965
 6925.00    1.00614   1.04717    9.939
 6926.00    1.00932   1.04800    9.908
 6927.00    1.00352   1.04831    9.965
 6928.00    0.99315   1.04900   10.069
 6929.00    0.98585   1.05006   10.144
 6930.00    0.98571   1.05064   10.145
 6931.00    0.99462   1.05088   10.054
 6932.00    1.01241   1.05189    9.877
 6933.00    1.03269   1.05334    9.683
 6934.00    1.04429   1.05418    9.576
 6935.00    1.04850   1.05447    9.537
 6936.00    1.05891   1.05437    9.444
 6937.00    1.06346   1.05377    9.403
 6938.00    1.02640   1.05239    9.743
 6939.00    0.96818   1.05030   10.329
 6940.00    0.96575   1.04842   10.355
 6941.00    1.02443   1.04717    9.761
 6942.00    1.06461   1.04609    9.393
 6943.00    1.05517   1.04547    9.477
 6944.00    1.03618   1.04596    9.651
 6945.00    1.02994   1.04651    9.709
 6946.00    1.02389   1.04663    9.767
 6947.00    1.01254   1.04691    9.876
 6948.00    1.00474   1.04693    9.953
 6949.00    1.00593   1.04659    9.941
 6950.00    1.01448   1.04711    9.857
 6951.00    1.02619   1.04837    9.745
 6952.00    1.03670   1.04963    9.646
 6953.00    1.04416   1.05135    9.577
 6954.00    1.04885   1.05374    9.534
 6955.00    1.05074   1.05602    9.517
 6956.00    1.04994   1.05776    9.524
 6957.00    1.04850   1.05924    9.537
 6958.00    1.04853   1.06064    9.537
 6959.00    1.04768   1.06169    9.545
 6960.00    1.04202   1.06216    9.597
 6961.00    1.03279   1.06266    9.682
 6962.00    1.02561   1.06345    9.750
 6963.00    1.02686   1.06381    9.738
 6964.00    1.03835   1.06365    9.631
 6965.00    1.05055   1.06341    9.519
 6966.00    1.05239   1.06300    9.502
 6967.00    1.04667   1.06184    9.554
 6968.00    1.04224   1.05918    9.595
 6969.00    1.04081   1.05493    9.608
 6970.00    1.03981   1.05035    9.617
 6971.00    1.03828   1.04557    9.631
 6972.00    1.03614   1.03939    9.651
 6973.00    1.03241   1.03340    9.686
 6974.00    1.02610   1.03037    9.746
 6975.00    1.01730   1.02964    9.830
 6976.00    1.00762   1.02994    9.924
 6977.00    1.00032   1.03303    9.997
 6978.00    0.99887   1.03917   10.011
 6979.00    1.00539   1.04542    9.946
 6980.00    1.01802   1.05065    9.823
 6981.00    1.02950   1.05552    9.713
 6982.00    1.03300   1.05920    9.681
 6983.00    1.02715   1.06093    9.736
 6984.00    1.01672   1.06165    9.836
 6985.00    1.01160   1.06217    9.885
 6986.00    1.01745   1.06229    9.829
 6987.00    1.02987   1.06193    9.710
 6988.00    1.04068   1.06173    9.609
 6989.00    1.04310   1.06183    9.587
 6990.00    1.03683   1.06162    9.645
 6991.00    1.02953   1.06074    9.713
 6992.00    1.02765   1.05927    9.731
 6993.00    1.03179   1.05729    9.692
 6994.00    1.03963   1.05484    9.619
 6995.00    1.04784   1.05244    9.543
 6996.00    1.05276   1.05032    9.499
 6997.00    1.05135   1.04795    9.512
 6998.00    1.04422   1.04565    9.577
 6999.00    1.03510   1.04461    9.661
 7000.00    1.02369   1.04453    9.769
 7001.00    1.00647   1.04430   -2.000
 7002.00    0.99196   1.04412   -2.000
 7003.00    0.99850   1.04497   -2.000
 7004.00    1.02506   1.04633   -2.000
 7005.00    1.04820   1.04710   -2.000
 7006.00    1.04804   1.04729   -2.000
 7007.00    1.02028   1.04718   -2.000
 7008.00    0.98467   1.04639   -2.000
 7009.00    0.97353   1.04435   -2.000
 7010.00    0.99230   1.04146   -2.000
 7011.00    1.01921   1.03929   -2.000
 7012.00    1.03540   1.03861   -2.000
 7013.00    1.03513   1.03820   -2.000
 7014.00    1.02990   1.03778   -2.000
 7015.00    1.03668   1.03934   -2.000
 7016.00    1.04964   1.04242   -2.000
 7017.00    1.05042   1.04411   -2.000
 7018.00    1.04339   1.04448   -2.000
 7019.00    1.04446   1.04520   -2.000
 7020.00    1.04488   1.04588   -2.000
 7021.00    1.02532   1.04579   -2.000
 7022.00    0.99388   1.04601   -2.000
 7023.00    0.97346   1.04764   -2.000
 7024.00    0.96851   1.05002   -2.000
 7025.00    0.96981   1.05203   -2.000
 7026.00    0.97115   1.05386   -2.000
 7027.00    0.97274   1.05581   -2.000
 7028.00    0.98166   1.05715   -2.000
 7029.00    1.00149   1.05745   -2.000
 7030.00    1.01914   1.05769   -2.000
 7031.00    1.02010   1.05823   -2.000
 7032.00    1.00916   1.05810   -2.000
 7033.00    0.99842   1.05838   -2.000
 7034.00    0.99036   1.06096   -2.000
 7035.00    0.98116   1.06417   -2.000
 7036.00    0.96716   1.06671   -2.000
 7037.00    0.95190   1.07081   -2.000
 7038.00    0.95082   1.07630   -2.000
 7039.00    0.97153   1.08035   -2.000
 7040.00    0.99710   1.08314   -2.000
 7041.00    1.01116   1.08572   -2.000
 7042.00    1.01923   1.08707   -2.000
 7043.00    1.02869   1.08657   -2.000
 7044.00    1.03271   1.08520   -2.000
 7045.00    1.02603   1.08296   -2.000
 7046.00    1.01622   1.07885   -2.000
 7047.00    1.01004   1.07285   -2.000
 7048.00    1.00461   1.06622   -2.000
 7049.00    0.99792   1.05954   -2.000
 7050.00    0.99475   1.05241   -2.000
 7051.00    0.99725   1.04581   -2.000
 7052.00    0.99975   1.04097   -2.000
 7053.00    0.99426   1.03703   -2.000
 7054.00    0.97584   1.03357   -2.000
 7055.00    0.95306   1.03128   -2.000
 7056.00    0.94803   1.02974   -2.000
 7057.00    0.97027   1.02784   -2.000
 7058.00    1.00672   1.02608   -2.000
 7059.00    1.03697   1.02527   -2.000
 7060.00    1.04382   1.02442   -2.000
 7061.00    1.02696   1.02307   -2.000
 7062.00    1.00236   1.02209   -2.000
 7063.00    0.97824   1.02145   -2.000
 7064.00    0.95001   1.02131   -2.000
 7065.00    0.91756   1.02232   -2.000
 7066.00    0.89017   1.02394   -2.000
 7067.00    0.88119   1.02656   -2.000
 7068.00    0.90195   1.03056   -2.000
 7069.00    0.94956   1.03443   -2.000
 7070.00    1.00542   1.03723   -2.000
 7071.00    1.04261   1.03978   -2.000
 7072.00    1.04057   1.04202   -2.000
 7073.00    1.01711   1.04294   -2.000
 7074.00    1.01322   1.04256   -2.000
 7075.00    1.03462   1.04130   -2.000
 7076.00    1.05517   1.03891   -2.000
 7077.00    1.05900   1.03490   -2.000
 7078.00    1.04314   1.02927   -2.000
 7079.00    1.00211   1.02270   -2.000
 7080.00    0.94205   1.01593   -2.000
 7081.00    0.91275   1.00890   -2.000
 7082.00    0.94876   1.00171   -2.000
 7083.00    0.95579   0.99596   -2.000
 7084.00    0.83341   0.99202   -2.000
 7085.00    0.71109   0.98851   -2.000
 7086.00    0.77499   0.98583   -2.000
 7087.00    0.93835   0.98454   -2.000
 7088.00    1.00417   0.98381   -2.000
 7089.00    0.97652   0.98392   -2.000
 7090.00    0.96248   0.98518   -2.000
 7091.00    0.97710   0.98658   -2.000
 7092.00    0.98356   0.98852   -2.000
 7093.00    0.97742   0.99106   -2.000
 7094.00    0.97371   0.99375   -2.000
 7095.00    0.97902   0.99628   -2.000
 7096.00    0.99005   0.99862   -2.000
 7097.00    0.99653   1.00081   -2.000
 7098.00    0.99174   1.00224   -2.000
 7099.00    0.98222   1.00333   -2.000
 7100.00    0.97771   1.00389   -2.000
 7101.00    0.98065   1.00354   -2.000
 7102.00    0.98659   1.00292   -2.000
 7103.00    0.98646   1.00240   -2.000
 7104.00    0.97553   1.00119   -2.000
 7105.00    0.95961   0.99923   -2.000
 7106.00    0.94581   0.99782   -2.000
 7107.00    0.93531   0.99744   -2.000
 7108.00    0.92671   0.99714   -2.000
 7109.00    0.91922   0.99694   -2.000
 7110.00    0.91610   0.99773   -2.000
 7111.00    0.92436   0.99932   -2.000
 7112.00    0.93939   1.00050   -2.000
 7113.00    0.94094   1.00100   -2.000
 7114.00    0.92539   1.00151   -2.000
 7115.00    0.91758   1.00166   -2.000
 7116.00    0.93262   1.00077   -2.000
 7117.00    0.96008   0.99928   -2.000
 7118.00    0.99094   0.99807   -2.000
 7119.00    1.02782   0.99657   -2.000
 7120.00    1.06842   0.99392   -2.000
 7121.00    1.09876   0.99127   -2.000
 7122.00    1.09883   0.98909   -2.000
 7123.00    1.05206   0.98637   -2.000
 7124.00    0.97163   0.98318   -2.000
 7125.00    0.89966   0.98064   -2.000
 7126.00    0.86635   0.97952   -2.000
 7127.00    0.87389   0.97936   -2.000
 7128.00    0.89528   0.97982   -2.000
 7129.00    0.89043   0.98166   -2.000
 7130.00    0.85582   0.98472   -2.000
 7131.00    0.82205   0.98801   -2.000
 7132.00    0.80106   0.99152   -2.000
 7133.00    0.78578   0.99425   -2.000
 7134.00    0.79182   0.99589   -2.000
 7135.00    0.84468   0.99773   -2.000
 7136.00    0.92037   0.99888   -2.000
 7137.00    0.96296   0.99852   -2.000
 7138.00    0.95928   0.99802   -2.000
 7139.00    0.93532   0.99750   -2.000
 7140.00    0.91004   0.99606   -2.000
 7141.00    0.89049   0.99429   -2.000
 7142.00    0.88256   0.99224   -2.000
 7143.00    0.88855   0.99019   -2.000
 7144.00    0.89893   0.98980   -2.000
 7145.00    0.90054   0.99017   -2.000
 7146.00    0.89316   0.99052   -2.000
 7147.00    0.88749   0.99321   -2.000
 7148.00    0.89683   0.99760   -2.000
 7149.00    0.92728   1.00098   -2.000
 7150.00    0.96570   1.00402   -2.000
 7151.00    0.98849   1.00759   -2.000
 7152.00    0.97755   1.01008   -2.000
 7153.00    0.94383   1.01053   -2.000
 7154.00    0.94954   1.01024   -2.000
 7155.00    1.03576   1.00951   -2.000
 7156.00    1.13852   1.00730   -2.000
 7157.00    1.16883   1.00432   -2.000
 7158.00    1.11042   1.00108   -2.000
 7159.00    0.99298   0.99779   -2.000
 7160.00    0.85441   0.99563   -2.000
 7161.00    0.74764   0.99485   -2.000
 7162.00    0.74249   0.99498   -2.000
 7163.00    0.84454   0.99649   -2.000
 7164.00    0.93904   0.99991   -2.000
 7165.00    0.94415   1.00414   -2.000
 7166.00    0.92544   1.00811   -2.000
 7167.00    0.94645   1.01143   -2.000
 7168.00    0.96032   1.01390   -2.000
 7169.00    0.92575   1.01548   -2.000
 7170.00    0.88408   1.01575   -2.000
 7171.00    0.87132   1.01459   -2.000
 7172.00    0.86551   1.01287   -2.000
 7173.00    0.85263   1.01075   -2.000
 7174.00    0.85966   1.00778   -2.000
 7175.00    0.89391   1.00488   -2.000
 7176.00    0.91826   1.00281   -2.000
 7177.00    0.91600   1.00106   -2.000
 7178.00    0.91469   0.99930   -2.000
 7179.00    0.92553   0.99758   -2.000
 7180.00    0.92470   0.99636   -2.000
 7181.00    0.91184   0.99532   -2.000
 7182.00    0.92149   0.99332   -2.000
 7183.00    0.95321   0.99111   -2.000
 7184.00    0.96058   0.98947   -2.000
 7185.00    0.92937   0.98801   -2.000
 7186.00    0.89552   0.98762   -2.000
 7187.00    0.89251   0.98823   -2.000
 7188.00    0.92307   0.98927   -2.000
 7189.00    0.93389   0.99142   -2.000
 7190.00    0.85449   0.99389   -2.000
 7191.00    0.74250   0.99557   -2.000
 7192.00    0.74863   0.99718   -2.000
 7193.00    0.88115   0.99937   -2.000
 7194.00    1.00815   1.00081   -2.000
 7195.00    1.05592   1.00126   -2.000
 7196.00    1.03929   1.00181   -2.000
 7197.00    0.99595   1.00203   -2.000
 7198.00    0.95505   1.00155   -2.000
 7199.00    0.90632   1.00060   -2.000
 7200.00    0.82855   0.99899   -2.000
 7201.00    0.76439   0.99689   -2.000
 7202.00    0.77654   0.99485   -2.000
 7203.00    0.82983   0.99356   -2.000
 7204.00    0.84710   0.99256   -2.000
 7205.00    0.85479   0.99204   -2.000
 7206.00    0.92126   0.99351   -2.000
 7207.00    1.00576   0.99572   -2.000
 7208.00    1.02117   0.99786   -2.000
 7209.00    0.97465   1.00069   -2.000
 7210.00    0.92503   1.00320   -2.000
 7211.00    0.88612   1.00493   -2.000
 7212.00    0.84859   1.00687   -2.000
 7213.00    0.82868   1.00877   -2.000
 7214.00    0.84300   1.00985   -2.000
 7215.00    0.87015   1.01089   -2.000
 7216.00    0.89426   1.01214   -2.000
 7217.00    0.95663   1.01284   -2.000
 7218.00    1.07027   1.01339   -2.000
