###################################################################
## OUTPUT of StarlightChains_v04.for    [Cid@UFSC - 01/Apr/2007] ##
###################################################################

## Some input info
2016hgw.txt                              [arq_obs]
Base.CB07.vall.4m                        [arq_base]
Masks.EmLines.NEW.gm                     [arq_masks]
StCv04.C11.config                        [arq_config]
   66                                    [N_base]
    0                                    [N_YAV_components = # of components with extra extinction!]
    0                                    [i_FitPowerLaw (1/0 = Yes/No)]
-9.99                                    [alpha_PowerLaw]
CCM                                      [red_law_option]
 1.458241                                [q_norm = A(l_norm)/A(V)]

## (Re)Sampling Parameters
 3741.00                                 [l_ini (A)]
 7218.00                                 [l_fin (A)]
    1.00                                 [dl    (A)]     (OBS: dl_cushion =    50.00 A)

## Normalization info
 4020.00                                 [l_norm (A) - for base]
 4010.00                                 [llow_norm (A) - window for f_obs]
 4060.00                                 [lupp_norm (A) - window for f_obs]
1.134864E-17                             [fobs_norm (in input units)]

## S/N
 3691.00                                 [llow_SN (A) - window for S/N]
 7268.00                                 [lupp_SN (A) - window for S/N]
   4.605                                 [S/N in S/N window]
   3.994                                 [S/N in norm. window]
  11.673                                 [S/N_err in S/N window]
  10.124                                 [S/N_err in norm. window]
  1.0000                                 [fscale_chi2]

## etc...
    -2007434                             [idum_orig]
  2365                                   [NOl_eff]
  2247                                   [Nl_eff]
   118    NSIGMA                         [Ntot_cliped & clip_method]
   654500                                [Nglobal_steps]
   7                                     [N_chains]
  11                                     [NEX0s_base = N_base in EX0s-fits]
 0   0   1       28   2.0   4.111E+01    [Clip-Bug, RC-Crash & Burn-In warning-flags, n_censored_weights, wei_nsig_threshold & wei_limit]
    10      9.497      9.001      0.496  [idt_all, wdt_TotTime, wdt_UsrTime & wdt_SysTime (sec)]

## Synthesis Results - Best model ##

 8.32693E-01                             [chi2/Nl_eff]
     5.71628                             [adev (%)]

    95.00292                             [sum-of-x (%)]
 5.16414E-18                             [Flux_tot (units of input spectrum!)]
 7.35367E-13                             [Mini_tot (???)]
 3.67392E-13                             [Mcor_tot (???)]

 -95.21                                  [v0_min  (km/s)]
 247.44                                  [vd_min  (km/s)]
-0.5481                                  [AV_min  (mag)]
 0.0000                                  [YAV_min (mag)]

# j     x_j(%)      Mini_j(%)     Mcor_j(%)     age_j(yr)     Z_j      (L/M)_j    YAV?  Mstars   component_j        a/Fe...       SSP_chi2r SSP_adev(%)   SSP_AV   SSP_x(%)
  1      0.0000     0.0000E+00    0.0000E+00    1.000000E+06  0.00400  1.094E-02    0   1.0000   age020_m42            0.0000     4.9400E+00    12.6001   4.0000    71.0656
  2      0.0000     0.0000E+00    0.0000E+00    3.160000E+06  0.00400  4.007E-02    0   0.9999   age045_m42            0.0000     4.3403E+00    12.2602   3.3052    75.2541
  3      0.0000     0.0000E+00    0.0000E+00    5.010000E+06  0.00400  2.539E-02    0   0.9488   age055_m42            0.0000     4.6837E+00    12.7675   3.6536    72.3066
  4      0.0000     0.0000E+00    0.0000E+00    6.610000E+06  0.00400  2.620E-02    0   0.9220   age061_m42            0.0000     4.4679E+00    12.4053   3.2335    75.3009
  5      0.0000     0.0000E+00    0.0000E+00    1.000000E+07  0.00400  1.322E-02    0   0.8862   age070_m42            0.0000     5.2327E+00    13.5131   2.9428    76.8811
  6      0.0000     0.0000E+00    0.0000E+00    1.445000E+07  0.00400  7.883E-03    0   0.8571   age078_m42            0.0000     5.3213E+00    13.7027   3.2874    74.2914
  7      0.0000     0.0000E+00    0.0000E+00    2.512000E+07  0.00400  5.251E-03    0   0.8174   age090_m42            0.0000     5.3518E+00    13.6641   2.8064    77.4902
  8      0.0000     0.0000E+00    0.0000E+00    4.000000E+07  0.00400  3.649E-03    0   0.7851   age104_m42            0.0000     5.0796E+00    13.2673   2.5639    78.7949
  9      0.0000     0.0000E+00    0.0000E+00    5.500000E+07  0.00400  3.098E-03    0   0.7629   age110_m42            0.0000     4.7177E+00    12.6680   2.7169    78.9920
 10      0.0000     0.0000E+00    0.0000E+00    1.015200E+08  0.00400  2.228E-03    0   0.7207   age116_m42            0.0000     4.4849E+00    12.2473   2.7370    79.2705
 11      0.0000     0.0000E+00    0.0000E+00    2.861200E+08  0.00400  1.093E-03    0   0.6648   age125_m42            0.0000     4.4470E+00    12.3017   2.1331    83.0292
 12      0.0000     0.0000E+00    0.0000E+00    5.088000E+08  0.00400  6.597E-04    0   0.6365   age130_m42            0.0000     3.8844E+00    11.3962   2.1071    84.6105
 13      0.0000     0.0000E+00    0.0000E+00    1.434000E+09  0.00400  2.132E-04    0   0.5798   age139_m42            0.0000     2.7606E+00     9.6264   1.0679    89.4629
 14      0.0000     0.0000E+00    0.0000E+00    4.250000E+09  0.00400  5.895E-05    0   0.5377   age158_m42            0.0000     2.0217E+00     8.4033   0.6063    87.2258
 15      0.0000     0.0000E+00    0.0000E+00    7.500000E+09  0.00400  3.510E-05    0   0.5212   age171_m42            0.0000     1.7743E+00     7.8677   0.4053    87.3620
 16      0.0000     0.0000E+00    0.0000E+00    1.300000E+10  0.00400  2.005E-05    0   0.5034   age193_m42            0.0000     1.6056E+00     7.4766   0.2301    87.4608
 17      0.0000     0.0000E+00    0.0000E+00    1.800000E+10  0.00400  1.525E-05    0   0.4967   age213_m42            0.0000     1.6529E+00     7.5487   0.2114    86.8452
 18      0.0000     0.0000E+00    0.0000E+00    1.000000E+06  0.00800  1.238E-02    0   1.0000   age020_m52            0.0000     4.9331E+00    12.6104   4.0000    71.0928
 19      0.0000     0.0000E+00    0.0000E+00    3.160000E+06  0.00800  3.074E-02    0   0.9966   age045_m52            0.0000     4.8461E+00    13.0204   4.0000    69.3705
 20      0.0000     0.0000E+00    0.0000E+00    5.010000E+06  0.00800  2.668E-02    0   0.9443   age055_m52            0.0000     4.7582E+00    12.8920   3.7428    71.3921
 21      0.0000     0.0000E+00    0.0000E+00    6.610000E+06  0.00800  2.136E-02    0   0.9177   age061_m52            0.0000     4.6529E+00    12.8119   2.4131    79.0320
 22      0.0000     0.0000E+00    0.0000E+00    1.000000E+07  0.00800  1.215E-02    0   0.8827   age070_m52            0.0000     5.5246E+00    13.9916   3.1273    76.4057
 23      0.0000     0.0000E+00    0.0000E+00    1.445000E+07  0.00800  8.717E-03    0   0.8552   age078_m52            0.0000     5.2515E+00    13.5895   3.2468    75.5397
 24      0.0000     0.0000E+00    0.0000E+00    2.512000E+07  0.00800  5.592E-03    0   0.8162   age090_m52            0.0000     5.3140E+00    13.6113   2.8648    78.6118
 25      0.0000     0.0000E+00    0.0000E+00    4.000000E+07  0.00800  3.896E-03    0   0.7841   age104_m52            0.0000     5.0089E+00    13.1675   2.7649    79.8330
 26      0.0000     0.0000E+00    0.0000E+00    1.015200E+08  0.00800  2.148E-03    0   0.7226   age116_m52            0.0000     4.4935E+00    12.4034   2.6918    80.3728
 27      0.0000     0.0000E+00    0.0000E+00    2.861200E+08  0.00800  9.925E-04    0   0.6683   age125_m52            0.0000     3.8482E+00    11.3363   2.1701    85.5207
 28      8.8447     2.0815E-01    2.5572E-01    9.047900E+08  0.00800  3.141E-04    0   0.6138   age135_m52            0.0000     2.2509E+00     9.0427   1.2712    94.1183
 29      0.0000     0.0000E+00    0.0000E+00    1.434000E+09  0.00800  1.719E-04    0   0.5853   age139_m52            0.0000     2.0610E+00     8.6137   0.6945    92.0843
 30      0.0000     0.0000E+00    0.0000E+00    2.500000E+09  0.00800  7.872E-05    0   0.5600   age150_m52            0.0000     1.6079E+00     7.5373   0.4141    90.4106
 31      0.0000     0.0000E+00    0.0000E+00    4.250000E+09  0.00800  4.336E-05    0   0.5426   age158_m52            0.0000     1.5998E+00     7.5040   0.3963    89.6936
 32      0.0000     0.0000E+00    0.0000E+00    6.250000E+09  0.00800  3.159E-05    0   0.5319   age166_m52            0.0000     1.3342E+00     6.8626   0.1754    90.7164
 33      0.0000     0.0000E+00    0.0000E+00    1.300000E+10  0.00800  1.361E-05    0   0.5073   age193_m52            0.0000     1.0531E+00     6.1405  -0.3188    91.4960
 34     13.7931     1.0313E+01    1.0301E+01    1.800000E+10  0.00800  9.886E-06    0   0.4990   age213_m52            0.0000     9.2417E-01     5.8600  -0.4393    91.7894
 35      0.0000     0.0000E+00    0.0000E+00    1.000000E+06  0.02000  1.544E-02    0   1.0000   age020_m62            0.0000     4.9455E+00    12.6492   4.0000    71.1263
 36      0.0000     0.0000E+00    0.0000E+00    3.160000E+06  0.02000  3.762E-02    0   0.9858   age045_m62            0.0000     4.8918E+00    13.0012   4.0000    69.8593
 37      0.0000     0.0000E+00    0.0000E+00    5.010000E+06  0.02000  3.296E-02    0   0.9342   age055_m62            0.0000     4.5267E+00    12.4949   3.6090    73.4149
 38      0.0000     0.0000E+00    0.0000E+00    8.710000E+06  0.02000  1.154E-02    0   0.8861   age067_m62            0.0000     7.7182E+00    16.9452   2.5721    78.0193
 39      0.0000     0.0000E+00    0.0000E+00    1.445000E+07  0.02000  7.663E-03    0   0.8472   age078_m62            0.0000     5.9185E+00    14.6349   2.7575    78.6326
 40      0.0000     0.0000E+00    0.0000E+00    2.512000E+07  0.02000  4.532E-03    0   0.8099   age090_m62            0.0000     6.1340E+00    14.8844   2.7539    78.2113
 41      0.0000     0.0000E+00    0.0000E+00    5.500000E+07  0.02000  2.733E-03    0   0.7595   age110_m62            0.0000     5.0817E+00    13.2611   2.7561    78.9080
 42      0.0000     0.0000E+00    0.0000E+00    1.609000E+08  0.02000  1.369E-03    0   0.6985   age120_m62            0.0000     4.4400E+00    12.1281   2.5698    82.3732
 43      0.0000     0.0000E+00    0.0000E+00    2.861200E+08  0.02000  9.013E-04    0   0.6714   age125_m62            0.0000     3.9187E+00    11.2750   2.2838    86.3949
 44      0.0000     0.0000E+00    0.0000E+00    5.088000E+08  0.02000  5.028E-04    0   0.6449   age130_m62            0.0000     2.7449E+00     9.6707   1.8440    91.9054
 45      0.0000     0.0000E+00    0.0000E+00    9.047900E+08  0.02000  2.428E-04    0   0.6179   age135_m62            0.0000     1.9286E+00     8.3381   1.2145    93.6148
 46      0.0001     3.1926E-06    3.7753E-06    1.434000E+09  0.02000  1.263E-04    0   0.5908   age139_m62            0.0000     1.7035E+00     7.7214   0.7605    92.7779
 47      0.0000     0.0000E+00    0.0000E+00    2.500000E+09  0.02000  5.985E-05    0   0.5673   age150_m62            0.0000     1.4016E+00     6.9632   0.3827    92.2817
 48      0.0000     0.0000E+00    0.0000E+00    4.250000E+09  0.02000  3.271E-05    0   0.5468   age158_m62            0.0000     1.0848E+00     6.2068   0.0548    92.7893
 49      0.0000     0.0000E+00    0.0000E+00    1.000000E+10  0.02000  1.360E-05    0   0.5167   age181_m62            0.0000     8.7692E-01     5.7795  -0.3246    94.1303
 50     29.4485     3.0556E+01    3.0660E+01    1.800000E+10  0.02000  7.124E-06    0   0.5013   age213_m62            0.0000     8.5195E-01     5.8108  -0.5456    94.1371
 51      0.0000     0.0000E+00    0.0000E+00    1.000000E+06  0.05000  2.592E-02    0   0.9998   age020_m72            0.0000     5.0025E+00    12.7820   4.0000    70.8597
 52      0.0000     0.0000E+00    0.0000E+00    3.160000E+06  0.05000  4.845E-02    0   0.9577   age045_m72            0.0000     4.7270E+00    12.8480   3.8958    70.4657
 53      0.0000     0.0000E+00    0.0000E+00    5.010000E+06  0.05000  3.072E-02    0   0.9147   age055_m72            0.0000     5.5335E+00    14.2463   3.3792    74.6637
 54      0.0000     0.0000E+00    0.0000E+00    6.610000E+06  0.05000  1.455E-02    0   0.8877   age061_m72            0.0000     9.2243E+00    19.3241   2.6319    78.3671
 55      0.0000     0.0000E+00    0.0000E+00    1.000000E+07  0.05000  9.074E-03    0   0.8524   age070_m72            0.0000     5.7443E+00    14.6985   3.5816    74.1075
 56      0.0000     0.0000E+00    0.0000E+00    2.512000E+07  0.05000  4.250E-03    0   0.7902   age090_m72            0.0000     5.5590E+00    14.2351   3.2513    76.3571
 57      0.0000     0.0000E+00    0.0000E+00    4.000000E+07  0.05000  3.087E-03    0   0.7618   age104_m72            0.0000     5.6276E+00    14.2846   3.0108    78.0349
 58      0.0000     0.0000E+00    0.0000E+00    1.015200E+08  0.05000  1.700E-03    0   0.7096   age116_m72            0.0000     4.7656E+00    12.6887   2.7206    81.5959
 59      0.0000     0.0000E+00    0.0000E+00    2.861200E+08  0.05000  7.384E-04    0   0.6633   age125_m72            0.0000     3.3271E+00    10.4106   2.1204    89.1584
 60      0.0000     0.0000E+00    0.0000E+00    5.088000E+08  0.05000  3.819E-04    0   0.6372   age130_m72            0.0000     2.2577E+00     8.7615   1.5749    93.3576
 61      0.0000     0.0000E+00    0.0000E+00    9.047900E+08  0.05000  1.676E-04    0   0.6110   age135_m72            0.0000     1.5313E+00     7.2661   0.8477    93.5744
 62      0.0000     0.0000E+00    0.0000E+00    1.434000E+09  0.05000  8.837E-05    0   0.5874   age139_m72            0.0000     1.3074E+00     6.6936   0.3735    94.0831
 63      0.0000     0.0000E+00    0.0000E+00    2.500000E+09  0.05000  4.233E-05    0   0.5598   age150_m72            0.0000     9.9768E-01     6.0212   0.0453    94.0865
 64      0.0013     6.4670E-04    6.7945E-04    6.250000E+09  0.05000  1.435E-05    0   0.5249   age166_m72            0.0000     8.5175E-01     5.7297  -0.4214    93.8044
 65     22.3984     2.5421E+01    2.5624E+01    1.300000E+10  0.05000  6.513E-06    0   0.5036   age193_m72            0.0000     8.7684E-01     5.9119  -0.7116    95.4563
 66     20.5169     3.3501E+01    3.3159E+01    1.800000E+10  0.05000  4.527E-06    0   0.4945   age213_m72            0.0000     9.5889E-01     6.1852  -0.8715    95.4036


## Synthesis Results - Average & Chains ##

# j      x_j: min, <> & last-chain-values for 1 ...  7 chains
  1      0.0000      0.0124      0.0000      0.0000      0.0000      0.0000      0.0000      0.0838      0.0000
  2      0.0000      0.0070      0.0000      0.0000      0.0000      0.0000      0.0000      0.0000      0.0000
  3      0.0000      0.0055      0.0000      0.0000      0.0000      0.0000      0.0000      0.0000      0.0000
  4      0.0000      0.0167      0.0000      0.0000      0.0000      0.0000      0.0000      0.0000      0.0000
  5      0.0000      0.0081      0.0000      0.0000      0.0000      0.0000      0.0000      0.0000      0.0049
  6      0.0000      0.0044      0.0000      0.0000      0.0000      0.0000      0.0000      0.0000      0.0000
  7      0.0000      0.0235      0.0000      0.0000      0.0000      0.0000      0.0000      0.0000      0.0000
  8      0.0000      0.0254      0.0000      0.0000      0.0284      0.0000      0.0000      0.0454      0.0000
  9      0.0000      0.0286      0.0000      0.0000      0.0000      0.0000      0.0000      0.0000      0.0000
 10      0.0000      0.0385      0.0000      0.0000      0.0000      0.0000      0.0000      0.0000      0.0000
 11      0.0000      0.0412      0.3255      0.0000      0.0000      0.0000      0.0000      0.0000      0.0000
 12      0.0000      0.0938      0.0000      0.0000      0.1986      0.0196      0.0000      0.0000      0.0000
 13      0.0000      0.3508      0.9750      0.0826      0.0000      0.6601      0.0000      0.0968      0.3417
 14      0.0000      0.1457      0.0000      0.0000      0.2463      0.6826      0.0000      0.0000      0.0000
 15      0.0000      0.3725      0.0000      0.0000      0.0000      0.0000      0.9585      0.0000      0.0000
 16      0.0000      0.3622      0.0000      0.0000      0.0000      0.6610      0.0000      0.0000      0.0000
 17      0.0000      0.4802      0.0000      0.0000      0.4269      1.1870      0.3689      0.1020      0.0000
 18      0.0000      0.0016      0.0000      0.0000      0.0000      0.0000      0.0000      0.0000      0.0000
 19      0.0000      0.0098      0.0000      0.0000      0.0000      0.0000      0.0000      0.0000      0.0000
 20      0.0000      0.0062      0.0000      0.0000      0.0000      0.0000      0.0000      0.0000      0.0000
 21      0.0000      0.0218      0.0000      0.0000      0.0000      0.0000      0.0000      0.0000      0.0000
 22      0.0000      0.0099      0.0000      0.0000      0.0000      0.0000      0.0000      0.0000      0.0000
 23      0.0000      0.0077      0.0000      0.0000      0.0000      0.0000      0.0000      0.0000      0.0000
 24      0.0000      0.0139      0.0000      0.0000      0.0000      0.0000      0.0000      0.0000      0.0000
 25      0.0000      0.0125      0.0000      0.0000      0.0000      0.0000      0.0000      0.0000      0.0000
 26      0.0000      0.0325      0.0000      0.0000      0.0000      0.0000      0.0000      0.0000      0.0000
 27      0.0000      0.0947      0.0025      0.0000      0.0000      0.0000      0.0000      0.0000      0.2270
 28      8.8447      0.3907      0.0000      0.0000      2.4517      0.4285      0.9785      0.8156      2.0736
 29      0.0000      0.2346      0.3744      0.4527      0.0000      0.7092      1.1803      0.0000      0.5057
 30      0.0000      0.6582      0.0000      0.0000      0.0000      0.0000      0.0000      0.0000      0.5877
 31      0.0000      0.4242      0.2977      0.0000      0.4183      0.0000      0.0000      0.0000      0.0000
 32      0.0000      0.6769      0.0000      0.0000      0.0000      0.0000      0.0000      2.0352      0.0000
 33      0.0000      0.9181      0.0000      1.8588      0.0000      0.0000      0.7848      0.0000      0.9887
 34     13.7931      2.3125      3.8683      0.0000      1.3293      0.9926      0.6640      2.8139      1.9352
 35      0.0000      0.0078      0.0000      0.0000      0.0000      0.0000      0.0000      0.0000      0.0000
 36      0.0000      0.0058      0.0000      0.0000      0.0000      0.0000      0.0000      0.0000      0.0000
 37      0.0000      0.0036      0.0840      0.0000      0.0000      0.0000      0.0000      0.0000      0.0000
 38      0.0000      0.0082      0.0000      0.0000      0.0000      0.0000      0.0000      0.0000      0.0000
 39      0.0000      0.0179      0.0000      0.0000      0.0000      0.0000      0.0000      0.0000      0.0000
 40      0.0000      0.0134      0.0000      0.0000      0.0000      0.0000      0.0000      0.0000      0.0000
 41      0.0000      0.0201      0.0000      0.0000      0.0000      0.0000      0.0000      0.1022      0.0000
 42      0.0000      0.0283      0.0000      0.0000      0.0000      0.0000      0.0000      0.0000      0.0000
 43      0.0000      0.0859      0.0000      0.0000      0.0000      0.0000      0.0000      0.0000      0.0000
 44      0.0000      0.7937      0.7927      0.6179      0.1833      0.4568      1.0037      0.2690      1.5795
 45      0.0000      0.6429      0.3583      2.4333      0.0000      0.8463      2.4178      0.0000      0.9444
 46      0.0001      0.5814      0.0000      0.0000      0.7765      1.5159      1.8510      1.4416      0.0000
 47      0.0000      0.1249      0.0000      0.0000      0.0000      0.0000      0.0000      0.0000      0.0000
 48      0.0000      1.6365      0.0000      3.0195      5.3643      1.1991      0.9693      0.1235      1.4790
 49      0.0000      9.5429      6.5343      5.0944     12.9585      8.4241      6.4536      8.6362      6.1369
 50     29.4485     46.1928     48.3486     53.0714     53.7462     48.7062     45.5915     51.0015     45.0624
 51      0.0000      0.0100      0.0000      0.0000      0.0000      0.0000      0.0000      0.0000      0.0000
 52      0.0000      0.0070      0.0000      0.0000      0.0000      0.0000      0.0000      0.0000      0.0000
 53      0.0000      0.0059      0.0000      0.0000      0.0000      0.0000      0.0000      0.0000      0.0000
 54      0.0000      0.0050      0.0000      0.0000      0.0000      0.0000      0.0000      0.0000      0.0000
 55      0.0000      0.0058      0.0000      0.0000      0.0000      0.0000      0.0000      0.0000      0.0000
 56      0.0000      0.0050      0.0000      0.0000      0.0000      0.0000      0.0000      0.0000      0.0000
 57      0.0000      0.0223      0.0000      0.0000      0.0000      0.0000      0.0000      0.0000      0.0000
 58      0.0000      0.0326      0.0000      0.0000      0.0000      0.0000      0.0000      0.0000      0.0000
 59      0.0000      0.0856      0.0000      0.9112      0.3045      0.0000      0.0000      0.0108      0.1537
 60      0.0000      0.2191      0.4605      0.4960      0.0000      0.0502      0.0000      1.4086      0.0000
 61      0.0000      0.5785      3.9914      2.8185      0.0000      0.0000      0.0000      0.0000      0.0000
 62      0.0000      0.4015      0.0000      0.3549      1.0659      0.1950      0.4709      0.0000      0.0000
 63      0.0000      5.1908      5.5300      5.4223      1.1084      5.0221      6.6532      9.8697      9.6815
 64      0.0013      9.7991     11.7477     10.2796      1.4073     14.8580     10.7564      8.3220     12.7442
 65     22.3984      3.8417      5.1502      3.8237      4.3448      4.5289      5.4177      0.9053      2.8623
 66     20.5169      5.0522      4.3575      2.9835      6.9337      1.7087      6.8619      4.8659      5.9159

# j      m_j: min, <> & last-chain-values for 1 ...  7 chains
  1  0.0000E+00  2.2103E-05  0.0000E+00  0.0000E+00  0.0000E+00  0.0000E+00  0.0000E+00  1.4883E-04  0.0000E+00
  2  0.0000E+00  3.3943E-06  0.0000E+00  0.0000E+00  0.0000E+00  0.0000E+00  0.0000E+00  0.0000E+00  0.0000E+00
  3  0.0000E+00  4.0367E-06  0.0000E+00  0.0000E+00  0.0000E+00  0.0000E+00  0.0000E+00  0.0000E+00  0.0000E+00
  4  0.0000E+00  1.1448E-05  0.0000E+00  0.0000E+00  0.0000E+00  0.0000E+00  0.0000E+00  0.0000E+00  0.0000E+00
  5  0.0000E+00  1.0599E-05  0.0000E+00  0.0000E+00  0.0000E+00  0.0000E+00  0.0000E+00  0.0000E+00  6.5521E-06
  6  0.0000E+00  9.2228E-06  0.0000E+00  0.0000E+00  0.0000E+00  0.0000E+00  0.0000E+00  0.0000E+00  0.0000E+00
  7  0.0000E+00  7.1240E-05  0.0000E+00  0.0000E+00  0.0000E+00  0.0000E+00  0.0000E+00  0.0000E+00  0.0000E+00
  8  0.0000E+00  1.0637E-04  0.0000E+00  0.0000E+00  1.0863E-04  0.0000E+00  0.0000E+00  1.8981E-04  0.0000E+00
  9  0.0000E+00  1.3712E-04  0.0000E+00  0.0000E+00  0.0000E+00  0.0000E+00  0.0000E+00  0.0000E+00  0.0000E+00
 10  0.0000E+00  2.4256E-04  0.0000E+00  0.0000E+00  0.0000E+00  0.0000E+00  0.0000E+00  0.0000E+00  0.0000E+00
 11  0.0000E+00  4.8837E-04  3.7722E-03  0.0000E+00  0.0000E+00  0.0000E+00  0.0000E+00  0.0000E+00  0.0000E+00
 12  0.0000E+00  1.7629E-03  0.0000E+00  0.0000E+00  3.4038E-03  3.7524E-04  0.0000E+00  0.0000E+00  0.0000E+00
 13  0.0000E+00  1.8581E-02  5.0525E-02  4.3690E-03  0.0000E+00  3.5602E-02  0.0000E+00  5.1130E-03  1.8436E-02
 14  0.0000E+00  2.5880E-02  0.0000E+00  0.0000E+00  3.9914E-02  1.2348E-01  0.0000E+00  0.0000E+00  0.0000E+00
 15  0.0000E+00  1.0771E-01  0.0000E+00  0.0000E+00  0.0000E+00  0.0000E+00  2.7193E-01  0.0000E+00  0.0000E+00
 16  0.0000E+00  1.7711E-01  0.0000E+00  0.0000E+00  0.0000E+00  3.2914E-01  0.0000E+00  0.0000E+00  0.0000E+00
 17  0.0000E+00  3.0460E-01  0.0000E+00  0.0000E+00  2.4705E-01  7.6677E-01  2.2958E-01  6.4555E-02  0.0000E+00
 18  0.0000E+00  2.4827E-06  0.0000E+00  0.0000E+00  0.0000E+00  0.0000E+00  0.0000E+00  0.0000E+00  0.0000E+00
 19  0.0000E+00  6.2069E-06  0.0000E+00  0.0000E+00  0.0000E+00  0.0000E+00  0.0000E+00  0.0000E+00  0.0000E+00
 20  0.0000E+00  4.2507E-06  0.0000E+00  0.0000E+00  0.0000E+00  0.0000E+00  0.0000E+00  0.0000E+00  0.0000E+00
 21  0.0000E+00  1.8217E-05  0.0000E+00  0.0000E+00  0.0000E+00  0.0000E+00  0.0000E+00  0.0000E+00  0.0000E+00
 22  0.0000E+00  1.3974E-05  0.0000E+00  0.0000E+00  0.0000E+00  0.0000E+00  0.0000E+00  0.0000E+00  0.0000E+00
 23  0.0000E+00  1.4672E-05  0.0000E+00  0.0000E+00  0.0000E+00  0.0000E+00  0.0000E+00  0.0000E+00  0.0000E+00
 24  0.0000E+00  3.9634E-05  0.0000E+00  0.0000E+00  0.0000E+00  0.0000E+00  0.0000E+00  0.0000E+00  0.0000E+00
 25  0.0000E+00  4.8884E-05  0.0000E+00  0.0000E+00  0.0000E+00  0.0000E+00  0.0000E+00  0.0000E+00  0.0000E+00
 26  0.0000E+00  2.1318E-04  0.0000E+00  0.0000E+00  0.0000E+00  0.0000E+00  0.0000E+00  0.0000E+00  0.0000E+00
 27  0.0000E+00  1.2418E-03  3.1772E-05  0.0000E+00  0.0000E+00  0.0000E+00  0.0000E+00  0.0000E+00  3.0326E-03
 28  2.5572E-01  1.4870E-02  0.0000E+00  0.0000E+00  8.5125E-02  1.6607E-02  3.6534E-02  3.0969E-02  8.0390E-02
 29  0.0000E+00  1.5556E-02  2.4295E-02  2.9989E-02  0.0000E+00  4.7891E-02  7.6791E-02  0.0000E+00  3.4160E-02
 30  0.0000E+00  9.1190E-02  0.0000E+00  0.0000E+00  0.0000E+00  0.0000E+00  0.0000E+00  0.0000E+00  8.2937E-02
 31  0.0000E+00  1.0338E-01  7.0981E-02  0.0000E+00  9.3014E-02  0.0000E+00  0.0000E+00  0.0000E+00  0.0000E+00
 32  0.0000E+00  2.2194E-01  0.0000E+00  0.0000E+00  0.0000E+00  0.0000E+00  0.0000E+00  6.6586E-01  0.0000E+00
 33  0.0000E+00  6.6641E-01  0.0000E+00  1.3479E+00  0.0000E+00  0.0000E+00  5.5895E-01  0.0000E+00  7.3113E-01
 34  1.0301E+01  2.2731E+00  3.7206E+00  0.0000E+00  1.1921E+00  9.9364E-01  6.4038E-01  2.7598E+00  1.9378E+00
 35  0.0000E+00  9.8149E-06  0.0000E+00  0.0000E+00  0.0000E+00  0.0000E+00  0.0000E+00  0.0000E+00  0.0000E+00
 36  0.0000E+00  2.9800E-06  0.0000E+00  0.0000E+00  0.0000E+00  0.0000E+00  0.0000E+00  0.0000E+00  0.0000E+00
 37  0.0000E+00  1.9773E-06  4.5378E-05  0.0000E+00  0.0000E+00  0.0000E+00  0.0000E+00  0.0000E+00  0.0000E+00
 38  0.0000E+00  1.2305E-05  0.0000E+00  0.0000E+00  0.0000E+00  0.0000E+00  0.0000E+00  0.0000E+00  0.0000E+00
 39  0.0000E+00  3.8493E-05  0.0000E+00  0.0000E+00  0.0000E+00  0.0000E+00  0.0000E+00  0.0000E+00  0.0000E+00
 40  0.0000E+00  4.6661E-05  0.0000E+00  0.0000E+00  0.0000E+00  0.0000E+00  0.0000E+00  0.0000E+00  0.0000E+00
 41  0.0000E+00  1.0856E-04  0.0000E+00  0.0000E+00  0.0000E+00  0.0000E+00  0.0000E+00  5.5190E-04  0.0000E+00
 42  0.0000E+00  2.8075E-04  0.0000E+00  0.0000E+00  0.0000E+00  0.0000E+00  0.0000E+00  0.0000E+00  0.0000E+00
 43  0.0000E+00  1.2465E-03  0.0000E+00  0.0000E+00  0.0000E+00  0.0000E+00  0.0000E+00  0.0000E+00  0.0000E+00
 44  0.0000E+00  1.9826E-02  1.9373E-02  1.5418E-02  4.1771E-03  1.1621E-02  2.4599E-02  6.7051E-03  4.0192E-02
 45  0.0000E+00  3.1861E-02  1.7377E-02  1.2048E-01  0.0000E+00  4.2714E-02  1.1757E-01  0.0000E+00  4.7682E-02
 46  3.7753E-06  5.2965E-02  0.0000E+00  0.0000E+00  6.4541E-02  1.4064E-01  1.6544E-01  1.3103E-01  0.0000E+00
 47  0.0000E+00  2.3051E-02  0.0000E+00  0.0000E+00  0.0000E+00  0.0000E+00  0.0000E+00  0.0000E+00  0.0000E+00
 48  0.0000E+00  5.3275E-01  0.0000E+00  9.8198E-01  1.5933E+00  3.9757E-01  3.0961E-01  4.0131E-02  4.9049E-01
 49  0.0000E+00  7.0606E+00  4.7306E+00  3.7655E+00  8.7476E+00  6.3477E+00  4.6849E+00  6.3755E+00  4.6255E+00
 50  3.0660E+01  6.3301E+01  6.4830E+01  7.2654E+01  6.7198E+01  6.7976E+01  6.1299E+01  6.9734E+01  6.2907E+01
 51  0.0000E+00  7.5442E-06  0.0000E+00  0.0000E+00  0.0000E+00  0.0000E+00  0.0000E+00  0.0000E+00  0.0000E+00
 52  0.0000E+00  2.6807E-06  0.0000E+00  0.0000E+00  0.0000E+00  0.0000E+00  0.0000E+00  0.0000E+00  0.0000E+00
 53  0.0000E+00  3.4363E-06  0.0000E+00  0.0000E+00  0.0000E+00  0.0000E+00  0.0000E+00  0.0000E+00  0.0000E+00
 54  0.0000E+00  5.8937E-06  0.0000E+00  0.0000E+00  0.0000E+00  0.0000E+00  0.0000E+00  0.0000E+00  0.0000E+00
 55  0.0000E+00  1.0523E-05  0.0000E+00  0.0000E+00  0.0000E+00  0.0000E+00  0.0000E+00  0.0000E+00  0.0000E+00
 56  0.0000E+00  1.8188E-05  0.0000E+00  0.0000E+00  0.0000E+00  0.0000E+00  0.0000E+00  0.0000E+00  0.0000E+00
 57  0.0000E+00  1.0728E-04  0.0000E+00  0.0000E+00  0.0000E+00  0.0000E+00  0.0000E+00  0.0000E+00  0.0000E+00
 58  0.0000E+00  2.6495E-04  0.0000E+00  0.0000E+00  0.0000E+00  0.0000E+00  0.0000E+00  0.0000E+00  0.0000E+00
 59  0.0000E+00  1.4970E-03  0.0000E+00  1.5925E-02  4.8601E-03  0.0000E+00  0.0000E+00  1.8814E-04  2.7397E-03
 60  0.0000E+00  7.1197E-03  1.4641E-02  1.6100E-02  0.0000E+00  1.6628E-03  0.0000E+00  4.5667E-02  0.0000E+00
 61  0.0000E+00  4.1071E-02  2.7727E-01  1.9990E-01  0.0000E+00  0.0000E+00  0.0000E+00  0.0000E+00  0.0000E+00
 62  0.0000E+00  5.1967E-02  0.0000E+00  4.5896E-02  1.2589E-01  2.5703E-02  5.9801E-02  0.0000E+00  0.0000E+00
 63  0.0000E+00  1.3369E+00  1.3936E+00  1.3951E+00  2.6045E-01  1.3173E+00  1.6812E+00  2.5362E+00  2.5400E+00
 64  6.7945E-04  6.9803E+00  8.1883E+00  7.3152E+00  9.1463E-01  1.0779E+01  7.5177E+00  5.9148E+00  9.2480E+00
 65  2.5624E+01  5.7849E+00  7.5883E+00  5.7519E+00  5.9690E+00  6.9453E+00  8.0042E+00  1.3602E+00  4.3906E+00
 66  3.3159E+01  1.0747E+01  9.0701E+00  6.3402E+00  1.3457E+01  3.7017E+00  1.4322E+01  1.0328E+01  1.2820E+01

# AV, chi2 & Mass for <> & i_chain = 1 ...  7 solutions
AV      -0.5481     -0.3738     -0.3933     -0.3759     -0.4227     -0.3834     -0.3852     -0.3809     -0.3706
chi2 8.3269E-01  8.6413E-01  8.5687E-01  8.5790E-01  8.5173E-01  8.5868E-01  8.5591E-01  8.5908E-01  8.5839E-01
Mass 3.6739E-13  3.5275E-13  3.5119E-13  3.5209E-13  3.6204E-13  3.4189E-13  3.5407E-13  3.5018E-13  3.4773E-13
 -95.21                                  [v0_min (km/s) before EX0s...]
 247.44                                  [vd_min (km/s) before EX0s...]


## Synthetic spectrum (Best Model) ##l_obs f_obs f_syn wei
 3478    [Nl_obs]
 3741.00    0.22425   0.36743    0.000
 3742.00    0.29252   0.35392    0.000
 3743.00    0.24783   0.33593    0.000
 3744.00    0.12580   0.31883    0.000
 3745.00    0.05437   0.30704   -1.000
 3746.00    0.16003   0.30350   -1.000
 3747.00    0.38685   0.30861   25.850
 3748.00    0.56932   0.32173   -1.000
 3749.00    0.62878   0.34413   -1.000
 3750.00    0.58041   0.37410   -1.000
 3751.00    0.48274   0.40394   20.715
 3752.00    0.38269   0.42601   26.131
 3753.00    0.25213   0.43914   -1.000
 3754.00    0.06025   0.44543   -1.000
 3755.00   -0.12307   0.44398   -2.000
 3756.00   -0.19757   0.43373   -2.000
 3757.00   -0.13297   0.41846   -2.000
 3758.00    0.03274   0.40579   -1.000
 3759.00    0.21459   0.40043   -1.000
 3760.00    0.35345   0.40000   28.293
 3761.00    0.47692   0.39990   20.968
 3762.00    0.61375   0.39994   -1.000
 3763.00    0.72183   0.40352   -1.000
 3764.00    0.76836   0.41248   -1.000
 3765.00    0.78945   0.42431   -1.000
 3766.00    0.81503   0.43688   -1.000
 3767.00    0.82127   0.45299   -1.000
 3768.00    0.80158   0.47378   -1.000
 3769.00    0.80229   0.49432   -1.000
 3770.00    0.84156   0.51109   -1.000
 3771.00    0.86775   0.52579   -1.000
 3772.00    0.80447   0.53885   -1.000
 3773.00    0.60054   0.54834   16.652
 3774.00    0.34308   0.55489   -1.000
 3775.00    0.23758   0.56121   -1.000
 3776.00    0.29277   0.56827   -1.000
 3777.00    0.28104   0.57494   -1.000
 3778.00    0.12232   0.58088   -1.000
 3779.00   -0.03214   0.58605   -2.000
 3780.00   -0.04809   0.58678   -2.000
 3781.00    0.09911   0.57975   -1.000
 3782.00    0.32373   0.56664   -1.000
 3783.00    0.48510   0.54942   20.614
 3784.00    0.53893   0.52775   18.555
 3785.00    0.53916   0.50210   18.547
 3786.00    0.53025   0.47713   18.859
 3787.00    0.52314   0.45718   19.115
 3788.00    0.50665   0.44157   19.737
 3789.00    0.45877   0.42911   21.798
 3790.00    0.36411   0.42050   27.464
 3791.00    0.22590   0.41478   -1.000
 3792.00    0.07991   0.40761   -1.000
 3793.00   -0.02878   0.39805   -2.000
 3794.00   -0.08841   0.39041   -2.000
 3795.00   -0.10639   0.38838   -2.000
 3796.00   -0.07781   0.39154   -2.000
 3797.00   -0.00005   0.39784   -2.000
 3798.00    0.10187   0.40868   -1.000
 3799.00    0.19199   0.42591   -1.000
 3800.00    0.24987   0.44666   -1.000
 3801.00    0.28806   0.46517   -1.000
 3802.00    0.36078   0.47928   27.718
 3803.00    0.47930   0.49041   20.864
 3804.00    0.54037   0.49805   18.506
 3805.00    0.48159   0.50087   20.765
 3806.00    0.41024   0.49937   24.376
 3807.00    0.41438   0.49583   24.132
 3808.00    0.41827   0.49131   23.908
 3809.00    0.36159   0.48372   27.655
 3810.00    0.32058   0.47091   31.194
 3811.00    0.34685   0.45366   28.831
 3812.00    0.37427   0.43430   26.719
 3813.00    0.36276   0.41408   27.566
 3814.00    0.36454   0.39360   27.432
 3815.00    0.37642   0.37411   26.566
 3816.00    0.29292   0.35876   34.139
 3817.00    0.09491   0.34829   -1.000
 3818.00   -0.09239   0.33822   -2.000
 3819.00   -0.17447   0.32582   -2.000
 3820.00   -0.15740   0.31446   -2.000
 3821.00   -0.09812   0.30736   -2.000
 3822.00   -0.06070   0.30234   -2.000
 3823.00   -0.03961   0.29560   -2.000
 3824.00    0.02574   0.28804   -1.000
 3825.00    0.11434   0.28338   -1.000
 3826.00    0.12902   0.28179   -1.000
 3827.00    0.04571   0.28065   -1.000
 3828.00   -0.07036   0.27911   -2.000
 3829.00   -0.14272   0.27813   -2.000
 3830.00   -0.11888   0.27811   -2.000
 3831.00   -0.00104   0.27768   -2.000
 3832.00    0.15876   0.27610   -1.000
 3833.00    0.28642   0.27518   34.914
 3834.00    0.32823   0.27664   30.466
 3835.00    0.31758   0.28029   31.488
 3836.00    0.31855   0.28532   31.392
 3837.00    0.30880   0.29221   32.383
 3838.00    0.24288   0.30234   41.115
 3839.00    0.17968   0.31612   -1.000
 3840.00    0.20422   0.33238   -1.000
 3841.00    0.29132   0.35051   34.327
 3842.00    0.35695   0.36940   28.015
 3843.00    0.35127   0.38522   28.468
 3844.00    0.28742   0.39527   34.792
 3845.00    0.25296   0.40044   -1.000
 3846.00    0.30938   0.40353   32.322
 3847.00    0.39506   0.40520    0.000
 3848.00    0.43505   0.40324    0.000
 3849.00    0.44748   0.39789    0.000
 3850.00    0.47090   0.39268    0.000
 3851.00    0.49750   0.38883    0.000
 3852.00    0.50859   0.38352    0.000
 3853.00    0.50395   0.37486    0.000
 3854.00    0.48319   0.36471    0.000
 3855.00    0.43425   0.35556    0.000
 3856.00    0.35442   0.34931    0.000
 3857.00    0.26341   0.34743    0.000
 3858.00    0.19826   0.34888    0.000
 3859.00    0.20176   0.35297    0.000
 3860.00    0.28100   0.36089    0.000
 3861.00    0.39303   0.37233    0.000
 3862.00    0.47935   0.38367    0.000
 3863.00    0.49156   0.39071    0.000
 3864.00    0.42721   0.39270    0.000
 3865.00    0.33493   0.39135    0.000
 3866.00    0.27748   0.38803    0.000
 3867.00    0.30115   0.38324    0.000
 3868.00    0.38433   0.37828    0.000
 3869.00    0.44902   0.37552    0.000
 3870.00    0.44885   0.37577    0.000
 3871.00    0.38928   0.37821    0.000
 3872.00    0.30559   0.38160    0.000
 3873.00    0.24343   0.38558    0.000
 3874.00    0.22750   0.38998    0.000
 3875.00    0.25513   0.39257    0.000
 3876.00    0.30050   0.39053    0.000
 3877.00    0.33397   0.38496    0.000
 3878.00    0.35714   0.38152    0.000
 3879.00    0.38288   0.38336    0.000
 3880.00    0.38808   0.38527    0.000
 3881.00    0.34838   0.38346   28.704
 3882.00    0.30565   0.38348   32.717
 3883.00    0.31389   0.38979   31.858
 3884.00    0.34728   0.39752   28.795
 3885.00    0.36283   0.40290   27.561
 3886.00    0.39690   0.41190   25.195
 3887.00    0.49675   0.42932   20.131
 3888.00    0.62681   0.45063   -1.000
 3889.00    0.71950   0.47106   -1.000
 3890.00    0.74433   0.49036   -1.000
 3891.00    0.72565   0.50821   -1.000
 3892.00    0.74268   0.52252   -1.000
 3893.00    0.82781   0.53056   -1.000
 3894.00    0.88872   0.53230   -1.000
 3895.00    0.82326   0.53145   -1.000
 3896.00    0.61992   0.53227   16.131
 3897.00    0.37030   0.53279   -1.000
 3898.00    0.24524   0.52940   -1.000
 3899.00    0.30957   0.52565   -1.000
 3900.00    0.43434   0.52517   23.024
 3901.00    0.50716   0.52586   19.718
 3902.00    0.54139   0.52563   18.471
 3903.00    0.56228   0.52856   17.785
 3904.00    0.55519   0.53679   18.012
 3905.00    0.52930   0.54701   18.893
 3906.00    0.53222   0.56004   18.789
 3907.00    0.57264   0.57791   17.463
 3908.00    0.60833   0.59644   16.438
 3909.00    0.63343   0.61064   15.787
 3910.00    0.68029   0.62018   14.700
 3911.00    0.70480   0.62582   14.188
 3912.00    0.61745   0.62579   16.196
 3913.00    0.50667   0.61901   19.737
 3914.00    0.57384   0.60665   17.426
 3915.00    0.75056   0.58960   -1.000
 3916.00    0.75861   0.56877   -1.000
 3917.00    0.54491   0.54731   18.352
 3918.00    0.29117   0.52680   -1.000
 3919.00    0.16832   0.50677   -1.000
 3920.00    0.24547   0.48800   -1.000
 3921.00    0.42903   0.47143   23.308
 3922.00    0.55298   0.45576   18.084
 3923.00    0.56835   0.43842   -1.000
 3924.00    0.51938   0.41796   -1.000
 3925.00    0.44175   0.39332   22.637
 3926.00    0.35966   0.36497   27.804
 3927.00    0.30647   0.33469   32.630
 3928.00    0.29563   0.30478   33.826
 3929.00    0.28058   0.27803   35.640
 3930.00    0.21660   0.25663   41.115
 3931.00    0.14036   0.24263   41.115
 3932.00    0.11114   0.23760   -1.000
 3933.00    0.13516   0.24200   -1.000
 3934.00    0.18410   0.25507   41.115
 3935.00    0.22556   0.27529   41.115
 3936.00    0.25480   0.30047   39.246
 3937.00    0.31427   0.32791   31.820
 3938.00    0.42920   0.35527   23.299
 3939.00    0.55859   0.38055   -1.000
 3940.00    0.64707   0.40375   -1.000
 3941.00    0.66808   0.42681   -1.000
 3942.00    0.62876   0.44960   -1.000
 3943.00    0.56811   0.47007   17.602
 3944.00    0.53517   0.49079   18.686
 3945.00    0.56502   0.51608   17.698
 3946.00    0.62134   0.54224   16.094
 3947.00    0.59881   0.56227   16.700
 3948.00    0.49149   0.57762   20.346
 3949.00    0.43314   0.59425   23.087
 3950.00    0.49297   0.60994   20.285
 3951.00    0.60842   0.61681   16.436
 3952.00    0.70005   0.61494   14.285
 3953.00    0.72689   0.61203   13.757
 3954.00    0.70715   0.60823   14.141
 3955.00    0.69685   0.59549   14.350
 3956.00    0.69854   0.57230   14.316
 3957.00    0.66072   0.54518   15.135
 3958.00    0.56616   0.51714   17.663
 3959.00    0.44812   0.48504   22.316
 3960.00    0.36066   0.44669    0.000
 3961.00    0.34782   0.40611    0.000
 3962.00    0.39192   0.36930    0.000
 3963.00    0.43250   0.33743    0.000
 3964.00    0.43360   0.30877    0.000
 3965.00    0.38409   0.28486    0.000
 3966.00    0.27070   0.26966    0.000
 3967.00    0.10765   0.26519    0.000
 3968.00   -0.00633   0.27108   -2.000
 3969.00    0.03114   0.28719    0.000
 3970.00    0.18713   0.31373    0.000
 3971.00    0.36383   0.34899    0.000
 3972.00    0.52870   0.38958    0.000
 3973.00    0.68545   0.43334    0.000
 3974.00    0.81359   0.47919    0.000
 3975.00    0.87980   0.52458    0.000
 3976.00    0.86224   0.56595    0.000
 3977.00    0.77423   0.60183    0.000
 3978.00    0.68103   0.63278    0.000
 3979.00    0.64169   0.65916    0.000
 3980.00    0.65505   0.68063    0.000
 3981.00    0.69237   0.69703   14.443
 3982.00    0.73233   0.71031   13.655
 3983.00    0.78088   0.72383   12.806
 3984.00    0.87393   0.73810   11.443
 3985.00    0.99887   0.75012   -1.000
 3986.00    1.05781   0.75968   -1.000
 3987.00    0.99358   0.77025   10.065
 3988.00    0.86027   0.78069   11.624
 3989.00    0.75001   0.78625   13.333
 3990.00    0.73487   0.78855   13.608
 3991.00    0.80276   0.79190   12.457
 3992.00    0.85703   0.79451   11.668
 3993.00    0.86501   0.79415   11.561
 3994.00    0.89193   0.79440   11.212
 3995.00    0.94579   0.79926   10.573
 3996.00    0.94840   0.80548   10.544
 3997.00    0.87974   0.81060   11.367
 3998.00    0.80641   0.81863   12.401
 3999.00    0.78530   0.82907   12.734
 4000.00    0.82549   0.83280   12.114
 4001.00    0.87890   0.82837   11.378
 4002.00    0.87890   0.82542   11.378
 4003.00    0.84996   0.82533   11.765
 4004.00    0.87361   0.82152   11.447
 4005.00    0.93062   0.81723   10.746
 4006.00    0.93295   0.82212   10.719
 4007.00    0.88275   0.83480   11.328
 4008.00    0.84254   0.84742   11.869
 4009.00    0.80420   0.85874   12.435
 4010.00    0.72911   0.87135   13.715
 4011.00    0.66628   0.88467   15.009
 4012.00    0.68885   0.89479   14.517
 4013.00    0.75850   0.90050   13.184
 4014.00    0.79575   0.90568   12.567
 4015.00    0.81387   0.91204   12.287
 4016.00    0.87148   0.91443   11.475
 4017.00    0.98232   0.91243   10.180
 4018.00    1.10732   0.91258    9.031
 4019.00    1.16556   0.91429    8.580
 4020.00    1.10984   0.91159    9.010
 4021.00    1.00000   0.90721   10.000
 4022.00    0.91295   0.90576   10.953
 4023.00    0.85157   0.90424   11.743
 4024.00    0.80325   0.89926   12.449
 4025.00    0.79456   0.89052   12.586
 4026.00    0.84361   0.87677   11.854
 4027.00    0.92222   0.85926   10.843
 4028.00    0.99197   0.84044   10.081
 4029.00    1.03306   0.81893    9.680
 4030.00    1.04459   0.79817   -1.000
 4031.00    1.03859   0.78794   -1.000
 4032.00    1.00989   0.79096    9.902
 4033.00    0.93275   0.80216   10.721
 4034.00    0.83905   0.81961   11.918
 4035.00    0.82964   0.84169   12.053
 4036.00    0.92273   0.86243   10.837
 4037.00    1.01598   0.87638    9.843
 4038.00    1.04857   0.88170    9.537
 4039.00    1.05106   0.87575    9.514
 4040.00    1.05286   0.85714    9.498
 4041.00    1.05226   0.83217    9.503
 4042.00    1.04584   0.81060   -1.000
 4043.00    1.03480   0.79489   -1.000
 4044.00    1.01040   0.78264    9.897
 4045.00    0.96774   0.77850   10.333
 4046.00    0.95675   0.78976   10.452
 4047.00    1.03988   0.81176    9.617
 4048.00    1.14976   0.83239   -1.000
 4049.00    1.15325   0.84803   -1.000
 4050.00    1.08124   0.85970    9.249
 4051.00    1.06085   0.86500    9.426
 4052.00    1.06518   0.86280    9.388
 4053.00    0.98920   0.85376   10.109
 4054.00    0.88808   0.84025   11.260
 4055.00    0.89408   0.82765   11.185
 4056.00    1.00081   0.81832    9.992
 4057.00    1.10471   0.80779   -1.000
 4058.00    1.12696   0.79393   -1.000
 4059.00    1.04291   0.78075   -1.000
 4060.00    0.89451   0.77305   11.179
 4061.00    0.75669   0.76959   13.215
 4062.00    0.69117   0.76351   14.468
 4063.00    0.71839   0.75762   13.920
 4064.00    0.79558   0.76382   12.570
 4065.00    0.85643   0.78015   11.676
 4066.00    0.85640   0.79036   11.677
 4067.00    0.79232   0.79234   12.621
 4068.00    0.71141   0.79881   14.057
 4069.00    0.66415   0.80965   15.057
 4070.00    0.66587   0.81104   15.018
 4071.00    0.71398   0.80290   14.006
 4072.00    0.80103   0.79808   12.484
 4073.00    0.89783   0.79949   11.138
 4074.00    0.95109   0.80070   10.514
 4075.00    0.94461   0.80212   10.586
 4076.00    0.92590   0.80920   10.800
 4077.00    0.93990   0.82320   10.639
 4078.00    0.99102   0.84061   10.091
 4079.00    1.04714   0.85893    9.550
 4080.00    1.05883   0.87861    9.444
 4081.00    1.03131   0.89767    9.696
 4082.00    1.02563   0.91324    9.750
 4083.00    1.03177   0.92765    9.692
 4084.00    0.96235   0.94289   10.391
 4085.00    0.82145   0.95604   12.174
 4086.00    0.71563   0.96625   13.974
 4087.00    0.68201   0.97447   -1.000
 4088.00    0.67181   0.97758   -1.000
 4089.00    0.67510   0.97477   -1.000
 4090.00    0.72796   0.96675   13.737
 4091.00    0.83006   0.95080   12.047
 4092.00    0.94786   0.92873    0.000
 4093.00    1.07614   0.90668    0.000
 4094.00    1.21911   0.88421    0.000
 4095.00    1.31914   0.85836    0.000
 4096.00    1.30411   0.83276    0.000
 4097.00    1.20764   0.81195    0.000
 4098.00    1.13403   0.79845    0.000
 4099.00    1.15205   0.79151    0.000
 4100.00    1.23624   0.78822    0.000
 4101.00    1.21593   0.79133    0.000
 4102.00    0.97796   0.80451    0.000
 4103.00    0.74857   0.82126    0.000
 4104.00    0.78672   0.83557    0.000
 4105.00    0.95443   0.84942    0.000
 4106.00    0.99160   0.86245    0.000
 4107.00    0.89251   0.87055    0.000
 4108.00    0.77872   0.87508    0.000
 4109.00    0.71999   0.87987    0.000
 4110.00    0.74941   0.88403    0.000
 4111.00    0.88996   0.88684    0.000
 4112.00    1.10613   0.89107    0.000
 4113.00    1.27584   0.89638   -1.000
 4114.00    1.32312   0.89715   -1.000
 4115.00    1.30717   0.89442   -1.000
 4116.00    1.29011   0.89399   -1.000
 4117.00    1.25106   0.89270   -1.000
 4118.00    1.17405   0.88665    8.518
 4119.00    1.09905   0.88192    9.099
 4120.00    1.06597   0.88337    9.381
 4121.00    1.07985   0.88502    9.261
 4122.00    1.11076   0.88279    9.003
 4123.00    1.10952   0.87993    9.013
 4124.00    1.07625   0.87743    9.292
 4125.00    1.06856   0.87172    9.358
 4126.00    1.09979   0.86095    9.093
 4127.00    1.12089   0.84756   -1.000
 4128.00    1.11890   0.83394   -1.000
 4129.00    1.13284   0.82291   -1.000
 4130.00    1.17566   0.81519   -1.000
 4131.00    1.21657   0.81237   -1.000
 4132.00    1.21299   0.81570   -1.000
 4133.00    1.13769   0.82375   -1.000
 4134.00    1.02302   0.83441    9.775
 4135.00    0.93974   0.84606   10.641
 4136.00    0.91478   0.85464   10.932
 4137.00    0.93043   0.85625   10.748
 4138.00    0.97009   0.85077   10.308
 4139.00    1.01893   0.83849    9.814
 4140.00    1.04462   0.82428    9.573
 4141.00    1.01431   0.81266    9.859
 4142.00    0.93211   0.80079   10.728
 4143.00    0.83396   0.79076   11.991
 4144.00    0.76605   0.78990   13.054
 4145.00    0.75739   0.79476   13.203
 4146.00    0.78643   0.79785   12.716
 4147.00    0.81302   0.80053   12.300
 4148.00    0.82744   0.80368   12.086
 4149.00    0.84271   0.80381   11.866
 4150.00    0.87641   0.80176   11.410
 4151.00    0.93699   0.80179   10.672
 4152.00    1.01162   0.80298    9.885
 4153.00    1.07190   0.80515   -1.000
 4154.00    1.08441   0.81170   -1.000
 4155.00    1.04556   0.82347    9.564
 4156.00    1.00489   0.83610    9.951
 4157.00    1.00180   0.84873    9.982
 4158.00    1.01797   0.86471    9.824
 4159.00    1.02312   0.87945    9.774
 4160.00    1.00942   0.88669    9.907
 4161.00    0.97693   0.88990   10.236
 4162.00    0.92426   0.89237   10.819
 4163.00    0.86066   0.88843   11.619
 4164.00    0.81050   0.87827   12.338
 4165.00    0.79671   0.86903   12.552
 4166.00    0.82814   0.85948   12.075
 4167.00    0.88394   0.84575   11.313
 4168.00    0.91705   0.83117   10.905
 4169.00    0.90160   0.81915   11.091
 4170.00    0.85102   0.80817   11.751
 4171.00    0.80433   0.79708   12.433
 4172.00    0.80681   0.78743   12.395
 4173.00    0.86346   0.78222   11.581
 4174.00    0.93691   0.78179   10.673
 4175.00    0.99383   0.78466   10.062
 4176.00    1.01940   0.78985    9.810
 4177.00    1.01366   0.79578    9.865
 4178.00    0.98480   0.80320   10.154
 4179.00    0.93564   0.81256   10.688
 4180.00    0.87081   0.82089   11.484
 4181.00    0.82101   0.82832   12.180
 4182.00    0.82661   0.83491   12.098
 4183.00    0.89204   0.83826   11.210
 4184.00    0.99168   0.84134   10.084
 4185.00    1.09922   0.84749    9.097
 4186.00    1.18625   0.85051   -1.000
 4187.00    1.21192   0.84855   -1.000
 4188.00    1.15866   0.85113   -1.000
 4189.00    1.08574   0.85771    9.210
 4190.00    1.05916   0.85759    9.441
 4191.00    1.04763   0.85032    9.545
 4192.00    0.99043   0.84391   10.097
 4193.00    0.89842   0.83692   11.131
 4194.00    0.82128   0.82221   12.176
 4195.00    0.79467   0.80518   12.584
 4196.00    0.82502   0.79451   12.121
 4197.00    0.88317   0.78689   11.323
 4198.00    0.93867   0.78045   10.653
 4199.00    0.98938   0.78306   10.107
 4200.00    1.03162   0.79443    9.693
 4201.00    1.03986   0.80674    9.617
 4202.00    1.02262   0.82220    9.779
 4203.00    1.05152   0.84340    9.510
 4204.00    1.15457   0.86389   -1.000
 4205.00    1.25689   0.88006   -1.000
 4206.00    1.28434   0.89291   -1.000
 4207.00    1.22917   0.90219   -1.000
 4208.00    1.13756   0.90691    8.791
 4209.00    1.08284   0.90623    9.235
 4210.00    1.07719   0.90232    9.283
 4211.00    1.05508   0.89815    9.478
 4212.00    1.00076   0.89552    9.992
 4213.00    0.97728   0.89745   10.232
 4214.00    1.00209   0.90281    9.979
 4215.00    1.02174   0.90756    9.787
 4216.00    1.01231   0.91498    9.878
 4217.00    1.00036   0.92406    9.996
 4218.00    1.00479   0.92248    9.952
 4219.00    1.01665   0.90743    9.836
 4220.00    1.00060   0.88577    9.994
 4221.00    0.92292   0.85761   10.835
 4222.00    0.82243   0.82033   12.159
 4223.00    0.78011   0.78399   12.819
 4224.00    0.80131   0.76140   12.480
 4225.00    0.82966   0.75044   12.053
 4226.00    0.84039   0.74781   11.899
 4227.00    0.84491   0.76135   11.836
 4228.00    0.85866   0.78815   11.646
 4229.00    0.89480   0.81260   11.176
 4230.00    0.96339   0.83457   10.380
 4231.00    1.04040   0.85664    9.612
 4232.00    1.02547   0.86849    9.752
 4233.00    0.86233   0.87355   11.595
 4234.00    0.70935   0.88291   14.097
 4235.00    0.74963   0.89040   13.345
 4236.00    0.92167   0.89572   10.850
 4237.00    1.05319   0.91065    9.488
 4238.00    1.06070   0.92955    9.428
 4239.00    0.96220   0.94403   10.416
 4240.00    0.85787   0.96066   11.654
 4241.00    0.83859   0.97883   11.839
 4242.00    0.90368   0.98676   11.082
 4243.00    1.00545   0.98429   10.117
 4244.00    1.09671   0.97953    9.071
 4245.00    1.14748   0.96879    8.367
 4246.00    1.15291   0.94712    8.843
 4247.00    1.11566   0.92255   10.215
 4248.00    1.03732   0.90440    8.851
 4249.00    0.94798   0.88974    5.989
 4250.00    0.90843   0.87394    4.761
 4251.00    0.90970   0.86503    4.723
 4252.00    0.84863   0.86702    5.069
 4253.00    0.70985   0.86970   -2.000
 4254.00    0.62220   0.86974   -2.000
 4255.00    0.66399   0.87449   -2.000
 4256.00    0.78836   0.88391   -2.000
 4257.00    0.91225   0.89177   -2.000
 4258.00    0.97265   0.90026   -2.000
 4259.00    0.98498   0.91460   -2.000
 4260.00    1.02503   0.93019   -2.000
 4261.00    1.09327   0.94516   -2.000
 4262.00    1.10859   0.96270   -2.000
 4263.00    1.03586   0.97362   -2.000
 4264.00    0.91038   0.97032   -2.000
 4265.00    0.79089   0.95965   -2.000
 4266.00    0.73596   0.94227   -2.000
 4267.00    0.77962   0.91057   -2.000
 4268.00    0.90663   0.87421   -2.000
 4269.00    1.01467   0.84720    9.924
 4270.00    0.99050   0.82495    9.816
 4271.00    0.87703   0.80682   11.125
 4272.00    0.80574   0.80586   13.995
 4273.00    0.81197   0.82051   13.259
 4274.00    0.85567   0.83816    8.021
 4275.00    0.91308   0.85972    5.312
 4276.00    0.98342   0.88527    4.641
 4277.00    1.07394   0.90633    5.056
 4278.00    1.16865   0.92075    6.336
 4279.00    1.19540   0.92816    8.252
 4280.00    1.11587   0.92892    9.622
 4281.00    1.03000   0.92618    9.725
 4282.00    1.04067   0.91717    9.373
 4283.00    1.09908   0.90487    9.103
 4284.00    1.10294   0.89354    9.143
 4285.00    1.01275   0.87800    9.869
 4286.00    0.86772   0.86164   11.482
 4287.00    0.77704   0.85087   12.875
 4288.00    0.80322   0.84313   12.467
 4289.00    0.88147   0.83621   11.343
 4290.00    0.93436   0.83222   10.698
 4291.00    0.95540   0.83114   10.468
 4292.00    0.96477   0.82952   10.367
 4293.00    0.97393   0.82285   10.267
 4294.00    0.97411   0.80934   10.265
 4295.00    0.93967   0.79219   10.642
 4296.00    0.87719   0.77087   11.400
 4297.00    0.83821   0.74696   11.930
 4298.00    0.84921   0.72427   11.776
 4299.00    0.88351   0.70134   11.318
 4300.00    0.89360   0.68296   11.191
 4301.00    0.84181   0.67127   11.879
 4302.00    0.75902   0.65955   13.175
 4303.00    0.72774   0.65036   13.741
 4304.00    0.74159   0.64707   13.484
 4305.00    0.71083   0.64656   14.068
 4306.00    0.64170   0.65282   15.584
 4307.00    0.63313   0.66786   15.794
 4308.00    0.69853   0.69136   14.316
 4309.00    0.76469   0.72848   13.077
 4310.00    0.80628   0.77583   12.403
 4311.00    0.85096   0.82754   11.751
 4312.00    0.90705   0.88624   11.025
 4313.00    0.96024   0.94699   10.414
 4314.00    1.00373   0.99745    9.963
 4315.00    1.03557   1.03885    9.656
 4316.00    1.04261   1.07154    9.591
 4317.00    1.02620   1.08387    9.745
 4318.00    1.04732   1.07773    9.548
 4319.00    1.14858   1.06178    8.706
 4320.00    1.22936   1.03499    8.134
 4321.00    1.16817   1.00272    8.563
 4322.00    1.01368   0.97545    9.866
 4323.00    0.88463   0.95606   11.293
 4324.00    0.81310   0.94969   12.297
 4325.00    0.78389   0.95818   12.799
 4326.00    0.79999   0.97700   12.500
 4327.00    0.86260   1.00573   11.495
 4328.00    0.94744   1.03995   10.566
 4329.00    1.05047   1.06951    9.711
 4330.00    1.21867   1.08860    0.000
 4331.00    1.42174   1.10059    0.000
 4332.00    1.47388   1.10443    0.000
 4333.00    1.29994   1.09142    0.000
 4334.00    1.10097   1.06722    0.000
 4335.00    1.03687   1.04458    0.000
 4336.00    1.03286   1.01833    0.000
 4337.00    1.01027   0.98785    0.000
 4338.00    1.01469   0.97232    0.000
 4339.00    1.07201   0.97130    0.000
 4340.00    1.12259   0.97156    0.000
 4341.00    1.12487   0.98381    0.000
 4342.00    1.10097   1.01096    0.000
 4343.00    1.09186   1.03315    0.000
 4344.00    1.12933   1.04915    0.000
 4345.00    1.21195   1.06867    0.000
 4346.00    1.29695   1.08121    0.000
 4347.00    1.30733   1.07931    0.000
 4348.00    1.17691   1.07305    0.000
 4349.00    0.98506   1.06896    0.000
 4350.00    0.91473   1.06256    0.000
 4351.00    0.99538   1.05285    6.105
 4352.00    1.09751   1.04988    6.759
 4353.00    1.13097   1.05803    8.289
 4354.00    1.09186   1.06802    9.667
 4355.00    1.03867   1.07686    9.807
 4356.00    1.04445   1.09123    9.388
 4357.00    1.10841   1.10992    8.971
 4358.00    1.16763   1.12518    8.635
 4359.00    1.16093   1.13683    8.638
 4360.00    1.08007   1.14971    9.181
 4361.00    1.03131   1.16257    9.659
 4362.00    1.12531   1.16902    9.049
 4363.00    1.28999   1.16784    7.806
 4364.00    1.37137   1.16429    6.811
 4365.00    1.32275   1.15844    6.245
 4366.00    1.20433   1.14540    6.077
 4367.00    1.13884   1.12746    6.330
 4368.00    1.19834   1.11136    7.003
 4369.00    1.28804   1.09653    7.754
 4370.00    1.28181   1.07918    8.120
 4371.00    1.17760   1.06368    8.480
 4372.00    1.05002   1.05313    9.366
 4373.00    0.98247   1.04383   10.193
 4374.00    1.00556   1.03520   10.016
 4375.00    1.05907   1.02709    9.433
 4376.00    1.08372   1.01627    9.184
 4377.00    1.08920   1.00130    9.196
 4378.00    1.09655   0.98192    9.198
 4379.00    1.09597   0.95645    9.082
 4380.00    1.06657   0.92749    9.170
 4381.00    0.99579   0.90395   10.218
 4382.00    0.90718   0.88804   11.909
 4383.00    0.86330   0.87750   10.755
 4384.00    0.89816   0.87776    7.924
 4385.00    0.98692   0.89188    6.695
 4386.00    1.07533   0.91210    6.780
 4387.00    1.11131   0.93229    7.081
 4388.00    1.11321   0.95523    7.033
 4389.00    1.16253   0.98035    7.104
 4390.00    1.26638   1.00170    7.467
 4391.00    1.34146   1.01992    7.651
 4392.00    1.34489   1.03865    7.542
 4393.00    1.30252   1.05624    7.605
 4394.00    1.25054   1.06803    7.958
 4395.00    1.21699   1.07511    8.248
 4396.00    1.22332   1.08004    8.188
 4397.00    1.26801   1.07570    7.876
 4398.00    1.28656   1.06270    7.769
 4399.00    1.20779   1.04948    8.284
 4400.00    1.09917   1.02966    9.099
 4401.00    1.09705   1.00448    9.113
 4402.00    1.19917   0.98969    8.339
 4403.00    1.29723   0.98148    7.710
 4404.00    1.31751   0.97278   -1.000
 4405.00    1.25321   0.97674    7.978
 4406.00    1.17090   0.99673    8.540
 4407.00    1.15608   1.01685    8.656
 4408.00    1.23047   1.03429    8.129
 4409.00    1.35083   1.05822    7.391
 4410.00    1.42867   1.08033    6.997
 4411.00    1.39554   1.08877    7.198
 4412.00    1.27642   1.09459    7.837
 4413.00    1.14680   1.10434    8.585
 4414.00    1.07177   1.10676    9.338
 4415.00    1.06714   1.10707    9.851
 4416.00    1.07638   1.11576    9.208
 4417.00    1.06540   1.12309    7.767
 4418.00    1.09593   1.12563    7.017
 4419.00    1.19336   1.12937    7.318
 4420.00    1.25373   1.13211    8.106
 4421.00    1.20821   1.13107    8.591
 4422.00    1.13227   1.12772    8.766
 4423.00    1.11443   1.12481    8.854
 4424.00    1.16581   1.12278    8.604
 4425.00    1.24255   1.12090    8.081
 4426.00    1.27478   1.11803    7.835
 4427.00    1.23084   1.11327    8.113
 4428.00    1.14375   1.11093    8.748
 4429.00    1.06842   1.10802    9.365
 4430.00    1.04906   1.10030    9.530
 4431.00    1.07516   1.09677    9.299
 4432.00    1.08636   1.09777    9.206
 4433.00    1.06715   1.09860    9.371
 4434.00    1.06535   1.10328    9.386
 4435.00    1.11974   1.11177    8.930
 4436.00    1.22333   1.12219    8.175
 4437.00    1.29520   1.13207    7.721
 4438.00    1.23315   1.13954    8.109
 4439.00    1.08621   1.14764    9.206
 4440.00    1.01045   1.15421    9.897
 4441.00    1.02441   1.15932    9.762
 4442.00    1.02631   1.16865    9.744
 4443.00    0.98747   1.17764   10.127
 4444.00    0.96086   1.18419   10.407
 4445.00    0.99809   1.19476   10.019
 4446.00    1.10328   1.20086    9.064
 4447.00    1.18474   1.19667    8.441
 4448.00    1.14651   1.19204    8.722
 4449.00    1.05530   1.18180    9.476
 4450.00    1.04190   1.16052    9.598
 4451.00    1.10633   1.13822    9.039
 4452.00    1.16410   1.11506    8.590
 4453.00    1.15612   1.09050    8.650
 4454.00    1.08658   1.06913    9.203
 4455.00    1.04367   1.04998    9.582
 4456.00    1.09444   1.03765    9.137
 4457.00    1.17118   1.03385    8.538
 4458.00    1.18838   1.03116    8.415
 4459.00    1.17073   1.03452    8.542
 4460.00    1.17979   1.04880    8.474
 4461.00    1.23266   1.06206    0.000
 4462.00    1.29765   1.07419    0.000
 4463.00    1.30731   1.09342    0.000
 4464.00    1.24467   1.11129    0.000
 4465.00    1.19183   1.12394    0.000
 4466.00    1.20479   1.13865    0.000
 4467.00    1.23948   1.15587    0.000
 4468.00    1.25569   1.17132    0.000
 4469.00    1.27373   1.18604    0.000
 4470.00    1.30447   1.20513    0.000
 4471.00    1.31935   1.22438    0.000
 4472.00    1.31070   1.23827    0.000
 4473.00    1.30893   1.25125    0.000
 4474.00    1.31442   1.26154    0.000
 4475.00    1.28497   1.26319    0.000
 4476.00    1.21617   1.25994    0.000
 4477.00    1.15918   1.25582    0.000
 4478.00    1.15939   1.24868    0.000
 4479.00    1.22197   1.24057    0.000
 4480.00    1.27916   1.23779    0.000
 4481.00    1.23641   1.23836    0.000
 4482.00    1.13815   1.23915    8.786
 4483.00    1.13022   1.24320    8.848
 4484.00    1.22405   1.24677    8.170
 4485.00    1.31019   1.24569    7.632
 4486.00    1.35000   1.24273    7.407
 4487.00    1.38183   1.23690    7.237
 4488.00    1.42822   1.22754    7.002
 4489.00    1.47358   1.21872    6.786
 4490.00    1.46448   1.21076    6.828
 4491.00    1.36335   1.20362    7.335
 4492.00    1.23928   1.20133    8.069
 4493.00    1.19397   1.20349    8.374
 4494.00    1.22008   1.20853    8.196
 4495.00    1.25701   1.21899    7.959
 4496.00    1.30214   1.23499    7.680
 4497.00    1.36363   1.25396    7.326
 4498.00    1.38350   1.27320    7.227
 4499.00    1.32461   1.29492    7.573
 4500.00    1.27458   1.31832    7.847
 4501.00    1.30882   1.33592    7.572
 4502.00    1.34500   1.35112    7.441
 4503.00    1.30481   1.36586    7.967
 4504.00    1.26897   1.37300    8.383
 4505.00    1.31053   1.37505    7.881
 4506.00    1.35358   1.37485    7.367
 4507.00    1.32863   1.37004    7.467
 4508.00    1.29137   1.36134    7.754
 4509.00    1.31094   1.35063    7.649
 4510.00    1.38656   1.33994    7.208
 4511.00    1.47425   1.32805    6.777
 4512.00    1.51667   1.31653    6.595
 4513.00    1.49470   1.30932    6.693
 4514.00    1.44591   1.30262    6.915
 4515.00    1.40495   1.29781    7.116
 4516.00    1.37764   1.29683    7.260
 4517.00    1.37342   1.29382    7.285
 4518.00    1.40964   1.29008    7.090
 4519.00    1.46085   1.28321    6.837
 4520.00    1.46256   1.26995    6.848
 4521.00    1.40957   1.25458    7.117
 4522.00    1.36392   1.23237    7.294
 4523.00    1.34887   1.20570    7.346
 4524.00    1.33047   1.18189    7.664
 4525.00    1.27913   1.15675    8.293
 4526.00    1.19383   1.13528    8.751
 4527.00    1.11184   1.12182    8.843
 4528.00    1.08500   1.11239    8.897
 4529.00    1.11483   1.11061    8.943
 4530.00    1.15652   1.11583    8.770
 4531.00    1.16698   1.12501    8.600
 4532.00    1.13000   1.13833    8.812
 4533.00    1.08271   1.15510    9.226
 4534.00    1.08373   1.17482    9.242
 4535.00    1.14534   1.19183    8.734
 4536.00    1.23593   1.20809    8.088
 4537.00    1.30711   1.22531    7.650
 4538.00    1.32278   1.23457    7.559
 4539.00    1.29461   1.24056    7.724
 4540.00    1.26126   1.24674    7.936
 4541.00    1.25189   1.24595    7.990
 4542.00    1.27096   1.24312    7.845
 4543.00    1.28835   1.24122    7.760
 4544.00    1.27561   1.23673    7.905
 4545.00    1.24579   1.23218    8.024
 4546.00    1.23111   1.22720    7.926
 4547.00    1.25404   1.22405    8.010
 4548.00    1.30516   1.22340    8.610
 4549.00    1.33273   1.22043    9.359
 4550.00    1.30534   1.22234    0.000
 4551.00    1.25719   1.22946    0.000
 4552.00    1.22820   1.23484    0.000
 4553.00    1.22088   1.24575    0.000
 4554.00    1.23090   1.26086    0.000
 4555.00    1.26490   1.27380    0.000
 4556.00    1.31068   1.28837    0.000
 4557.00    1.32802   1.30070    0.000
 4558.00    1.30209   1.30837    0.000
 4559.00    1.26372   1.31388    0.000
 4560.00    1.24119   1.31410    0.000
 4561.00    1.23891   1.31258    0.000
 4562.00    1.25359   1.31055    0.000
 4563.00    1.27693   1.30745    0.000
 4564.00    1.27616   1.30872    0.000
 4565.00    1.21292   1.30885    0.000
 4566.00    1.13689   1.30966    0.000
 4567.00    1.16034   1.31694    0.000
 4568.00    1.26938   1.31782    0.000
 4569.00    1.33230   1.31750    0.000
 4570.00    1.30410   1.32418    0.000
 4571.00    1.24527   1.32226    0.000
 4572.00    1.20908   1.31720    0.000
 4573.00    1.21332   1.31745    0.000
 4574.00    1.24775   1.30996    0.000
 4575.00    1.28871   1.29860    0.000
 4576.00    1.32554   1.29035    0.000
 4577.00    1.35483   1.27803    0.000
 4578.00    1.35928   1.26574    0.000
 4579.00    1.32088   1.25852    0.000
 4580.00    1.25029   1.25153    0.000
 4581.00    1.18064   1.24861    0.000
 4582.00    1.14851   1.25187    0.000
 4583.00    1.16945   1.25526    0.000
 4584.00    1.21039   1.26166    0.000
 4585.00    1.22865   1.27018    0.000
 4586.00    1.22495   1.27547    0.000
 4587.00    1.22274   1.28027    0.000
 4588.00    1.23631   1.28191    0.000
 4589.00    1.26640   1.27845    0.000
 4590.00    1.30022   1.27479    0.000
 4591.00    1.32285   1.26780    0.000
 4592.00    1.32836   1.25850    0.000
 4593.00    1.32330   1.25367    0.000
 4594.00    1.32672   1.24763    0.000
 4595.00    1.35343   1.24223    0.000
 4596.00    1.40050   1.24386    0.000
 4597.00    1.44489   1.24324    0.000
 4598.00    1.44919   1.24403    0.000
 4599.00    1.40409   1.25119    0.000
 4600.00    1.34752   1.25601    0.000
 4601.00    1.31982   1.26343    0.000
 4602.00    1.33577   1.27571    0.000
 4603.00    1.37814   1.28807    0.000
 4604.00    1.40501   1.30237    0.000
 4605.00    1.39524   1.31853    0.000
 4606.00    1.36344   1.33472    0.000
 4607.00    1.33373   1.34737    0.000
 4608.00    1.32696   1.35819    0.000
 4609.00    1.35665   1.36868    0.000
 4610.00    1.42042   1.37211    0.000
 4611.00    1.47746   1.37516    0.000
 4612.00    1.46888   1.38076    0.000
 4613.00    1.39999   1.37898    0.000
 4614.00    1.33390   1.38046    0.000
 4615.00    1.30555   1.38618    0.000
 4616.00    1.31035   1.38330    0.000
 4617.00    1.33592   1.38425    0.000
 4618.00    1.36824   1.38969    0.000
 4619.00    1.38761   1.38595    0.000
 4620.00    1.37918   1.38408    0.000
 4621.00    1.35464   1.38695    0.000
 4622.00    1.33798   1.38302    0.000
 4623.00    1.33265   1.37835    0.000
 4624.00    1.32745   1.37814    0.000
 4625.00    1.31590   1.37571    0.000
 4626.00    1.30062   1.36971    0.000
 4627.00    1.29431   1.36560    0.000
 4628.00    1.30835   1.36324    0.000
 4629.00    1.33787   1.35571    0.000
 4630.00    1.36617   1.34585    0.000
 4631.00    1.37381   1.33807    0.000
 4632.00    1.35708   1.32732    0.000
 4633.00    1.34343   1.31444    0.000
 4634.00    1.35370   1.30179    0.000
 4635.00    1.36762   1.29043    0.000
 4636.00    1.36179   1.28042    0.000
 4637.00    1.34389   1.26841    0.000
 4638.00    1.33161   1.26048    0.000
 4639.00    1.33242   1.25477    0.000
 4640.00    1.33646   1.24362    0.000
 4641.00    1.31807   1.23565    0.000
 4642.00    1.27381   1.22994    0.000
 4643.00    1.23885   1.21930    0.000
 4644.00    1.23538   1.21317    0.000
 4645.00    1.24880   1.21216    0.000
 4646.00    1.26844   1.21122    0.000
 4647.00    1.30219   1.21634    0.000
 4648.00    1.33830   1.22489    0.000
 4649.00    1.34085   1.23447    0.000
 4650.00    1.31067   1.24771    0.000
 4651.00    1.29268   1.25880    0.000
 4652.00    1.30101   1.27010    0.000
 4653.00    1.30604   1.28338    0.000
 4654.00    1.29317   1.29346    0.000
 4655.00    1.27481   1.30399    0.000
 4656.00    1.26082   1.31377    0.000
 4657.00    1.25155   1.31822    0.000
 4658.00    1.24565   1.31879    0.000
 4659.00    1.24320   1.31414    0.000
 4660.00    1.24766   1.30171    0.000
 4661.00    1.25952   1.28440    0.000
 4662.00    1.26155   1.26552    0.000
 4663.00    1.23498   1.24375    0.000
 4664.00    1.19837   1.22289    0.000
 4665.00    1.18624   1.20999    0.000
 4666.00    1.19516   1.20290    0.000
 4667.00    1.19935   1.20061    0.000
 4668.00    1.19329   1.20697    0.000
 4669.00    1.18929   1.21780    0.000
 4670.00    1.20202   1.23009    0.000
 4671.00    1.23728   1.24360    0.000
 4672.00    1.28061   1.25447    0.000
 4673.00    1.30877   1.26361    0.000
 4674.00    1.30653   1.26913    0.000
 4675.00    1.27601   1.26922    0.000
 4676.00    1.24270   1.26870    0.000
 4677.00    1.23089   1.26688    0.000
 4678.00    1.23907   1.26241    0.000
 4679.00    1.25051   1.25925    0.000
 4680.00    1.24708   1.25946    0.000
 4681.00    1.22653   1.25919    0.000
 4682.00    1.21260   1.25897    0.000
 4683.00    1.22840   1.26269    0.000
 4684.00    1.27509   1.26462    0.000
 4685.00    1.32726   1.26446    0.000
 4686.00    1.33784   1.26758    0.000
 4687.00    1.28080   1.26888    0.000
 4688.00    1.17614   1.26814    0.000
 4689.00    1.08116   1.27088    0.000
 4690.00    1.06717   1.27297    0.000
 4691.00    1.13398   1.27290    0.000
 4692.00    1.19738   1.27386    0.000
 4693.00    1.22231   1.27329    0.000
 4694.00    1.25535   1.26962    0.000
 4695.00    1.30999   1.26302    0.000
 4696.00    1.34060   1.25518    0.000
 4697.00    1.32111   1.24721    0.000
 4698.00    1.26616   1.23718    0.000
 4699.00    1.20298   1.22824    0.000
 4700.00    1.15453   1.22208    0.000
 4701.00    1.11977   1.21777    0.000
 4702.00    1.08532   1.21613    0.000
 4703.00    1.07009   1.21541    0.000
 4704.00    1.10549   1.21658    0.000
 4705.00    1.16206   1.22128    0.000
 4706.00    1.17810   1.22512    0.000
 4707.00    1.15702   1.22975    0.000
 4708.00    1.14881   1.23839    0.000
 4709.00    1.17397   1.24569    0.000
 4710.00    1.22037   1.25450    0.000
 4711.00    1.26479   1.26590    0.000
 4712.00    1.28689   1.27676    0.000
 4713.00    1.28497   1.29160    0.000
 4714.00    1.27426   1.30620    0.000
 4715.00    1.27962   1.31970    0.000
 4716.00    1.31581   1.33637    0.000
 4717.00    1.36511   1.34980    0.000
 4718.00    1.39977   1.35909    0.000
 4719.00    1.41048   1.36564    0.000
 4720.00    1.39881   1.36688    0.000
 4721.00    1.36613   1.36342    0.000
 4722.00    1.31719   1.35461    0.000
 4723.00    1.26434   1.34145    0.000
 4724.00    1.22673   1.32527    0.000
 4725.00    1.22565   1.30762    0.000
 4726.00    1.25535   1.29221    0.000
 4727.00    1.26892   1.27828    0.000
 4728.00    1.23908   1.26716    0.000
 4729.00    1.19361   1.26392    0.000
 4730.00    1.16137   1.26443    0.000
 4731.00    1.14120   1.26653    0.000
 4732.00    1.13010   1.27573    0.000
 4733.00    1.13614   1.28425    0.000
 4734.00    1.15550   1.29069    0.000
 4735.00    1.16864   1.30332    0.000
 4736.00    1.17860   1.31234    0.000
 4737.00    1.21549   1.31753    0.000
 4738.00    1.27957   1.32736    0.000
 4739.00    1.33422   1.33507    0.000
 4740.00    1.36993   1.34095    0.000
 4741.00    1.40739   1.34793    0.000
 4742.00    1.42576   1.35293    0.000
 4743.00    1.37501   1.35929    0.000
 4744.00    1.28641   1.36474    0.000
 4745.00    1.25069   1.36593    0.000
 4746.00    1.26757   1.36747    0.000
 4747.00    1.26017   1.36782    0.000
 4748.00    1.21325   1.36380    0.000
 4749.00    1.17312   1.35800    0.000
 4750.00    1.16955   1.35207    0.000
 4751.00    1.20003   1.34436    0.000
 4752.00    1.23555   1.33642    0.000
 4753.00    1.24683   1.32938    0.000
 4754.00    1.24745   1.32238    0.000
 4755.00    1.26500   1.31621    0.000
 4756.00    1.28336   1.30960    0.000
 4757.00    1.27119   1.30307    0.000
 4758.00    1.23581   1.29502    0.000
 4759.00    1.20061   1.28493    0.000
 4760.00    1.16603   1.27643    0.000
 4761.00    1.13082   1.26779    8.820
 4762.00    1.12076   1.25891    8.921
 4763.00    1.15502   1.25425    8.722
 4764.00    1.20825   1.25454    8.272
 4765.00    1.23634   1.25698    7.932
 4766.00    1.20836   1.26349    8.313
 4767.00    1.13403   1.27497    9.845
 4768.00    1.07694   1.28639   11.729
 4769.00    1.08137   1.29955   12.096
 4770.00    1.12008   1.31402   11.666
 4771.00    1.15313   1.32632   11.732
 4772.00    1.17197   1.33742   11.954
 4773.00    1.18682   1.34583   11.838
 4774.00    1.21364   1.35337   11.670
 4775.00    1.25801   1.35745   11.740
 4776.00    1.30724   1.35578   11.938
 4777.00    1.33829   1.35313   12.090
 4778.00    1.32883   1.34764   12.150
 4779.00    1.28782   1.33888   12.192
 4780.00    1.25664   1.32850   12.336
 4781.00    1.25119   1.31890   12.473
 4782.00    1.24793   1.31181   12.286
 4783.00    1.22968   1.30263   11.841
 4784.00    1.20042   1.29803   11.565
 4785.00    1.17234   1.30011   11.597
 4786.00    1.15773   1.30025   11.772
 4787.00    1.15976   1.30560   11.917
 4788.00    1.17306   1.31674   11.954
 4789.00    1.19395   1.32632   11.922
 4790.00    1.21954   1.33836   11.908
 4791.00    1.23838   1.35139   11.866
 4792.00    1.24057   1.36106   11.761
 4793.00    1.24528   1.36861   11.972
 4794.00    1.27813   1.37392   12.734
 4795.00    1.31305   1.37565   12.475
 4796.00    1.30571   1.37427   10.086
 4797.00    1.27652   1.37175    8.086
 4798.00    1.27902   1.36928    7.467
 4799.00    1.32091   1.36603    7.517
 4800.00    1.36945   1.36240    7.415
 4801.00    1.38207   1.35953    7.248
 4802.00    1.33856   1.35568    7.431
 4803.00    1.27538   1.35237    7.838
 4804.00    1.23813   1.34851    8.086
 4805.00    1.21971   1.34349    8.199
 4806.00    1.19973   1.34248    8.353
 4807.00    1.19452   1.34258    8.371
 4808.00    1.22612   1.34297    8.092
 4809.00    1.28693   1.34718    7.780
 4810.00    1.35600   1.35294    7.530
 4811.00    1.41740   1.35968    7.017
 4812.00    1.46256   1.36707    6.477
 4813.00    1.48972   1.37437    6.883
 4814.00    1.49525   1.38172    9.264
 4815.00    1.46960   1.38616   13.773
 4816.00    1.41485   1.38928   15.074
 4817.00    1.35311   1.39002   11.592
 4818.00    1.30293   1.38640    8.753
 4819.00    1.26690   1.38216    7.691
 4820.00    1.24686   1.37409    7.788
 4821.00    1.24906   1.36517    8.092
 4822.00    1.26613   1.35938    7.995
 4823.00    1.27437   1.35065    7.795
 4824.00    1.26263   1.34325    7.839
 4825.00    1.24173   1.34009    8.141
 4826.00    1.22861   1.33625    8.313
 4827.00    1.23483   1.33373    7.865
 4828.00    1.25017   1.33145    7.587
 4829.00    1.24870   1.32882    8.961
 4830.00    1.22735   1.32998   12.412
 4831.00    1.20853   1.33017   12.392
 4832.00    1.20980   1.32828    9.030
 4833.00    1.23204   1.32866    7.664
 4834.00    1.25387   1.32906    7.803
 4835.00    1.24883   1.32709    8.178
 4836.00    1.22861   1.32416    8.197
 4837.00    1.22708   1.32190    8.087
 4838.00    1.24451   1.32005    8.018
 4839.00    1.25814   1.31845    7.970
 4840.00    1.26572   1.31639    7.906
 4841.00    1.27789   1.31719    7.818
 4842.00    1.29046   1.32071    7.748
 4843.00    1.29053   1.32092    7.752
 4844.00    1.27395   1.32185    7.850
 4845.00    1.24672   1.32370    8.020
 4846.00    1.22264   1.32195    8.179
 4847.00    1.21656   1.31934    8.220
 4848.00    1.23532   1.31321    0.000
 4849.00    1.26576   1.30410    0.000
 4850.00    1.26608   1.29518    0.000
 4851.00    1.21467   1.28145    0.000
 4852.00    1.15661   1.26325    0.000
 4853.00    1.14124   1.24507    0.000
 4854.00    1.16109   1.22615    0.000
 4855.00    1.17938   1.20435    0.000
 4856.00    1.16228   1.18332    0.000
 4857.00    1.10905   1.16708    0.000
 4858.00    1.06537   1.15275    0.000
 4859.00    1.06276   1.14331    0.000
 4860.00    1.08193   1.14054    0.000
 4861.00    1.09930   1.14046    0.000
 4862.00    1.11560   1.14751    0.000
 4863.00    1.13924   1.15844    0.000
 4864.00    1.17415   1.16727    0.000
 4865.00    1.21247   1.17658    0.000
 4866.00    1.23430   1.18464    0.000
 4867.00    1.22391   1.18958    0.000
 4868.00    1.18034   1.19244    0.000
 4869.00    1.12905   1.19681    0.000
 4870.00    1.11287   1.20228    0.000
 4871.00    1.14091   1.20805    0.000
 4872.00    1.18222   1.21674    0.000
 4873.00    1.21060   1.22897    0.000
 4874.00    1.21958   1.24331    0.000
 4875.00    1.21923   1.25523   13.475
 4876.00    1.22673   1.26640   11.213
 4877.00    1.24436   1.27553    8.535
 4878.00    1.26055   1.27812    7.599
 4879.00    1.26790   1.27983    7.772
 4880.00    1.26840   1.27763    8.007
 4881.00    1.27408   1.26835    7.884
 4882.00    1.29286   1.25849    7.692
 4883.00    1.30151   1.24842    7.673
 4884.00    1.26944   1.23990    7.894
 4885.00    1.21035   1.23268    8.266
 4886.00    1.16187   1.22725    8.600
 4887.00    1.13756   1.22977    8.790
 4888.00    1.12994   1.23665    8.853
 4889.00    1.12771   1.25015    8.868
 4890.00    1.12971   1.26952    8.851
 4891.00    1.15776   1.28786    8.637
 4892.00    1.22346   1.31204    8.174
 4893.00    1.29006   1.33694    7.752
 4894.00    1.32019   1.35521    7.575
 4895.00    1.32949   1.37026    7.522
 4896.00    1.34829   1.37930    7.417
 4897.00    1.37910   1.38305    7.251
 4898.00    1.40297   1.38519    7.128
 4899.00    1.39259   1.38214    7.181
 4900.00    1.34401   1.37612    7.441
 4901.00    1.29574   1.37248    7.717
 4902.00    1.28291   1.36767    7.794
 4903.00    1.30537   1.36165    7.661
 4904.00    1.34607   1.35583    7.431
 4905.00    1.38473   1.34979    7.220
 4906.00    1.39738   1.34478    7.150
 4907.00    1.36281   1.33860    7.343
 4908.00    1.29957   1.33207    7.713
 4909.00    1.26785   1.32644    7.868
 4910.00    1.28384   1.32006    7.738
 4911.00    1.29720   1.31344    7.767
 4912.00    1.27711   1.30588    7.973
 4913.00    1.23929   1.29484    7.876
 4914.00    1.20062   1.28105    7.912
 4915.00    1.16496   1.26544    9.499
 4916.00    1.13955   1.24921   13.156
 4917.00    1.13471   1.23540   13.118
 4918.00    1.14444   1.22512    9.590
 4919.00    1.15139   1.22013    8.223
 4920.00    1.15846   1.22222    8.435
 4921.00    1.18371   1.23277    8.611
 4922.00    1.22459   1.24991    8.217
 4923.00    1.26132   1.27063    7.893
 4924.00    1.28636   1.29212    7.774
 4925.00    1.30577   1.31144    7.626
 4926.00    1.32726   1.33151    7.502
 4927.00    1.35363   1.34692    7.521
 4928.00    1.37585   1.35358    7.349
 4929.00    1.38003   1.35650    6.878
 4930.00    1.36137   1.35245    7.150
 4931.00    1.32501   1.34428    9.657
 4932.00    1.28314   1.33597   13.838
 4933.00    1.24782   1.32259   11.568
 4934.00    1.22187   1.31060    8.322
 4935.00    1.20139   1.30549    7.764
 4936.00    1.18080   1.30316    8.451
 4937.00    1.15798   1.30461    8.811
 4938.00    1.13889   1.31075    8.780
 4939.00    1.13440   1.32090    8.907
 4940.00    1.15551   1.33644    0.000
 4941.00    1.20390   1.35382    0.000
 4942.00    1.26491   1.36853    0.000
 4943.00    1.31919   1.38263    0.000
 4944.00    1.35315   1.39562    0.000
 4945.00    1.36032   1.40428    0.000
 4946.00    1.34171   1.40971    0.000
 4947.00    1.30589   1.41158    0.000
 4948.00    1.26748   1.40885    0.000
 4949.00    1.23870   1.40080    0.000
 4950.00    1.22438   1.38866    0.000
 4951.00    1.22341   1.37472    0.000
 4952.00    1.23028   1.35593    0.000
 4953.00    1.23738   1.33733    0.000
 4954.00    1.23756   1.32112    0.000
 4955.00    1.22984   1.30820    0.000
 4956.00    1.22071   1.30143    0.000
 4957.00    1.21920   1.29379    0.000
 4958.00    1.23122   1.29228    0.000
 4959.00    1.24744   1.29782    0.000
 4960.00    1.24772   1.30145    0.000
 4961.00    1.22986   1.30468    0.000
 4962.00    1.20898   1.30515    0.000
 4963.00    1.18770   1.30578    0.000
 4964.00    1.15865   1.30859    0.000
 4965.00    1.13471   1.30800    0.000
 4966.00    1.14050   1.30922    0.000
 4967.00    1.17311   1.31334    0.000
 4968.00    1.20780   1.31707    0.000
 4969.00    1.23108   1.32353    0.000
 4970.00    1.24281   1.32745    0.000
 4971.00    1.24589   1.32971    0.000
 4972.00    1.24155   1.33098    0.000
 4973.00    1.22511   1.32540    0.000
 4974.00    1.19514   1.31704    0.000
 4975.00    1.16785   1.30436    0.000
 4976.00    1.15873   1.28762    0.000
 4977.00    1.15459   1.26993    0.000
 4978.00    1.13574   1.25031    0.000
 4979.00    1.10855   1.23384    0.000
 4980.00    1.08853   1.22157    0.000
 4981.00    1.07646   1.21343    0.000
 4982.00    1.06660   1.21042    0.000
 4983.00    1.05848   1.21165    0.000
 4984.00    1.05906   1.21958    0.000
 4985.00    1.08203   1.23031    0.000
 4986.00    1.13171   1.24062    0.000
 4987.00    1.19084   1.25381    0.000
 4988.00    1.23481   1.26386    0.000
 4989.00    1.24551   1.27144    0.000
 4990.00    1.22487   1.27859    0.000
 4991.00    1.19929   1.27996    0.000
 4992.00    1.19035   1.28152    0.000
 4993.00    1.19802   1.28015    0.000
 4994.00    1.21465   1.27225    0.000
 4995.00    1.23365   1.26511    0.000
 4996.00    1.24926   1.25466    0.000
 4997.00    1.25582   1.24202    0.000
 4998.00    1.24575   1.23042    0.000
 4999.00    1.21229   1.21620    0.000
 5000.00    1.16423   1.20334    0.000
 5001.00    1.12523   1.19264    0.000
 5002.00    1.10772   1.18358    0.000
 5003.00    1.10663   1.17863    0.000
 5004.00    1.11262   1.17452    0.000
 5005.00    1.11826   1.17124    0.000
 5006.00    1.12213   1.16876    0.000
 5007.00    1.12690   1.16604    0.000
 5008.00    1.13088   1.16523    0.000
 5009.00    1.12932   1.16136    0.000
 5010.00    1.12313   1.15666    0.000
 5011.00    1.11787   1.15329    0.000
 5012.00    1.11612   1.14828    0.000
 5013.00    1.11701   1.14643    0.000
 5014.00    1.11855   1.14617    0.000
 5015.00    1.11842   1.14805    0.000
 5016.00    1.11446   1.15383    0.000
 5017.00    1.10650   1.15792    0.000
 5018.00    1.09917   1.16416    0.000
 5019.00    1.09997   1.17310    0.000
 5020.00    1.11536   1.18138    0.000
 5021.00    1.14354   1.19173    0.000
 5022.00    1.16665   1.19892    0.000
 5023.00    1.16575   1.20795    0.000
 5024.00    1.14004   1.22051    0.000
 5025.00    1.10411   1.23004    0.000
 5026.00    1.08125   1.24120    0.000
 5027.00    1.08867   1.25004    0.000
 5028.00    1.12404   1.25754    0.000
 5029.00    1.17119   1.26582    8.675
 5030.00    1.20836   1.26701    8.259
 5031.00    1.22629   1.26334    8.082
 5032.00    1.23824   1.25812    8.097
 5033.00    1.24855   1.24773    8.119
 5034.00    1.23477   1.23492    8.042
 5035.00    1.18825   1.21929    8.119
 5036.00    1.13571   1.20175    9.084
 5037.00    1.10152   1.19303   11.744
 5038.00    1.08626   1.18830   15.622
 5039.00    1.07945   1.18649   16.698
 5040.00    1.07016   1.19117   13.554
 5041.00    1.06153   1.19781   10.431
 5042.00    1.07048   1.21041    9.060
 5043.00    1.09652   1.22388    8.909
 5044.00    1.11716   1.23343    9.059
 5045.00    1.12422   1.24244    8.984
 5046.00    1.12882   1.24847    8.788
 5047.00    1.12751   1.25232    8.785
 5048.00    1.10513   1.25556    9.180
 5049.00    1.08175   1.25852    9.436
 5050.00    1.10144   1.26460    8.734
 5051.00    1.15754   1.27239    8.224
 5052.00    1.20062   1.28119    9.690
 5053.00    1.21437   1.29243   14.106
 5054.00    1.21829   1.30280   17.099
 5055.00    1.22716   1.31275   15.743
 5056.00    1.24336   1.32088   16.377
 5057.00    1.26166   1.32466   16.583
 5058.00    1.27556   1.32591   11.607
 5059.00    1.28674   1.32121    8.111
 5060.00    1.29766   1.31311    7.258
 5061.00    1.29649   1.30513    7.637
 5062.00    1.26770   1.29342    8.067
 5063.00    1.21214   1.28161    8.273
 5064.00    1.14613   1.26949    8.649
 5065.00    1.09491   1.25926    9.127
 5066.00    1.07568   1.25346    9.327
 5067.00    1.07895   1.24738    9.269
 5068.00    1.08673   1.24356    9.191
 5069.00    1.09487   1.24080    9.134
 5070.00    1.10256   1.23810    9.073
 5071.00    1.10039   1.23518    9.088
 5072.00    1.08389   1.23000    9.225
 5073.00    1.06540   1.22445    9.386
 5074.00    1.05685   1.21585    9.463
 5075.00    1.05564   1.20621    9.473
 5076.00    1.05342   1.19790    9.491
 5077.00    1.04444   1.19080    9.575
 5078.00    1.03108   1.18564    9.703
 5079.00    1.02484   1.18158    9.755
 5080.00    1.03161   1.18236    9.683
 5081.00    1.04497   1.18837    9.578
 5082.00    1.06151   1.19763    9.449
 5083.00    1.08610   1.20871    9.183
 5084.00    1.11440   1.22143    8.905
 5085.00    1.12968   1.23519    8.926
 5086.00    1.12944   1.24802    9.040
 5087.00    1.13106   1.25954    8.617
 5088.00    1.14476   1.26868    8.262
 5089.00    1.16533   1.27457    9.517
 5090.00    1.18380   1.27703   13.698
 5091.00    1.19462   1.27563   18.228
 5092.00    1.20357   1.27134   17.179
 5093.00    1.22162   1.26441   15.540
 5094.00    1.23954   1.25441   15.461
 5095.00    1.23410   1.24542   15.510
 5096.00    1.20434   1.23719   15.824
 5097.00    1.17025   1.22944   17.578
 5098.00    1.14575   1.22299   17.665
 5099.00    1.13247   1.21716   12.904
 5100.00    1.12162   1.21466    9.394
 5101.00    1.10386   1.21383    8.559
 5102.00    1.08712   1.21155    9.074
 5103.00    1.08753   1.20925    9.419
 5104.00    1.10768   1.20781    9.077
 5105.00    1.13947   1.20597    8.634
 5106.00    1.17508   1.20740    8.472
 5107.00    1.20854   1.21014    8.514
 5108.00    1.23550   1.21379    8.150
 5109.00    1.25462   1.22168    7.427
 5110.00    1.26880   1.22948    7.798
 5111.00    1.27996   1.23928   10.979
 5112.00    1.28297   1.25055   15.106
 5113.00    1.27018   1.25825   11.165
 5114.00    1.23756   1.26444    8.014
 5115.00    1.19237   1.26665    7.783
 5116.00    1.15760   1.26389    8.694
 5117.00    1.15041   1.25882    8.955
 5118.00    1.16437   1.24789    8.555
 5119.00    1.18199   1.23407    8.341
 5120.00    1.18687   1.21997    8.459
 5121.00    1.17341   1.20487    8.674
 5122.00    1.15077   1.19160    8.609
 5123.00    1.12793   1.17997    8.495
 5124.00    1.10552   1.17160    9.393
 5125.00    1.08581   1.16864   12.195
 5126.00    1.07638   1.16953   15.437
 5127.00    1.07750   1.17286   15.453
 5128.00    1.07898   1.17844   14.377
 5129.00    1.07705   1.18459   14.343
 5130.00    1.07970   1.19279   14.763
 5131.00    1.09454   1.19965   14.984
 5132.00    1.12267   1.20302   15.103
 5133.00    1.15608   1.20539   15.271
 5134.00    1.18043   1.20342   15.376
 5135.00    1.18709   1.20222   15.131
 5136.00    1.17619   1.19909   14.457
 5137.00    1.15283   1.19087   14.217
 5138.00    1.12435   1.18484   15.348
 5139.00    1.09662   1.17888   16.008
 5140.00    1.07503   1.17379   13.009
 5141.00    1.06934   1.17018    9.893
 5142.00    1.08501   1.16440    8.800
 5143.00    1.10199   1.16085    8.954
 5144.00    1.09051   1.16042    9.324
 5145.00    1.05205   1.15860    9.546
 5146.00    1.01306   1.15771    9.808
 5147.00    0.99771   1.15804   10.010
 5148.00    1.01612   1.15989    9.864
 5149.00    1.05443   1.16447    9.487
 5150.00    1.08998   1.17036    9.167
 5151.00    1.11573   1.17761    8.962
 5152.00    1.13385   1.18634    8.822
 5153.00    1.14265   1.19571    8.752
 5154.00    1.14031   1.20345    8.768
 5155.00    1.13120   1.21005    8.840
 5156.00    1.12101   1.21311    8.922
 5157.00    1.11069   1.20945    9.003
 5158.00    1.09832   1.20045    9.101
 5159.00    1.08178   1.18357    9.245
 5160.00    1.06018   1.15928    9.443
 5161.00    1.03469   1.12940    9.662
 5162.00    1.00500   1.09311    9.919
 5163.00    0.96747   1.05749   10.351
 5164.00    0.92314   1.02362   10.939
 5165.00    0.88190   0.99181   11.276
 5166.00    0.85006   0.96384   11.421
 5167.00    0.82379   0.94069   12.442
 5168.00    0.80084   0.92904   15.066
 5169.00    0.78712   0.92929   17.553
 5170.00    0.79203   0.93754   17.263
 5171.00    0.82350   0.94894   16.070
 5172.00    0.87753   0.96262   15.709
 5173.00    0.93634   0.98030   15.953
 5174.00    0.98268   0.99977   16.194
 5175.00    1.00608   1.01658   16.007
 5176.00    1.00189   1.02650   15.786
 5177.00    0.97176   1.03072   16.318
 5178.00    0.92680   1.02992   16.700
 5179.00    0.88522   1.02724   14.834
 5180.00    0.86120   1.02710   12.325
 5181.00    0.86147   1.02778   11.221
 5182.00    0.88601   1.03150   11.129
 5183.00    0.92763   1.03750   10.904
 5184.00    0.97035   1.04894   10.348
 5185.00    0.99735   1.06760    9.988
 5186.00    1.00973   1.08512    9.892
 5187.00    1.02333   1.10116    9.786
 5188.00    1.05222   1.11550    9.507
 5189.00    1.09822   1.12827    9.101
 5190.00    1.13861   1.13946    0.000
 5191.00    1.14457   1.14755    0.000
 5192.00    1.11599   1.15470    0.000
 5193.00    1.07720   1.16294    0.000
 5194.00    1.06005   1.17165    0.000
 5195.00    1.08220   1.17792    0.000
 5196.00    1.12270   1.18278    0.000
 5197.00    1.15048   1.18486    0.000
 5198.00    1.16303   1.18278    0.000
 5199.00    1.16921   1.17672    0.000
 5200.00    1.16501   1.16607    0.000
 5201.00    1.14214   1.15292    0.000
 5202.00    1.10009   1.13914    0.000
 5203.00    1.05143   1.12511    0.000
 5204.00    1.02311   1.11422    0.000
 5205.00    1.03454   1.10773    0.000
 5206.00    1.08034   1.10728    0.000
 5207.00    1.14241   1.11461    0.000
 5208.00    1.20148   1.12438    0.000
 5209.00    1.24592   1.13948    0.000
 5210.00    1.27527   1.15714    0.000
 5211.00    1.28802   1.17548   15.992
 5212.00    1.27681   1.19469   16.413
 5213.00    1.24601   1.21092   16.315
 5214.00    1.21727   1.22498   16.135
 5215.00    1.20686   1.23382   16.291
 5216.00    1.21522   1.23992   16.501
 5217.00    1.23398   1.24266   16.599
 5218.00    1.25162   1.24137   16.800
 5219.00    1.26229   1.23636   17.118
 5220.00    1.26649   1.22687   17.235
 5221.00    1.26081   1.21662   17.123
 5222.00    1.23929   1.20510   17.099
 5223.00    1.21060   1.19587   17.153
 5224.00    1.19515   1.18945   16.964
 5225.00    1.19968   1.18504   16.625
 5226.00    1.21532   1.18573   16.503
 5227.00    1.23352   1.18956   16.456
 5228.00    1.24925   1.19876   16.057
 5229.00    1.25819   1.21216   15.529
 5230.00    1.25886   1.22487   15.398
 5231.00    1.25845   1.23989   15.622
 5232.00    1.26777   1.25367   15.774
 5233.00    1.28878   1.26609   15.643
 5234.00    1.31477   1.27993   15.306
 5235.00    1.33515   1.29174   14.921
 5236.00    1.33999   1.30341   14.651
 5237.00    1.32579   1.31249   14.633
 5238.00    1.29565   1.31795   14.875
 5239.00    1.25795   1.32060   15.084
 5240.00    1.22422   1.31917   14.976
 5241.00    1.20606   1.31536   14.780
 5242.00    1.20787   1.30799   14.841
 5243.00    1.21973   1.29850   15.148
 5244.00    1.22978   1.28906   15.475
 5245.00    1.23722   1.27827   15.580
 5246.00    1.24149   1.26782   15.423
 5247.00    1.23243   1.25863   15.300
 5248.00    1.20703   1.25305   15.458
 5249.00    1.18297   1.25165   15.817
 5250.00    1.18165   1.25091   16.080
 5251.00    1.21269   1.25452   15.896
 5252.00    1.26534   1.26027   15.302
 5253.00    1.30822   1.26469   14.818
 5254.00    1.32209   1.26776   14.735
 5255.00    1.31668   1.26594   14.919
 5256.00    1.30351   1.26145   15.143
 5257.00    1.28195   1.25132   15.269
 5258.00    1.25349   1.23483   15.303
 5259.00    1.22708   1.21375   15.369
 5260.00    1.20763   1.18881   15.474
 5261.00    1.19254   1.16163   15.474
 5262.00    1.18106   1.13407   15.435
 5263.00    1.17636   1.10959   15.615
 5264.00    1.17747   1.08985   15.800
 5265.00    1.17926   1.07686   15.501
 5266.00    1.18293   1.07108   15.611
 5267.00    1.19466   1.07451   17.668
 5268.00    1.21026   1.08346   18.580
 5269.00    1.21859   1.09638   13.177
 5270.00    1.22410   1.11532    8.894
 5271.00    1.24253   1.14016    7.596
 5272.00    1.27448   1.16730    7.692
 5273.00    1.30495   1.19213    7.820
 5274.00    1.31802   1.21601    7.633
 5275.00    1.30657   1.23583    7.597
 5276.00    1.28410   1.25223    7.772
 5277.00    1.27217   1.26745    7.885
 5278.00    1.27351   1.28014    7.859
 5279.00    1.27828   1.29087    7.806
 5280.00    1.28262   1.30002    7.791
 5281.00    1.28899   1.30897    7.788
 5282.00    1.30167   1.31889    7.691
 5283.00    1.32278   1.32987    7.484
 5284.00    1.34776   1.34136    7.406
 5285.00    1.36643   1.35380    7.526
 5286.00    1.36582   1.36405    7.335
 5287.00    1.34211   1.37089    6.891
 5288.00    1.31167   1.37341    7.663
 5289.00    1.29262   1.37136   11.952
 5290.00    1.28639   1.36537   17.281
 5291.00    1.29013   1.35511   11.136
 5292.00    1.30783   1.34314    7.464
 5293.00    1.33584   1.32956    6.971
 5294.00    1.35332   1.31674    7.470
 5295.00    1.34604   1.30644    7.620
 5296.00    1.32270   1.29895    7.523
 5297.00    1.30079   1.29646    7.619
 5298.00    1.29429   1.29894    7.744
 5299.00    1.30133   1.30779    7.711
 5300.00    1.30259   1.32009    7.668
 5301.00    1.29114   1.33400    7.728
 5302.00    1.28377   1.34977    7.801
 5303.00    1.29545   1.36545    7.746
 5304.00    1.32619   1.38015    7.514
 5305.00    1.36106   1.39234    7.289
 5306.00    1.37635   1.40142    7.340
 5307.00    1.36234   1.40709    7.498
 5308.00    1.33017   1.40997    7.281
 5309.00    1.30301   1.41044    7.231
 5310.00    1.30350   1.40838    8.804
 5311.00    1.32540   1.40435   13.502
 5312.00    1.34015   1.39816   17.622
 5313.00    1.34181   1.39061   16.310
 5314.00    1.34687   1.38174   17.322
 5315.00    1.35954   1.37205   18.612
 5316.00    1.36874   1.36064   12.261
 5317.00    1.36338   1.34723    7.917
 5318.00    1.33941   1.33373    6.954
 5319.00    1.30640   1.31782    7.508
 5320.00    1.27911   1.30026    8.036
 5321.00    1.25918   1.28066    7.989
 5322.00    1.23978   1.26245    7.985
 5323.00    1.21961   1.24627    8.185
 5324.00    1.20460   1.23219    8.333
 5325.00    1.20632   1.22354    8.294
 5326.00    1.23222   1.21931    8.105
 5327.00    1.27296   1.22079    7.855
 5328.00    1.30981   1.22593    7.638
 5329.00    1.32696   1.23784    7.536
 5330.00    1.32163   1.25363    7.565
 5331.00    1.31241   1.27004   -2.000
 5332.00    1.32089   1.28524   -2.000
 5333.00    1.35142   1.29624   -2.000
 5334.00    1.38669   1.30557   -2.000
 5335.00    1.38994   1.31192   -2.000
 5336.00    1.34396   1.31469   -2.000
 5337.00    1.27938   1.31544   -2.000
 5338.00    1.23565   1.31416   -2.000
 5339.00    1.22971   1.31209   -2.000
 5340.00    1.25836   1.31032   -2.000
 5341.00    1.30300   1.30938   -2.000
 5342.00    1.33930   1.31129   -2.000
 5343.00    1.34616   1.31420   -2.000
 5344.00    1.32216   1.31921   -2.000
 5345.00    1.28939   1.32554   -2.000
 5346.00    1.26695   1.33237    7.443
 5347.00    1.25896   1.34286    8.606
 5348.00    1.26369   1.35432   12.663
 5349.00    1.27759   1.36691   18.034
 5350.00    1.29329   1.38133   17.461
 5351.00    1.30214   1.39554   15.631
 5352.00    1.30671   1.40907   15.777
 5353.00    1.31986   1.41981   16.333
 5354.00    1.34673   1.42786   16.269
 5355.00    1.38193   1.43258   16.153
 5356.00    1.41993   1.43299   16.225
 5357.00    1.45569   1.42991   16.134
 5358.00    1.47777   1.42232   15.871
 5359.00    1.47222   1.41225   15.759
 5360.00    1.43620   1.39901   15.828
 5361.00    1.37965   1.38406   15.889
 5362.00    1.32119   1.36753   15.953
 5363.00    1.27975   1.35064   16.157
 5364.00    1.26048   1.33476   16.421
 5365.00    1.25575   1.32025   16.566
 5366.00    1.25242   1.31046   16.689
 5367.00    1.24015   1.30268   16.955
 5368.00    1.22219   1.29967   17.123
 5369.00    1.21075   1.30029   16.940
 5370.00    1.21719   1.30408   16.824
 5371.00    1.24285   1.31234   17.179
 5372.00    1.27040   1.32334   17.497
 5373.00    1.28299   1.33705   17.220
 5374.00    1.28705   1.34917   17.015
 5375.00    1.29737   1.36045   17.516
 5376.00    1.31850   1.36853   18.072
 5377.00    1.34759   1.37380   17.885
 5378.00    1.37900   1.37750   17.511
 5379.00    1.40477   1.37834   17.614
 5380.00    1.41525   1.37715   17.963
 5381.00    1.40480   1.37388   18.153
 5382.00    1.37638   1.36928   18.224
 5383.00    1.34233   1.36272   18.283
 5384.00    1.32205   1.35552   18.215
 5385.00    1.32450   1.34748   18.002
 5386.00    1.33957   1.33791   17.871
 5387.00    1.35447   1.32736   17.957
 5388.00    1.36280   1.31615   18.141
 5389.00    1.36042   1.30443   18.185
 5390.00    1.34381   1.29232   17.888
 5391.00    1.31453   1.28250   17.394
 5392.00    1.28042   1.27369   17.115
 5393.00    1.25101   1.26645   17.157
 5394.00    1.23510   1.26045   17.249
 5395.00    1.23922   1.25600   17.143
 5396.00    1.26453   1.25219   16.816
 5397.00    1.29858   1.24723   16.513
 5398.00    1.31975   1.24434   16.552
 5399.00    1.31912   1.24102   16.856
 5400.00    1.30314   1.23724   17.010
 5401.00    1.28135   1.23301   16.886
 5402.00    1.26126   1.22912   16.723
 5403.00    1.24486   1.22568   16.731
 5404.00    1.23220   1.22429   16.923
 5405.00    1.23093   1.22601   16.972
 5406.00    1.24907   1.23112   16.567
 5407.00    1.27632   1.24091   16.199
 5408.00    1.29485   1.25344   16.406
 5409.00    1.30565   1.26813   16.495
 5410.00    1.32285   1.28348   15.857
 5411.00    1.35550   1.29993   16.315
 5412.00    1.39932   1.31563   19.051
 5413.00    1.43033   1.32930   17.065
 5414.00    1.43003   1.34055   10.303
 5415.00    1.41851   1.34881    7.153
 5416.00    1.42259   1.35474    6.581
 5417.00    1.43309   1.35769    6.967
 5418.00    1.42718   1.35835    7.178
 5419.00    1.39866   1.35700    7.146
 5420.00    1.35659   1.35343    7.300
 5421.00    1.31940   1.34889    7.585
 5422.00    1.30169   1.34319    7.732
 5423.00    1.30307   1.33650    7.664
 5424.00    1.31284   1.32880    7.540
 5425.00    1.31648   1.32086    7.626
 5426.00    1.31031   1.31290    7.834
 5427.00    1.30864   1.30469    7.537
 5428.00    1.31986   1.29748    7.065
 5429.00    1.33274   1.29084    7.943
 5430.00    1.33390   1.28707   12.188
 5431.00    1.31955   1.28863   20.219
 5432.00    1.29857   1.29188   20.459
 5433.00    1.28994   1.29906   17.417
 5434.00    1.30353   1.30864   17.440
 5435.00    1.33280   1.31979   18.064
 5436.00    1.36436   1.33228   17.551
 5437.00    1.38486   1.34296   17.293
 5438.00    1.38929   1.35211   17.591
 5439.00    1.38438   1.35754   17.134
 5440.00    1.38795   1.35916   16.620
 5441.00    1.41823   1.35743   -2.000
 5442.00    1.46150   1.35201   -2.000
 5443.00    1.48068   1.34508   -2.000
 5444.00    1.46967   1.33659   -2.000
 5445.00    1.45336   1.32800   -2.000
 5446.00    1.44529   1.31982   -2.000
 5447.00    1.43666   1.31265   -2.000
 5448.00    1.39849   1.30872   -2.000
 5449.00    1.29771   1.30529   -2.000
 5450.00    1.13035   1.30344   -2.000
 5451.00    0.94553   1.30128   -2.000
 5452.00    0.87225   1.29999   -2.000
 5453.00    1.00842   1.29875   -2.000
 5454.00    1.23075   1.29835   -2.000
 5455.00    1.34225   1.29851   -2.000
 5456.00    1.34563   1.29973   -2.000
 5457.00    1.34813   1.30271   -2.000
 5458.00    1.37078   1.30525   -2.000
 5459.00    1.38293   1.30803   -2.000
 5460.00    1.37888   1.30960   -2.000
 5461.00    1.36931   1.31061   -2.000
 5462.00    1.36043   1.31140   -2.000
 5463.00    1.35426   1.31124   -2.000
 5464.00    1.35159   1.31106    7.391
 5465.00    1.35485   1.31033    7.322
 5466.00    1.36967   1.30793    7.306
 5467.00    1.39709   1.30404    7.176
 5468.00    1.42744   1.29881    7.003
 5469.00    1.44665   1.29235    6.909
 5470.00    1.44293   1.28511    6.930
 5471.00    1.41714   1.27756    7.051
 5472.00    1.38652   1.27037    7.217
 5473.00    1.36467   1.26393    7.349
 5474.00    1.35085   1.25919    7.386
 5475.00    1.34236   1.25703    7.387
 5476.00    1.34074   1.25624    7.516
 5477.00    1.34523   1.25769    7.608
 5478.00    1.35028   1.26217    7.229
 5479.00    1.34981   1.26760    6.957
 5480.00    1.34165   1.27455    8.248
 5481.00    1.33628   1.28056   13.082
 5482.00    1.35264   1.28760   20.027
 5483.00    1.38959   1.29404   18.623
 5484.00    1.42431   1.29991   16.189
 5485.00    1.44282   1.30521   16.599
 5486.00    1.44584   1.30906   17.620
 5487.00    1.43441   1.31184   17.640
 5488.00    1.40923   1.31337   17.174
 5489.00    1.38063   1.31546   16.883
 5490.00    1.36482   1.31655   16.914
 5491.00    1.36828   1.31767   17.037
 5492.00    1.38658   1.31807   16.884
 5493.00    1.41053   1.31755   16.461
 5494.00    1.42827   1.31691   16.111
 5495.00    1.42698   1.31576   16.211
 5496.00    1.40085   1.31405   16.819
 5497.00    1.36367   1.31093   16.970
 5498.00    1.33443   1.30808   16.157
 5499.00    1.31182   1.30513   16.703
 5500.00    1.29636   1.30137   20.025
 5501.00    1.32361   1.29724   17.436
 5502.00    1.39107   1.29301   10.098
 5503.00    1.36835   1.28910    7.386
 5504.00    1.16983   1.28537    7.970
 5505.00    0.95510   1.28245   -1.000
 5506.00    0.90169   1.27926   -1.000
 5507.00    0.95040   1.27718   -1.000
 5508.00    0.96366   1.27621   -1.000
 5509.00    0.90562   1.27616   -1.000
 5510.00    0.84377   1.27722   -1.000
 5511.00    0.91454   1.28002   -1.000
 5512.00    1.14291   1.28364    8.729
 5513.00    1.33667   1.28971    7.486
 5514.00    1.36063   1.29698    7.374
 5515.00    1.30902   1.30512    7.625
 5516.00    1.29154   1.31345    7.675
 5517.00    1.30107   1.32052    7.733
 5518.00    1.30569   1.32649    7.843
 5519.00    1.30328   1.32992    7.521
 5520.00    1.29711   1.33112    7.224
 5521.00    1.28461   1.33016    8.462
 5522.00    1.27239   1.32734   13.225
 5523.00    1.27832   1.32331   19.758
 5524.00    1.30869   1.31889   18.927
 5525.00    1.35174   1.31469   19.535
 5526.00    1.39185   1.31103   22.019
 5527.00    1.41627   1.30881   13.987
 5528.00    1.41817   1.30755    8.128
 5529.00    1.40006   1.30830    6.658
 5530.00    1.38065   1.31066    6.996
 5531.00    1.38489   1.31355    7.415
 5532.00    1.41125   1.31736    7.164
 5533.00    1.43405   1.32100    6.910
 5534.00    1.43332   1.32519    6.955
 5535.00    1.40540   1.32907    7.135
 5536.00    1.36840   1.33349    7.311
 5537.00    1.34960   1.33780    7.416
 5538.00    1.35769   1.34161    7.375
 5539.00    1.38394   1.34584    7.183
 5540.00    1.41542   1.34946    7.039
 5541.00    1.43926   1.35308    7.075
 5542.00    1.44561   1.35627    6.975
 5543.00    1.42923   1.35912    6.640
 5544.00    1.39150   1.36197    7.050
 5545.00    1.34425   1.36469    9.870
 5546.00    1.31318   1.36683   16.984
 5547.00    1.31758   1.36857   20.117
 5548.00    1.34620   1.36967   16.526
 5549.00    1.37516   1.36943   15.864
 5550.00    1.39111   1.36835   17.503
 5551.00    1.39164   1.36602   18.324
 5552.00    1.38255   1.36280   17.195
 5553.00    1.37217   1.35881   16.032
 5554.00    1.36617   1.35433   17.292
 5555.00    1.36486   1.34970   20.491
 5556.00    1.36239   1.34491   16.117
 5557.00    1.35404   1.33994    9.580
 5558.00    1.34163   1.33463    7.214
 5559.00    1.33176   1.32955    7.114
 5560.00    1.33293   1.32424    7.602
 5561.00    1.34581   1.31907    7.571
 5562.00    1.35992   1.31429    7.314
 5563.00    1.36712   1.30981    7.270
 5564.00    1.36815   1.30657    7.325
 5565.00    1.36733   1.30390    7.329
 5566.00    1.36890   1.30234    7.299
 5567.00    1.37403   1.30203    7.273
 5568.00    1.38050   1.30261    7.246
 5569.00    1.38671   1.30436    7.213
 5570.00    1.39203   1.30665    7.183
 5571.00    1.39272   1.31009    7.180
 5572.00    1.38299   1.31312    7.230
 5573.00    1.36347   1.31605    7.333
 5574.00    1.34137   1.31897    7.457
 5575.00    1.32267   1.32038    7.563
 5576.00    1.31087   1.32031    7.623
 5577.00    1.30961   1.31864    7.629
 5578.00    1.32157   1.31452    7.584
 5579.00    1.34433   1.30817    7.454
 5580.00    1.37071   1.30013    7.250
 5581.00    1.39199   1.29010    7.149
 5582.00    1.40131   1.27898    7.268
 5583.00    1.39885   1.26788    7.233
 5584.00    1.38965   1.25731    6.826
 5585.00    1.37810   1.24832    7.048
 5586.00    1.36665   1.24161    9.536
 5587.00    1.35532   1.23713   16.346
 5588.00    1.34364   1.23598   20.942
 5589.00    1.33349   1.23735   17.642
 5590.00    1.32913   1.24080   16.364
 5591.00    1.33618   1.24590   17.460
 5592.00    1.35509   1.25086   18.557
 5593.00    1.37460   1.25622   18.538
 5594.00    1.38271   1.26042   17.876
 5595.00    1.37835   1.26445   17.398
 5596.00    1.36476   1.26820   17.506
 5597.00    1.34272   1.27168   17.953
 5598.00    1.31523   1.27551   18.393
 5599.00    1.29134   1.28038   18.810
 5600.00    1.28096   1.28686   18.926
 5601.00    1.28993   1.29436   18.009
 5602.00    1.31597   1.30380   17.112
 5603.00    1.34756   1.31300   18.931
 5604.00    1.37358   1.32265   21.872
 5605.00    1.38957   1.33076   15.299
 5606.00    1.39754   1.33685    8.852
 5607.00    1.40461   1.34008    6.789
 5608.00    1.41708   1.33978    6.733
 5609.00    1.43630   1.33668    7.096
 5610.00    1.45369   1.33084    7.011
 5611.00    1.45304   1.32327    6.806
 5612.00    1.42869   1.31483    6.895
 5613.00    1.39003   1.30604    7.321
 5614.00    1.34941   1.29795    7.641
 5615.00    1.31676   1.29057    7.242
 5616.00    1.29730   1.28523    7.126
 5617.00    1.29227   1.28198    9.432
 5618.00    1.30318   1.28006   16.381
 5619.00    1.32924   1.27990   14.472
 5620.00    1.35707   1.28037    8.284
 5621.00    1.36715   1.28206    6.728
 5622.00    1.35618   1.28457    7.163
 5623.00    1.33648   1.28808    7.722
 5624.00    1.32213   1.29205    7.629
 5625.00    1.32206   1.29677    7.496
 5626.00    1.33305   1.30201    7.495
 5627.00    1.34445   1.30716    7.412
 5628.00    1.34923   1.31156    7.386
 5629.00    1.34720   1.31501    7.581
 5630.00    1.34633   1.31644    7.495
 5631.00    1.35510   1.31642    6.930
 5632.00    1.37119   1.31461    7.150
 5633.00    1.38453   1.31164    9.991
 5634.00    1.38409   1.30778   17.866
 5635.00    1.36702   1.30376   22.059
 5636.00    1.34722   1.30005   17.856
 5637.00    1.33964   1.29693   16.594
 5638.00    1.34300   1.29507   17.364
 5639.00    1.34877   1.29429   17.392
 5640.00    1.35169   1.29472   16.893
 5641.00    1.35139   1.29602   16.963
 5642.00    1.35200   1.29811   17.300
 5643.00    1.35471   1.30095   17.372
 5644.00    1.35320   1.30365   17.375
 5645.00    1.34461   1.30661   17.375
 5646.00    1.33591   1.30862   16.883
 5647.00    1.33217   1.31004   16.609
 5648.00    1.32993   1.31012   18.715
 5649.00    1.32643   1.30879   21.445
 5650.00    1.32455   1.30603   15.259
 5651.00    1.32869   1.30206    9.120
 5652.00    1.34104   1.29690    7.107
 5653.00    1.35528   1.29117    7.077
 5654.00    1.35719   1.28489    7.501
 5655.00    1.34018   1.27915    7.569
 5656.00    1.31088   1.27429    7.575
 5657.00    1.28411   1.27108    7.750
 5658.00    1.27678   1.26911    7.854
 5659.00    1.29460   1.26956    7.736
 5660.00    1.32852   1.27176    7.521
 5661.00    1.35907   1.27549    7.357
 5662.00    1.36516   1.28076    7.323
 5663.00    1.34448   1.28660    7.433
 5664.00    1.31305   1.29324    7.631
 5665.00    1.28899   1.29998    7.775
 5666.00    1.28405   1.30734    7.740
 5667.00    1.29423   1.31417    7.684
 5668.00    1.30703   1.32120    7.792
 5669.00    1.32025   1.32772    7.677
 5670.00    1.34013   1.33399    7.088
 5671.00    1.37041   1.33941    7.060
 5672.00    1.40843   1.34384    9.111
 5673.00    1.44259   1.34679   16.183
 5674.00    1.45958   1.34807   -1.000
 5675.00    1.45587   1.34759   20.689
 5676.00    1.43670   1.34540   10.511
 5677.00    1.41203   1.34194    7.193
 5678.00    1.39289   1.33723    6.714
 5679.00    1.38723   1.33230    7.195
 5680.00    1.39649   1.32699    7.335
 5681.00    1.41279   1.32245    7.076
 5682.00    1.42401   1.31848    6.964
 5683.00    1.41995   1.31607    7.046
 5684.00    1.39859   1.31505    7.174
 5685.00    1.37049   1.31550    7.294
 5686.00    1.35160   1.31750    7.382
 5687.00    1.35572   1.32009    7.381
 5688.00    1.38556   1.32355    7.243
 5689.00    1.42818   1.32654    6.990
 5690.00    1.46787   1.32958    6.756
 5691.00    1.49480   1.33105    6.726
 5692.00    1.50312   1.33134    6.804
 5693.00    1.48990   1.32957    6.594
 5694.00    1.45806   1.32588    6.440
 5695.00    1.41709   1.32073    7.620
 5696.00    1.37886   1.31389   12.109
 5697.00    1.35410   1.30639   19.304
 5698.00    1.34642   1.29794   18.323
 5699.00    1.35364   1.28954   15.842
 5700.00    1.38316   1.28108   16.421
 5701.00    1.44717   1.27290   -1.000
 5702.00    1.52379   1.26564   -1.000
 5703.00    1.56131   1.25910   -1.000
 5704.00    1.53794   1.25401   -1.000
 5705.00    1.47368   1.25041   -1.000
 5706.00    1.40553   1.24888   18.243
 5707.00    1.36829   1.24940   17.352
 5708.00    1.36526   1.25265   17.505
 5709.00    1.37530   1.25825   20.975
 5710.00    1.38815   1.26677   20.657
 5711.00    1.40583   1.27715   11.889
 5712.00    1.42740   1.28905    7.469
 5713.00    1.44791   1.30219    6.454
 5714.00    1.46294   1.31503    6.735
 5715.00    1.47095   1.32768    6.967
 5716.00    1.47569   1.33921    6.805
 5717.00    1.48317   1.34910    6.685
 5718.00    1.49622   1.35723    6.676
 5719.00    1.51396   1.36361    6.625
 5720.00    1.53228   1.36793    6.528
 5721.00    1.54508   1.37056    6.465
 5722.00    1.54595   1.37165    6.468
 5723.00    1.53224   1.37127    6.529
 5724.00    1.50905   1.37013    6.627
 5725.00    1.48509   1.36827    6.733
 5726.00    1.46729   1.36642    6.815
 5727.00    1.45596   1.36449    6.869
 5728.00    1.44180   1.36335    6.936
 5729.00    1.41653   1.36259    7.058
 5730.00    1.38232   1.36259    7.235
 5731.00    1.35291   1.36301    7.395
 5732.00    1.35089   1.36366    7.401
 5733.00    1.38623   1.36441    7.204
 5734.00    1.44317   1.36516    6.935
 5735.00    1.49343   1.36596    6.719
 5736.00    1.50916   1.36640    6.609
 5737.00    1.48564   1.36643    6.668
 5738.00    1.44838   1.36630    6.965
 5739.00    1.42396   1.36584    7.218
 5740.00    1.42402   1.36523    0.000
 5741.00    1.44363   1.36436    0.000
 5742.00    1.46456   1.36308    0.000
 5743.00    1.47090   1.36151    0.000
 5744.00    1.45616   1.35941    0.000
 5745.00    1.42480   1.35713    0.000
 5746.00    1.38973   1.35430    0.000
 5747.00    1.36239   1.35160    0.000
 5748.00    1.34922   1.34839    0.000
 5749.00    1.35155   1.34575    0.000
 5750.00    1.36582   1.34316    0.000
 5751.00    1.38449   1.34145    0.000
 5752.00    1.39739   1.34020   -2.000
 5753.00    1.39431   1.33933   -2.000
 5754.00    1.36592   1.33885   -2.000
 5755.00    1.30460   1.33867   -2.000
 5756.00    1.21758   1.33924   -2.000
 5757.00    1.15072   1.33989   -2.000
 5758.00    1.15520   1.34147   -2.000
 5759.00    1.22059   1.34282   -2.000
 5760.00    1.29446   1.34531   -2.000
 5761.00    1.33489   1.34786   -2.000
 5762.00    1.33172   1.35157   -2.000
 5763.00    1.32229   1.35521   -2.000
 5764.00    1.34938   1.35948   -2.000
 5765.00    1.40459   1.36302   -2.000
 5766.00    1.45437   1.36611   -2.000
 5767.00    1.48029   1.36793   -2.000
 5768.00    1.48114   1.36810   -2.000
 5769.00    1.46901   1.36694   -2.000
 5770.00    1.45739   1.36410   -2.000
 5771.00    1.45000   1.35996    0.000
 5772.00    1.44326   1.35417    0.000
 5773.00    1.43040   1.34723    0.000
 5774.00    1.41077   1.33893    0.000
 5775.00    1.39502   1.32957    0.000
 5776.00    1.38940   1.31977    0.000
 5777.00    1.38558   1.30929    0.000
 5778.00    1.37236   1.29970    0.000
 5779.00    1.34486   1.29060    0.000
 5780.00    1.31080   1.28357    0.000
 5781.00    1.28963   1.27825    0.000
 5782.00    1.28927   1.27605    0.000
 5783.00    1.29793   1.27618    0.000
 5784.00    1.30473   1.27951    0.000
 5785.00    1.30918   1.28499    0.000
 5786.00    1.31714   1.29238    0.000
 5787.00    1.33502   1.30075    0.000
 5788.00    1.35566   1.30993    0.000
 5789.00    1.36127   1.31936    0.000
 5790.00    1.35278   1.32838    0.000
 5791.00    1.35106   1.33662    0.000
 5792.00    1.36800   1.34436    0.000
 5793.00    1.39916   1.35101    0.000
 5794.00    1.43015   1.35719    0.000
 5795.00    1.44357   1.36258    0.000
 5796.00    1.43179   1.36692    0.000
 5797.00    1.40006   1.37056    0.000
 5798.00    1.36571   1.37314    0.000
 5799.00    1.34892   1.37491    0.000
 5800.00    1.35461   1.37584    0.000
 5801.00    1.37462   1.37630    0.000
 5802.00    1.39920   1.37620    0.000
 5803.00    1.42033   1.37542    0.000
 5804.00    1.43374   1.37439    0.000
 5805.00    1.43753   1.37334    0.000
 5806.00    1.43003   1.37222    0.000
 5807.00    1.41340   1.37146    0.000
 5808.00    1.39861   1.37096    0.000
 5809.00    1.39709   1.37073    0.000
 5810.00    1.40978   1.37063    0.000
 5811.00    1.42762   1.37092    0.000
 5812.00    1.43490   1.37150    0.000
 5813.00    1.42252   1.37270    0.000
 5814.00    1.39985   1.37429    0.000
 5815.00    1.37943   1.37649    0.000
 5816.00    1.36294   1.37919    0.000
 5817.00    1.35002   1.38217    0.000
 5818.00    1.34573   1.38539    0.000
 5819.00    1.35362   1.38864    0.000
 5820.00    1.37060   1.39173    0.000
 5821.00    1.39066   1.39437    0.000
 5822.00    1.40765   1.39622    0.000
 5823.00    1.41537   1.39777    0.000
 5824.00    1.40846   1.39843    0.000
 5825.00    1.38738   1.39891    0.000
 5826.00    1.35988   1.39857    0.000
 5827.00    1.33441   1.39818    0.000
 5828.00    1.31623   1.39711    0.000
 5829.00    1.30523   1.39596    0.000
 5830.00    1.29750   1.39452    0.000
 5831.00    1.29480   1.39324    0.000
 5832.00    1.30518   1.39203    0.000
 5833.00    1.33130   1.39107    0.000
 5834.00    1.36743   1.39041    0.000
 5835.00    1.40458   1.39021    0.000
 5836.00    1.43419   1.39008    0.000
 5837.00    1.45379   1.39008    0.000
 5838.00    1.46504   1.38994    0.000
 5839.00    1.46405   1.38939    0.000
 5840.00    1.44531   1.38784    0.000
 5841.00    1.41661   1.38548    0.000
 5842.00    1.39368   1.38211    0.000
 5843.00    1.38106   1.37756    0.000
 5844.00    1.37362   1.37187    0.000
 5845.00    1.36755   1.36523    0.000
 5846.00    1.36138   1.35782    0.000
 5847.00    1.35395   1.34986    0.000
 5848.00    1.34423   1.34165    0.000
 5849.00    1.33182   1.33343    0.000
 5850.00    1.31849   1.32548    0.000
 5851.00    1.31005   1.31822    0.000
 5852.00    1.31240   1.31160    0.000
 5853.00    1.32606   1.30624    0.000
 5854.00    1.34495   1.30186    0.000
 5855.00    1.35646   1.29927    0.000
 5856.00    1.34959   1.29786    0.000
 5857.00    1.32367   1.29858    0.000
 5858.00    1.28921   1.29988    0.000
 5859.00    1.26629   1.30289    0.000
 5860.00    1.26896   1.30613    0.000
 5861.00    1.29285   1.31083    0.000
 5862.00    1.32415   1.31521    0.000
 5863.00    1.34841   1.32014    0.000
 5864.00    1.35747   1.32454    0.000
 5865.00    1.35264   1.32880    0.000
 5866.00    1.33608   1.33269    0.000
 5867.00    1.30742   1.33585    0.000
 5868.00    1.27685   1.33832    0.000
 5869.00    1.26752   1.33958    0.000
 5870.00    1.28822   1.34012    0.000
 5871.00    1.32315   1.33917    0.000
 5872.00    1.35198   1.33704    0.000
 5873.00    1.36064   1.33341    0.000
 5874.00    1.34575   1.32835    0.000
 5875.00    1.31450   1.32191    0.000
 5876.00    1.27822   1.31378    0.000
 5877.00    1.24724   1.30422    0.000
 5878.00    1.22233   1.29231    0.000
 5879.00    1.19678   1.27848    0.000
 5880.00    1.17148   1.26179    0.000
 5881.00    1.15488   1.24274    0.000
 5882.00    1.15044   1.22070    0.000
 5883.00    1.15272   1.19671    0.000
 5884.00    1.14705   1.17085    0.000
 5885.00    1.11872   1.14463    0.000
 5886.00    1.07296   1.11881    0.000
 5887.00    1.02908   1.09549    0.000
 5888.00    0.99984   1.07548    0.000
 5889.00    0.98760   1.06055    0.000
 5890.00    0.98554   1.05102    0.000
 5891.00    0.98479   1.04790    0.000
 5892.00    0.98563   1.05089    0.000
 5893.00    0.99357   1.06048    0.000
 5894.00    1.01097   1.07529    0.000
 5895.00    1.03694   1.09436    0.000
 5896.00    1.06882   1.11645    0.000
 5897.00    1.10411   1.14029    0.000
 5898.00    1.14226   1.16456    0.000
 5899.00    1.18287   1.18871    0.000
 5900.00    1.22351   1.21135    0.000
 5901.00    1.26030   1.23159   12.646
 5902.00    1.28863   1.24910   17.705
 5903.00    1.30330   1.26353   11.044
 5904.00    1.29953   1.27489    7.497
 5905.00    1.28150   1.28353    7.240
 5906.00    1.26720   1.28956    7.987
 5907.00    1.27284   1.29361    8.060
 5908.00    1.30104   1.29572    7.653
 5909.00    1.33973   1.29685    7.432
 5910.00    1.36564   1.29678    7.316
 5911.00    1.36608   1.29662    7.255
 5912.00    1.34913   1.29602    7.481
 5913.00    1.32810   1.29603    7.784
 5914.00    1.31244   1.29618    7.374
 5915.00    1.30615   1.29718    6.988
 5916.00    1.30815   1.29855    8.742
 5917.00    1.31604   1.30053   15.656
 5918.00    1.32738   1.30279   16.610
 5919.00    1.33768   1.30507    9.084
 5920.00    1.34168   1.30737    6.877
 5921.00    1.34067   1.30907    7.119
 5922.00    1.34098   1.31056    7.691
 5923.00    1.34161   1.31127    7.571
 5924.00    1.33580   1.31165    7.401
 5925.00    1.32652   1.31150    7.501
 5926.00    1.32475   1.31113    7.581
 5927.00    1.33359   1.31062    7.510
 5928.00    1.34687   1.31012    7.413
 5929.00    1.35577   1.30978    7.372
 5930.00    1.35437   1.30960    7.388
 5931.00    1.34739   1.30974    7.423
 5932.00    1.34481   1.31010    7.434
 5933.00    1.34898   1.31069    7.413
 5934.00    1.35494   1.31151    7.381
 5935.00    1.35539   1.31230    7.378
 5936.00    1.34519   1.31325    7.434
 5937.00    1.32675   1.31392    7.537
 5938.00    1.30746   1.31462    7.648
 5939.00    1.29494   1.31503    7.722
 5940.00    1.29473   1.31537    7.724
 5941.00    1.30822   1.31539    7.644
 5942.00    1.33265   1.31509    7.503
 5943.00    1.36130   1.31448    7.346
 5944.00    1.38396   1.31351    7.229
 5945.00    1.38822   1.31219    7.203
 5946.00    1.36773   1.31063    7.303
 5947.00    1.32919   1.30898    7.526
 5948.00    1.28657   1.30731    7.800
 5949.00    1.25483   1.30581    7.958
 5950.00    1.24289   1.30470    7.965
 5951.00    1.24934   1.30406    8.046
 5952.00    1.26769   1.30417    8.112
 5953.00    1.29056   1.30497    7.615
 5954.00    1.31210   1.30671    7.084
 5955.00    1.32897   1.30912    8.074
 5956.00    1.33816   1.31220   12.622
 5957.00    1.33661   1.31568   19.937
 5958.00    1.32552   1.31957   19.040
 5959.00    1.31083   1.32356   18.231
 5960.00    1.29553   1.32740   20.325
 5961.00    1.27858   1.33111   14.976
 5962.00    1.26462   1.33435    9.231
 5963.00    1.26392   1.33739    7.460
 5964.00    1.27811   1.33963    7.574
 5965.00    1.29680   1.34164    7.834
 5966.00    1.30465   1.34257    7.679
 5967.00    1.29056   1.34317    7.834
 5968.00    1.26712   1.34251    8.074
 5969.00    1.26035   1.34138    7.511
 5970.00    1.26842   1.33899    7.370
 5971.00    1.26967   1.33617   10.095
 5972.00    1.26788   1.33241   17.962
 5973.00    1.28286   1.32840   14.557
 5974.00    1.30691   1.32400    8.317
 5975.00    1.31769   1.31971    6.944
 5976.00    1.32052   1.31555    7.420
 5977.00    1.33466   1.31182    7.743
 5978.00    1.35535   1.30859    7.421
 5979.00    1.36415   1.30596    7.247
 5980.00    1.35583   1.30409    7.364
 5981.00    1.33755   1.30294    7.510
 5982.00    1.32097   1.30270    7.574
 5983.00    1.31461   1.30320    7.587
 5984.00    1.31583   1.30461    7.598
 5985.00    1.31691   1.30654    7.621
 5986.00    1.31334   1.30909    7.614
 5987.00    1.30454   1.31173    7.598
 5988.00    1.29345   1.31444    7.739
 5989.00    1.28517   1.31678    7.981
 5990.00    1.28526   1.31862    7.736
 5991.00    1.29467   1.31979    7.209
 5992.00    1.30622   1.32014    7.877
 5993.00    1.31023   1.31973   11.723
 5994.00    1.30005   1.31850   20.121
 5995.00    1.27773   1.31673   21.981
 5996.00    1.25585   1.31437   18.730
 5997.00    1.24442   1.31175   18.769
 5998.00    1.24359   1.30885   20.007
 5999.00    1.25054   1.30593   19.741
 6000.00    1.26372   1.30296   19.009
 6001.00    1.28210   1.30016   18.912
 6002.00    1.30396   1.29748   19.008
 6003.00    1.32326   1.29514   19.058
 6004.00    1.33027   1.29298   19.490
 6005.00    1.32098   1.29129   19.973
 6006.00    1.29995   1.28980   19.437
 6007.00    1.27562   1.28874   19.092
 6008.00    1.25655   1.28776   21.261
 6009.00    1.24512   1.28707   21.557
 6010.00    1.23747   1.28629   14.051
 6011.00    1.22983   1.28568    9.035
 6012.00    1.22134   1.28491    7.688
 6013.00    1.21605   1.28445    8.010
 6014.00    1.22064   1.28386    8.401
 6015.00    1.23753   1.28395    8.163
 6016.00    1.26310   1.28408    7.807
 6017.00    1.28754   1.28534    7.709
 6018.00    1.29935   1.28689    7.854
 6019.00    1.29402   1.28978    7.829
 6020.00    1.27516   1.29311    7.447
 6021.00    1.25291   1.29767    7.730
 6022.00    1.23865   1.30269   10.427
 6023.00    1.23677   1.30842   17.853
 6024.00    1.24565   1.31452   23.477
 6025.00    1.26126   1.32063   20.251
 6026.00    1.27892   1.32691   18.948
 6027.00    1.29507   1.33256   19.955
 6028.00    1.30746   1.33815   20.265
 6029.00    1.31510   1.34273   19.653
 6030.00    1.31864   1.34705   19.369
 6031.00    1.32076   1.35030   19.389
 6032.00    1.32589   1.35315   19.338
 6033.00    1.33954   1.35519   19.423
 6034.00    1.36434   1.35681   19.799
 6035.00    1.39661   1.35805   19.980
 6036.00    1.42637   1.35900   19.600
 6037.00    1.43932   1.36000   19.088
 6038.00    1.42894   1.36088   18.925
 6039.00    1.40371   1.36203   19.198
 6040.00    1.37548   1.36317   19.583
 6041.00    1.35142   1.36447   19.406
 6042.00    1.33404   1.36572   18.760
 6043.00    1.32223   1.36672   18.641
 6044.00    1.31467   1.36749   18.921
 6045.00    1.31147   1.36758   18.169
 6046.00    1.31266   1.36723   17.454
 6047.00    1.31780   1.36600   19.837
 6048.00    1.32764   1.36425   22.218
 6049.00    1.34286   1.36180   14.406
 6050.00    1.35697   1.35887    8.550
 6051.00    1.35779   1.35574    6.931
 6052.00    1.34236   1.35229    7.187
 6053.00    1.31941   1.34914    7.769
 6054.00    1.29975   1.34587    7.805
 6055.00    1.29193   1.34320    7.637
 6056.00    1.29932   1.34062    7.621
 6057.00    1.31850   1.33868    7.717
 6058.00    1.33774   1.33714    7.599
 6059.00    1.34298   1.33624    7.141
 6060.00    1.33216   1.33610    7.204
 6061.00    1.31561   1.33671    9.277
 6062.00    1.30948   1.33837   16.432
 6063.00    1.32555   1.34083   29.743
 6064.00    1.35567   1.34423   22.097
 6065.00    1.38187   1.34821   11.143
 6066.00    1.39825   1.35249    7.404
 6067.00    1.40780   1.35671    6.678
 6068.00    1.41171   1.36030    7.032
 6069.00    1.41042   1.36304    7.250
 6070.00    1.40697   1.36436    7.119
 6071.00    1.40213   1.36430    7.076
 6072.00    1.38861   1.36259    7.200
 6073.00    1.36206   1.35950    7.363
 6074.00    1.33325   1.35515    7.500
 6075.00    1.31490   1.34989    7.598
 6076.00    1.30731   1.34419    7.650
 6077.00    1.30377   1.33825    7.672
 6078.00    1.29711   1.33268    7.710
 6079.00    1.28337   1.32744    7.795
 6080.00    1.26419   1.32307    7.909
 6081.00    1.24556   1.31931    8.017
 6082.00    1.23591   1.31648    8.097
 6083.00    1.23986   1.31430    8.097
 6084.00    1.25518   1.31284    7.947
 6085.00    1.27932   1.31193    7.735
 6086.00    1.31234   1.31146    7.682
 6087.00    1.34943   1.31152    7.620
 6088.00    1.37844   1.31175    7.078
 6089.00    1.38959   1.31243    6.691
 6090.00    1.38055   1.31301    8.021
 6091.00    1.35648   1.31382   13.784
 6092.00    1.32813   1.31417   23.666
 6093.00    1.30427   1.31437   20.219
 6094.00    1.28875   1.31395   16.305
 6095.00    1.28099   1.31307   16.703
 6096.00    1.27746   1.31166   17.799
 6097.00    1.27550   1.30978   17.177
 6098.00    1.27490   1.30802   16.076
 6099.00    1.27860   1.30613   16.473
 6100.00    1.29021   1.30522   19.593
 6101.00    1.30699   1.30460   19.938
 6102.00    1.32114   1.30552   12.521
 6103.00    1.32744   1.30687    8.120
 6104.00    1.32454   1.30968    7.071
 6105.00    1.31354   1.31267    7.474
 6106.00    1.29828   1.31640    7.896
 6107.00    1.28628   1.31975    7.820
 6108.00    1.28615   1.32292    7.700
 6109.00    1.30257   1.32515    7.661
 6110.00    1.33304   1.32651    7.544
 6111.00    1.36466   1.32653    7.338
 6112.00    1.38149   1.32529    7.179
 6113.00    1.37592   1.32283    7.254
 6114.00    1.35059   1.31915    7.567
 6115.00    1.31825   1.31489    7.609
 6116.00    1.29468   1.30998    7.258
 6117.00    1.28999   1.30528    7.743
 6118.00    1.30291   1.30079   10.873
 6119.00    1.31730   1.29720   18.438
 6120.00    1.31688   1.29444   22.609
 6121.00    1.29974   1.29286   19.623
 6122.00    1.27660   1.29226   18.407
 6123.00    1.26586   1.29246   18.852
 6124.00    1.27440   1.29317   19.072
 6125.00    1.28619   1.29384   18.745
 6126.00    1.28786   1.29413   18.323
 6127.00    1.28460   1.29359   18.138
 6128.00    1.28050   1.29204   18.253
 6129.00    1.26834   1.28923   18.457
 6130.00    1.24800   1.28554   18.469
 6131.00    1.23322   1.28095   18.148
 6132.00    1.22953   1.27662   17.816
 6133.00    1.22600   1.27259   18.079
 6134.00    1.21304   1.26982   18.644
 6135.00    1.19102   1.26826   18.323
 6136.00    1.16963   1.26864   18.234
 6137.00    1.16377   1.27080   21.374
 6138.00    1.17986   1.27464   23.792
 6139.00    1.21228   1.27970   15.111
 6140.00    1.24961   1.28534    9.043
 6141.00    1.27950   1.29111    7.361
 6142.00    1.29654   1.29623    7.501
 6143.00    1.30316   1.30053    7.838
 6144.00    1.30505   1.30339    7.726
 6145.00    1.30678   1.30501    7.607
 6146.00    1.30443   1.30496    7.660
 6147.00    1.29045   1.30374    7.727
 6148.00    1.26841   1.30089    7.850
 6149.00    1.24885   1.29697    8.145
 6150.00    1.23447   1.29153    8.205
 6151.00    1.22321   1.28496    7.755
 6152.00    1.21911   1.27705    7.936
 6153.00    1.22623   1.26795   10.523
 6154.00    1.23559   1.25772   -2.000
 6155.00    1.23196   1.24655   -2.000
 6156.00    1.20738   1.23501   -2.000
 6157.00    1.16700   1.22330   -2.000
 6158.00    1.13297   1.21240   -2.000
 6159.00    1.12595   1.20281   -2.000
 6160.00    1.14283   1.19505   -2.000
 6161.00    1.16706   1.18944   -2.000
 6162.00    1.18341   1.18596   -2.000
 6163.00    1.18479   1.18481   -2.000
 6164.00    1.17635   1.18575   -2.000
 6165.00    1.16539   1.18829   11.059
 6166.00    1.15269   1.19247    8.525
 6167.00    1.13973   1.19789    8.337
 6168.00    1.13442   1.20436    8.885
 6169.00    1.14470   1.21097    8.892
 6170.00    1.17261   1.21815    8.500
 6171.00    1.20888   1.22521    8.228
 6172.00    1.23354   1.23226    8.116
 6173.00    1.23986   1.23878    8.073
 6174.00    1.24384   1.24494    8.042
 6175.00    1.25676   1.25037    7.974
 6176.00    1.27258   1.25466    7.838
 6177.00    1.28159   1.25809    7.746
 6178.00    1.27794   1.26008    7.892
 6179.00    1.26146   1.26089    8.094
 6180.00    1.23714   1.26002    7.864
 6181.00    1.20998   1.25810    7.793
 6182.00    1.18433   1.25461    9.520
 6183.00    1.16827   1.25042   15.249
 6184.00    1.17064   1.24554   21.748
 6185.00    1.18677   1.24063   18.823
 6186.00    1.20079   1.23605   16.130
 6187.00    1.20538   1.23211   16.335
 6188.00    1.20426   1.22935   17.197
 6189.00    1.20331   1.22828   17.548
 6190.00    1.20734   1.22832   17.890
 6191.00    1.21790   1.23005   18.515
 6192.00    1.23204   1.23248   19.246
 6193.00    1.24078   1.23609   20.241
 6194.00    1.23529   1.23984   21.657
 6195.00    1.21857   1.24398   22.137
 6196.00    1.20201   1.24788   20.847
 6197.00    1.19534   1.25184   21.246
 6198.00    1.20146   1.25540   25.724
 6199.00    1.21178   1.25858   22.765
 6200.00    1.21672   1.26115   12.574
 6201.00    1.22064   1.26290    8.340
 6202.00    1.23137   1.26378    7.580
 6203.00    1.24494   1.26340    8.013
 6204.00    1.25197   1.26186    8.186
 6205.00    1.24722   1.25873    8.016
 6206.00    1.23264   1.25432    8.043
 6207.00    1.21821   1.24834    8.212
 6208.00    1.21079   1.24151    8.284
 6209.00    1.20501   1.23356    8.296
 6210.00    1.19617   1.22551    8.351
 6211.00    1.19041   1.21742    8.402
 6212.00    1.19297   1.20998    8.384
 6213.00    1.19986   1.20356    8.334
 6214.00    1.20630   1.19836    8.292
 6215.00    1.21208   1.19443    8.248
 6216.00    1.21599   1.19178    8.215
 6217.00    1.21323   1.19027    8.249
 6218.00    1.20217   1.18962    8.344
 6219.00    1.18771   1.18978    8.396
 6220.00    1.17842   1.19006    8.414
 6221.00    1.18242   1.19054    8.535
 6222.00    1.19609   1.19066    8.556
 6223.00    1.20352   1.19047    8.079
 6224.00    1.19526   1.19011    7.861
 6225.00    1.17469   1.18921    9.607
 6226.00    1.15242   1.18854   16.113
 6227.00    1.14001   1.18753   26.141
 6228.00    1.13727   1.18743   23.399
 6229.00    1.13335   1.18713   19.002
 6230.00    1.12267   1.18818   19.214
 6231.00    1.10918   1.18882   23.045
 6232.00    1.10420   1.19000   22.919
 6233.00    1.11897   1.19061   14.350
 6234.00    1.14888   1.19078    9.329
 6235.00    1.17798   1.19026    8.007
 6236.00    1.19735   1.18895    8.219
 6237.00    1.20630   1.18729    8.464
 6238.00    1.20679   1.18511    8.326
 6239.00    1.20360   1.18292    8.247
 6240.00    1.20629   1.18103    8.279
 6241.00    1.22066   1.17919    8.214
 6242.00    1.23547   1.17790    8.097
 6243.00    1.23554   1.17718    8.086
 6244.00    1.22297   1.17638    8.176
 6245.00    1.20964   1.17579    8.270
 6246.00    1.20316   1.17470    8.312
 6247.00    1.20477   1.17327    8.299
 6248.00    1.20931   1.17070    8.269
 6249.00    1.20923   1.16810    8.270
 6250.00    1.19899   1.16453    8.340
 6251.00    1.17605   1.16151    8.504
 6252.00    1.14153   1.15867    8.760
 6253.00    1.10212   1.15682    9.071
 6254.00    1.07072   1.15615    9.340
 6255.00    1.05855   1.15661    9.453
 6256.00    1.06886   1.15923    9.353
 6257.00    1.09681   1.16270    9.101
 6258.00    1.13088   1.16852    8.852
 6259.00    1.16097   1.17432    8.655
 6260.00    1.18348   1.18134    8.421
 6261.00    1.20098   1.18801    8.222
 6262.00    1.22020   1.19479    8.285
 6263.00    1.24430   1.20062    8.314
 6264.00    1.26902   1.20615    7.624
 6265.00    1.28416   1.21109    7.140
 6266.00    1.27803   1.21515    8.929
 6267.00    1.25253   1.21857   16.210
 6268.00    1.22491   1.22129   18.164
 6269.00    1.20987   1.22374   10.067
 6270.00    1.21124   1.22544    7.587
 6271.00    1.21802   1.22703    7.827
 6272.00    1.21276   1.22786    8.531
 6273.00    1.20026   1.22865    8.486
 6274.00    1.20347   1.22912    8.169
 6275.00    1.22727   1.22963    8.057
 6276.00    1.25610   1.23015    8.118
 6277.00    1.27426   1.23093    7.984
 6278.00    1.27490   1.23205    7.497
 6279.00    1.26774   1.23345    7.564
 6280.00    1.26816   1.23589    0.000
 6281.00    1.27232   1.23806    0.000
 6282.00    1.26635   1.24109    0.000
 6283.00    1.25205   1.24329    0.000
 6284.00    1.24277   1.24567    0.000
 6285.00    1.24838   1.24726    0.000
 6286.00    1.26881   1.24817    0.000
 6287.00    1.28908   1.24803    0.000
 6288.00    1.29238   1.24682    0.000
 6289.00    1.27814   1.24449    0.000
 6290.00    1.25534   1.24153    0.000
 6291.00    1.23132   1.23789    0.000
 6292.00    1.20989   1.23399    0.000
 6293.00    1.19113   1.23012    0.000
 6294.00    1.17592   1.22610    0.000
 6295.00    1.16953   1.22273    0.000
 6296.00    1.17337   1.22019    0.000
 6297.00    1.17853   1.21880    0.000
 6298.00    1.17794   1.21823    0.000
 6299.00    1.17573   1.21854    0.000
 6300.00    1.17969   1.21961    0.000
 6301.00    1.19444   1.22190    0.000
 6302.00    1.21696   1.22437    0.000
 6303.00    1.23572   1.22717    0.000
 6304.00    1.24200   1.22924    0.000
 6305.00    1.23606   1.23146    0.000
 6306.00    1.22243   1.23237    0.000
 6307.00    1.20684   1.23255    0.000
 6308.00    1.19445   1.23140    0.000
 6309.00    1.18843   1.22949    0.000
 6310.00    1.18708   1.22692    0.000
 6311.00    1.18506   1.22420    0.000
 6312.00    1.18293   1.22137    0.000
 6313.00    1.18740   1.21871    0.000
 6314.00    1.19885   1.21704    0.000
 6315.00    1.21081   1.21654    0.000
 6316.00    1.22291   1.21670    0.000
 6317.00    1.24069   1.21838    0.000
 6318.00    1.26321   1.22153    0.000
 6319.00    1.28284   1.22521    0.000
 6320.00    1.29444   1.22985    0.000
 6321.00    1.29818   1.23423    7.060
 6322.00    1.29984   1.23942    7.476
 6323.00    1.30576   1.24342    7.935
 6324.00    1.31220   1.24738    7.704
 6325.00    1.30943   1.24996    7.483
 6326.00    1.29380   1.25178    7.666
 6327.00    1.26987   1.25270    8.129
 6328.00    1.24946   1.25224    8.118
 6329.00    1.24244   1.25104    7.437
 6330.00    1.24320   1.24927    7.804
 6331.00    1.23861   1.24683   11.877
 6332.00    1.22218   1.24436   20.348
 6333.00    1.19760   1.24125   13.942
 6334.00    1.17965   1.23890    8.571
 6335.00    1.18033   1.23700    7.719
 6336.00    1.19397   1.23607    8.380
 6337.00    1.20942   1.23540    8.575
 6338.00    1.22391   1.23550    8.154
 6339.00    1.23798   1.23632    7.919
 6340.00    1.24951   1.23709    8.029
 6341.00    1.25319   1.23856    8.213
 6342.00    1.24178   1.23973    7.974
 6343.00    1.21632   1.24162    7.655
 6344.00    1.19145   1.24320    8.768
 6345.00    1.17897   1.24440   13.829
 6346.00    1.17776   1.24505   24.517
 6347.00    1.18481   1.24479   25.236
 6348.00    1.20133   1.24351   21.193
 6349.00    1.22591   1.24102   21.402
 6350.00    1.25128   1.23748   21.015
 6351.00    1.26879   1.23273   18.824
 6352.00    1.27186   1.22704   19.599
 6353.00    1.26061   1.22073   21.525
 6354.00    1.24278   1.21446   15.280
 6355.00    1.22856   1.20853    9.491
 6356.00    1.22571   1.20293    7.692
 6357.00    1.22988   1.19864    7.840
 6358.00    1.22665   1.19588    8.346
 6359.00    1.20989   1.19501    8.388
 6360.00    1.18674   1.19582    8.312
 6361.00    1.17318   1.19879    8.428
 6362.00    1.18440   1.20353    8.609
 6363.00    1.21371   1.20977    8.405
 6364.00    1.23821   1.21719    7.708
 6365.00    1.24649   1.22511    7.645
 6366.00    1.24199   1.23351    9.921
 6367.00    1.23520   1.24140   17.269
 6368.00    1.23697   1.24875   25.215
 6369.00    1.24919   1.25522   22.103
 6370.00    1.26594   1.26074   20.296
 6371.00    1.27893   1.26517   21.673
 6372.00    1.28152   1.26824   22.460
 6373.00    1.27348   1.27029   21.785
 6374.00    1.26110   1.27135   21.338
 6375.00    1.25584   1.27176   21.152
 6376.00    1.26557   1.27146   20.621
 6377.00    1.28416   1.27081   20.168
 6378.00    1.29944   1.27025   20.305
 6379.00    1.30462   1.26940   20.625
 6380.00    1.30273   1.26892   20.581
 6381.00    1.30828   1.26827   20.433
 6382.00    1.32805   1.26758   20.190
 6383.00    1.34493   1.26669   18.889
 6384.00    1.34252   1.26579   17.291
 6385.00    1.32654   1.26442   18.051
 6386.00    1.31256   1.26287   20.477
 6387.00    1.31305   1.26072   15.761
 6388.00    1.32488   1.25869    9.534
 6389.00    1.32562   1.25606    7.303
 6390.00    1.30398   1.25381    7.299
 6391.00    1.27546   1.25113    7.946
 6392.00    1.25604   1.24935    8.105
 6393.00    1.24764   1.24830    7.971
 6394.00    1.24612   1.24765    7.977
 6395.00    1.24720   1.24784    8.036
 6396.00    1.25162   1.24800    8.006
 6397.00    1.26428   1.24885    7.903
 6398.00    1.28056   1.24927    7.804
 6399.00    1.28642   1.25093    7.776
 6400.00    1.28085   1.25265    7.809
 6401.00    1.27874   1.25411    7.819
 6402.00    1.28974   1.25550    7.753
 6403.00    1.31086   1.25613    7.629
 6404.00    1.32699   1.25640    7.536
 6405.00    1.31972   1.25616    7.577
 6406.00    1.29037   1.25542    7.750
 6407.00    1.25791   1.25488    7.950
 6408.00    1.23716   1.25420    8.083
 6409.00    1.23363   1.25314    8.106
 6410.00    1.24477   1.25239    8.034
 6411.00    1.26088   1.25174    7.931
 6412.00    1.26657   1.25128    7.895
 6413.00    1.25010   1.25102    8.000
 6414.00    1.21963   1.25117    8.200
 6415.00    1.19509   1.25139    8.366
 6416.00    1.18981   1.25189    8.404
 6417.00    1.20473   1.25276    8.305
 6418.00    1.22549   1.25360    8.161
 6419.00    1.23754   1.25517    8.069
 6420.00    1.24633   1.25676    8.021
 6421.00    1.26500   1.25910    7.938
 6422.00    1.29606   1.26070    7.718
 6423.00    1.33054   1.26232    7.434
 6424.00    1.35100   1.26327    7.406
 6425.00    1.34764   1.26388    7.657
 6426.00    1.33252   1.26406    7.464
 6427.00    1.32305   1.26370    6.931
 6428.00    1.32564   1.26313    7.768
 6429.00    1.33499   1.26220   12.314
 6430.00    1.33679   1.26216   16.712
 6431.00    1.32413   1.26220   10.444
 6432.00    1.30717   1.26292    7.332
 6433.00    1.29602   1.26389    7.190
 6434.00    1.28969   1.26519    7.893
 6435.00    1.28198   1.26676    8.001
 6436.00    1.26771   1.26832    7.830
 6437.00    1.25480   1.26979    7.901
 6438.00    1.26420   1.27160    7.934
 6439.00    1.29781   1.27308    7.728
 6440.00    1.32984   1.27392    7.511
 6441.00    1.33941   1.27404    7.458
 6442.00    1.32400   1.27297    7.558
 6443.00    1.29295   1.27115    7.740
 6444.00    1.26125   1.26850    7.923
 6445.00    1.23751   1.26549    8.072
 6446.00    1.22290   1.26199    8.192
 6447.00    1.22127   1.25877    8.211
 6448.00    1.23772   1.25560    8.037
 6449.00    1.26489   1.25439    7.853
 6450.00    1.28508   1.25375    7.902
 6451.00    1.28633   1.25458    7.909
 6452.00    1.26868   1.25598    7.532
 6453.00    1.24804   1.25748    7.649
 6454.00    1.24515   1.25932    9.941
 6455.00    1.26095   1.26130   16.551
 6456.00    1.28076   1.26325   21.967
 6457.00    1.29238   1.26494   18.888
 6458.00    1.29141   1.26634   17.625
 6459.00    1.28404   1.26717   19.188
 6460.00    1.28090   1.26770   20.490
 6461.00    1.28699   1.26786   20.437
 6462.00    1.30032   1.26909   20.413
 6463.00    1.31277   1.26966   21.073
 6464.00    1.31590   1.27125   21.981
 6465.00    1.30847   1.27207   21.694
 6466.00    1.29820   1.27325   20.625
 6467.00    1.30127   1.27370   22.994
 6468.00    1.32473   1.27416   30.436
 6469.00    1.35035   1.27420   21.961
 6470.00    1.35602   1.27374   10.673
 6471.00    1.33751   1.27358    7.329
 6472.00    1.30776   1.27235    7.123
 6473.00    1.29206   1.27124    7.816
 6474.00    1.30568   1.26935    7.856
 6475.00    1.33906   1.26754    7.436
 6476.00    1.37306   1.26512    7.224
 6477.00    1.39120   1.26263    7.201
 6478.00    1.38474   1.25990    7.241
 6479.00    1.35552   1.25662    7.372
 6480.00    1.31584   1.25322    7.595
 6481.00    1.28483   1.24941    7.783
 6482.00    1.27071   1.24552    7.864
 6483.00    1.26509   1.24084    7.913
 6484.00    1.25802   1.23559    7.972
 6485.00    1.24567   1.22908    7.998
 6486.00    1.23161   1.22157    8.054
 6487.00    1.22355   1.21300    8.270
 6488.00    1.22022   1.20353    8.380
 6489.00    1.21157   1.19393    7.962
 6490.00    1.19587   1.18440    7.868
 6491.00    1.18102   1.17588    9.934
 6492.00    1.17103   1.16849   17.306
 6493.00    1.16512   1.16331   27.563
 6494.00    1.16657   1.16117   24.048
 6495.00    1.18101   1.16137   20.459
 6496.00    1.20639   1.16538   20.875
 6497.00    1.23384   1.17075   21.954
 6498.00    1.25513   1.17883   21.404
 6499.00    1.26569   1.18785   19.914
 6500.00    1.26682   1.19760   20.143
 6501.00    1.26201   1.20770   23.310
 6502.00    1.24978   1.21700   21.051
 6503.00    1.22968   1.22574   12.564
 6504.00    1.21348   1.23315    8.509
 6505.00    1.21400   1.23942    7.696
 6506.00    1.22711   1.24411    8.096
 6507.00    1.24140   1.24766    8.252
 6508.00    1.25389   1.24999    7.985
 6509.00    1.26644   1.25157    7.831
 6510.00    1.27876   1.25219    7.819
 6511.00    1.28618   1.25243    7.797
 6512.00    1.27923   1.25208    7.817
 6513.00    1.25595   1.25165    7.954
 6514.00    1.23229   1.25119    8.116
 6515.00    1.22558   1.25099    8.162
 6516.00    1.23922   1.25101    8.069
 6517.00    1.26302   1.25131    7.917
 6518.00    1.27692   1.25230    7.832
 6519.00    1.26906   1.25316    7.880
 6520.00    1.24725   1.25446    8.018
 6521.00    1.22887   1.25545    8.137
 6522.00    1.23107   1.25637    8.123
 6523.00    1.25567   1.25715    7.964
 6524.00    1.28458   1.25760    7.784
 6525.00    1.30169   1.25794    7.681
 6526.00    1.30359   1.25823    7.672
 6527.00    1.29359   1.25860    7.734
 6528.00    1.27861   1.25903    0.000
 6529.00    1.26923   1.25968    0.000
 6530.00    1.27649   1.26006    0.000
 6531.00    1.29930   1.26065    0.000
 6532.00    1.32432   1.26119    0.000
 6533.00    1.34197   1.26178    0.000
 6534.00    1.35023   1.26222    0.000
 6535.00    1.34839   1.26197    0.000
 6536.00    1.33515   1.26136    0.000
 6537.00    1.30917   1.25987    0.000
 6538.00    1.27155   1.25792    0.000
 6539.00    1.23178   1.25508    0.000
 6540.00    1.20465   1.25159    0.000
 6541.00    1.20007   1.24748    0.000
 6542.00    1.21820   1.24276    0.000
 6543.00    1.24493   1.23805    0.000
 6544.00    1.26079   1.23259    0.000
 6545.00    1.25878   1.22756    0.000
 6546.00    1.24423   1.22210    0.000
 6547.00    1.22866   1.21652    0.000
 6548.00    1.22352   1.21061    0.000
 6549.00    1.23231   1.20367    0.000
 6550.00    1.24906   1.19611    0.000
 6551.00    1.25869   1.18780    0.000
 6552.00    1.24783   1.17865    0.000
 6553.00    1.21781   1.16894    0.000
 6554.00    1.18172   1.15862    0.000
 6555.00    1.15799   1.14853    0.000
 6556.00    1.15487   1.13856    0.000
 6557.00    1.15758   1.12957    0.000
 6558.00    1.15000   1.12186    0.000
 6559.00    1.13453   1.11560    0.000
 6560.00    1.12181   1.11134    0.000
 6561.00    1.12045   1.10898    0.000
 6562.00    1.13442   1.11101    0.000
 6563.00    1.16141   1.11503    0.000
 6564.00    1.19200   1.12237    0.000
 6565.00    1.21111   1.13090    0.000
 6566.00    1.21010   1.13951    0.000
 6567.00    1.19321   1.14813    0.000
 6568.00    1.17283   1.15656    0.000
 6569.00    1.16373   1.16464    0.000
 6570.00    1.16943   1.17210    0.000
 6571.00    1.18001   1.17894    0.000
 6572.00    1.19250   1.18528    0.000
 6573.00    1.21454   1.19072    0.000
 6574.00    1.24258   1.19639    0.000
 6575.00    1.25973   1.20143    0.000
 6576.00    1.26003   1.20640    0.000
 6577.00    1.25312   1.21057    0.000
 6578.00    1.25021   1.21421    0.000
 6579.00    1.25705   1.21691    0.000
 6580.00    1.26798   1.21926    0.000
 6581.00    1.27079   1.22099    0.000
 6582.00    1.26365   1.22218    0.000
 6583.00    1.25429   1.22274    0.000
 6584.00    1.24732   1.22221    0.000
 6585.00    1.24275   1.22116    0.000
 6586.00    1.23961   1.21954    0.000
 6587.00    1.23677   1.21739    0.000
 6588.00    1.23315   1.21531    0.000
 6589.00    1.22742   1.21277    0.000
 6590.00    1.21767   1.21043    0.000
 6591.00    1.20399   1.20822    0.000
 6592.00    1.19231   1.20696    0.000
 6593.00    1.18919   1.20660    0.000
 6594.00    1.19401   1.20711    0.000
 6595.00    1.20296   1.20835    0.000
 6596.00    1.21536   1.20951    0.000
 6597.00    1.23108   1.21075    0.000
 6598.00    1.24700   1.21213    0.000
 6599.00    1.26007   1.21330    0.000
 6600.00    1.27055   1.21420    0.000
 6601.00    1.27887   1.21464    0.000
 6602.00    1.28262   1.21474    0.000
 6603.00    1.28038   1.21444    0.000
 6604.00    1.27454   1.21442    0.000
 6605.00    1.26704   1.21435    0.000
 6606.00    1.25681   1.21499    0.000
 6607.00    1.24607   1.21575    0.000
 6608.00    1.24335   1.21741    0.000
 6609.00    1.25257   1.21962   19.543
 6610.00    1.26731   1.22212   21.472
 6611.00    1.27784   1.22505   24.197
 6612.00    1.27728   1.22730   16.439
 6613.00    1.27095   1.22978    9.583
 6614.00    1.27509   1.23133    7.442
 6615.00    1.28986   1.23277    7.426
 6616.00    1.29498   1.23323    7.875
 6617.00    1.28396   1.23296    7.904
 6618.00    1.27079   1.23194    7.809
 6619.00    1.26070   1.23027    7.892
 6620.00    1.24583   1.22798    8.052
 6621.00    1.22832   1.22490    8.157
 6622.00    1.22114   1.22166    8.175
 6623.00    1.22685   1.21778    8.140
 6624.00    1.23497   1.21455    8.115
 6625.00    1.23290   1.21102    8.130
 6626.00    1.21319   1.20817    8.196
 6627.00    1.18311   1.20544    8.404
 6628.00    1.15780   1.20280    8.787
 6629.00    1.14068   1.20081    8.897
 6630.00    1.12673   1.19899    8.435
 6631.00    1.11779   1.19787    8.611
 6632.00    1.11907   1.19694   11.408
 6633.00    1.12776   1.19691   19.132
 6634.00    1.13872   1.19714   24.222
 6635.00    1.15642   1.19805   20.362
 6636.00    1.18595   1.19894   19.083
 6637.00    1.21776   1.19975   20.433
 6638.00    1.23728   1.20047   21.021
 6639.00    1.24044   1.20118   20.854
 6640.00    1.23323   1.20182   21.689
 6641.00    1.22777   1.20223   22.817
 6642.00    1.23233   1.20278   22.698
 6643.00    1.24178   1.20310   22.175
 6644.00    1.24738   1.20352   22.473
 6645.00    1.24700   1.20407   23.166
 6646.00    1.24279   1.20438   23.389
 6647.00    1.23793   1.20455   23.170
 6648.00    1.23417   1.20442   22.811
 6649.00    1.23068   1.20419   22.272
 6650.00    1.22874   1.20349   21.625
 6651.00    1.23354   1.20261   21.235
 6652.00    1.24285   1.20108   21.078
 6653.00    1.24264   1.19964   20.600
 6654.00    1.22571   1.19763   20.011
 6655.00    1.20085   1.19545   20.399
 6656.00    1.18158   1.19310   21.447
 6657.00    1.17803   1.19053   20.823
 6658.00    1.18881   1.18827   19.709
 6659.00    1.20109   1.18602   22.249
 6660.00    1.20671   1.18434   25.239
 6661.00    1.20725   1.18269   16.387
 6662.00    1.20589   1.18208    9.657
 6663.00    1.20393   1.18196    7.798
 6664.00    1.20055   1.18239    8.038
 6665.00    1.19528   1.18351    8.567
 6666.00    1.19568   1.18452    8.463
 6667.00    1.21253   1.18548    8.176
 6668.00    1.23994   1.18664    8.036
 6669.00    1.25895   1.18747    7.968
 6670.00    1.26107   1.18785    7.939
 6671.00    1.25146   1.18772    7.981
 6672.00    1.24173   1.18708    8.050
 6673.00    1.24102   1.18638    8.062
 6674.00    1.24210   1.18530    8.052
 6675.00    1.23109   1.18439    8.121
 6676.00    1.21069   1.18321    8.259
 6677.00    1.19320   1.18290    8.384
 6678.00    1.18200   1.18297    8.462
 6679.00    1.17404   1.18375    8.509
 6680.00    1.16845   1.18535    8.555
 6681.00    1.16720   1.18647    8.593
 6682.00    1.17402   1.18801    8.523
 6683.00    1.18894   1.18930    8.342
 6684.00    1.20251   1.19050    8.311
 6685.00    1.20604   1.19113    8.489
 6686.00    1.20295   1.19137    8.305
 6687.00    1.19843   1.19132    7.814
 6688.00    1.18902   1.19076    8.516
 6689.00    1.17427   1.19012   12.704
 6690.00    1.16655   1.18895   22.931
 6691.00    1.17422   1.18765   26.133
 6692.00    1.18878   1.18603   21.456
 6693.00    1.19851   1.18451   20.741
 6694.00    1.19952   1.18285   21.694
 6695.00    1.19543   1.18171   21.228
 6696.00    1.19459   1.18060    0.000
 6697.00    1.19723   1.17989    0.000
 6698.00    1.19182   1.17979    0.000
 6699.00    1.17759   1.17927    0.000
 6700.00    1.17121   1.17912    0.000
 6701.00    1.17671   1.17850    0.000
 6702.00    1.17754   1.17756    0.000
 6703.00    1.16873   1.17650    0.000
 6704.00    1.16475   1.17497    0.000
 6705.00    1.17139   1.17337    0.000
 6706.00    1.17805   1.17109    0.000
 6707.00    1.17194   1.16874    0.000
 6708.00    1.14637   1.16584    0.000
 6709.00    1.10947   1.16290    0.000
 6710.00    1.08068   1.15997    0.000
 6711.00    1.07254   1.15678    0.000
 6712.00    1.08520   1.15464    0.000
 6713.00    1.10698   1.15233    0.000
 6714.00    1.12449   1.15102    0.000
 6715.00    1.14507   1.15017    0.000
 6716.00    1.18364   1.15018    0.000
 6717.00    1.22420   1.15141    0.000
 6718.00    1.23712   1.15286    0.000
 6719.00    1.22755   1.15553    0.000
 6720.00    1.22167   1.15780    0.000
 6721.00    1.22709   1.16054    0.000
 6722.00    1.23894   1.16285    0.000
 6723.00    1.25975   1.16539    0.000
 6724.00    1.29067   1.16743    0.000
 6725.00    1.31537   1.16935    0.000
 6726.00    1.31415   1.17068    0.000
 6727.00    1.28434   1.17177    0.000
 6728.00    1.23475   1.17266    0.000
 6729.00    1.17645   1.17278    0.000
 6730.00    1.12535   1.17275    0.000
 6731.00    1.10390   1.17180    0.000
 6732.00    1.12070   1.17091    0.000
 6733.00    1.15404   1.16935    0.000
 6734.00    1.17904   1.16796    0.000
 6735.00    1.19140   1.16612    0.000
 6736.00    1.19887   1.16425    0.000
 6737.00    1.21169   1.16225    0.000
 6738.00    1.23175   1.16017    0.000
 6739.00    1.24808   1.15838    0.000
 6740.00    1.25475   1.15674    0.000
 6741.00    1.25997   1.15531    0.000
 6742.00    1.27155   1.15388    0.000
 6743.00    1.28725   1.15299    0.000
 6744.00    1.29037   1.15205    0.000
 6745.00    1.25731   1.15216    0.000
 6746.00    1.20131   1.15187    0.000
 6747.00    1.17370   1.15261    0.000
 6748.00    1.18539   1.15344    0.000
 6749.00    1.19389   1.15514    0.000
 6750.00    1.17943   1.15728    0.000
 6751.00    1.16092   1.15930    0.000
 6752.00    1.14982   1.16255    0.000
 6753.00    1.14074   1.16483    8.405
 6754.00    1.13176   1.16812    8.312
 6755.00    1.12741   1.17072   10.577
 6756.00    1.12914   1.17300   16.023
 6757.00    1.13308   1.17487   14.565
 6758.00    1.13141   1.17606    9.634
 6759.00    1.11849   1.17671    8.293
 6760.00    1.10323   1.17659    8.865
 6761.00    1.10183   1.17630    9.338
 6762.00    1.11825   1.17533    9.002
 6763.00    1.14323   1.17453    8.662
 6764.00    1.16029   1.17369    8.603
 6765.00    1.15744   1.17292    8.669
 6766.00    1.14353   1.17237    8.749
 6767.00    1.13589   1.17245    8.796
 6768.00    1.13862   1.17290    8.782
 6769.00    1.14560   1.17391    8.724
 6770.00    1.14899   1.17518    8.702
 6771.00    1.14589   1.17633    8.751
 6772.00    1.14386   1.17766    8.743
 6773.00    1.14904   1.17865    8.633
 6774.00    1.15378   1.17926    8.673
 6775.00    1.15055   1.17899    8.897
 6776.00    1.14544   1.17829    8.690
 6777.00    1.14515   1.17714    8.183
 6778.00    1.14531   1.17523    8.947
 6779.00    1.13916   1.17340   13.054
 6780.00    1.12571   1.17074   20.977
 6781.00    1.11247   1.16827   21.390
 6782.00    1.11450   1.16572   17.742
 6783.00    1.13725   1.16368   17.215
 6784.00    1.16719   1.16202   17.900
 6785.00    1.18385   1.16097   17.836
 6786.00    1.17057   1.16083   17.809
 6787.00    1.13123   1.16052   19.183
 6788.00    1.09290   1.16106   22.659
 6789.00    1.07660   1.16135   23.780
 6790.00    1.08468   1.16189   16.228
 6791.00    1.10905   1.16262   10.322
 6792.00    1.13756   1.16338    8.390
 6793.00    1.16363   1.16429    8.345
 6794.00    1.18686   1.16502    8.562
 6795.00    1.20219   1.16619    8.390
 6796.00    1.20009   1.16709    8.296
 6797.00    1.17914   1.16802    8.476
 6798.00    1.14881   1.16880    8.677
 6799.00    1.12567   1.16939    8.830
 6800.00    1.12464   1.16999    9.037
 6801.00    1.14057   1.17021    8.926
 6802.00    1.15564   1.17040    8.246
 6803.00    1.16706   1.17040    8.180
 6804.00    1.18338   1.17026   10.530
 6805.00    1.20399   1.17004   17.611
 6806.00    1.22247   1.16993   23.638
 6807.00    1.24062   1.16976   19.627
 6808.00    1.26009   1.16976   16.700
 6809.00    1.26502   1.17001   16.114
 6810.00    1.24331   1.16996   15.898
 6811.00    1.22101   1.17029   15.316
 6812.00    1.22723   1.17090   14.682
 6813.00    1.24139   1.17143   14.794
 6814.00    1.22823   1.17245   16.314
 6815.00    1.18885   1.17331   19.057
 6816.00    1.14600   1.17458   21.337
 6817.00    1.11964   1.17578   20.764
 6818.00    1.11570   1.17662   18.408
 6819.00    1.11936   1.17729   17.869
 6820.00    1.11683   1.17792   19.247
 6821.00    1.11416   1.17874   16.492
 6822.00    1.12168   1.17937   11.119
 6823.00    1.13973   1.17972    8.598
 6824.00    1.16006   1.17960    8.251
 6825.00    1.16958   1.17942    8.621
 6826.00    1.16415   1.17880    8.722
 6827.00    1.15525   1.17811    8.625
 6828.00    1.15433   1.17689    8.618
 6829.00    1.16251   1.17590    8.615
 6830.00    1.16979   1.17442    8.564
 6831.00    1.15911   1.17272    8.622
 6832.00    1.12754   1.17047    8.863
 6833.00    1.09165   1.16806    9.163
 6834.00    1.06420   1.16580    9.399
 6835.00    1.04652   1.16352    9.555
 6836.00    1.04150   1.16151    9.601
 6837.00    1.05359   1.15924    9.492
 6838.00    1.06945   1.15777    9.351
 6839.00    1.06434   1.15645    9.395
 6840.00    1.04525   1.15578    9.567
 6841.00    1.04752   1.15575    9.546
 6842.00    1.08346   1.15625    9.230
 6843.00    1.13475   1.15734    8.812
 6844.00    1.17418   1.15834    8.517
 6845.00    1.18136   1.15918    8.465
 6846.00    1.16478   1.15918    8.585
 6847.00    1.14874   1.15918    8.705
 6848.00    1.13491   1.15886    8.811
 6849.00    1.11238   1.15796    8.990
 6850.00    1.09250   1.15688    9.153
 6851.00    1.09560   1.15536    9.127
 6852.00    1.11676   1.15349    8.955
 6853.00    1.13371   1.15136    8.821
 6854.00    1.12954   1.14983    8.853
 6855.00    1.10319   1.14835    9.065
 6856.00    1.07792   1.14715    9.277
 6857.00    1.07849   1.14675    9.272
 6858.00    1.10152   1.14591    9.078
 6859.00    1.12919   1.14537    8.856
 6860.00    1.14910   1.14527    8.702
 6861.00    1.14884   1.14550    8.704
 6862.00    1.11195   1.14581    8.993
 6863.00    1.05990   1.14626    9.435
 6864.00    1.07564   1.14693    9.297
 6865.00    1.14970   1.14716    8.698
 6866.00    1.08662   1.14722    9.203
 6867.00    0.83997   1.14745   -1.000
 6868.00    0.71339   1.14801   -1.000
 6869.00    0.87485   1.14894   -1.000
 6870.00    1.07440   1.15014    9.308
 6871.00    1.11103   1.15110    9.001
 6872.00    1.09040   1.15186    9.171
 6873.00    1.11693   1.15272    8.953
 6874.00    1.13917   1.15387    8.778
 6875.00    1.11832   1.15526    8.942
 6876.00    1.09932   1.15675    9.097
 6877.00    1.11249   1.15807    8.989
 6878.00    1.13637   1.15981    8.800
 6879.00    1.14398   1.16119    8.741
 6880.00    1.12623   1.16275    8.879
 6881.00    1.10207   1.16445    9.074
 6882.00    1.10736   1.16655    9.031
 6883.00    1.14655   1.16883    8.722
 6884.00    1.18952   1.17115    8.407
 6885.00    1.21294   1.17403    8.244
 6886.00    1.21172   1.17604    8.253
 6887.00    1.19424   1.17825    8.374
 6888.00    1.17437   1.18039    8.515
 6889.00    1.15599   1.18229    8.651
 6890.00    1.13670   1.18373    8.797
 6891.00    1.12432   1.18485    8.894
 6892.00    1.13127   1.18595    8.840
 6893.00    1.15605   1.18659    8.650
 6894.00    1.18353   1.18737    8.449
 6895.00    1.19308   1.18800    8.382
 6896.00    1.17335   1.18846    8.523
 6897.00    1.14278   1.18912    8.751
 6898.00    1.13115   1.18994    8.841
 6899.00    1.14773   1.19041    8.713
 6900.00    1.18124   1.19106    8.466
 6901.00    1.20755   1.19149    8.281
 6902.00    1.20994   1.19219    8.265
 6903.00    1.20052   1.19219    8.330
 6904.00    1.19751   1.19199    8.351
 6905.00    1.19932   1.19154    8.338
 6906.00    1.20040   1.19089    8.331
 6907.00    1.20764   1.19033    8.281
 6908.00    1.22202   1.18895    8.183
 6909.00    1.22432   1.18801    8.168
 6910.00    1.20367   1.18651    8.308
 6911.00    1.17777   1.18539    8.491
 6912.00    1.16333   1.18389    8.596
 6913.00    1.15621   1.18293    8.649
 6914.00    1.15141   1.18204    8.685
 6915.00    1.15510   1.18077    8.657
 6916.00    1.17203   1.18042    8.532
 6917.00    1.19765   1.17916    8.350
 6918.00    1.21882   1.17886    8.205
 6919.00    1.21926   1.17830    8.202
 6920.00    1.20230   1.17780    8.317
 6921.00    1.19283   1.17736    8.383
 6922.00    1.19831   1.17644    8.345
 6923.00    1.20055   1.17603    8.329
 6924.00    1.19106   1.17494    8.396
 6925.00    1.17902   1.17481    8.482
 6926.00    1.16932   1.17507    8.552
 6927.00    1.15780   1.17554    8.637
 6928.00    1.14175   1.17633    8.758
 6929.00    1.12287   1.17659    8.906
 6930.00    1.10588   1.17735    9.043
 6931.00    1.09648   1.17774    9.120
 6932.00    1.09749   1.17855    9.112
 6933.00    1.10827   1.17918    9.023
 6934.00    1.12605   1.17977    8.881
 6935.00    1.14809   1.18045    8.710
 6936.00    1.17557   1.18013    8.507
 6937.00    1.20712   1.17998    8.284
 6938.00    1.22622   1.17959    8.155
 6939.00    1.21540   1.17924    8.228
 6940.00    1.18361   1.17882    8.449
 6941.00    1.15730   1.17812    8.641
 6942.00    1.15889   1.17718    8.629
 6943.00    1.19107   1.17607    8.396
 6944.00    1.22216   1.17517    8.182
 6945.00    1.22207   1.17462    8.183
 6946.00    1.20690   1.17456    8.286
 6947.00    1.20538   1.17515    8.296
 6948.00    1.21629   1.17564    8.222
 6949.00    1.22383   1.17598    8.171
 6950.00    1.21875   1.17689    8.205
 6951.00    1.20654   1.17756    8.288
 6952.00    1.20947   1.17893    8.268
 6953.00    1.23393   1.18079    8.104
 6954.00    1.24878   1.18287    8.008
 6955.00    1.23220   1.18517    8.116
 6956.00    1.20320   1.18726    8.311
 6957.00    1.18374   1.18951    8.448
 6958.00    1.17366   1.19119    8.520
 6959.00    1.16574   1.19314    8.578
 6960.00    1.15622   1.19485    8.649
 6961.00    1.14580   1.19635    8.728
 6962.00    1.13886   1.19723    8.781
 6963.00    1.13829   1.19766    8.785
 6964.00    1.14366   1.19768    8.744
 6965.00    1.15491   1.19701    8.659
 6966.00    1.17247   1.19600    8.529
 6967.00    1.19102   1.19437    8.396
 6968.00    1.19956   1.19249    8.336
 6969.00    1.19111   1.18932    8.396
 6970.00    1.16679   1.18602    8.571
 6971.00    1.13698   1.18282    8.795
 6972.00    1.11850   1.17963    8.941
 6973.00    1.12549   1.17766    8.885
 6974.00    1.16238   1.17560    8.603
 6975.00    1.21359   1.17414    8.240
 6976.00    1.24919   1.17317    8.005
 6977.00    1.24537   1.17304    8.030
 6978.00    1.20225   1.17394    8.318
 6979.00    1.16908   1.17556    8.554
 6980.00    1.19649   1.17882    8.358
 6981.00    1.23779   1.18209    8.079
 6982.00    1.21573   1.18488    8.226
 6983.00    1.16866   1.18780    8.557
 6984.00    1.17879   1.19047    8.483
 6985.00    1.22242   1.19255    8.180
 6986.00    1.23393   1.19428    8.104
 6987.00    1.22720   1.19566    8.149
 6988.00    1.24448   1.19658    8.036
 6989.00    1.27101   1.19684    7.868
 6990.00    1.26955   1.19649    7.877
 6991.00    1.23294   1.19611    8.111
 6992.00    1.18212   1.19501    8.459
 6993.00    1.15445   1.19366    8.662
 6994.00    1.16942   1.19227    8.551
 6995.00    1.20099   1.19059    8.326
 6996.00    1.21636   1.18918    8.221
 6997.00    1.21145   1.18718    8.255
 6998.00    1.20886   1.18554    8.272
 6999.00    1.24529   1.18396    8.030
 7000.00    1.30895   1.18253    7.640
 7001.00    1.31542   1.18178   -2.000
 7002.00    1.23635   1.18096   -2.000
 7003.00    1.15894   1.18036   -2.000
 7004.00    1.14414   1.17930   -2.000
 7005.00    1.15831   1.17868   -2.000
 7006.00    1.15918   1.17821   -2.000
 7007.00    1.13927   1.17748   -2.000
 7008.00    1.10861   1.17682   -2.000
 7009.00    1.08489   1.17584   -2.000
 7010.00    1.09049   1.17519   -2.000
 7011.00    1.13635   1.17480   -2.000
 7012.00    1.16767   1.17454   -2.000
 7013.00    1.09876   1.17443   -2.000
 7014.00    0.99611   1.17393   -2.000
 7015.00    1.03637   1.17348   -2.000
 7016.00    1.19049   1.17313   -2.000
 7017.00    1.25338   1.17359   -2.000
 7018.00    1.19293   1.17519   -2.000
 7019.00    1.14171   1.17676   -2.000
 7020.00    1.13401   1.17782   -2.000
 7021.00    1.10985   1.17879   -2.000
 7022.00    1.07261   1.17973   -2.000
 7023.00    1.07602   1.18063   -2.000
 7024.00    1.12610   1.18203   -2.000
 7025.00    1.18456   1.18392   -2.000
 7026.00    1.21279   1.18614   -2.000
 7027.00    1.19634   1.18795   -2.000
 7028.00    1.16930   1.18958   -2.000
 7029.00    1.17409   1.19132   -2.000
 7030.00    1.19863   1.19297   -2.000
 7031.00    1.20605   1.19433   -2.000
 7032.00    1.18659   1.19636   -2.000
 7033.00    1.15621   1.19918   -2.000
 7034.00    1.14433   1.20218   -2.000
 7035.00    1.16426   1.20497   -2.000
 7036.00    1.18686   1.20740   -2.000
 7037.00    1.18975   1.21006   -2.000
 7038.00    1.20254   1.21184   -2.000
 7039.00    1.24739   1.21440   -2.000
 7040.00    1.28851   1.21760   -2.000
 7041.00    1.28940   1.21967   -2.000
 7042.00    1.25912   1.22067   -2.000
 7043.00    1.22419   1.21975   -2.000
 7044.00    1.20477   1.21820   -2.000
 7045.00    1.21036   1.21477   -2.000
 7046.00    1.23706   1.21067   -2.000
 7047.00    1.26234   1.20651   -2.000
 7048.00    1.25116   1.20073   -2.000
 7049.00    1.20403   1.19454   -2.000
 7050.00    1.16784   1.18698   -2.000
 7051.00    1.16241   1.17913   -2.000
 7052.00    1.15857   1.17087   -2.000
 7053.00    1.14135   1.16244   -2.000
 7054.00    1.12844   1.15561   -2.000
 7055.00    1.13035   1.14945   -2.000
 7056.00    1.13930   1.14397   -2.000
 7057.00    1.14740   1.13913   -2.000
 7058.00    1.15156   1.13455   -2.000
 7059.00    1.14761   1.13025   -2.000
 7060.00    1.13175   1.12682   -2.000
 7061.00    1.10970   1.12449   -2.000
 7062.00    1.09517   1.12375   -2.000
 7063.00    1.09887   1.12363   -2.000
 7064.00    1.11884   1.12411   -2.000
 7065.00    1.12641   1.12481   -2.000
 7066.00    1.09570   1.12539   -2.000
 7067.00    1.06897   1.12692   -2.000
 7068.00    1.10651   1.12875   -2.000
 7069.00    1.17015   1.13128   -2.000
 7070.00    1.17702   1.13382   -2.000
 7071.00    1.12610   1.13617   -2.000
 7072.00    1.07233   1.13759   -2.000
 7073.00    1.05307   1.13817   -2.000
 7074.00    1.07273   1.13846   -2.000
 7075.00    1.09925   1.13732   -2.000
 7076.00    1.09423   1.13536   -2.000
 7077.00    1.05133   1.13212   -2.000
 7078.00    1.00003   1.12821   -2.000
 7079.00    0.99919   1.12401   -2.000
 7080.00    1.07600   1.11860   -2.000
 7081.00    1.17186   1.11266   -2.000
 7082.00    1.22235   1.10624   -2.000
 7083.00    1.23114   1.09948   -2.000
 7084.00    1.22400   1.09338   -2.000
 7085.00    1.20679   1.08816   -2.000
 7086.00    1.18205   1.08360   -2.000
 7087.00    1.16102   1.08003   -2.000
 7088.00    1.14306   1.07622   -2.000
 7089.00    1.10873   1.07368   -2.000
 7090.00    1.06842   1.07234   -2.000
 7091.00    1.07527   1.07126   -2.000
 7092.00    1.12641   1.07232   -2.000
 7093.00    1.13590   1.07238   -2.000
 7094.00    1.07994   1.07358   -2.000
 7095.00    1.03964   1.07468   -2.000
 7096.00    1.05646   1.07561   -2.000
 7097.00    1.08793   1.07777   -2.000
 7098.00    1.10260   1.07903   -2.000
 7099.00    1.10940   1.08084   -2.000
 7100.00    1.11721   1.08143   -2.000
 7101.00    1.12182   1.08194   -2.000
 7102.00    1.11489   1.08271   -2.000
 7103.00    1.09290   1.08278   -2.000
 7104.00    1.07340   1.08296   -2.000
 7105.00    1.07707   1.08312   -2.000
 7106.00    1.06933   1.08316   -2.000
 7107.00    0.99874   1.08315   -2.000
 7108.00    0.92258   1.08275   -2.000
 7109.00    0.94067   1.08313   -2.000
 7110.00    0.99239   1.08316   -2.000
 7111.00    0.96019   1.08279   -2.000
 7112.00    0.94842   1.08300   -2.000
 7113.00    1.11749   1.08269   -2.000
 7114.00    1.30990   1.08300   -2.000
 7115.00    1.28036   1.08180   -2.000
 7116.00    1.15060   1.08095   -2.000
 7117.00    1.17936   1.08007   -2.000
 7118.00    1.33945   1.07779   -2.000
 7119.00    1.45226   1.07592   -2.000
 7120.00    1.43975   1.07308   -2.000
 7121.00    1.32515   1.07121   -2.000
 7122.00    1.19105   1.06853   -2.000
 7123.00    1.11540   1.06549   -2.000
 7124.00    1.10966   1.06314   -2.000
 7125.00    1.13224   1.06086   -2.000
 7126.00    1.11485   1.05924   -2.000
 7127.00    1.03160   1.05829   -2.000
 7128.00    0.94654   1.05804   -2.000
 7129.00    0.92409   1.05784   -2.000
 7130.00    0.95985   1.05841   -2.000
 7131.00    1.01447   1.05900   -2.000
 7132.00    1.04704   1.06043   -2.000
 7133.00    1.05204   1.06209   -2.000
 7134.00    1.06951   1.06418   -2.000
 7135.00    1.11291   1.06605   -2.000
 7136.00    1.14116   1.06689   -2.000
 7137.00    1.13525   1.06838   -2.000
 7138.00    1.12450   1.06922   -2.000
 7139.00    1.11652   1.07000   -2.000
 7140.00    1.08097   1.07049   -2.000
 7141.00    1.02385   1.07024   -2.000
 7142.00    0.99787   1.07077   -2.000
 7143.00    1.02031   1.07094   -2.000
 7144.00    1.05407   1.07126   -2.000
 7145.00    1.05348   1.07205   -2.000
 7146.00    0.99616   1.07283   -2.000
 7147.00    0.92780   1.07401   -2.000
 7148.00    0.92557   1.07423   -2.000
 7149.00    0.96332   1.07548   -2.000
 7150.00    0.95634   1.07827   -2.000
 7151.00    0.96214   1.07952   -2.000
 7152.00    1.10476   1.08085   -2.000
 7153.00    1.29795   1.08158   -2.000
 7154.00    1.34332   1.08236   -2.000
 7155.00    1.25048   1.08347   -2.000
 7156.00    1.16987   1.08348   -2.000
 7157.00    1.15189   1.08381   -2.000
 7158.00    1.15275   1.08296   -2.000
 7159.00    1.11980   1.08280   -2.000
 7160.00    1.03572   1.08325   -2.000
 7161.00    0.95878   1.08382   -2.000
 7162.00    0.95822   1.08467   -2.000
 7163.00    1.02244   1.08485   -2.000
 7164.00    1.09520   1.08558   -2.000
 7165.00    1.13543   1.08679   -2.000
 7166.00    1.13496   1.08903   -2.000
 7167.00    1.12661   1.09114   -2.000
 7168.00    1.14335   1.09259   -2.000
 7169.00    1.17726   1.09316   -2.000
 7170.00    1.18334   1.09367   -2.000
 7171.00    1.09955   1.09513   -2.000
 7172.00    0.95967   1.09568   -2.000
 7173.00    0.94604   1.09508   -2.000
 7174.00    1.10094   1.09342   -2.000
 7175.00    1.17582   1.09185   -2.000
 7176.00    1.07693   1.09104   -2.000
 7177.00    1.08059   1.08981   -2.000
 7178.00    1.28982   1.08861   -2.000
 7179.00    1.40614   1.08671   -2.000
 7180.00    1.31716   1.08350   -2.000
 7181.00    1.30250   1.08117   -2.000
 7182.00    1.43987   1.07976   -2.000
 7183.00    1.43801   1.07934   -2.000
 7184.00    1.20924   1.07912   -2.000
 7185.00    1.01014   1.07722   -2.000
 7186.00    0.97644   1.07607   -2.000
 7187.00    1.00341   1.07515   -2.000
 7188.00    0.99665   1.07531   -2.000
 7189.00    0.95274   1.07659   -2.000
 7190.00    0.91674   1.07666   -2.000
 7191.00    0.94215   1.07810   -2.000
 7192.00    1.02097   1.07890   -2.000
 7193.00    1.09637   1.07958   -2.000
 7194.00    1.14655   1.08096   -2.000
 7195.00    1.17973   1.08150   -2.000
 7196.00    1.17190   1.08315   -2.000
 7197.00    1.09342   1.08377   -2.000
 7198.00    0.99279   1.08448   -2.000
 7199.00    0.95373   1.08531   -2.000
 7200.00    0.98231   1.08419   -2.000
 7201.00    1.02705   1.08423   -2.000
 7202.00    1.05074   1.08381   -2.000
 7203.00    1.05002   1.08423   -2.000
 7204.00    1.06344   1.08573   -2.000
 7205.00    1.12489   1.08550   -2.000
 7206.00    1.20071   1.08589   -2.000
 7207.00    1.23847   1.08540   -2.000
 7208.00    1.23636   1.08643   -2.000
 7209.00    1.20970   1.08878   -2.000
 7210.00    1.14831   1.09072   -2.000
 7211.00    1.07396   1.09364   -2.000
 7212.00    1.08864   1.09500   -2.000
 7213.00    1.21567   1.09680   -2.000
 7214.00    1.27776   1.09883   -2.000
 7215.00    1.17259   1.10136   -2.000
 7216.00    1.07493   1.10410   -2.000
 7217.00    1.12086   1.10630   -2.000
 7218.00    1.19043   1.10943   -2.000
