###################################################################
## OUTPUT of StarlightChains_v04.for    [Cid@UFSC - 01/Apr/2007] ##
###################################################################

## Some input info
2016eob.txt                              [arq_obs]
Base.CB07.vall.4m                        [arq_base]
Masks.EmLines.NEW.gm                     [arq_masks]
StCv04.C11.config                        [arq_config]
   66                                    [N_base]
    0                                    [N_YAV_components = # of components with extra extinction!]
    0                                    [i_FitPowerLaw (1/0 = Yes/No)]
-9.99                                    [alpha_PowerLaw]
CCM                                      [red_law_option]
 1.458241                                [q_norm = A(l_norm)/A(V)]

## (Re)Sampling Parameters
 3741.00                                 [l_ini (A)]
 7218.00                                 [l_fin (A)]
    1.00                                 [dl    (A)]     (OBS: dl_cushion =    50.00 A)

## Normalization info
 4020.00                                 [l_norm (A) - for base]
 4010.00                                 [llow_norm (A) - window for f_obs]
 4060.00                                 [lupp_norm (A) - window for f_obs]
1.983915E-17                             [fobs_norm (in input units)]

## S/N
 3691.00                                 [llow_SN (A) - window for S/N]
 7268.00                                 [lupp_SN (A) - window for S/N]
   8.095                                 [S/N in S/N window]
   8.830                                 [S/N in norm. window]
   9.135                                 [S/N_err in S/N window]
   9.964                                 [S/N_err in norm. window]
  1.0000                                 [fscale_chi2]

## etc...
    -2007431                             [idum_orig]
  2376                                   [NOl_eff]
  2376                                   [Nl_eff]
     0    NSIGMA                         [Ntot_cliped & clip_method]
  1276450                                [Nglobal_steps]
   7                                     [N_chains]
  22                                     [NEX0s_base = N_base in EX0s-fits]
 0   0   1        0   2.0   1.501E+01    [Clip-Bug, RC-Crash & Burn-In warning-flags, n_censored_weights, wei_nsig_threshold & wei_limit]
    11     11.688     11.192      0.496  [idt_all, wdt_TotTime, wdt_UsrTime & wdt_SysTime (sec)]

## Synthesis Results - Best model ##

 4.29908E-01                             [chi2/Nl_eff]
     6.06252                             [adev (%)]

   106.33682                             [sum-of-x (%)]
 2.74362E-17                             [Flux_tot (units of input spectrum!)]
 1.47505E-13                             [Mini_tot (???)]
 8.35644E-14                             [Mcor_tot (???)]

 140.98                                  [v0_min  (km/s)]
 185.68                                  [vd_min  (km/s)]
 0.1956                                  [AV_min  (mag)]
 0.0000                                  [YAV_min (mag)]

# j     x_j(%)      Mini_j(%)     Mcor_j(%)     age_j(yr)     Z_j      (L/M)_j    YAV?  Mstars   component_j        a/Fe...       SSP_chi2r SSP_adev(%)   SSP_AV   SSP_x(%)
  1      0.0000     0.0000E+00    0.0000E+00    1.000000E+06  0.00400  1.094E-02    0   1.0000   age020_m42            0.0000     7.6044E-01     8.5557   2.8758    90.5759
  2      0.0000     0.0000E+00    0.0000E+00    3.160000E+06  0.00400  4.007E-02    0   0.9999   age045_m42            0.0000     6.2423E-01     7.4648   2.1633    96.2531
  3      0.0000     0.0000E+00    0.0000E+00    5.010000E+06  0.00400  2.539E-02    0   0.9488   age055_m42            0.0000     6.6943E-01     7.8472   2.4752    94.2197
  4      0.0000     0.0000E+00    0.0000E+00    6.610000E+06  0.00400  2.620E-02    0   0.9220   age061_m42            0.0000     6.0300E-01     7.3388   2.0856    96.6485
  5      0.0000     0.0000E+00    0.0000E+00    1.000000E+07  0.00400  1.322E-02    0   0.8862   age070_m42            0.0000     5.4961E-01     7.2271   1.7686   100.2829
  6      0.0000     0.0000E+00    0.0000E+00    1.445000E+07  0.00400  7.883E-03    0   0.8571   age078_m42            0.0000     5.8630E-01     7.5056   2.0961    97.6996
  7      0.0000     0.0000E+00    0.0000E+00    2.512000E+07  0.00400  5.251E-03    0   0.8174   age090_m42            0.0000     5.4319E-01     7.1937   1.6334   101.0909
  8      0.4290     2.0565E-02    2.8500E-02    4.000000E+07  0.00400  3.649E-03    0   0.7851   age104_m42            0.0000     5.2250E-01     7.0038   1.4109   101.7291
  9      0.0000     0.0000E+00    0.0000E+00    5.500000E+07  0.00400  3.098E-03    0   0.7629   age110_m42            0.0000     5.2649E-01     6.9034   1.5817   100.9364
 10      0.0000     0.0000E+00    0.0000E+00    1.015200E+08  0.00400  2.228E-03    0   0.7207   age116_m42            0.0000     5.3318E-01     6.8669   1.6142   100.5870
 11      0.0000     0.0000E+00    0.0000E+00    2.861200E+08  0.00400  1.093E-03    0   0.6648   age125_m42            0.0000     5.1193E-01     6.6651   1.0349   104.1169
 12      0.0000     0.0000E+00    0.0000E+00    5.088000E+08  0.00400  6.597E-04    0   0.6365   age130_m42            0.0000     5.0356E-01     6.5276   1.0442   104.1203
 13     78.2022     6.4160E+01    6.5664E+01    1.434000E+09  0.00400  2.132E-04    0   0.5798   age139_m42            0.0000     4.4278E-01     6.0483   0.0868   105.6985
 14      0.0000     0.0000E+00    0.0000E+00    4.250000E+09  0.00400  5.895E-05    0   0.5377   age158_m42            0.0000     5.1630E-01     6.5587  -0.3323   100.7480
 15      0.0259     1.2884E-01    1.1853E-01    7.500000E+09  0.00400  3.510E-05    0   0.5212   age171_m42            0.0000     5.6358E-01     6.8140  -0.5100    99.6657
 16      0.0022     1.9568E-02    1.7388E-02    1.300000E+10  0.00400  2.005E-05    0   0.5034   age193_m42            0.0000     6.1934E-01     7.1077  -0.6654    98.7480
 17      0.0000     0.0000E+00    0.0000E+00    1.800000E+10  0.00400  1.525E-05    0   0.4967   age213_m42            0.0000     6.0948E-01     7.0645  -0.6908    98.4197
 18      0.0000     0.0000E+00    0.0000E+00    1.000000E+06  0.00800  1.238E-02    0   1.0000   age020_m52            0.0000     7.6126E-01     8.5608   2.8722    90.7533
 19      0.4853     2.7613E-03    4.8575E-03    3.160000E+06  0.00800  3.074E-02    0   0.9966   age045_m52            0.0000     7.5139E-01     8.4526   2.7982    91.4575
 20      0.0000     0.0000E+00    0.0000E+00    5.010000E+06  0.00800  2.668E-02    0   0.9443   age055_m52            0.0000     6.8042E-01     7.9594   2.5551    93.4888
 21      0.0000     0.0000E+00    0.0000E+00    6.610000E+06  0.00800  2.136E-02    0   0.9177   age061_m52            0.0000     5.2118E-01     7.0943   1.2703   101.4243
 22      0.0000     0.0000E+00    0.0000E+00    1.000000E+07  0.00800  1.215E-02    0   0.8827   age070_m52            0.0000     5.6505E-01     7.4083   1.9372   100.5444
 23      0.8092     1.6237E-02    2.4511E-02    1.445000E+07  0.00800  8.717E-03    0   0.8552   age078_m52            0.0000     5.6653E-01     7.3733   2.0614    99.0761
 24      0.0000     0.0000E+00    0.0000E+00    2.512000E+07  0.00800  5.592E-03    0   0.8162   age090_m52            0.0000     5.3194E-01     7.1115   1.6964   102.3462
 25      0.0000     0.0000E+00    0.0000E+00    4.000000E+07  0.00800  3.896E-03    0   0.7841   age104_m52            0.0000     5.1770E-01     6.9293   1.6179   102.7141
 26      0.0000     0.0000E+00    0.0000E+00    1.015200E+08  0.00800  2.148E-03    0   0.7226   age116_m52            0.0000     5.1447E-01     6.7578   1.5744   101.7263
 27      0.0000     0.0000E+00    0.0000E+00    2.861200E+08  0.00800  9.925E-04    0   0.6683   age125_m52            0.0000     5.0310E-01     6.5198   1.1080   105.1192
 28      0.0000     0.0000E+00    0.0000E+00    9.047900E+08  0.00800  3.141E-04    0   0.6138   age135_m52            0.0000     4.8981E-01     6.3962   0.3398   108.1683
 29      0.0000     0.0000E+00    0.0000E+00    1.434000E+09  0.00800  1.719E-04    0   0.5853   age139_m52            0.0000     4.8836E-01     6.2889  -0.2387   106.0168
 30      0.0000     0.0000E+00    0.0000E+00    2.500000E+09  0.00800  7.872E-05    0   0.5600   age150_m52            0.0000     5.7342E-01     6.8152  -0.4813   102.0723
 31      0.0492     1.9838E-01    1.9000E-01    4.250000E+09  0.00800  4.336E-05    0   0.5426   age158_m52            0.0000     5.8937E-01     6.9185  -0.4953   101.0581
 32      1.0940     6.0579E+00    5.6877E+00    6.250000E+09  0.00800  3.159E-05    0   0.5319   age166_m52            0.0000     6.6804E-01     7.3500  -0.6812   100.3894
 33      0.0000     0.0000E+00    0.0000E+00    1.300000E+10  0.00800  1.361E-05    0   0.5073   age193_m52            0.0000     8.4809E-01     8.5565  -1.0000    93.7314
 34      0.0000     0.0000E+00    0.0000E+00    1.800000E+10  0.00800  9.886E-06    0   0.4990   age213_m52            0.0000     1.0415E+00     9.5788  -1.0000    89.0838
 35      0.0000     0.0000E+00    0.0000E+00    1.000000E+06  0.02000  1.544E-02    0   1.0000   age020_m62            0.0000     7.6613E-01     8.5930   2.8685    90.9559
 36      0.0569     2.6471E-04    4.6061E-04    3.160000E+06  0.02000  3.762E-02    0   0.9858   age045_m62            0.0000     7.6679E-01     8.5566   2.8078    91.7472
 37      0.0000     0.0000E+00    0.0000E+00    5.010000E+06  0.02000  3.296E-02    0   0.9342   age055_m62            0.0000     6.5625E-01     7.6914   2.4405    95.1648
 38     15.2900     2.3176E-01    3.6250E-01    8.710000E+06  0.02000  1.154E-02    0   0.8861   age067_m62            0.0000     7.7818E-01     9.0647   1.3200   106.6761
 39      2.3811     5.4351E-02    8.1279E-02    1.445000E+07  0.02000  7.663E-03    0   0.8472   age078_m62            0.0000     5.8218E-01     7.6082   1.5625   103.8646
 40      0.0000     0.0000E+00    0.0000E+00    2.512000E+07  0.02000  4.532E-03    0   0.8099   age090_m62            0.0000     5.9844E-01     7.6480   1.5521   103.7095
 41      0.0081     5.1564E-04    6.9128E-04    5.500000E+07  0.02000  2.733E-03    0   0.7595   age110_m62            0.0000     5.1724E-01     6.9404   1.5995   102.0378
 42      0.0000     0.0000E+00    0.0000E+00    1.609000E+08  0.02000  1.369E-03    0   0.6985   age120_m62            0.0000     5.1241E-01     6.6825   1.4612   103.7804
 43      0.0000     0.0000E+00    0.0000E+00    2.861200E+08  0.02000  9.013E-04    0   0.6714   age125_m62            0.0000     5.0993E-01     6.6431   1.2232   106.1978
 44      0.0000     0.0000E+00    0.0000E+00    5.088000E+08  0.02000  5.028E-04    0   0.6449   age130_m62            0.0000     5.2549E-01     6.7201   0.8742   107.7115
 45      1.4790     1.0655E+00    1.1622E+00    9.047900E+08  0.02000  2.428E-04    0   0.6179   age135_m62            0.0000     5.1618E-01     6.5476   0.3023   106.5384
 46      0.0000     0.0000E+00    0.0000E+00    1.434000E+09  0.02000  1.263E-04    0   0.5908   age139_m62            0.0000     5.5309E-01     6.7359  -0.1344   104.7094
 47      3.2933     9.6251E+00    9.6384E+00    2.500000E+09  0.02000  5.985E-05    0   0.5673   age150_m62            0.0000     6.6456E-01     7.3302  -0.4791   102.3899
 48      0.0000     0.0000E+00    0.0000E+00    4.250000E+09  0.02000  3.271E-05    0   0.5468   age158_m62            0.0000     8.1019E-01     8.2860  -0.7585   100.4707
 49      0.0000     0.0000E+00    0.0000E+00    1.000000E+10  0.02000  1.360E-05    0   0.5167   age181_m62            0.0000     1.0333E+00     9.6581  -1.0000    95.7304
 50      0.0000     0.0000E+00    0.0000E+00    1.800000E+10  0.02000  7.124E-06    0   0.5013   age213_m62            0.0000     1.3769E+00    11.1421  -1.0000    86.8494
 51      0.0000     0.0000E+00    0.0000E+00    1.000000E+06  0.05000  2.592E-02    0   0.9998   age020_m72            0.0000     7.7894E-01     8.7072   2.8580    91.0606
 52      0.0000     0.0000E+00    0.0000E+00    3.160000E+06  0.05000  4.845E-02    0   0.9577   age045_m72            0.0000     7.3209E-01     8.2194   2.6977    92.6879
 53      0.0000     0.0000E+00    0.0000E+00    5.010000E+06  0.05000  3.072E-02    0   0.9147   age055_m72            0.0000     6.3468E-01     7.8573   2.1706    98.9371
 54      0.0000     0.0000E+00    0.0000E+00    6.610000E+06  0.05000  1.455E-02    0   0.8877   age061_m72            0.0000     1.2575E+00    11.1244   1.3424   108.9662
 55      0.0000     0.0000E+00    0.0000E+00    1.000000E+07  0.05000  9.074E-03    0   0.8524   age070_m72            0.0000     7.6515E-01     8.3811   2.3569    98.6018
 56      0.0000     0.0000E+00    0.0000E+00    2.512000E+07  0.05000  4.250E-03    0   0.7902   age090_m72            0.0000     6.4105E-01     7.6600   2.0568   100.3771
 57      0.0000     0.0000E+00    0.0000E+00    4.000000E+07  0.05000  3.087E-03    0   0.7618   age104_m72            0.0000     6.3110E-01     7.5495   1.8248   102.2584
 58      0.0000     0.0000E+00    0.0000E+00    1.015200E+08  0.05000  1.700E-03    0   0.7096   age116_m72            0.0000     5.2658E-01     6.8003   1.5927   103.8420
 59      0.0016     3.9065E-04    4.5738E-04    2.861200E+08  0.05000  7.384E-04    0   0.6633   age125_m72            0.0000     5.1347E-01     6.6667   1.1066   106.9469
 60      0.0000     0.0000E+00    0.0000E+00    5.088000E+08  0.05000  3.819E-04    0   0.6372   age130_m72            0.0000     5.2121E-01     6.6278   0.6385   107.6314
 61      0.0000     0.0000E+00    0.0000E+00    9.047900E+08  0.05000  1.676E-04    0   0.6110   age135_m72            0.0000     6.4899E-01     7.3293  -0.0239   104.3523
 62      2.2067     4.3679E+00    4.5289E+00    1.434000E+09  0.05000  8.837E-05    0   0.5874   age139_m72            0.0000     6.9366E-01     7.5115  -0.4751   103.7013
 63      0.0000     0.0000E+00    0.0000E+00    2.500000E+09  0.05000  4.233E-05    0   0.5598   age150_m72            0.0000     8.7042E-01     8.6254  -0.7508   100.9888
 64      0.0000     0.0000E+00    0.0000E+00    6.250000E+09  0.05000  1.435E-05    0   0.5249   age166_m72            0.0000     1.1570E+00    10.2195  -1.0000    91.5357
 65      0.5231     1.4050E+01    1.2489E+01    1.300000E+10  0.05000  6.513E-06    0   0.5036   age193_m72            0.0000     1.7588E+00    12.4420  -1.0000    81.8045
 66      0.0000     0.0000E+00    0.0000E+00    1.800000E+10  0.05000  4.527E-06    0   0.4945   age213_m72            0.0000     2.2331E+00    13.9715  -1.0000    75.9625


## Synthesis Results - Average & Chains ##

# j      x_j: min, <> & last-chain-values for 1 ...  7 chains
  1      0.0000      0.2547      0.7604      0.0000      0.0000      0.0000      0.0000      0.0000      0.0000
  2      0.0000      0.5197      0.0000      0.0000      3.2091      2.2539      3.0667      0.0000      1.2825
  3      0.0000      0.5384      0.0000      0.0000      0.9027      0.0000      0.0000      0.0000      0.0000
  4      0.0000      0.3789      0.0000      0.0000      0.0000      0.1964      0.0000      0.8145      0.0000
  5      0.0000      0.5436      0.0000      0.0000      1.3794      1.4598      0.0000      0.0000      0.1461
  6      0.0000      1.0044      0.0000      0.0000      0.5157      0.3543      0.0000      0.0000      0.7989
  7      0.0000      0.9747      0.0000      0.0000      0.0000      0.0000      0.5472      0.0000      0.2819
  8      0.4290      1.0260      0.5615      0.9266      0.0000      1.6275      0.9823      2.0368      0.0000
  9      0.0000      0.6279      0.0000      2.6955      0.0000      1.1224      2.9778      0.0000      0.0000
 10      0.0000      0.4424      0.0000      0.0000      0.0000      0.0000      1.6439      0.0000      0.0000
 11      0.0000      0.6662      1.6940      0.0000      0.0000      0.0000      0.5392      0.0000      0.2111
 12      0.0000      1.3627      0.0634      0.0000      1.9716      0.0000      1.9217      0.0000      0.0000
 13     78.2022     36.0762     48.1604     53.2353     42.2085     47.2421     44.8206     44.2779     46.3156
 14      0.0000      0.5272      1.6071      0.0000      0.0000      0.0000      0.0000      0.2810      0.0000
 15      0.0259      0.4827      0.0000      3.0646      0.0408      0.0000      1.7832      0.0000      0.0000
 16      0.0022      0.6813      0.6978      5.6622      2.0481      0.0000      0.7550      1.8293      0.0000
 17      0.0000      2.6829      1.1846      0.2985      2.6505      3.8726      1.5972      2.5141      3.1789
 18      0.0000      0.5735      0.0000      0.0000      1.4623      0.0000      1.0739      0.1248      0.0000
 19      0.4853      0.2234      0.0000      1.9200      0.0000      0.0000      0.0000      0.0672      0.0000
 20      0.0000      0.4092      0.0000      0.0000      0.0000      0.0000      0.6829      1.0351      0.0000
 21      0.0000      0.9440      0.2912      0.0000      0.0000      0.0000      0.0000      0.6408      0.0000
 22      0.0000      0.7909      3.3941      0.0000      2.4028      1.3543      1.7688      0.0000      0.0562
 23      0.8092      0.5367      0.0000      4.9963      0.0000      1.1576      0.0000      1.7779      3.9921
 24      0.0000      0.7833      0.6696      0.7068      0.0000      0.0000      0.4599      0.0000      0.0000
 25      0.0000      1.3914      3.4239      0.0000      4.7508      1.2725      0.0000      0.0000      0.0000
 26      0.0000      0.8910      0.0000      0.0000      0.0000      0.0000      0.0000      0.0000      1.9888
 27      0.0000      0.9171      0.1039      0.0000      0.0096      2.1888      0.0000      0.0000      1.7407
 28      0.0000      4.9854      0.0000      0.0000      0.0000      0.0000      0.0000      0.0000      0.9544
 29      0.0000      2.8163      0.0000      0.0000      2.3955      4.7505      0.0000      0.0041      0.3465
 30      0.0000      0.2530      0.0000      0.0000      0.0000      0.0000      1.4653      0.0000      0.0000
 31      0.0492      1.2501      1.5178      2.5966      0.0000      0.0000      0.0000      0.0000      1.9399
 32      1.0940      0.3266      1.4484      1.4536      0.0000      0.0000      0.0000      1.1936      0.0000
 33      0.0000      0.0828      0.0000      0.0000      0.0000      0.0000      0.0000      0.0000      0.0000
 34      0.0000      0.4116      0.0000      0.0390      0.0000      0.5089      0.0000      1.6608      0.8698
 35      0.0000      0.3041      0.0000      0.0000      0.0261      2.1141      0.0000      1.5704      0.0000
 36      0.0569      0.4655      0.0000      1.1248      0.0000      0.0000      0.0000      0.0000      0.2800
 37      0.0000      0.6296      0.0000      0.3342      2.4149      0.0000      0.5524      1.4190      0.0000
 38     15.2900      3.6712      6.3709      3.3827      3.5560      5.2755      5.8870      8.6103      1.9223
 39      2.3811      1.2855      0.0000      3.3268      0.1826      0.0000      1.3732      0.0000      3.2600
 40      0.0000      2.8357      3.8527      0.0000      5.2237      3.4248      3.1758      3.2436      5.8641
 41      0.0081      1.4576      1.0012      2.8215      0.0000      1.9720      2.2218      0.6913      0.2194
 42      0.0000      0.6579      0.0000      0.0000      0.0000      0.0000      1.3084      2.7806      0.0000
 43      0.0000      1.2055      0.9361      4.0869      0.9571      0.0000      3.5443      0.0000      0.3270
 44      0.0000      2.1181      2.4497      2.2297      2.2597      0.0000      0.0000      6.7203      0.1878
 45      1.4790      4.7049      0.0000      1.5294      0.3020      6.0364      2.4892      2.0323      1.6838
 46      0.0000      2.7566      2.6069      0.0000      2.6525      0.0000      2.9733      6.1040      2.6873
 47      3.2933      0.3841      0.0000      1.8189      0.9290      0.0000      0.0000      0.0000      0.0000
 48      0.0000      0.9608      0.5387      0.0000      2.9900      0.4538      2.6676      0.9824      1.6749
 49      0.0000      0.1758      0.0000      0.0000      0.1068      0.0000      0.0000      0.0000      1.3835
 50      0.0000      0.0827      0.0000      0.0000      0.0000      0.0000      0.0000      0.0000      0.0000
 51      0.0000      0.4895      0.6831      0.0000      0.0000      0.0000      0.0000      0.0000      0.9467
 52      0.0000      0.3311      2.2298      0.1425      1.3855      0.0000      0.0000      0.0000      1.5126
 53      0.0000      0.5574      1.6478      0.0000      0.0000      2.1960      0.0000      0.0000      0.7481
 54      0.0000      0.7615      1.8958      1.0274      1.6213      2.2254      0.0000      2.1254      0.2340
 55      0.0000      0.2907      0.4931      0.0000      0.0000      0.0000      1.6003      0.0000      0.7235
 56      0.0000      0.7182      0.8042      0.0000      0.8836      0.1463      0.0000      0.2758      0.7968
 57      0.0000      0.5067      0.0000      0.0000      0.0000      0.0338      0.0000      0.4551      0.0000
 58      0.0000      0.7830      0.0000      0.0000      0.0000      0.0000      0.0000      0.0000      1.5881
 59      0.0016      0.8801      0.0000      1.9268      0.0000      0.0000      1.0556      1.7915      3.8516
 60      0.0000      4.7829      4.1311      0.0000      8.9808      6.9659      4.9527      8.9744      8.0358
 61      0.0000      3.8789      9.3212      0.0000      2.3614      1.2600      4.1189      0.0000      2.7279
 62      2.2067      1.5879      1.0235      3.1945      1.7671      2.5916      1.8765      0.0000      1.4489
 63      0.0000      0.3091      0.0000      0.0000      0.9601      1.8015      0.0000      0.0000      0.0000
 64      0.0000      0.1848      0.7174      0.0092      0.3535      0.0000      0.6191      0.6845      0.0000
 65      0.5231      0.2504      0.0000      0.9008      0.0000      0.0000      0.0000      0.0000      0.0000
 66      0.0000      0.0857      0.0000      0.7691      0.5086      0.3142      0.0000      0.0000      0.0000

# j      m_j: min, <> & last-chain-values for 1 ...  7 chains
  1  0.0000E+00  5.5307E-03  1.9953E-02  0.0000E+00  0.0000E+00  0.0000E+00  0.0000E+00  0.0000E+00  0.0000E+00
  2  0.0000E+00  3.0807E-03  0.0000E+00  0.0000E+00  1.7316E-02  1.3529E-02  2.1062E-02  0.0000E+00  7.2701E-03
  3  0.0000E+00  4.7794E-03  0.0000E+00  0.0000E+00  7.2939E-03  0.0000E+00  0.0000E+00  0.0000E+00  0.0000E+00
  4  0.0000E+00  3.1674E-03  0.0000E+00  0.0000E+00  0.0000E+00  1.6623E-03  0.0000E+00  6.2429E-03  0.0000E+00
  5  0.0000E+00  8.6553E-03  0.0000E+00  0.0000E+00  1.9995E-02  2.3540E-02  0.0000E+00  0.0000E+00  2.2241E-03
  6  0.0000E+00  2.5940E-02  0.0000E+00  0.0000E+00  1.2125E-02  9.2677E-03  0.0000E+00  0.0000E+00  1.9733E-02
  7  0.0000E+00  3.6039E-02  0.0000E+00  0.0000E+00  0.0000E+00  0.0000E+00  2.3444E-02  0.0000E+00  9.9680E-03
  8  2.8500E-02  5.2437E-02  3.4679E-02  3.2784E-02  0.0000E+00  8.4230E-02  5.8165E-02  9.5446E-02  0.0000E+00
  9  0.0000E+00  3.6728E-02  0.0000E+00  1.0915E-01  0.0000E+00  6.6485E-02  2.0182E-01  0.0000E+00  0.0000E+00
 10  0.0000E+00  3.3994E-02  0.0000E+00  0.0000E+00  0.0000E+00  0.0000E+00  1.4635E-01  0.0000E+00  0.0000E+00
 11  0.0000E+00  9.6254E-02  2.9577E-01  0.0000E+00  0.0000E+00  0.0000E+00  9.0262E-02  0.0000E+00  2.9172E-02
 12  0.0000E+00  3.1231E-01  1.7573E-02  0.0000E+00  4.1133E-01  0.0000E+00  5.1028E-01  0.0000E+00  0.0000E+00
 13  6.5664E+01  2.3305E+01  3.7597E+01  2.3806E+01  2.4821E+01  3.0904E+01  3.3547E+01  2.6227E+01  2.8613E+01
 14  0.0000E+00  1.1423E+00  4.2079E+00  0.0000E+00  0.0000E+00  0.0000E+00  0.0000E+00  5.5817E-01  0.0000E+00
 15  1.1853E-01  1.7025E+00  0.0000E+00  7.4829E+00  1.3095E-01  0.0000E+00  7.2875E+00  0.0000E+00  0.0000E+00
 16  1.7388E-02  4.0632E+00  5.0295E+00  2.3377E+01  1.1119E+01  0.0000E+00  5.2171E+00  1.0003E+01  0.0000E+00
 17  0.0000E+00  2.0757E+01  1.1075E+01  1.5986E+00  1.8667E+01  3.0341E+01  1.4317E+01  1.7835E+01  2.3520E+01
 18  0.0000E+00  1.1004E-02  0.0000E+00  0.0000E+00  2.5541E-02  0.0000E+00  2.3874E-02  2.1960E-03  0.0000E+00
 19  4.8575E-03  1.7205E-03  0.0000E+00  1.0236E-02  0.0000E+00  0.0000E+00  0.0000E+00  4.7437E-04  0.0000E+00
 20  0.0000E+00  3.4401E-03  0.0000E+00  0.0000E+00  0.0000E+00  0.0000E+00  6.6525E-03  7.9791E-03  0.0000E+00
 21  0.0000E+00  9.6342E-03  3.5913E-03  0.0000E+00  0.0000E+00  0.0000E+00  0.0000E+00  5.9960E-03  0.0000E+00
 22  0.0000E+00  1.3649E-02  7.0785E-02  0.0000E+00  3.7747E-02  2.3667E-02  3.5367E-02  0.0000E+00  9.2791E-04
 23  2.4511E-02  1.2507E-02  0.0000E+00  8.0602E-02  0.0000E+00  2.7319E-02  0.0000E+00  3.7990E-02  8.8970E-02
 24  0.0000E+00  2.7159E-02  2.8055E-02  1.6965E-02  0.0000E+00  0.0000E+00  1.8473E-02  0.0000E+00  0.0000E+00
 25  0.0000E+00  6.6518E-02  1.9781E-01  0.0000E+00  2.0675E-01  6.1603E-02  0.0000E+00  0.0000E+00  0.0000E+00
 26  0.0000E+00  7.1197E-02  0.0000E+00  0.0000E+00  0.0000E+00  0.0000E+00  0.0000E+00  0.0000E+00  1.5198E-01
 27  0.0000E+00  1.4669E-01  2.0083E-02  0.0000E+00  1.4001E-03  3.5453E-01  0.0000E+00  0.0000E+00  2.6626E-01
 28  0.0000E+00  2.3141E+00  0.0000E+00  0.0000E+00  0.0000E+00  0.0000E+00  0.0000E+00  0.0000E+00  4.2367E-01
 29  0.0000E+00  2.2778E+00  0.0000E+00  0.0000E+00  1.7637E+00  3.8908E+00  0.0000E+00  3.0427E-03  2.6804E-01
 30  0.0000E+00  4.2758E-01  0.0000E+00  0.0000E+00  0.0000E+00  0.0000E+00  2.8689E+00  0.0000E+00  0.0000E+00
 31  1.9000E-01  3.7159E+00  5.4522E+00  5.3432E+00  0.0000E+00  0.0000E+00  0.0000E+00  0.0000E+00  5.5145E+00
 32  5.6877E+00  1.3063E+00  7.0009E+00  4.0247E+00  0.0000E+00  0.0000E+00  0.0000E+00  4.3774E+00  0.0000E+00
 33  0.0000E+00  7.3339E-01  0.0000E+00  0.0000E+00  0.0000E+00  0.0000E+00  0.0000E+00  0.0000E+00  0.0000E+00
 34  0.0000E+00  4.9351E+00  0.0000E+00  3.2336E-01  0.0000E+00  6.1794E+00  0.0000E+00  1.8259E+01  9.9737E+00
 35  0.0000E+00  4.6779E-03  0.0000E+00  0.0000E+00  3.6483E-04  3.2937E-02  0.0000E+00  2.2153E-02  0.0000E+00
 36  4.6061E-04  2.8973E-03  0.0000E+00  4.8465E-03  0.0000E+00  0.0000E+00  0.0000E+00  0.0000E+00  1.6667E-03
 37  0.0000E+00  4.2386E-03  0.0000E+00  1.5574E-03  1.4800E-02  0.0000E+00  4.3093E-03  8.7600E-03  0.0000E+00
 38  3.6250E-01  6.6959E-02  1.4043E-01  4.2711E-02  5.9042E-02  9.7441E-02  1.2441E-01  1.4400E-01  3.3530E-02
 39  8.1279E-02  3.3759E-02  0.0000E+00  6.0480E-02  4.3652E-03  0.0000E+00  4.1784E-02  0.0000E+00  8.1874E-02
 40  0.0000E+00  1.2037E-01  1.9765E-01  0.0000E+00  2.0186E-01  1.4722E-01  1.5620E-01  1.2625E-01  2.3806E-01
 41  6.9128E-04  9.6215E-02  7.9867E-02  1.2893E-01  0.0000E+00  1.3183E-01  1.6993E-01  4.1845E-02  1.3848E-02
 42  0.0000E+00  7.9741E-02  0.0000E+00  0.0000E+00  0.0000E+00  0.0000E+00  1.8374E-01  3.0901E-01  0.0000E+00
 43  0.0000E+00  2.1331E-01  2.0017E-01  5.0061E-01  1.5417E-01  0.0000E+00  7.2664E-01  0.0000E+00  5.5333E-02
 44  0.0000E+00  6.4530E-01  9.0197E-01  4.7027E-01  6.2672E-01  0.0000E+00  0.0000E+00  1.8774E+00  5.4733E-02
 45  1.1622E+00  2.8441E+00  0.0000E+00  6.4002E-01  1.6617E-01  3.6953E+00  1.7435E+00  1.1265E+00  9.7340E-01
 46  0.0000E+00  3.0629E+00  3.5006E+00  0.0000E+00  2.6830E+00  0.0000E+00  3.8279E+00  6.2190E+00  2.8556E+00
 47  9.6384E+00  8.6491E-01  0.0000E+00  2.8350E+00  1.9041E+00  0.0000E+00  0.0000E+00  0.0000E+00  0.0000E+00
 48  0.0000E+00  3.8150E+00  2.5850E+00  0.0000E+00  1.0808E+01  1.8248E+00  1.2273E+01  3.5767E+00  6.3604E+00
 49  0.0000E+00  1.5864E+00  0.0000E+00  0.0000E+00  8.7766E-01  0.0000E+00  0.0000E+00  0.0000E+00  1.1940E+01
 50  0.0000E+00  1.3828E+00  0.0000E+00  0.0000E+00  0.0000E+00  0.0000E+00  0.0000E+00  0.0000E+00  0.0000E+00
 51  0.0000E+00  4.4847E-03  7.5642E-03  0.0000E+00  0.0000E+00  0.0000E+00  0.0000E+00  0.0000E+00  8.2951E-03
 52  0.0000E+00  1.5545E-03  1.2652E-02  4.6326E-04  5.9222E-03  0.0000E+00  0.0000E+00  0.0000E+00  6.7922E-03
 53  0.0000E+00  3.9427E-03  1.4084E-02  0.0000E+00  0.0000E+00  1.5729E-02  0.0000E+00  0.0000E+00  5.0600E-03
 54  0.0000E+00  1.1036E-02  3.3203E-02  1.0308E-02  2.1390E-02  3.2660E-02  0.0000E+00  2.8243E-02  3.2436E-03
 55  0.0000E+00  6.4867E-03  1.3296E-02  0.0000E+00  0.0000E+00  0.0000E+00  4.1374E-02  0.0000E+00  1.5439E-02
 56  0.0000E+00  3.1720E-02  4.2924E-02  0.0000E+00  3.5524E-02  6.5454E-03  0.0000E+00  1.1168E-02  3.3653E-02
 57  0.0000E+00  2.9701E-02  0.0000E+00  0.0000E+00  0.0000E+00  2.0085E-03  0.0000E+00  2.4462E-02  0.0000E+00
 58  0.0000E+00  7.7639E-02  0.0000E+00  0.0000E+00  0.0000E+00  0.0000E+00  0.0000E+00  0.0000E+00  1.5059E-01
 59  4.5738E-04  1.8780E-01  0.0000E+00  2.8461E-01  0.0000E+00  0.0000E+00  2.6099E-01  3.5051E-01  7.8597E-01
 60  0.0000E+00  1.8956E+00  1.9786E+00  0.0000E+00  3.2402E+00  2.7958E+00  2.2743E+00  3.2614E+00  3.0458E+00
 61  0.0000E+00  3.3590E+00  9.7547E+00  0.0000E+00  1.8615E+00  1.1049E+00  4.1326E+00  0.0000E+00  2.2591E+00
 62  4.5289E+00  2.5071E+00  1.9530E+00  3.4916E+00  2.5398E+00  4.1439E+00  3.4328E+00  0.0000E+00  2.1878E+00
 63  0.0000E+00  9.7112E-01  0.0000E+00  0.0000E+00  2.7454E+00  5.7309E+00  0.0000E+00  0.0000E+00  0.0000E+00
 64  0.0000E+00  1.6055E+00  7.5328E+00  5.5315E-02  2.7958E+00  0.0000E+00  6.2329E+00  5.4532E+00  0.0000E+00
 65  1.2489E+01  4.5994E+00  0.0000E+00  1.1453E+01  0.0000E+00  0.0000E+00  0.0000E+00  0.0000E+00  0.0000E+00
 66  0.0000E+00  2.2225E+00  0.0000E+00  1.3815E+01  1.2013E+01  8.2570E+00  0.0000E+00  0.0000E+00  0.0000E+00

# AV, chi2 & Mass for <> & i_chain = 1 ...  7 solutions
AV       0.1956      0.3419      0.3302      0.1827      0.3272      0.3160      0.3460      0.3212      0.3297
chi2 4.2991E-01  4.3558E-01  4.3382E-01  4.3317E-01  4.3435E-01  4.3417E-01  4.3461E-01  4.3376E-01  4.3412E-01
Mass 8.3564E-14  1.3221E-13  1.0769E-13  1.5421E-13  1.4237E-13  1.2607E-13  1.1472E-13  1.4023E-13  1.3598E-13
 140.98                                  [v0_min (km/s) before EX0s...]
 185.68                                  [vd_min (km/s) before EX0s...]


## Synthetic spectrum (Best Model) ##l_obs f_obs f_syn wei
 3478    [Nl_obs]
 3741.00    0.44240   0.62247    0.000
 3742.00    0.63580   0.65098    0.000
 3743.00    0.74654   0.66501    0.000
 3744.00    0.75519   0.66377    0.000
 3745.00    0.69652   0.64920    3.960
 3746.00    0.60740   0.62447    4.008
 3747.00    0.51826   0.59288    4.070
 3748.00    0.45315   0.55829    4.136
 3749.00    0.43032   0.52593    4.153
 3750.00    0.46218   0.50215    4.127
 3751.00    0.54437   0.49294    4.103
 3752.00    0.64468   0.50185    4.117
 3753.00    0.72365   0.52812    4.160
 3754.00    0.75821   0.56625    4.167
 3755.00    0.74632   0.60765    4.117
 3756.00    0.70714   0.64381    4.118
 3757.00    0.66206   0.66926    4.238
 3758.00    0.61998   0.68304    4.373
 3759.00    0.59046   0.68809    4.412
 3760.00    0.59103   0.68919    4.399
 3761.00    0.62080   0.69024    4.405
 3762.00    0.64839   0.69252    4.428
 3763.00    0.65241   0.69470    4.471
 3764.00    0.64187   0.69409    4.579
 3765.00    0.62535   0.68815    4.715
 3766.00    0.59632   0.67558    4.721
 3767.00    0.55043   0.65657    4.632
 3768.00    0.49359   0.63253    4.700
 3769.00    0.43769   0.60636    4.854
 3770.00    0.39675   0.58259    4.615
 3771.00    0.38030   0.56634    4.068
 3772.00    0.38969   0.56189    3.710
 3773.00    0.41499   0.57124    3.659
 3774.00    0.44639   0.59330    3.832
 3775.00    0.51221   0.62438    4.104
 3776.00    0.65506   0.65975    4.318
 3777.00    0.83220   0.69552    4.478
 3778.00    0.94352   0.72938    4.753
 3779.00    0.97367   0.76029    5.076
 3780.00    0.97867   0.78765    5.124
 3781.00    0.97213   0.81087    4.938
 3782.00    0.93232   0.82924    4.837
 3783.00    0.87002   0.84189    4.903
 3784.00    0.81918   0.84786    5.042
 3785.00    0.79435   0.84653    5.144
 3786.00    0.79362   0.83801    5.162
 3787.00    0.81627   0.82342    5.180
 3788.00    0.85666   0.80494    5.296
 3789.00    0.89225   0.78519    5.416
 3790.00    0.90202   0.76605    5.407
 3791.00    0.89162   0.74766    5.363
 3792.00    0.87270   0.72841    5.421
 3793.00    0.83691   0.70582    5.502
 3794.00    0.78284   0.67779    5.498
 3795.00    0.74371   0.64375    5.491
 3796.00    0.74066   0.60549    5.549
 3797.00    0.74061   0.56752    5.517
 3798.00    0.70762   0.53625    5.329
 3799.00    0.64818   0.51834    5.218
 3800.00    0.58834   0.51857    5.318
 3801.00    0.55183   0.53796    5.474
 3802.00    0.55120   0.57301    5.501
 3803.00    0.58300   0.61685    5.420
 3804.00    0.63081   0.66176    5.360
 3805.00    0.67102   0.70181    5.432
 3806.00    0.69344   0.73434    5.601
 3807.00    0.70850   0.75998    5.642
 3808.00    0.72476   0.78118    5.505
 3809.00    0.74000   0.80031    5.421
 3810.00    0.75377   0.81799    5.480
 3811.00    0.76974   0.83272    5.535
 3812.00    0.78137   0.84210    5.428
 3813.00    0.77367   0.84458    5.147
 3814.00    0.74988   0.84066    4.897
 3815.00    0.72969   0.83289    4.904
 3816.00    0.71230   0.82430    5.101
 3817.00    0.67773   0.81666    5.170
 3818.00    0.62541   0.80991    5.100
 3819.00    0.57639   0.80298    5.177
 3820.00    0.54937   0.79505    5.405
 3821.00    0.55002   0.78637    5.517
 3822.00    0.56225   0.77779    5.472
 3823.00    0.56105   0.76955    5.452
 3824.00    0.54281   0.76058    5.477
 3825.00    0.52142   0.74905    5.470
 3826.00    0.50897   0.73394    5.497
 3827.00    0.50908   0.71575    5.658
 3828.00    0.51237   0.69579    5.815
 3829.00    0.50645   0.67474    5.771
 3830.00    0.49162   0.65191    5.705
 3831.00    0.47765   0.62580    5.853
 3832.00    0.47547   0.59526    6.070
 3833.00    0.48333   0.56083    6.106
 3834.00    0.47450   0.52547    6.113
 3835.00    0.43417   0.49395    6.302
 3836.00    0.39624   0.47144    6.480
 3837.00    0.39194   0.46178    6.440
 3838.00    0.40090   0.46642    6.433
 3839.00    0.39829   0.48441    6.651
 3840.00    0.39703   0.51341    6.774
 3841.00    0.42125   0.55050    6.584
 3842.00    0.48175   0.59265    6.457
 3843.00    0.56919   0.63678    6.588
 3844.00    0.65532   0.67980    6.612
 3845.00    0.72443   0.71894    6.277
 3846.00    0.78733   0.75226    5.864
 3847.00    0.84614   0.77894    0.000
 3848.00    0.88058   0.79926    0.000
 3849.00    0.88331   0.81431    0.000
 3850.00    0.87238   0.82563    0.000
 3851.00    0.86257   0.83482    0.000
 3852.00    0.85503   0.84308    0.000
 3853.00    0.85083   0.85061    0.000
 3854.00    0.85301   0.85653    0.000
 3855.00    0.85324   0.85962    0.000
 3856.00    0.83459   0.85916    0.000
 3857.00    0.79683   0.85547    0.000
 3858.00    0.75856   0.85001    0.000
 3859.00    0.73912   0.84491    0.000
 3860.00    0.75009   0.84239    0.000
 3861.00    0.78813   0.84421    0.000
 3862.00    0.83713   0.85093    0.000
 3863.00    0.87760   0.86137    0.000
 3864.00    0.89346   0.87286    0.000
 3865.00    0.88106   0.88252    0.000
 3866.00    0.84833   0.88849    0.000
 3867.00    0.80940   0.89048    0.000
 3868.00    0.78170   0.88901    0.000
 3869.00    0.78245   0.88455    0.000
 3870.00    0.82051   0.87721    0.000
 3871.00    0.88560   0.86730    0.000
 3872.00    0.95696   0.85593    0.000
 3873.00    1.01755   0.84495    0.000
 3874.00    1.05788   0.83603    0.000
 3875.00    1.07789   0.82937    0.000
 3876.00    1.08111   0.82333    0.000
 3877.00    1.06830   0.81552    0.000
 3878.00    1.04083   0.80438    0.000
 3879.00    1.00449   0.79011    0.000
 3880.00    0.96733   0.77425    0.000
 3881.00    0.93640   0.75813    6.213
 3882.00    0.90879   0.74169    6.313
 3883.00    0.86866   0.72340    6.398
 3884.00    0.81654   0.70118    6.421
 3885.00    0.78324   0.67342    6.400
 3886.00    0.78129   0.63989    6.409
 3887.00    0.78126   0.60270    6.538
 3888.00    0.76112   0.56648    6.687
 3889.00    0.73029   0.53761    6.538
 3890.00    0.70106   0.52219    6.245
 3891.00    0.67521   0.52386    6.405
 3892.00    0.65477   0.54220    7.051
 3893.00    0.64528   0.57293    7.238
 3894.00    0.64745   0.60979    6.671
 3895.00    0.65730   0.64694    6.293
 3896.00    0.67962   0.68068    6.401
 3897.00    0.72572   0.70963    6.687
 3898.00    0.78955   0.73393    6.817
 3899.00    0.84756   0.75425    6.680
 3900.00    0.88222   0.77149    6.507
 3901.00    0.89051   0.78657    6.609
 3902.00    0.88687   0.80015    6.934
 3903.00    0.89168   0.81246    7.086
 3904.00    0.90334   0.82345    6.879
 3905.00    0.90477   0.83337    6.508
 3906.00    0.89152   0.84316    6.256
 3907.00    0.87359   0.85432    6.286
 3908.00    0.86686   0.86802    6.513
 3909.00    0.88041   0.88412    6.685
 3910.00    0.89902   0.90105    6.606
 3911.00    0.90170   0.91648    6.310
 3912.00    0.89335   0.92841    6.063
 3913.00    0.88857   0.93596    6.078
 3914.00    0.88370   0.93941    6.319
 3915.00    0.86910   0.93971    6.569
 3916.00    0.84840   0.93777    6.523
 3917.00    0.82903   0.93401    6.162
 3918.00    0.81012   0.92840    5.946
 3919.00    0.79191   0.92092    6.156
 3920.00    0.78465   0.91210    6.569
 3921.00    0.79145   0.90313    6.747
 3922.00    0.79505   0.89540    6.567
 3923.00    0.78345   0.88965    6.271
 3924.00    0.76848   0.88539    6.204
 3925.00    0.76301   0.88092    6.476
 3926.00    0.76450   0.87397    6.825
 3927.00    0.76305   0.86261    6.908
 3928.00    0.74915   0.84578    6.696
 3929.00    0.72348   0.82327    6.460
 3930.00    0.69949   0.79542    6.529
 3931.00    0.68826   0.76297    6.927
 3932.00    0.69114   0.72760    7.215
 3933.00    0.70372   0.69291    7.035
 3934.00    0.71715   0.66472    6.604
 3935.00    0.71505   0.64968    6.306
 3936.00    0.68184   0.65254    6.406
 3937.00    0.63778   0.67352    6.894
 3938.00    0.63285   0.70789    7.401
 3939.00    0.68315   0.74803    7.445
 3940.00    0.76277   0.78635    6.934
 3941.00    0.84539   0.81771    6.404
 3942.00    0.91423   0.84016    6.363
 3943.00    0.95403   0.85445    6.758
 3944.00    0.95602   0.86313    7.090
 3945.00    0.93469   0.86928    6.961
 3946.00    0.91848   0.87533    6.474
 3947.00    0.92141   0.88230    6.055
 3948.00    0.94100   0.88975    5.832
 3949.00    0.96654   0.89664    5.206
 3950.00    0.98256   0.90204    4.161
 3951.00    0.97240   0.90549    3.672
 3952.00    0.93109   0.90686    4.181
 3953.00    0.88295   0.90606    5.651
 3954.00    0.86145   0.90296    6.684
 3955.00    0.87754   0.89740    6.562
 3956.00    0.91909   0.88921    6.609
 3957.00    0.95733   0.87828    6.811
 3958.00    0.96755   0.86446    6.624
 3959.00    0.95038   0.84734    6.469
 3960.00    0.91829   0.82617    0.000
 3961.00    0.87964   0.80016    0.000
 3962.00    0.83904   0.76905    0.000
 3963.00    0.79887   0.73338    0.000
 3964.00    0.75880   0.69402    0.000
 3965.00    0.71606   0.65151    0.000
 3966.00    0.67137   0.60590    0.000
 3967.00    0.63214   0.55769    0.000
 3968.00    0.60422   0.50916    0.000
 3969.00    0.58710   0.46503    0.000
 3970.00    0.57820   0.43177    0.000
 3971.00    0.57530   0.41550    0.000
 3972.00    0.57437   0.41977    0.000
 3973.00    0.57009   0.44417    0.000
 3974.00    0.56376   0.48465    0.000
 3975.00    0.56548   0.53512    0.000
 3976.00    0.58699   0.58946    0.000
 3977.00    0.63589   0.64283    0.000
 3978.00    0.70599   0.69218    0.000
 3979.00    0.77968   0.73588    0.000
 3980.00    0.84766   0.77320    0.000
 3981.00    0.90882   0.80395    5.923
 3982.00    0.94931   0.82852    5.671
 3983.00    0.94656   0.84802    6.982
 3984.00    0.89756   0.86408   10.516
 3985.00    0.82245   0.87846   10.851
 3986.00    0.75360   0.89240    7.830
 3987.00    0.71993   0.90639    6.796
 3988.00    0.71997   0.92023    7.016
 3989.00    0.73178   0.93341    7.056
 3990.00    0.74345   0.94543    6.819
 3991.00    0.75264   0.95597    7.033
 3992.00    0.75521   0.96484    7.555
 3993.00    0.74949   0.97178    7.610
 3994.00    0.74545   0.97645    7.146
 3995.00    0.75428   0.97863    6.727
 3996.00    0.77237   0.97863    6.716
 3997.00    0.79071   0.97757    7.206
 3998.00    0.80927   0.97711    7.822
 3999.00    0.83293   0.97884    7.899
 4000.00    0.86454   0.98342    7.468
 4001.00    0.90258   0.99012    7.012
 4002.00    0.93930   0.99701    6.809
 4003.00    0.96021   1.00176    6.929
 4004.00    0.94617   1.00267    7.261
 4005.00    0.89443   0.99963    7.540
 4006.00    0.83265   0.99432    7.410
 4007.00    0.79276   0.98956    6.904
 4008.00    0.78994   0.98791    6.511
 4009.00    0.81912   0.99050    6.485
 4010.00    0.85724   0.99669    6.759
 4011.00    0.88617   1.00476    7.083
 4012.00    0.90464   1.01300    7.073
 4013.00    0.91762   1.02032    6.805
 4014.00    0.93017   1.02639    6.840
 4015.00    0.94754   1.03133    7.301
 4016.00    0.97495   1.03538    7.605
 4017.00    1.01603   1.03878    7.432
 4018.00    1.06741   1.04168    7.226
 4019.00    1.10172   1.04417    7.174
 4020.00    1.07973   1.04606    7.077
 4021.00    1.01306   1.04691    6.995
 4022.00    0.95959   1.04615    7.218
 4023.00    0.94313   1.04351    7.635
 4024.00    0.94525   1.03937    7.673
 4025.00    0.95289   1.03479    7.257
 4026.00    0.96691   1.03109    6.865
 4027.00    0.98919   1.02910    6.726
 4028.00    1.01836   1.02848    6.842
 4029.00    1.04772   1.02773    7.140
 4030.00    1.06861   1.02502    7.450
 4031.00    1.07773   1.01941    7.504
 4032.00    1.07637   1.01177    7.191
 4033.00    1.06648   1.00453    6.878
 4034.00    1.04965   1.00063    6.940
 4035.00    1.02678   1.00223    7.350
 4036.00    1.00000   1.00982    7.775
 4037.00    0.97532   1.02205    7.768
 4038.00    0.96006   1.03614    7.259
 4039.00    0.95904   1.04879    6.816
 4040.00    0.97262   1.05717    6.830
 4041.00    0.99509   1.05967    7.178
 4042.00    1.01584   1.05594    7.577
 4043.00    1.02170   1.04656    7.910
 4044.00    1.00634   1.03280    8.075
 4045.00    0.97766   1.01686    7.814
 4046.00    0.94742   1.00211    7.290
 4047.00    0.92240   0.99247    7.161
 4048.00    0.90818   0.99088    7.684
 4049.00    0.91183   0.99764    8.309
 4050.00    0.93825   1.01008    8.310
 4051.00    0.98644   1.02380    7.886
 4052.00    1.04363   1.03467    7.547
 4053.00    1.08653   1.04032    7.524
 4054.00    1.10715   1.04053    7.732
 4055.00    1.12045   1.03665    7.798
 4056.00    1.13249   1.03067    7.603
 4057.00    1.13040   1.02449    7.460
 4058.00    1.10830   1.01937    7.459
 4059.00    1.07590   1.01577    7.376
 4060.00    1.04659   1.01321    7.222
 4061.00    1.03009   1.01037    7.273
 4062.00    1.02460   1.00575    7.577
 4063.00    1.01936   0.99872    7.851
 4064.00    1.01083   0.99033    7.735
 4065.00    1.00335   0.98309    7.174
 4066.00    0.99663   0.97957    6.670
 4067.00    0.98584   0.98086    6.702
 4068.00    0.97067   0.98581    7.190
 4069.00    0.95604   0.99176    7.604
 4070.00    0.94849   0.99588    7.615
 4071.00    0.95125   0.99655    7.378
 4072.00    0.95663   0.99386    7.155
 4073.00    0.95170   0.98917    7.110
 4074.00    0.93110   0.98392    7.257
 4075.00    0.89847   0.97861    7.521
 4076.00    0.86458   0.97285    7.810
 4077.00    0.84131   0.96643    7.992
 4078.00    0.83349   0.96042    7.883
 4079.00    0.83896   0.95698    7.525
 4080.00    0.85083   0.95793    7.339
 4081.00    0.86774   0.96323    7.604
 4082.00    0.90342   0.97065    8.047
 4083.00    0.96260   0.97707    8.172
 4084.00    1.01790   0.98028    7.947
 4085.00    1.04425   0.98010    7.670
 4086.00    1.05063   0.97805    7.580
 4087.00    1.05291   0.97601    7.749
 4088.00    1.05002   0.97485    8.034
 4089.00    1.03635   0.97390    8.227
 4090.00    1.01169   0.97141    8.227
 4091.00    0.97420   0.96557    8.075
 4092.00    0.91741   0.95530    0.000
 4093.00    0.84458   0.94034    0.000
 4094.00    0.77452   0.92090    0.000
 4095.00    0.72353   0.89718    0.000
 4096.00    0.69669   0.86920    0.000
 4097.00    0.69565   0.83697    0.000
 4098.00    0.71959   0.80075    0.000
 4099.00    0.75177   0.76139    0.000
 4100.00    0.76294   0.72067    0.000
 4101.00    0.74801   0.68186    0.000
 4102.00    0.73056   0.64983    0.000
 4103.00    0.72720   0.63014    0.000
 4104.00    0.73708   0.62703    0.000
 4105.00    0.75055   0.64142    0.000
 4106.00    0.75667   0.67017    0.000
 4107.00    0.75585   0.70725    0.000
 4108.00    0.75815   0.74614    0.000
 4109.00    0.76998   0.78189    0.000
 4110.00    0.79308   0.81220    0.000
 4111.00    0.82994   0.83725    0.000
 4112.00    0.88109   0.85856    0.000
 4113.00    0.93726   0.87781    8.132
 4114.00    0.98413   0.89596    8.013
 4115.00    1.01362   0.91296    7.953
 4116.00    1.02523   0.92796    7.945
 4117.00    1.02439   0.93990    8.075
 4118.00    1.01874   0.94821    8.404
 4119.00    1.01308   0.95319    8.722
 4120.00    1.00941   0.95606    8.701
 4121.00    1.00788   0.95852    8.331
 4122.00    1.00744   0.96208    7.892
 4123.00    1.00655   0.96745    7.704
 4124.00    1.00439   0.97437    7.930
 4125.00    1.00194   0.98181    8.467
 4126.00    1.00108   0.98825    8.983
 4127.00    1.00371   0.99232    9.018
 4128.00    1.01400   0.99326    8.531
 4129.00    1.03872   0.99098    8.099
 4130.00    1.07446   0.98611    8.063
 4131.00    1.10105   0.97971    8.295
 4132.00    1.10551   0.97319    8.533
 4133.00    1.09581   0.96820    8.569
 4134.00    1.07973   0.96640    8.425
 4135.00    1.05370   0.96903    8.356
 4136.00    1.01711   0.97632    8.428
 4137.00    0.97902   0.98715    8.417
 4138.00    0.94931   0.99911    8.281
 4139.00    0.93373   1.00923    8.291
 4140.00    0.93311   1.01486    8.516
 4141.00    0.94393   1.01428    8.688
 4142.00    0.96200   1.00737    8.578
 4143.00    0.98275   0.99583    8.241
 4144.00    0.99749   0.98311    7.945
 4145.00    0.99758   0.97341    7.964
 4146.00    0.99191   0.96993    8.307
 4147.00    1.00249   0.97346    8.704
 4148.00    1.03632   0.98214    8.851
 4149.00    1.08175   0.99236    8.625
 4150.00    1.12077   1.00077    8.234
 4151.00    1.13653   1.00585    7.977
 4152.00    1.12273   1.00773    7.933
 4153.00    1.08491   1.00733    8.036
 4154.00    1.03821   1.00576    8.205
 4155.00    1.00072   1.00404    8.368
 4156.00    0.98229   1.00316    8.495
 4157.00    0.98422   1.00404    8.574
 4158.00    1.00238   1.00728    8.565
 4159.00    1.02792   1.01272    8.454
 4160.00    1.04814   1.01950    8.344
 4161.00    1.05350   1.02647    8.359
 4162.00    1.04650   1.03251    8.531
 4163.00    1.03744   1.03673    8.755
 4164.00    1.03701   1.03870    8.742
 4165.00    1.04532   1.03840    8.403
 4166.00    1.04347   1.03605    8.155
 4167.00    1.02184   1.03210    8.302
 4168.00    1.00433   1.02719    8.669
 4169.00    1.01293   1.02172    8.916
 4170.00    1.03795   1.01565    8.906
 4171.00    1.06375   1.00872    8.753
 4172.00    1.08873   1.00078    8.697
 4173.00    1.10905   0.99219    8.800
 4174.00    1.11042   0.98419    8.828
 4175.00    1.09497   0.97857    8.666
 4176.00    1.09141   0.97668    8.535
 4177.00    1.11465   0.97849    8.576
 4178.00    1.14773   0.98278    8.687
 4179.00    1.16962   0.98810    8.709
 4180.00    1.16982   0.99341    8.563
 4181.00    1.14682   0.99822    8.399
 4182.00    1.10727   1.00221    8.495
 4183.00    1.06644   1.00501    8.802
 4184.00    1.04347   1.00646    8.888
 4185.00    1.04418   1.00680    8.729
 4186.00    1.05900   1.00630    8.766
 4187.00    1.07648   1.00501    9.051
 4188.00    1.08863   1.00328    9.190
 4189.00    1.09263   1.00196    9.061
 4190.00    1.09034   1.00228    8.916
 4191.00    1.08587   1.00504    8.856
 4192.00    1.08334   1.00976    8.827
 4193.00    1.08342   1.01489    8.851
 4194.00    1.08421   1.01876    8.988
 4195.00    1.08477   1.01992    9.122
 4196.00    1.08364   1.01711    9.066
 4197.00    1.07510   1.01001    8.879
 4198.00    1.05314   0.99987    8.772
 4199.00    1.01914   0.98893    8.875
 4200.00    0.98191   0.97936    9.171
 4201.00    0.95517   0.97285    9.402
 4202.00    0.94889   0.97042    9.329
 4203.00    0.95865   0.97207    9.219
 4204.00    0.97318   0.97721    9.334
 4205.00    0.98509   0.98520    9.352
 4206.00    0.99174   0.99506    9.013
 4207.00    0.99444   1.00540    8.809
 4208.00    0.99646   1.01492    9.075
 4209.00    1.00109   1.02262    9.335
 4210.00    1.01079   1.02784    9.092
 4211.00    1.02636   1.03034    8.732
 4212.00    1.04453   1.03032    8.628
 4213.00    1.05743   1.02818    8.616
 4214.00    1.06251   1.02424    8.508
 4215.00    1.06753   1.01884    8.381
 4216.00    1.07720   1.01299    8.269
 4217.00    1.08631   1.00844    8.055
 4218.00    1.09109   1.00706    7.862
 4219.00    1.09437   1.00944    8.097
 4220.00    1.09667   1.01384    8.867
 4221.00    1.09368   1.01708    9.617
 4222.00    1.08609   1.01607    9.741
 4223.00    1.08121   1.00857    9.392
 4224.00    1.08102   0.99384    8.951
 4225.00    1.08049   0.97328    8.626
 4226.00    1.08026   0.95039    8.531
 4227.00    1.08665   0.93000    8.726
 4228.00    1.09654   0.91704    9.102
 4229.00    1.09780   0.91516    9.353
 4230.00    1.08550   0.92453    9.258
 4231.00    1.06306   0.94092    8.889
 4232.00    1.03246   0.95824    8.579
 4233.00    0.99627   0.97173    8.637
 4234.00    0.96805   0.97922    8.993
 4235.00    0.96505   0.98137    9.316
 4236.00    0.98791   0.98069    9.498
 4237.00    1.02347   0.97951    9.630
 4238.00    1.05839   0.97939    9.561
 4239.00    1.08315   0.98154    9.132
 4240.00    1.09421   0.98611    8.647
 4241.00    1.09362   0.99240    8.431
 4242.00    1.08760   0.99964    8.413
 4243.00    1.08225   1.00693    8.385
 4244.00    1.07813   1.01303    8.311
 4245.00    1.07056   1.01687    8.298
 4246.00    1.05156   1.01763    8.504
 4247.00    1.01760   1.01445   -2.000
 4248.00    0.97761   1.00725   -2.000
 4249.00    0.94858   0.99754   -2.000
 4250.00    0.94879   0.98760   -2.000
 4251.00    0.98271   0.97921   -2.000
 4252.00    1.02993   0.97338   -2.000
 4253.00    1.06076   0.97078   -2.000
 4254.00    1.05146   0.97100   -2.000
 4255.00    0.99731   0.97258   -2.000
 4256.00    0.91879   0.97475   -2.000
 4257.00    0.84441   0.97752   -2.000
 4258.00    0.79749   0.98027   -2.000
 4259.00    0.78709   0.98156   -2.000
 4260.00    0.80544   0.98063   -2.000
 4261.00    0.84087   0.97881   -2.000
 4262.00    0.88478   0.97865   -2.000
 4263.00    0.93227   0.98232    8.894
 4264.00    0.98101   0.99009    8.872
 4265.00    1.02612   0.99963    8.608
 4266.00    1.05985   1.00764    8.370
 4267.00    1.07854   1.01141    8.303
 4268.00    1.08392   1.00919    8.402
 4269.00    1.07848   1.00062    8.600
 4270.00    1.06337   0.98693    8.804
 4271.00    1.03679   0.97005    8.974
 4272.00    0.99703   0.95231    9.113
 4273.00    0.95117   0.93690    9.155
 4274.00    0.91130   0.92730    9.022
 4275.00    0.88017   0.92523    8.840
 4276.00    0.85322   0.93003    8.827
 4277.00    0.83021   0.94022    9.043
 4278.00    0.81473   0.95348    9.410
 4279.00    0.80839   0.96644    9.798
 4280.00    0.80977   0.97612   10.050
 4281.00    0.81485   0.98108   10.053
 4282.00    0.82258   0.98178    9.820
 4283.00    0.84240   0.97986    9.514
 4284.00    0.88082   0.97661    9.302
 4285.00    0.92257   0.97250    9.232
 4286.00    0.94814   0.96737    9.256
 4287.00    0.95765   0.96077    9.248
 4288.00    0.95762   0.95280    9.167
 4289.00    0.94434   0.94393    9.192
 4290.00    0.91755   0.93497    9.447
 4291.00    0.89425   0.92762    9.712
 4292.00    0.89154   0.92398    9.730
 4293.00    0.91074   0.92480    9.585
 4294.00    0.94491   0.92836    9.437
 4295.00    0.98572   0.93155    9.276
 4296.00    1.02151   0.93175    9.089
 4297.00    1.03740   0.92767    8.952
 4298.00    1.02792   0.91872    8.959
 4299.00    1.00290   0.90531    9.170
 4300.00    0.97273   0.88921    9.511
 4301.00    0.94069   0.87317    9.700
 4302.00    0.90945   0.86019    9.504
 4303.00    0.88368   0.85180    8.996
 4304.00    0.86468   0.84759    8.546
 4305.00    0.84993   0.84623    8.547
 4306.00    0.84224   0.84593    8.960
 4307.00    0.84947   0.84484    9.268
 4308.00    0.86916   0.84234    9.265
 4309.00    0.88795   0.83954    9.320
 4310.00    0.89917   0.83883    9.529
 4311.00    0.90653   0.84247    9.575
 4312.00    0.91652   0.85123    9.324
 4313.00    0.93366   0.86453    8.954
 4314.00    0.95451   0.88147    8.634
 4315.00    0.97081   0.90110    8.467
 4316.00    0.98069   0.92257    8.566
 4317.00    0.98666   0.94464    8.990
 4318.00    0.98556   0.96478    9.462
 4319.00    0.97147   0.97977    9.491
 4320.00    0.94563   0.98733    9.211
 4321.00    0.91571   0.98662    9.091
 4322.00    0.89112   0.97784    9.177
 4323.00    0.87917   0.96212    9.286
 4324.00    0.88057   0.94143    9.398
 4325.00    0.89310   0.91867    9.577
 4326.00    0.91733   0.89798    9.756
 4327.00    0.95382   0.88377    9.843
 4328.00    0.99842   0.87882    9.904
 4329.00    1.03979   0.88242    9.992
 4330.00    1.05867   0.89056    0.000
 4331.00    1.04257   0.89856    0.000
 4332.00    0.99985   0.90306    0.000
 4333.00    0.94975   0.90225    0.000
 4334.00    0.91097   0.89500    0.000
 4335.00    0.89202   0.88046    0.000
 4336.00    0.88580   0.85797    0.000
 4337.00    0.88200   0.82715    0.000
 4338.00    0.87693   0.78877    0.000
 4339.00    0.87424   0.74630    0.000
 4340.00    0.88324   0.70570    0.000
 4341.00    0.90811   0.67366    0.000
 4342.00    0.94182   0.65641    0.000
 4343.00    0.96838   0.65745    0.000
 4344.00    0.96823   0.67522    0.000
 4345.00    0.93724   0.70466    0.000
 4346.00    0.89244   0.74014    0.000
 4347.00    0.85771   0.77644    0.000
 4348.00    0.85319   0.80931    0.000
 4349.00    0.87977   0.83636    0.000
 4350.00    0.91830   0.85656    0.000
 4351.00    0.94659   0.86954    9.572
 4352.00    0.94970   0.87623    9.407
 4353.00    0.93183   0.87998    9.653
 4354.00    0.91225   0.88515    9.958
 4355.00    0.90449   0.89408   10.161
 4356.00    0.91171   0.90653   10.367
 4357.00    0.93014   0.92116   10.555
 4358.00    0.95208   0.93621   10.568
 4359.00    0.97041   0.94986   10.414
 4360.00    0.98115   0.96140   10.239
 4361.00    0.98614   0.97165   10.136
 4362.00    0.98980   0.98156   10.138
 4363.00    0.99264   0.99111   10.246
 4364.00    0.99429   0.99962   10.402
 4365.00    0.99960   1.00650   10.420
 4366.00    1.01233   1.01105   10.195
 4367.00    1.02558   1.01240    9.984
 4368.00    1.03110   1.01047   10.053
 4369.00    1.03230   1.00649   10.310
 4370.00    1.03556   1.00194   10.494
 4371.00    1.03907   0.99742   10.460
 4372.00    1.04009   0.99295   10.265
 4373.00    1.04257   0.98845   10.145
 4374.00    1.04807   0.98370   10.206
 4375.00    1.04802   0.97903   10.235
 4376.00    1.03680   0.97588   10.114
 4377.00    1.02162   0.97587   10.111
 4378.00    1.01016   0.97901   10.354
 4379.00    1.00152   0.98317   10.497
 4380.00    0.99257   0.98522   10.329
 4381.00    0.98205   0.98257   10.169
 4382.00    0.96737   0.97390   10.195
 4383.00    0.94414   0.95930   10.178
 4384.00    0.91506   0.94132   10.002
 4385.00    0.89168   0.92526    9.868
 4386.00    0.87986   0.91659    9.927
 4387.00    0.87531   0.91715   10.156
 4388.00    0.87551   0.92496   10.474
 4389.00    0.88277   0.93677   10.772
 4390.00    0.89577   0.94972   10.925
 4391.00    0.90880   0.96170   10.828
 4392.00    0.92073   0.97173   10.505
 4393.00    0.93537   0.97984   10.104
 4394.00    0.95248   0.98600    9.834
 4395.00    0.96648   0.99032    9.835
 4396.00    0.97069   0.99377    9.937
 4397.00    0.96086   0.99778    9.836
 4398.00    0.94046   1.00241    9.747
 4399.00    0.91943   1.00596   10.077
 4400.00    0.90844   1.00684   10.416
 4401.00    0.91425   1.00461    9.963
 4402.00    0.93349   1.00014    9.286
 4403.00    0.95525   0.99434    9.214
 4404.00    0.96817   0.98700    9.374
 4405.00    0.96574   0.97829    9.010
 4406.00    0.95250   0.97078    8.486
 4407.00    0.94064   0.96745    8.432
 4408.00    0.94336   0.96905    8.766
 4409.00    0.96817   0.97493    9.102
 4410.00    1.00988   0.98458    9.270
 4411.00    1.05639   0.99659    9.321
 4412.00    1.09652   1.00806    9.352
 4413.00    1.12137   1.01624    9.397
 4414.00    1.12506   1.01940    9.367
 4415.00    1.10633   1.01700    9.205
 4416.00    1.06977   1.01110    9.023
 4417.00    1.02400   1.00582    8.961
 4418.00    0.97982   1.00425    9.090
 4419.00    0.94822   1.00722    9.381
 4420.00    0.93844   1.01380    9.672
 4421.00    0.95340   1.02140    9.839
 4422.00    0.98746   1.02722    9.934
 4423.00    1.03082   1.03000    9.975
 4424.00    1.07319   1.03021    9.835
 4425.00    1.10802   1.02887    9.569
 4426.00    1.13328   1.02667    9.449
 4427.00    1.14445   1.02426    9.496
 4428.00    1.13341   1.02243    9.421
 4429.00    1.09913   1.02159    9.230
 4430.00    1.05093   1.02118    9.289
 4431.00    1.00263   1.02023    9.698
 4432.00    0.96702   1.01867   10.145
 4433.00    0.94550   1.01649   10.292
 4434.00    0.92932   1.01305   10.084
 4435.00    0.91456   1.00869    9.826
 4436.00    0.90493   1.00529    9.878
 4437.00    0.90582   1.00515   10.113
 4438.00    0.92208   1.00918   10.062
 4439.00    0.95674   1.01596    9.758
 4440.00    1.00698   1.02284    9.615
 4441.00    1.05641   1.02717    9.717
 4442.00    1.08485   1.02761    9.894
 4443.00    1.09092   1.02492   10.042
 4444.00    1.08669   1.02153   10.175
 4445.00    1.07979   1.02027   10.383
 4446.00    1.07375   1.02259   10.713
 4447.00    1.07364   1.02753   10.959
 4448.00    1.08127   1.03310   10.857
 4449.00    1.08773   1.03804   10.532
 4450.00    1.08335   1.04112   10.289
 4451.00    1.07166   1.04111   10.284
 4452.00    1.06159   1.03801   10.494
 4453.00    1.05637   1.03218   10.662
 4454.00    1.05314   1.02358   10.594
 4455.00    1.04428   1.01274   10.512
 4456.00    1.02290   1.00159   10.657
 4457.00    0.98771   0.99257   10.941
 4458.00    0.94242   0.98662   11.167
 4459.00    0.89462   0.98333   11.267
 4460.00    0.85466   0.98225   11.226
 4461.00    0.83388   0.98315    0.000
 4462.00    0.83833   0.98558    0.000
 4463.00    0.86499   0.98962    0.000
 4464.00    0.90500   0.99555    0.000
 4465.00    0.94678   1.00207    0.000
 4466.00    0.98084   1.00758    0.000
 4467.00    1.00207   1.01143    0.000
 4468.00    1.00821   1.01341    0.000
 4469.00    0.99959   1.01367    0.000
 4470.00    0.98187   1.01329    0.000
 4471.00    0.96552   1.01419    0.000
 4472.00    0.95913   1.01772    0.000
 4473.00    0.96600   1.02433    0.000
 4474.00    0.98235   1.03351    0.000
 4475.00    0.99908   1.04346    0.000
 4476.00    1.00940   1.05214    0.000
 4477.00    1.01101   1.05842    0.000
 4478.00    1.00529   1.06156    0.000
 4479.00    0.99673   1.06055    0.000
 4480.00    0.99188   1.05502    0.000
 4481.00    0.99685   1.04627    0.000
 4482.00    1.01220   1.03733   11.231
 4483.00    1.03338   1.03179   11.074
 4484.00    1.05406   1.03182   10.873
 4485.00    1.06886   1.03671   10.959
 4486.00    1.07688   1.04405   11.105
 4487.00    1.07896   1.05120   10.939
 4488.00    1.07263   1.05573   10.801
 4489.00    1.05830   1.05635   10.985
 4490.00    1.04856   1.05380   10.588
 4491.00    1.05116   1.05019    9.136
 4492.00    1.04684   1.04734    7.942
 4493.00    1.01403   1.04561    7.644
 4494.00    0.96126   1.04431    7.906
 4495.00    0.92264   1.04290    8.196
 4496.00    0.94468   1.04204    8.197
 4497.00    1.04064   1.04261    7.913
 4498.00    1.15456   1.04509    7.592
 4499.00    1.22373   1.04935    7.434
 4500.00    1.23373   1.05466    7.470
 4501.00    1.20306   1.06008    7.626
 4502.00    1.16407   1.06544    7.756
 4503.00    1.13620   1.07171    7.777
 4504.00    1.11200   1.07925    7.776
 4505.00    1.08239   1.08667    7.841
 4506.00    1.05302   1.09263    7.955
 4507.00    1.04255   1.09645    8.045
 4508.00    1.07337   1.09797    8.034
 4509.00    1.13310   1.09766    7.921
 4510.00    1.16986   1.09624    7.792
 4511.00    1.15776   1.09407    7.709
 4512.00    1.11680   1.09093    7.681
 4513.00    1.07171   1.08660    7.730
 4514.00    1.03687   1.08155    7.885
 4515.00    1.02488   1.07639    8.064
 4516.00    1.04337   1.07177    8.082
 4517.00    1.07499   1.06829    7.927
 4518.00    1.08452   1.06575    7.770
 4519.00    1.05759   1.06404    7.729
 4520.00    1.00472   1.06343    7.827
 4521.00    0.94238   1.06331    7.993
 4522.00    0.88911   1.06237    8.101
 4523.00    0.86815   1.05929    8.101
 4524.00    0.89285   1.05399    8.031
 4525.00    0.93690   1.04713    7.940
 4526.00    0.95534   1.03854    7.876
 4527.00    0.93436   1.02840    7.910
 4528.00    0.89085   1.01775    8.068
 4529.00    0.85528   1.00788    8.211
 4530.00    0.85225   1.00012    8.176
 4531.00    0.87717   0.99523    8.053
 4532.00    0.91292   0.99297    8.002
 4533.00    0.95580   0.99260    7.982
 4534.00    1.00350   0.99294    7.908
 4535.00    1.03844   0.99409    7.866
 4536.00    1.04833   0.99765    7.942
 4537.00    1.04826   1.00504    8.035
 4538.00    1.05579   1.01598    8.033
 4539.00    1.06689   1.02791    7.995
 4540.00    1.07862   1.03846    7.973
 4541.00    1.10553   1.04639    7.876
 4542.00    1.13664   1.05151    7.731
 4543.00    1.11332   1.05425    7.798
 4544.00    1.02327   1.05466    8.159
 4545.00    0.95075   1.05257    8.434
 4546.00    0.96262   1.04881    8.299
 4547.00    1.04071   1.04446    7.960
 4548.00    1.12558   1.03956    7.674
 4549.00    1.15514   1.03377    7.494
 4550.00    1.12101   1.02765    0.000
 4551.00    1.07923   1.02304    0.000
 4552.00    1.07137   1.02072    0.000
 4553.00    1.09212   1.01961    0.000
 4554.00    1.10907   1.01927    0.000
 4555.00    1.08602   1.02023    0.000
 4556.00    1.03337   1.02318    0.000
 4557.00    1.00375   1.02882    0.000
 4558.00    1.01849   1.03691    0.000
 4559.00    1.05471   1.04599    0.000
 4560.00    1.07979   1.05455    0.000
 4561.00    1.07000   1.06145    0.000
 4562.00    1.03009   1.06589    0.000
 4563.00    0.98807   1.06721    0.000
 4564.00    0.97068   1.06548    0.000
 4565.00    0.99053   1.06228    0.000
 4566.00    1.03251   1.05980    0.000
 4567.00    1.06743   1.05934    0.000
 4568.00    1.08270   1.06088    0.000
 4569.00    1.08339   1.06316    0.000
 4570.00    1.08336   1.06492    0.000
 4571.00    1.08886   1.06516    0.000
 4572.00    1.07828   1.06376    0.000
 4573.00    1.03444   1.06254    0.000
 4574.00    0.98960   1.06296    0.000
 4575.00    0.98633   1.06416    0.000
 4576.00    1.02434   1.06516    0.000
 4577.00    1.07769   1.06561    0.000
 4578.00    1.12102   1.06479    0.000
 4579.00    1.13453   1.06195    0.000
 4580.00    1.10755   1.05687    0.000
 4581.00    1.05046   1.05048    0.000
 4582.00    1.00023   1.04440    0.000
 4583.00    0.97992   1.03975    0.000
 4584.00    0.97142   1.03675    0.000
 4585.00    0.95564   1.03555    0.000
 4586.00    0.94001   1.03632    0.000
 4587.00    0.94026   1.03894    0.000
 4588.00    0.96514   1.04320    0.000
 4589.00    1.00360   1.04817    0.000
 4590.00    1.02503   1.05243    0.000
 4591.00    1.01635   1.05492    0.000
 4592.00    0.99518   1.05527    0.000
 4593.00    0.98016   1.05407    0.000
 4594.00    0.97880   1.05229    0.000
 4595.00    0.99585   1.05051    0.000
 4596.00    1.03318   1.04911    0.000
 4597.00    1.07586   1.04853    0.000
 4598.00    1.09760   1.04874    0.000
 4599.00    1.09500   1.04935    0.000
 4600.00    1.08711   1.04979    0.000
 4601.00    1.08054   1.04957    0.000
 4602.00    1.06865   1.04915    0.000
 4603.00    1.05708   1.04927    0.000
 4604.00    1.06163   1.05012    0.000
 4605.00    1.08701   1.05185    0.000
 4606.00    1.12499   1.05453    0.000
 4607.00    1.16192   1.05834    0.000
 4608.00    1.18619   1.06326    0.000
 4609.00    1.19888   1.06896    0.000
 4610.00    1.20567   1.07439    0.000
 4611.00    1.20020   1.07833    0.000
 4612.00    1.17096   1.08038    0.000
 4613.00    1.11631   1.08084    0.000
 4614.00    1.04898   1.08020    0.000
 4615.00    0.99747   1.07921    0.000
 4616.00    0.98383   1.07815    0.000
 4617.00    0.99756   1.07691    0.000
 4618.00    1.01452   1.07592    0.000
 4619.00    1.02174   1.07514    0.000
 4620.00    1.02265   1.07459    0.000
 4621.00    1.03722   1.07501    0.000
 4622.00    1.07869   1.07636    0.000
 4623.00    1.13417   1.07775    0.000
 4624.00    1.17915   1.07882    0.000
 4625.00    1.19242   1.07938    0.000
 4626.00    1.17073   1.07912    0.000
 4627.00    1.13587   1.07824    0.000
 4628.00    1.11615   1.07711    0.000
 4629.00    1.13068   1.07551    0.000
 4630.00    1.17138   1.07356    0.000
 4631.00    1.20088   1.07219    0.000
 4632.00    1.19392   1.07147    0.000
 4633.00    1.15557   1.07023    0.000
 4634.00    1.10269   1.06798    0.000
 4635.00    1.05401   1.06524    0.000
 4636.00    1.02740   1.06218    0.000
 4637.00    1.03390   1.05871    0.000
 4638.00    1.06006   1.05492    0.000
 4639.00    1.07439   1.05136    0.000
 4640.00    1.07020   1.04870    0.000
 4641.00    1.06556   1.04744    0.000
 4642.00    1.05979   1.04773    0.000
 4643.00    1.03377   1.04853    0.000
 4644.00    0.98593   1.04858    0.000
 4645.00    0.93630   1.04716    0.000
 4646.00    0.91198   1.04388    0.000
 4647.00    0.93154   1.03904    0.000
 4648.00    0.98063   1.03426    0.000
 4649.00    1.02617   1.03111    0.000
 4650.00    1.05331   1.03021    0.000
 4651.00    1.06659   1.03136    0.000
 4652.00    1.07876   1.03388    0.000
 4653.00    1.09704   1.03709    0.000
 4654.00    1.10638   1.04016    0.000
 4655.00    1.09320   1.04236    0.000
 4656.00    1.07961   1.04430    0.000
 4657.00    1.09144   1.04707    0.000
 4658.00    1.11491   1.05147    0.000
 4659.00    1.12275   1.05758    0.000
 4660.00    1.10839   1.06417    0.000
 4661.00    1.07394   1.06946    0.000
 4662.00    1.01626   1.07189    0.000
 4663.00    0.94532   1.07089    0.000
 4664.00    0.89765   1.06660    0.000
 4665.00    0.89861   1.05952    0.000
 4666.00    0.93387   1.05012    0.000
 4667.00    0.97584   1.03899    0.000
 4668.00    1.00544   1.02807    0.000
 4669.00    1.01683   1.02035    0.000
 4670.00    1.01733   1.01745    0.000
 4671.00    1.01334   1.01905    0.000
 4672.00    1.00361   1.02384    0.000
 4673.00    0.98780   1.03014    0.000
 4674.00    0.97102   1.03667    0.000
 4675.00    0.96246   1.04274    0.000
 4676.00    0.97127   1.04791    0.000
 4677.00    0.99283   1.05160    0.000
 4678.00    1.00894   1.05298    0.000
 4679.00    1.01027   1.05189    0.000
 4680.00    1.00148   1.04921    0.000
 4681.00    0.98908   1.04594    0.000
 4682.00    0.97719   1.04295    0.000
 4683.00    0.96813   1.04109    0.000
 4684.00    0.96326   1.04085    0.000
 4685.00    0.96470   1.04177    0.000
 4686.00    0.97633   1.04318    0.000
 4687.00    1.00494   1.04479    0.000
 4688.00    1.05289   1.04623    0.000
 4689.00    1.10247   1.04738    0.000
 4690.00    1.12755   1.04827    0.000
 4691.00    1.12236   1.04878    0.000
 4692.00    1.09753   1.04927    0.000
 4693.00    1.06317   1.05049    0.000
 4694.00    1.02421   1.05246    0.000
 4695.00    0.97849   1.05467    0.000
 4696.00    0.92728   1.05655    0.000
 4697.00    0.88913   1.05717    0.000
 4698.00    0.88245   1.05551    0.000
 4699.00    0.90204   1.05139    0.000
 4700.00    0.93037   1.04597    0.000
 4701.00    0.95441   1.04022    0.000
 4702.00    0.97293   1.03420    0.000
 4703.00    1.00000   1.02825    0.000
 4704.00    1.04251   1.02359    0.000
 4705.00    1.08198   1.02127    0.000
 4706.00    1.09729   1.02078    0.000
 4707.00    1.08447   1.02089    0.000
 4708.00    1.05310   1.02104    0.000
 4709.00    1.02093   1.02156    0.000
 4710.00    1.00350   1.02299    0.000
 4711.00    1.00730   1.02575    0.000
 4712.00    1.03016   1.02956    0.000
 4713.00    1.06291   1.03326    0.000
 4714.00    1.09560   1.03631    0.000
 4715.00    1.12022   1.03921    0.000
 4716.00    1.12793   1.04283    0.000
 4717.00    1.11070   1.04750    0.000
 4718.00    1.07468   1.05265    0.000
 4719.00    1.04110   1.05772    0.000
 4720.00    1.02745   1.06258    0.000
 4721.00    1.03774   1.06687    0.000
 4722.00    1.05487   1.06993    0.000
 4723.00    1.05309   1.07140    0.000
 4724.00    1.04225   1.07156    0.000
 4725.00    1.05834   1.07052    0.000
 4726.00    1.10065   1.06781    0.000
 4727.00    1.13043   1.06284    0.000
 4728.00    1.11166   1.05582    0.000
 4729.00    1.03388   1.04833    0.000
 4730.00    0.93769   1.04185    0.000
 4731.00    0.88471   1.03691    0.000
 4732.00    0.88880   1.03382    0.000
 4733.00    0.92381   1.03290    0.000
 4734.00    0.96188   1.03382    0.000
 4735.00    0.98655   1.03598    0.000
 4736.00    1.00183   1.03850    0.000
 4737.00    1.02325   1.04047    0.000
 4738.00    1.06256   1.04225    0.000
 4739.00    1.11645   1.04446    0.000
 4740.00    1.15687   1.04646    0.000
 4741.00    1.15710   1.04779    0.000
 4742.00    1.12230   1.04902    0.000
 4743.00    1.07970   1.05075    0.000
 4744.00    1.06252   1.05299    0.000
 4745.00    1.08404   1.05527    0.000
 4746.00    1.11888   1.05735    0.000
 4747.00    1.13824   1.05953    0.000
 4748.00    1.13890   1.06157    0.000
 4749.00    1.12804   1.06300    0.000
 4750.00    1.11071   1.06367    0.000
 4751.00    1.09393   1.06336    0.000
 4752.00    1.08752   1.06174    0.000
 4753.00    1.08917   1.05880    0.000
 4754.00    1.07982   1.05496    0.000
 4755.00    1.04857   1.05081    0.000
 4756.00    1.00416   1.04689    0.000
 4757.00    0.96320   1.04344    0.000
 4758.00    0.94104   1.04058    0.000
 4759.00    0.93917   1.03828    0.000
 4760.00    0.94597   1.03624    0.000
 4761.00    0.96014   1.03371    9.547
 4762.00    0.98902   1.02981    9.127
 4763.00    1.01138   1.02462    8.833
 4764.00    0.98950   1.01920    8.916
 4765.00    0.94537   1.01425    9.235
 4766.00    0.94543   1.01010    9.327
 4767.00    0.99289   1.00756    9.147
 4768.00    1.03471   1.00723    9.055
 4769.00    1.05429   1.00902    9.094
 4770.00    1.07234   1.01233    9.060
 4771.00    1.09618   1.01601    8.969
 4772.00    1.11453   1.01919    8.978
 4773.00    1.11092   1.02229    9.024
 4774.00    1.07631   1.02591    8.965
 4775.00    1.02597   1.02962    8.948
 4776.00    0.98868   1.03255    9.168
 4777.00    0.98429   1.03456    9.399
 4778.00    1.01454   1.03588    9.301
 4779.00    1.05666   1.03622    9.093
 4780.00    1.08570   1.03530    9.116
 4781.00    1.10350   1.03337    9.246
 4782.00    1.12384   1.03067    9.218
 4783.00    1.15057   1.02732    9.081
 4784.00    1.17410   1.02389    8.981
 4785.00    1.17276   1.02110    8.897
 4786.00    1.13969   1.01882    8.828
 4787.00    1.10391   1.01680    8.938
 4788.00    1.09306   1.01570    9.256
 4789.00    1.10201   1.01568    9.424
 4790.00    1.10724   1.01667    9.247
 4791.00    1.08295   1.01919    9.121
 4792.00    1.02405   1.02309    9.301
 4793.00    0.95699   1.02794    9.538
 4794.00    0.91336   1.03368    9.573
 4795.00    0.91185   1.03950    9.485
 4796.00    0.95161   1.04407    9.387
 4797.00    1.01241   1.04675    9.269
 4798.00    1.07060   1.04737    9.162
 4799.00    1.10972   1.04615    9.168
 4800.00    1.13086   1.04395    9.258
 4801.00    1.14880   1.04188    9.269
 4802.00    1.15988   1.04056    9.243
 4803.00    1.14242   1.03987    9.421
 4804.00    1.10281   1.03920    9.723
 4805.00    1.07503   1.03801    9.730
 4806.00    1.06780   1.03645    9.479
 4807.00    1.05945   1.03497    9.419
 4808.00    1.03188   1.03340    9.616
 4809.00    0.98589   1.03197    9.764
 4810.00    0.95317   1.03121    9.711
 4811.00    0.97187   1.03123    9.557
 4812.00    1.02646   1.03197    9.476
 4813.00    1.06365   1.03335    9.583
 4814.00    1.05244   1.03511    9.792
 4815.00    0.99755   1.03718    9.910
 4816.00    0.93966   1.03946    9.900
 4817.00    0.92600   1.04164    9.856
 4818.00    0.96372   1.04342    9.831
 4819.00    1.02723   1.04447    9.817
 4820.00    1.08104   1.04451    9.763
 4821.00    1.09743   1.04323    9.663
 4822.00    1.07461   1.04045    9.638
 4823.00    1.03064   1.03599    9.751
 4824.00    0.99203   1.03037    9.803
 4825.00    0.97562   1.02531    9.644
 4826.00    0.97269   1.02183    9.509
 4827.00    0.96996   1.01928    9.632
 4828.00    0.97003   1.01697    9.929
 4829.00    0.98275   1.01487   10.177
 4830.00    1.01503   1.01334   10.220
 4831.00    1.06198   1.01230   10.069
 4832.00    1.10317   1.01098    9.904
 4833.00    1.12055   1.00941    9.814
 4834.00    1.11059   1.00852    9.697
 4835.00    1.08018   1.00827    9.563
 4836.00    1.04321   1.00796    9.636
 4837.00    1.01835   1.00718    9.973
 4838.00    1.02295   1.00569   10.295
 4839.00    1.04967   1.00314   10.323
 4840.00    1.06412   0.99955   10.067
 4841.00    1.04640   0.99551    9.789
 4842.00    1.00585   0.99164    9.781
 4843.00    0.96413   0.98804    9.968
 4844.00    0.94267   0.98478    9.938
 4845.00    0.94466   0.98243    9.687
 4846.00    0.95520   0.98091    9.629
 4847.00    0.96215   0.97913    9.788
 4848.00    0.96053   0.97605    0.000
 4849.00    0.94524   0.97151    0.000
 4850.00    0.91444   0.96622    0.000
 4851.00    0.88304   0.96010    0.000
 4852.00    0.87385   0.95210    0.000
 4853.00    0.88998   0.94193    0.000
 4854.00    0.91665   0.92943    0.000
 4855.00    0.93815   0.91387    0.000
 4856.00    0.94437   0.89516    0.000
 4857.00    0.93588   0.87408    0.000
 4858.00    0.92399   0.85070    0.000
 4859.00    0.92872   0.82435    0.000
 4860.00    0.96967   0.79537    0.000
 4861.00    1.05269   0.76644    0.000
 4862.00    1.16265   0.74322    0.000
 4863.00    1.25831   0.73110    0.000
 4864.00    1.29713   0.73064    0.000
 4865.00    1.26569   0.73966    0.000
 4866.00    1.17994   0.75671    0.000
 4867.00    1.07901   0.77980    0.000
 4868.00    0.99730   0.80578    0.000
 4869.00    0.93966   0.83078    0.000
 4870.00    0.89648   0.85136    0.000
 4871.00    0.85912   0.86616    0.000
 4872.00    0.82300   0.87678    0.000
 4873.00    0.78944   0.88625    0.000
 4874.00    0.76796   0.89621    0.000
 4875.00    0.77461   0.90637    9.246
 4876.00    0.81167   0.91655    9.227
 4877.00    0.85886   0.92724    9.350
 4878.00    0.89588   0.93851    9.608
 4879.00    0.91549   0.94970    9.778
 4880.00    0.92246   0.95965    9.741
 4881.00    0.92864   0.96691    9.647
 4882.00    0.93513   0.97138    9.637
 4883.00    0.93038   0.97429    9.728
 4884.00    0.91472   0.97597    9.844
 4885.00    0.90278   0.97584    9.865
 4886.00    0.89588   0.97382    9.769
 4887.00    0.88056   0.97099    9.665
 4888.00    0.85654   0.96871    9.695
 4889.00    0.83953   0.96704    9.937
 4890.00    0.84259   0.96535   10.210
 4891.00    0.86901   0.96405   10.179
 4892.00    0.90908   0.96547    9.991
 4893.00    0.94744   0.97172   10.048
 4894.00    0.98135   0.98185   10.200
 4895.00    1.01513   0.99367   10.011
 4896.00    1.04020   1.00588    9.718
 4897.00    1.04396   1.01746    9.804
 4898.00    1.03328   1.02741   10.085
 4899.00    1.02504   1.03399   10.059
 4900.00    1.02308   1.03619    9.867
 4901.00    1.02090   1.03541    9.907
 4902.00    1.01154   1.03330   10.066
 4903.00    0.99244   1.03033   10.038
 4904.00    0.96960   1.02725    9.897
 4905.00    0.95308   1.02540    9.846
 4906.00    0.95060   1.02536    9.837
 4907.00    0.96314   1.02605    9.798
 4908.00    0.98164   1.02585    9.890
 4909.00    0.99514   1.02434   10.194
 4910.00    0.99878   1.02213   10.387
 4911.00    0.99216   1.02007   10.227
 4912.00    0.97719   1.01877   10.030
 4913.00    0.95755   1.01813   10.079
 4914.00    0.93838   1.01784   10.252
 4915.00    0.92545   1.01774   10.356
 4916.00    0.92391   1.01718   10.385
 4917.00    0.93401   1.01471   10.412
 4918.00    0.94939   1.00861   10.492
 4919.00    0.96253   0.99845   10.629
 4920.00    0.96856   0.98613   10.762
 4921.00    0.96757   0.97462   10.832
 4922.00    0.96412   0.96648   10.815
 4923.00    0.96051   0.96263   10.737
 4924.00    0.95553   0.96267   10.654
 4925.00    0.95262   0.96691   10.592
 4926.00    0.96159   0.97600   10.530
 4927.00    0.99235   0.98873   10.418
 4928.00    1.04871   1.00209   10.232
 4929.00    1.11648   1.01377   10.095
 4930.00    1.16770   1.02306   10.187
 4931.00    1.18414   1.02973   10.421
 4932.00    1.16657   1.03312   10.497
 4933.00    1.13955   1.03210   10.388
 4934.00    1.13488   1.02733   10.332
 4935.00    1.15106   1.02159   10.414
 4936.00    1.16045   1.01626   10.556
 4937.00    1.14467   1.01080   10.648
 4938.00    1.10383   1.00505   10.627
 4939.00    1.05889   1.00033   10.586
 4940.00    1.03658   0.99915    0.000
 4941.00    1.04380   1.00211    0.000
 4942.00    1.06902   1.00697    0.000
 4943.00    1.09185   1.01237    0.000
 4944.00    1.09785   1.01888    0.000
 4945.00    1.09560   1.02618    0.000
 4946.00    1.10099   1.03298    0.000
 4947.00    1.11563   1.03857    0.000
 4948.00    1.13197   1.04302    0.000
 4949.00    1.14198   1.04664    0.000
 4950.00    1.14036   1.04914    0.000
 4951.00    1.12691   1.05022    0.000
 4952.00    1.10698   1.04977    0.000
 4953.00    1.09118   1.04728    0.000
 4954.00    1.09057   1.04229    0.000
 4955.00    1.11171   1.03487    0.000
 4956.00    1.14863   1.02508    0.000
 4957.00    1.18036   1.01295    0.000
 4958.00    1.19166   1.00075    0.000
 4959.00    1.18504   0.99290    0.000
 4960.00    1.17130   0.99063    0.000
 4961.00    1.16268   0.99148    0.000
 4962.00    1.16849   0.99373    0.000
 4963.00    1.19052   0.99752    0.000
 4964.00    1.21254   1.00284    0.000
 4965.00    1.20413   1.00715    0.000
 4966.00    1.15608   1.00816    0.000
 4967.00    1.08932   1.00694    0.000
 4968.00    1.03250   1.00527    0.000
 4969.00    1.00809   1.00402    0.000
 4970.00    1.01615   1.00363    0.000
 4971.00    1.03705   1.00457    0.000
 4972.00    1.05521   1.00730    0.000
 4973.00    1.06390   1.01115    0.000
 4974.00    1.05880   1.01500    0.000
 4975.00    1.03844   1.01828    0.000
 4976.00    1.00945   1.02016    0.000
 4977.00    0.98155   1.01994    0.000
 4978.00    0.95468   1.01700    0.000
 4979.00    0.92519   1.01130    0.000
 4980.00    0.90216   1.00377    0.000
 4981.00    0.89710   0.99481    0.000
 4982.00    0.90180   0.98450    0.000
 4983.00    0.90156   0.97427    0.000
 4984.00    0.90035   0.96654    0.000
 4985.00    0.91029   0.96270    0.000
 4986.00    0.93214   0.96240    0.000
 4987.00    0.96009   0.96502    0.000
 4988.00    0.99048   0.97000    0.000
 4989.00    1.01748   0.97610    0.000
 4990.00    1.02827   0.98191    0.000
 4991.00    1.01653   0.98662    0.000
 4992.00    0.99531   0.99039    0.000
 4993.00    0.98512   0.99323    0.000
 4994.00    1.00119   0.99453    0.000
 4995.00    1.04511   0.99506    0.000
 4996.00    1.10027   0.99571    0.000
 4997.00    1.14296   0.99600    0.000
 4998.00    1.15293   0.99511    0.000
 4999.00    1.12755   0.99226    0.000
 5000.00    1.08673   0.98764    0.000
 5001.00    1.05002   0.98223    0.000
 5002.00    1.02414   0.97657    0.000
 5003.00    1.01015   0.97121    0.000
 5004.00    1.00888   0.96645    0.000
 5005.00    1.02644   0.96203    0.000
 5006.00    1.07279   0.95812    0.000
 5007.00    1.14554   0.95576    0.000
 5008.00    1.22507   0.95568    0.000
 5009.00    1.28217   0.95681    0.000
 5010.00    1.28787   0.95732    0.000
 5011.00    1.23506   0.95664    0.000
 5012.00    1.14094   0.95502    0.000
 5013.00    1.03182   0.95224    0.000
 5014.00    0.93566   0.94802    0.000
 5015.00    0.87491   0.94315    0.000
 5016.00    0.86048   0.93914    0.000
 5017.00    0.88275   0.93636    0.000
 5018.00    0.91663   0.93466    0.000
 5019.00    0.93733   0.93501    0.000
 5020.00    0.93040   0.93811    0.000
 5021.00    0.90346   0.94277    0.000
 5022.00    0.87736   0.94691    0.000
 5023.00    0.86696   0.95047    0.000
 5024.00    0.87933   0.95488    0.000
 5025.00    0.91601   0.95996    0.000
 5026.00    0.97034   0.96419    0.000
 5027.00    1.02405   0.96710    0.000
 5028.00    1.05839   0.96985    0.000
 5029.00    1.06839   0.97381   10.683
 5030.00    1.05863   0.97835   10.460
 5031.00    1.03650   0.98217   10.178
 5032.00    1.01110   0.98530   10.177
 5033.00    0.99253   0.98821   10.294
 5034.00    0.98918   0.99009   10.288
 5035.00    1.00461   0.98884   10.234
 5036.00    1.03276   0.98378   10.262
 5037.00    1.05602   0.97684   10.339
 5038.00    1.06005   0.96924   10.399
 5039.00    1.04366   0.96021   10.456
 5040.00    1.01104   0.94979   10.559
 5041.00    0.96657   0.94037   10.754
 5042.00    0.91758   0.93545   11.069
 5043.00    0.87618   0.93613   11.489
 5044.00    0.85902   0.94039   11.863
 5045.00    0.88264   0.94672   11.896
 5046.00    0.94232   0.95501   11.547
 5047.00    1.00779   0.96418   11.126
 5048.00    1.04788   0.97142   10.888
 5049.00    1.04430   0.97482   10.912
 5050.00    1.00191   0.97521   11.059
 5051.00    0.94491   0.97421   11.050
 5052.00    0.89139   0.97259   10.917
 5053.00    0.84888   0.97162   10.943
 5054.00    0.82775   0.97275   11.046
 5055.00    0.83858   0.97607   10.865
 5056.00    0.87406   0.98075   10.536
 5057.00    0.91261   0.98609   10.511
 5058.00    0.93944   0.99179   10.839
 5059.00    0.95129   0.99677   11.227
 5060.00    0.95499   0.99993   11.437
 5061.00    0.96280   1.00139   11.407
 5062.00    0.98369   1.00146   11.225
 5063.00    1.01776   0.99960   11.018
 5064.00    1.04997   0.99493   10.816
 5065.00    1.06049   0.98828   10.639
 5066.00    1.04286   0.98201   10.632
 5067.00    1.00909   0.97692   10.881
 5068.00    0.99077   0.97200   11.130
 5069.00    1.00949   0.96761   11.073
 5070.00    1.04158   0.96559   10.871
 5071.00    1.04984   0.96587   10.826
 5072.00    1.02423   0.96614   10.975
 5073.00    0.97760   0.96590   11.129
 5074.00    0.93508   0.96633   10.972
 5075.00    0.91686   0.96664   10.511
 5076.00    0.92390   0.96528   10.274
 5077.00    0.94527   0.96277   10.534
 5078.00    0.96643   0.95996   10.925
 5079.00    0.97761   0.95565   11.054
 5080.00    0.97863   0.94958   11.082
 5081.00    0.97087   0.94439   11.222
 5082.00    0.95252   0.94157   11.366
 5083.00    0.92278   0.94000   11.441
 5084.00    0.88547   0.93952   11.604
 5085.00    0.85257   0.94203   11.916
 5086.00    0.84273   0.94768   12.179
 5087.00    0.86513   0.95406   12.151
 5088.00    0.91348   0.95989   11.772
 5089.00    0.97448   0.96571   11.333
 5090.00    1.03281   0.97139   11.244
 5091.00    1.07560   0.97587   11.449
 5092.00    1.09423   0.97911   11.458
 5093.00    1.08469   0.98172   11.234
 5094.00    1.05055   0.98325   11.208
 5095.00    1.01117   0.98257   11.367
 5096.00    0.99291   0.97980   11.294
 5097.00    0.99873   0.97589   11.024
 5098.00    1.01007   0.97097   10.953
 5099.00    1.01258   0.96491   11.122
 5100.00    1.00143   0.95919   11.276
 5101.00    0.97834   0.95568   11.295
 5102.00    0.95022   0.95421   11.241
 5103.00    0.92760   0.95336   11.190
 5104.00    0.91815   0.95287   11.168
 5105.00    0.91628   0.95318   11.114
 5106.00    0.91172   0.95342   10.986
 5107.00    0.90550   0.95229   10.912
 5108.00    0.90347   0.95017   11.000
 5109.00    0.90357   0.94845   11.056
 5110.00    0.90063   0.94763   10.879
 5111.00    0.89479   0.94785   10.677
 5112.00    0.89157   0.94967   10.683
 5113.00    0.89988   0.95332   10.754
 5114.00    0.92089   0.95814   10.683
 5115.00    0.93885   0.96337   10.550
 5116.00    0.94236   0.96877   10.492
 5117.00    0.94267   0.97382   10.489
 5118.00    0.95173   0.97753   10.529
 5119.00    0.96429   0.97922   10.711
 5120.00    0.97440   0.97839   11.005
 5121.00    0.98623   0.97522   11.078
 5122.00    0.99668   0.97031   10.799
 5123.00    0.98799   0.96355   10.525
 5124.00    0.95860   0.95528   10.510
 5125.00    0.93568   0.94715   10.685
 5126.00    0.93820   0.94058   10.898
 5127.00    0.95901   0.93564   11.028
 5128.00    0.97938   0.93200   11.024
 5129.00    0.97993   0.93015   10.919
 5130.00    0.95412   0.93061   10.791
 5131.00    0.91117   0.93304   10.734
 5132.00    0.86422   0.93657   10.828
 5133.00    0.82508   0.94028   11.111
 5134.00    0.80285   0.94379   11.464
 5135.00    0.80264   0.94736   11.633
 5136.00    0.82335   0.95049   11.606
 5137.00    0.85776   0.95156   11.619
 5138.00    0.89469   0.95015   11.763
 5139.00    0.92221   0.94736   11.944
 5140.00    0.93382   0.94461   12.074
 5141.00    0.93011   0.94198   12.112
 5142.00    0.91910   0.93857   12.042
 5143.00    0.91441   0.93491   11.899
 5144.00    0.93137   0.93291   11.800
 5145.00    0.97581   0.93308   11.834
 5146.00    1.02669   0.93299   11.862
 5147.00    1.05422   0.93143   11.714
 5148.00    1.05339   0.93070   11.530
 5149.00    1.03715   0.93138   11.539
 5150.00    1.01834   0.93127   11.700
 5151.00    1.00274   0.92980   11.864
 5152.00    0.98449   0.92850   12.017
 5153.00    0.95941   0.92841   12.160
 5154.00    0.93979   0.92930   12.134
 5155.00    0.93705   0.93085   11.885
 5156.00    0.94323   0.93407   11.706
 5157.00    0.94635   0.93949   11.801
 5158.00    0.94595   0.94591   11.981
 5159.00    0.94566   0.95199   12.006
 5160.00    0.94590   0.95729   11.917
 5161.00    0.94452   0.96085   11.829
 5162.00    0.93865   0.96059   11.748
 5163.00    0.93013   0.95543   11.646
 5164.00    0.92683   0.94599   11.520
 5165.00    0.92806   0.93272   11.409
 5166.00    0.91914   0.91474   11.389
 5167.00    0.89251   0.89244   11.479
 5168.00    0.85699   0.86939   11.601
 5169.00    0.82460   0.84949   11.635
 5170.00    0.80287   0.83384   11.493
 5171.00    0.79174   0.82117   11.242
 5172.00    0.78483   0.81108   11.080
 5173.00    0.77922   0.80710   11.093
 5174.00    0.77802   0.81239   11.213
 5175.00    0.78518   0.82406   11.295
 5176.00    0.80182   0.83632   11.200
 5177.00    0.82101   0.84828   11.019
 5178.00    0.83022   0.86225   10.981
 5179.00    0.82267   0.87589   11.077
 5180.00    0.80163   0.88371   11.116
 5181.00    0.78211   0.88441   11.099
 5182.00    0.78276   0.87959   11.162
 5183.00    0.80675   0.87021   11.197
 5184.00    0.84115   0.85931   11.004
 5185.00    0.86510   0.85278   10.747
 5186.00    0.86150   0.85285   10.713
 5187.00    0.83461   0.85672   10.846
 5188.00    0.80400   0.86311   10.912
 5189.00    0.78896   0.87450   10.893
 5190.00    0.79799   0.88997    0.000
 5191.00    0.81824   0.90273    0.000
 5192.00    0.83099   0.90933    0.000
 5193.00    0.83340   0.91284    0.000
 5194.00    0.83108   0.91679    0.000
 5195.00    0.82624   0.92024    0.000
 5196.00    0.82085   0.92187    0.000
 5197.00    0.82124   0.92444    0.000
 5198.00    0.83668   0.92990    0.000
 5199.00    0.87627   0.93613    0.000
 5200.00    0.93702   0.94085    0.000
 5201.00    0.99655   0.94383    0.000
 5202.00    1.03438   0.94454    0.000
 5203.00    1.04798   0.94221    0.000
 5204.00    1.04451   0.93654    0.000
 5205.00    1.03318   0.92744    0.000
 5206.00    1.01775   0.91664    0.000
 5207.00    0.99464   0.90677    0.000
 5208.00    0.96708   0.89859    0.000
 5209.00    0.94963   0.89239    0.000
 5210.00    0.95037   0.89048    0.000
 5211.00    0.96329   0.89433   11.872
 5212.00    0.97522   0.90241   11.730
 5213.00    0.97316   0.91251   11.536
 5214.00    0.95961   0.92412   11.419
 5215.00    0.95105   0.93563   11.195
 5216.00    0.95133   0.94540   10.910
 5217.00    0.94792   0.95357   10.799
 5218.00    0.93128   0.96052   10.730
 5219.00    0.90228   0.96574   10.346
 5220.00    0.87420   0.96905    9.838
 5221.00    0.86606   0.97140    9.629
 5222.00    0.88428   0.97271    9.559
 5223.00    0.91764   0.97160    9.204
 5224.00    0.93737   0.96729    8.784
 5225.00    0.91710   0.96041    8.733
 5226.00    0.87203   0.95172    8.895
 5227.00    0.84264   0.94254    8.822
 5228.00    0.84978   0.93556    8.598
 5229.00    0.88875   0.93242    8.555
 5230.00    0.93465   0.93224    8.638
 5231.00    0.96434   0.93443    8.634
 5232.00    0.98578   0.93922    8.623
 5233.00    1.01402   0.94546    8.777
 5234.00    1.03523   0.95124    9.023
 5235.00    1.03027   0.95647    9.171
 5236.00    1.00722   0.96194    9.185
 5237.00    0.98577   0.96727    9.159
 5238.00    0.97630   0.97253    9.215
 5239.00    0.98034   0.97831    9.392
 5240.00    0.99333   0.98423    9.559
 5241.00    1.00737   0.98957    9.569
 5242.00    1.01431   0.99321    9.441
 5243.00    1.01351   0.99461    9.299
 5244.00    1.01489   0.99470    9.279
 5245.00    1.01865   0.99401    9.404
 5246.00    1.00596   0.99111    9.538
 5247.00    0.97298   0.98546    9.595
 5248.00    0.94673   0.97954    9.664
 5249.00    0.95058   0.97489    9.739
 5250.00    0.98410   0.96967    9.642
 5251.00    1.02512   0.96364    9.465
 5252.00    1.03948   0.96009    9.598
 5253.00    1.01732   0.96023   10.036
 5254.00    0.98127   0.96146   10.200
 5255.00    0.95190   0.96267    9.957
 5256.00    0.93612   0.96587    9.875
 5257.00    0.93814   0.97123   10.129
 5258.00    0.95931   0.97593   10.381
 5259.00    0.98468   0.97808   10.466
 5260.00    0.98852   0.97788   10.560
 5261.00    0.96291   0.97517   10.763
 5262.00    0.92066   0.96837   11.004
 5263.00    0.88060   0.95751   11.186
 5264.00    0.85930   0.94412   11.252
 5265.00    0.86157   0.92907   11.261
 5266.00    0.88124   0.91352   11.325
 5267.00    0.90751   0.90052   11.452
 5268.00    0.92878   0.89133   11.573
 5269.00    0.93704   0.88346   11.649
 5270.00    0.93135   0.87720   11.668
 5271.00    0.92162   0.87696   11.605
 5272.00    0.91971   0.88289   11.474
 5273.00    0.92555   0.89001   11.408
 5274.00    0.93307   0.89767   11.495
 5275.00    0.94065   0.90901   11.572
 5276.00    0.94795   0.92310   11.477
 5277.00    0.95055   0.93650   11.382
 5278.00    0.94500   0.94810   11.463
 5279.00    0.93459   0.95766   11.553
 5280.00    0.92667   0.96456   11.445
 5281.00    0.92918   0.96936   11.226
 5282.00    0.94798   0.97252   11.015
 5283.00    0.98432   0.97347   10.760
 5284.00    1.03186   0.97306   10.484
 5285.00    1.07562   0.97395   10.400
 5286.00    1.10189   0.97739   10.544
 5287.00    1.10522   0.98209   10.595
 5288.00    1.08778   0.98719   10.410
 5289.00    1.05785   0.99332   10.289
 5290.00    1.02582   1.00016   10.371
 5291.00    1.00046   1.00541   10.415
 5292.00    0.98189   1.00757   10.301
 5293.00    0.96180   1.00707   10.224
 5294.00    0.94044   1.00484   10.307
 5295.00    0.92936   1.00078   10.475
 5296.00    0.93034   0.99419   10.593
 5297.00    0.93081   0.98529   10.558
 5298.00    0.92010   0.97612   10.455
 5299.00    0.89642   0.96915   10.492
 5300.00    0.86879   0.96472   10.667
 5301.00    0.85421   0.96180   10.779
 5302.00    0.86776   0.96122   10.803
 5303.00    0.91405   0.96488   10.892
 5304.00    0.97358   0.97200   10.978
 5305.00    1.01338   0.97961   10.864
 5306.00    1.01994   0.98635   10.689
 5307.00    1.00228   0.99276   10.762
 5308.00    0.98123   0.99890   11.080
 5309.00    0.97780   1.00396   11.388
 5310.00    0.99628   1.00720   11.478
 5311.00    1.02824   1.00877   11.322
 5312.00    1.06472   1.00934   11.098
 5313.00    1.09449   1.00925   11.009
 5314.00    1.09929   1.00836   11.079
 5315.00    1.06933   1.00650   11.231
 5316.00    1.02408   1.00356   11.386
 5317.00    0.99144   1.00011   11.511
 5318.00    0.97928   0.99726   11.646
 5319.00    0.98121   0.99477   11.817
 5320.00    0.98719   0.99148   11.925
 5321.00    0.98920   0.98771   11.858
 5322.00    0.98535   0.98430   11.639
 5323.00    0.97633   0.97983   11.430
 5324.00    0.96263   0.97254   -2.000
 5325.00    0.95098   0.96391   -2.000
 5326.00    0.95744   0.95583   -2.000
 5327.00    0.99001   0.94671   -2.000
 5328.00    1.03793   0.93546   -2.000
 5329.00    1.08513   0.92658   -2.000
 5330.00    1.11824   0.92402   -2.000
 5331.00    1.11890   0.92512   -2.000
 5332.00    1.06697   0.92717   -2.000
 5333.00    0.98093   0.93270   -2.000
 5334.00    0.92280   0.94331   -2.000
 5335.00    0.92270   0.95487   -2.000
 5336.00    0.95569   0.96309   -2.000
 5337.00    0.99531   0.96833   -2.000
 5338.00    1.03250   0.97248   -2.000
 5339.00    1.05891   0.97460   10.240
 5340.00    1.06379   0.97302   10.297
 5341.00    1.04509   0.96956   10.134
 5342.00    1.01102   0.96743   10.117
 5343.00    0.97299   0.96656   10.307
 5344.00    0.94100   0.96545   10.464
 5345.00    0.91740   0.96478   10.531
 5346.00    0.89799   0.96588   10.650
 5347.00    0.87878   0.96821   10.788
 5348.00    0.86031   0.97011   10.787
 5349.00    0.85260   0.97101   10.727
 5350.00    0.86559   0.97254   10.786
 5351.00    0.88961   0.97617   10.853
 5352.00    0.90832   0.98068   10.728
 5353.00    0.92674   0.98496   10.596
 5354.00    0.96030   0.99038   10.730
 5355.00    1.01080   0.99756   10.984
 5356.00    1.06577   1.00443   11.029
 5357.00    1.10391   1.00953   10.874
 5358.00    1.11016   1.01353   10.739
 5359.00    1.09255   1.01661   10.775
 5360.00    1.07075   1.01767   11.015
 5361.00    1.06028   1.01610   11.350
 5362.00    1.06437   1.01255   11.623
 5363.00    1.06932   1.00794   11.769
 5364.00    1.06281   1.00238   11.825
 5365.00    1.04954   0.99561   11.885
 5366.00    1.03939   0.98830   11.959
 5367.00    1.03674   0.98135   11.892
 5368.00    1.04067   0.97474   11.681
 5369.00    1.04617   0.96816   11.609
 5370.00    1.04703   0.96178   11.794
 5371.00    1.03785   0.95618   11.987
 5372.00    1.01506   0.95288   12.042
 5373.00    0.97909   0.95284   12.153
 5374.00    0.94279   0.95526   12.316
 5375.00    0.92977   0.95965   12.170
 5376.00    0.94571   0.96650   11.754
 5377.00    0.97126   0.97493   11.579
 5378.00    0.98941   0.98275   11.741
 5379.00    0.99688   0.98868   11.834
 5380.00    1.00128   0.99240   11.704
 5381.00    1.01382   0.99418   11.605
 5382.00    1.02965   0.99462   11.619
 5383.00    1.03202   0.99384   11.589
 5384.00    1.02441   0.99228   11.459
 5385.00    1.02724   0.99111   11.300
 5386.00    1.04294   0.99047   11.110
 5387.00    1.05250   0.98959   10.864
 5388.00    1.03130   0.98859   10.736
 5389.00    0.97001   0.98739   10.917
 5390.00    0.90894   0.98516   11.180
 5391.00    0.90533   0.98190   11.103
 5392.00    0.95717   0.97786   10.849
 5393.00    1.01635   0.97270   10.838
 5394.00    1.03848   0.96698   11.011
 5395.00    1.00586   0.96206   11.076
 5396.00    0.94735   0.95734   11.067
 5397.00    0.90745   0.95216   11.177
 5398.00    0.89937   0.94873   11.387
 5399.00    0.91426   0.94819   11.534
 5400.00    0.94091   0.94784   11.506
 5401.00    0.96746   0.94667   11.352
 5402.00    0.98124   0.94701   11.322
 5403.00    0.97684   0.94791   11.526
 5404.00    0.96324   0.94607   11.645
 5405.00    0.95254   0.94177   11.489
 5406.00    0.94910   0.93764   11.497
 5407.00    0.94945   0.93434   11.898
 5408.00    0.94446   0.93153   12.093
 5409.00    0.92991   0.92944   11.739
 5410.00    0.91278   0.92941   11.532
 5411.00    0.90121   0.93284   11.824
 5412.00    0.89762   0.93885   12.040
 5413.00    0.89949   0.94519   11.844
 5414.00    0.90155   0.95152   11.788
 5415.00    0.90338   0.95889   12.125
 5416.00    0.91134   0.96674   12.390
 5417.00    0.92818   0.97351   12.356
 5418.00    0.94988   0.97849   12.431
 5419.00    0.97375   0.98209   12.731
 5420.00    1.00005   0.98458   12.837
 5421.00    1.02485   0.98586   12.597
 5422.00    1.03919   0.98611   12.322
 5423.00    1.03595   0.98522   12.173
 5424.00    1.01394   0.98305   12.067
 5425.00    0.98253   0.98065   11.938
 5426.00    0.95771   0.97886   11.786
 5427.00    0.94800   0.97685   11.651
 5428.00    0.95233   0.97356   11.564
 5429.00    0.96467   0.96899   11.487
 5430.00    0.97786   0.96434   11.346
 5431.00    0.98913   0.96062   11.156
 5432.00    0.99493   0.95642   11.010
 5433.00    0.97938   0.95091   11.018
 5434.00    0.93230   0.94703   -2.000
 5435.00    0.88298   0.94662   -2.000
 5436.00    0.86657   0.94788   -2.000
 5437.00    0.86408   0.95032   -2.000
 5438.00    0.83677   0.95517   -2.000
 5439.00    0.78938   0.96220   -2.000
 5440.00    0.79151   0.96998   -2.000
 5441.00    0.97984   0.97731   -2.000
 5442.00    1.37680   0.98317   -2.000
 5443.00    1.71162   0.98654   -2.000
 5444.00    1.75217   0.98707   -2.000
 5445.00    1.63283   0.98470   -2.000
 5446.00    1.50524   0.97945   -2.000
 5447.00    1.22942   0.97269   -2.000
 5448.00    0.77064   0.96676   -2.000
 5449.00    0.48593   0.96224   -2.000
 5450.00    0.59840   0.95834   -2.000
 5451.00    0.85144   0.95595   -2.000
 5452.00    0.96953   0.95592   -2.000
 5453.00    0.95609   0.95658   -2.000
 5454.00    0.90501   0.95608   -2.000
 5455.00    0.87338   0.95419   -2.000
 5456.00    0.87428   0.95235   -2.000
 5457.00    0.88516   0.95179   12.115
 5458.00    0.89125   0.95179   12.316
 5459.00    0.89975   0.95137   12.446
 5460.00    0.90898   0.95208   12.439
 5461.00    0.90250   0.95477   12.455
 5462.00    0.87986   0.95712   12.530
 5463.00    0.86110   0.95759   12.551
 5464.00    0.86024   0.95793   12.618
 5465.00    0.87851   0.95930   12.921
 5466.00    0.91301   0.96006   12.883
 5467.00    0.95618   0.96010   11.711
 5468.00    0.98708   0.96150   10.372
 5469.00    0.98259   0.96346    9.991
 5470.00    0.95025   0.96371   10.449
 5471.00    0.92021   0.96314   10.974
 5472.00    0.90947   0.96263   11.046
 5473.00    0.91746   0.96021   10.773
 5474.00    0.93395   0.95593   10.631
 5475.00    0.94552   0.95207   10.990
 5476.00    0.94418   0.94791   11.618
 5477.00    0.92948   0.94255   11.869
 5478.00    0.90916   0.93901   11.592
 5479.00    0.89269   0.93827   11.185
 5480.00    0.88246   0.93745   11.067
 5481.00    0.88041   0.93707   11.364
 5482.00    0.89718   0.93981   11.604
 5483.00    0.93683   0.94415   11.312
 5484.00    0.97953   0.94737   10.896
 5485.00    1.00233   0.95044   10.828
 5486.00    1.00212   0.95447   10.979
 5487.00    0.98886   0.95784   11.039
 5488.00    0.97578   0.96013   10.929
 5489.00    0.96873   0.96240   10.757
 5490.00    0.96013   0.96393   10.698
 5491.00    0.94815   0.96446   10.854
 5492.00    0.94784   0.96548   11.175
 5493.00    0.96468   0.96668   11.499
 5494.00    0.98017   0.96678   11.616
 5495.00    0.97836   0.96696   11.525
 5496.00    0.96146   0.96755   11.517
 5497.00    0.94197   0.96660   11.735
 5498.00    0.93502   0.96493   12.009
 5499.00    0.94509   0.96450   12.186
 5500.00    0.96302   0.96375   12.302
 5501.00    0.98131   0.96113   12.409
 5502.00    0.99872   0.95890   12.500
 5503.00    1.01113   0.95806   12.554
 5504.00    1.01127   0.95661   12.579
 5505.00    1.00064   0.95421   12.645
 5506.00    0.98962   0.95207   12.821
 5507.00    0.98450   0.95082   12.942
 5508.00    0.98363   0.95024   12.707
 5509.00    0.97883   0.94931   12.218
 5510.00    0.96196   0.94763   11.865
 5511.00    0.93985   0.94648   11.864
 5512.00    0.92735   0.94590   12.200
 5513.00    0.92391   0.94458   12.539
 5514.00    0.91680   0.94335   12.452
 5515.00    0.89842   0.94329   12.175
 5516.00    0.87075   0.94424   12.169
 5517.00    0.84630   0.94648   12.203
 5518.00    0.83843   0.95048   11.839
 5519.00    0.84586   0.95558   11.389
 5520.00    0.85833   0.96067   11.312
 5521.00    0.86885   0.96524   11.460
 5522.00    0.87761   0.96913   11.448
 5523.00    0.89391   0.97153   11.223
 5524.00    0.92345   0.97175   10.968
 5525.00    0.95438   0.97008   10.850
 5526.00    0.97227   0.96730   10.890
 5527.00    0.97655   0.96357   10.880
 5528.00    0.97101   0.95886   10.709
 5529.00    0.95388   0.95465   10.633
 5530.00    0.92535   0.95237   10.835
 5531.00    0.89408   0.95102   11.117
 5532.00    0.87159   0.95012   11.217
 5533.00    0.86674   0.95151   11.136
 5534.00    0.87890   0.95449   10.993
 5535.00    0.89553   0.95662   10.878
 5536.00    0.90422   0.95833   10.855
 5537.00    0.90076   0.96091   10.955
 5538.00    0.89045   0.96314   11.102
 5539.00    0.88609   0.96457   11.109
 5540.00    0.89544   0.96665   11.011
 5541.00    0.91601   0.96897   11.094
 5542.00    0.94070   0.97027   11.335
 5543.00    0.96210   0.97100   11.303
 5544.00    0.97917   0.97198   10.966
 5545.00    0.99672   0.97283   10.761
 5546.00    1.01443   0.97291   10.724
 5547.00    1.02454   0.97291   10.495
 5548.00    1.01752   0.97399   10.032
 5549.00    0.98905   0.97548    9.604
 5550.00    0.95376   0.97636    9.320
 5551.00    0.93812   0.97722    9.139
 5552.00    0.95285   0.97833    9.044
 5553.00    0.98946   0.97836    9.038
 5554.00    1.02922   0.97716    9.059
 5555.00    1.05179   0.97588    9.033
 5556.00    1.04805   0.97463    9.012
 5557.00    1.02127   0.97276    9.115
 5558.00    0.98404   0.97072    9.368
 5559.00    0.94939   0.96950    9.694
 5560.00    0.91795   0.96856    9.930
 5561.00    0.88749   0.96706    9.969
 5562.00    0.86926   0.96527    9.973
 5563.00    0.87833   0.96339   10.118
 5564.00    0.91743   0.96139   10.229
 5565.00    0.97166   0.95899   10.118
 5566.00    1.00723   0.95608   10.052
 5567.00    1.00059   0.95350   10.291
 5568.00    0.96736   0.95182   10.619
 5569.00    0.93673   0.94976   10.728
 5570.00    0.92400   0.94782   10.730
 5571.00    0.92979   0.94754   10.814
 5572.00    0.94294   0.94734   10.895
 5573.00    0.95196   0.94635   10.888
 5574.00    0.95345   0.94721   10.915
 5575.00    0.94923   0.94942   11.035
 5576.00    0.94331   0.95020   11.093
 5577.00    0.93813   0.95154   11.088
 5578.00    0.93253   0.95468   11.327
 5579.00    0.92296   0.95674   11.890
 5580.00    0.90542   0.95765   12.346
 5581.00    0.88128   0.95878   12.376
 5582.00    0.85834   0.95854   12.223
 5583.00    0.84241   0.95667   12.193
 5584.00    0.83441   0.95406   12.385
 5585.00    0.83479   0.94973   12.620
 5586.00    0.84421   0.94382   12.538
 5587.00    0.85949   0.93766   12.207
 5588.00    0.87421   0.93151   12.070
 5589.00    0.88521   0.92561   12.209
 5590.00    0.89332   0.92082   12.336
 5591.00    0.89931   0.91789   12.289
 5592.00    0.90301   0.91722   12.129
 5593.00    0.90420   0.91837   11.964
 5594.00    0.90402   0.92063   11.874
 5595.00    0.90731   0.92369   11.890
 5596.00    0.91897   0.92726   11.979
 5597.00    0.93545   0.92999   11.993
 5598.00    0.94863   0.93068   11.804
 5599.00    0.95603   0.93116   11.551
 5600.00    0.96003   0.93205   11.417
 5601.00    0.96325   0.93139   11.286
 5602.00    0.96627   0.92995   11.025
 5603.00    0.96568   0.93046   10.895
 5604.00    0.95888   0.93310   11.125
 5605.00    0.95037   0.93657   11.366
 5606.00    0.94537   0.94113   11.198
 5607.00    0.94137   0.94714   10.940
 5608.00    0.93107   0.95405   10.996
 5609.00    0.90783   0.96019   11.207
 5610.00    0.87792   0.96475   11.272
 5611.00    0.86886   0.96753   11.219
 5612.00    0.90020   0.96809   11.175
 5613.00    0.95922   0.96680   11.119
 5614.00    1.01719   0.96360   11.026
 5615.00    1.04592   0.95821   10.971
 5616.00    1.03248   0.95236   11.033
 5617.00    0.98725   0.94797   11.237
 5618.00    0.93313   0.94387   11.558
 5619.00    0.89575   0.93983   11.922
 5620.00    0.88935   0.93866   12.202
 5621.00    0.90956   0.93990   12.262
 5622.00    0.93760   0.94091   12.108
 5623.00    0.94844   0.94176   11.909
 5624.00    0.93687   0.94276   11.755
 5625.00    0.92240   0.94353   11.608
 5626.00    0.92039   0.94458   11.439
 5627.00    0.93117   0.94552   11.236
 5628.00    0.94539   0.94613   10.868
 5629.00    0.94971   0.94799   10.209
 5630.00    0.93784   0.95116    9.506
 5631.00    0.91518   0.95380    9.107
 5632.00    0.90071   0.95600    9.007
 5633.00    0.91432   0.95821    9.009
 5634.00    0.94344   0.95936    9.112
 5635.00    0.95334   0.95930    9.461
 5636.00    0.93120   0.95848    9.994
 5637.00    0.89081   0.95676   10.423
 5638.00    0.85919   0.95449   10.600
 5639.00    0.85696   0.95250   10.614
 5640.00    0.86834   0.95053   10.593
 5641.00    0.86263   0.94841   10.601
 5642.00    0.83884   0.94724   10.567
 5643.00    0.81582   0.94713   10.428
 5644.00    0.80582   0.94691   10.337
 5645.00    0.81048   0.94701   10.417
 5646.00    0.82164   0.94822   10.449
 5647.00    0.83166   0.94963   10.209
 5648.00    0.84525   0.95086    9.918
 5649.00    0.87085   0.95251    9.740
 5650.00    0.90949   0.95402    9.373
 5651.00    0.95279   0.95511    8.738
 5652.00    0.98351   0.95610    8.332
 5653.00    0.98731   0.95650    8.416
 5654.00    0.96301   0.95566    8.697
 5655.00    0.92075   0.95366    8.896
 5656.00    0.87861   0.95143    9.237
 5657.00    0.85374   0.94845    9.933
 5658.00    0.85518   0.94348   10.683
 5659.00    0.87839   0.93847   11.065
 5660.00    0.90486   0.93582   11.141
 5661.00    0.91863   0.93328   11.183
 5662.00    0.91607   0.93006   11.347
 5663.00    0.90538   0.92970   11.590
 5664.00    0.90174   0.93202   11.689
 5665.00    0.90724   0.93364   11.606
 5666.00    0.90739   0.93515   11.581
 5667.00    0.89477   0.93811   11.728
 5668.00    0.87731   0.94110   11.929
 5669.00    0.87147   0.94334   11.996
 5670.00    0.89305   0.94555   11.809
 5671.00    0.93691   0.94773   11.490
 5672.00    0.98071   0.94991   11.275
 5673.00    1.01549   0.95248   11.123
 5674.00    1.04554   0.95510   10.835
 5675.00    1.06392   0.95708   10.511
 5676.00    1.05614   0.95907   10.418
 5677.00    1.02433   0.96114   10.564
 5678.00    0.98685   0.96194   10.759
 5679.00    0.96473   0.96130   10.851
 5680.00    0.96934   0.96062   10.803
 5681.00    0.98579   0.95961   10.687
 5682.00    0.98903   0.95690   10.594
 5683.00    0.97587   0.95366   10.512
 5684.00    0.95655   0.95116   10.411
 5685.00    0.93381   0.94861   10.380
 5686.00    0.90857   0.94564   10.505
 5687.00    0.89106   0.94358   10.678
 5688.00    0.88902   0.94278   10.738
 5689.00    0.89238   0.94266   10.705
 5690.00    0.88770   0.94330   10.679
 5691.00    0.87585   0.94483   10.683
 5692.00    0.86746   0.94726   10.692
 5693.00    0.87519   0.95026   10.687
 5694.00    0.90106   0.95301   10.713
 5695.00    0.92805   0.95507   10.913
 5696.00    0.94006   0.95672   11.283
 5697.00    0.93764   0.95736   11.480
 5698.00    0.93012   0.95609   11.322
 5699.00    0.92773   0.95409   11.144
 5700.00    0.93293   0.95189   11.163
 5701.00    0.93704   0.94861   11.188
 5702.00    0.93201   0.94475   11.155
 5703.00    0.91810   0.94175   11.331
 5704.00    0.90669   0.93904   11.669
 5705.00    0.91579   0.93569   11.596
 5706.00    0.94384   0.93258   11.071
 5707.00    0.96599   0.93008   10.742
 5708.00    0.96987   0.92723   10.736
 5709.00    0.96440   0.92389   10.634
 5710.00    0.95518   0.92158   10.421
 5711.00    0.93895   0.92049   10.517
 5712.00    0.91729   0.91984   10.839
 5713.00    0.89988   0.92106   10.780
 5714.00    0.89956   0.92463   10.326
 5715.00    0.92403   0.92873   10.015
 5716.00    0.95830   0.93375    9.954
 5717.00    0.97300   0.94003    9.937
 5718.00    0.95508   0.94566    9.972
 5719.00    0.91499   0.95064   10.210
 5720.00    0.88468   0.95553   10.511
 5721.00    0.89496   0.95933   10.550
 5722.00    0.93435   0.96226   10.353
 5723.00    0.96729   0.96463   10.178
 5724.00    0.97895   0.96579   10.084
 5725.00    0.97530   0.96624    9.980
 5726.00    0.97036   0.96618    9.791
 5727.00    0.97260   0.96488    9.560
 5728.00    0.97024   0.96316    9.511
 5729.00    0.95129   0.96192    9.800
 5730.00    0.92946   0.96042   10.218
 5731.00    0.92377   0.95875   10.449
 5732.00    0.93323   0.95830   10.553
 5733.00    0.94831   0.95862   10.697
 5734.00    0.96473   0.95873   10.765
 5735.00    0.97841   0.95924   10.671
 5736.00    0.98053   0.96043   10.655
 5737.00    0.96390   0.96143   10.860
 5738.00    0.92907   0.96205   11.029
 5739.00    0.88702   0.96260   11.004
 5740.00    0.85821   0.96287    0.000
 5741.00    0.85508   0.96295    0.000
 5742.00    0.87255   0.96298    0.000
 5743.00    0.90073   0.96276    0.000
 5744.00    0.93329   0.96254   -2.000
 5745.00    0.96926   0.96244   -2.000
 5746.00    1.01157   0.96237   -2.000
 5747.00    1.05679   0.96215   -2.000
 5748.00    1.09187   0.96164   -2.000
 5749.00    1.10157   0.96104   -2.000
 5750.00    1.07468   0.96033   -2.000
 5751.00    1.01448   0.95905   -2.000
 5752.00    0.94273   0.95757   -2.000
 5753.00    0.89874   0.95636   -2.000
 5754.00    0.91884   0.95508   -2.000
 5755.00    0.97776   0.95409   -2.000
 5756.00    1.00766   0.95370   -2.000
 5757.00    0.99660   0.95365   -2.000
 5758.00    0.98390   0.95418   -2.000
 5759.00    0.98289   0.95491   -2.000
 5760.00    0.97762   0.95514   -2.000
 5761.00    0.95781   0.95526   -2.000
 5762.00    0.92670   0.95519   -2.000
 5763.00    0.90011   0.95449   -2.000
 5764.00    0.89274   0.95411    0.000
 5765.00    0.89555   0.95437    0.000
 5766.00    0.89273   0.95471    0.000
 5767.00    0.89302   0.95585    0.000
 5768.00    0.91027   0.95787    0.000
 5769.00    0.93060   0.95950    0.000
 5770.00    0.93264   0.96085    0.000
 5771.00    0.91806   0.96208    0.000
 5772.00    0.90069   0.96238    0.000
 5773.00    0.89008   0.96204    0.000
 5774.00    0.89243   0.96126    0.000
 5775.00    0.91254   0.95977    0.000
 5776.00    0.94568   0.95808    0.000
 5777.00    0.97220   0.95618    0.000
 5778.00    0.97807   0.95342    0.000
 5779.00    0.97013   0.95034    0.000
 5780.00    0.95987   0.94711    0.000
 5781.00    0.95084   0.94281    0.000
 5782.00    0.94203   0.93831    0.000
 5783.00    0.93109   0.93468    0.000
 5784.00    0.91679   0.93116    0.000
 5785.00    0.90043   0.92822    0.000
 5786.00    0.88597   0.92732    0.000
 5787.00    0.87965   0.92776    0.000
 5788.00    0.88776   0.92874    0.000
 5789.00    0.91366   0.93112    0.000
 5790.00    0.94994   0.93455    0.000
 5791.00    0.97873   0.93769    0.000
 5792.00    0.98581   0.94089    0.000
 5793.00    0.96789   0.94443    0.000
 5794.00    0.93804   0.94726    0.000
 5795.00    0.91940   0.94980    0.000
 5796.00    0.92081   0.95272    0.000
 5797.00    0.93360   0.95488    0.000
 5798.00    0.94382   0.95650    0.000
 5799.00    0.93987   0.95870    0.000
 5800.00    0.92226   0.96066    0.000
 5801.00    0.90244   0.96178    0.000
 5802.00    0.89475   0.96318    0.000
 5803.00    0.90798   0.96470    0.000
 5804.00    0.93296   0.96521    0.000
 5805.00    0.95133   0.96521    0.000
 5806.00    0.95507   0.96534    0.000
 5807.00    0.94516   0.96508    0.000
 5808.00    0.92403   0.96434    0.000
 5809.00    0.89639   0.96384    0.000
 5810.00    0.87193   0.96371    0.000
 5811.00    0.86029   0.96355    0.000
 5812.00    0.86433   0.96322    0.000
 5813.00    0.88033   0.96299    0.000
 5814.00    0.89981   0.96283    0.000
 5815.00    0.91436   0.96224    0.000
 5816.00    0.92061   0.96150    0.000
 5817.00    0.92117   0.96116    0.000
 5818.00    0.92404   0.96119    0.000
 5819.00    0.93367   0.96142    0.000
 5820.00    0.94451   0.96211    0.000
 5821.00    0.94887   0.96343    0.000
 5822.00    0.94343   0.96493    0.000
 5823.00    0.93067   0.96611    0.000
 5824.00    0.91885   0.96723    0.000
 5825.00    0.91784   0.96838    0.000
 5826.00    0.93403   0.96901    0.000
 5827.00    0.95637   0.96925    0.000
 5828.00    0.95677   0.96961    0.000
 5829.00    0.92738   0.96989    0.000
 5830.00    0.89225   0.96986    0.000
 5831.00    0.87757   0.96981    0.000
 5832.00    0.89496   0.96982    0.000
 5833.00    0.93026   0.96969    0.000
 5834.00    0.95111   0.96937    0.000
 5835.00    0.94711   0.96893    0.000
 5836.00    0.93479   0.96868    0.000
 5837.00    0.92871   0.96844    0.000
 5838.00    0.93240   0.96801    0.000
 5839.00    0.93962   0.96789    0.000
 5840.00    0.94037   0.96813    0.000
 5841.00    0.93420   0.96820    0.000
 5842.00    0.92993   0.96825    0.000
 5843.00    0.93719   0.96849    0.000
 5844.00    0.95977   0.96835    0.000
 5845.00    0.98694   0.96769    0.000
 5846.00    1.00367   0.96672    0.000
 5847.00    1.01154   0.96516    0.000
 5848.00    1.02190   0.96306    0.000
 5849.00    1.03884   0.96069    0.000
 5850.00    1.05647   0.95781    0.000
 5851.00    1.06000   0.95460    0.000
 5852.00    1.03937   0.95140    0.000
 5853.00    1.00578   0.94771    0.000
 5854.00    0.97746   0.94360    0.000
 5855.00    0.96089   0.93987    0.000
 5856.00    0.95121   0.93612    0.000
 5857.00    0.93658   0.93213    0.000
 5858.00    0.91522   0.92913    0.000
 5859.00    0.90744   0.92719    0.000
 5860.00    0.92309   0.92558    0.000
 5861.00    0.93720   0.92514    0.000
 5862.00    0.92479   0.92610    0.000
 5863.00    0.88761   0.92732    0.000
 5864.00    0.84501   0.92899    0.000
 5865.00    0.82289   0.93133    0.000
 5866.00    0.83280   0.93322    0.000
 5867.00    0.86261   0.93484    0.000
 5868.00    0.89480   0.93692    0.000
 5869.00    0.91729   0.93859    0.000
 5870.00    0.92428   0.93978    0.000
 5871.00    0.91638   0.94137    0.000
 5872.00    0.89980   0.94273    0.000
 5873.00    0.88451   0.94327    0.000
 5874.00    0.87883   0.94354    0.000
 5875.00    0.88728   0.94340    0.000
 5876.00    0.91062   0.94233    0.000
 5877.00    0.94521   0.94068    0.000
 5878.00    0.98082   0.93880    0.000
 5879.00    1.00291   0.93647    0.000
 5880.00    1.00091   0.93363    0.000
 5881.00    0.97452   0.93063    0.000
 5882.00    0.94249   0.92746    0.000
 5883.00    0.92961   0.92326    0.000
 5884.00    0.93302   0.91791    0.000
 5885.00    0.93049   0.91155    0.000
 5886.00    0.91265   0.90276    0.000
 5887.00    0.88501   0.89116    0.000
 5888.00    0.85922   0.87823    0.000
 5889.00    0.84693   0.86300    0.000
 5890.00    0.85233   0.84572    0.000
 5891.00    0.86979   0.83052    0.000
 5892.00    0.88297   0.81699    0.000
 5893.00    0.87644   0.80417    0.000
 5894.00    0.85073   0.79683    0.000
 5895.00    0.81847   0.79403    0.000
 5896.00    0.79661   0.79203    0.000
 5897.00    0.79590   0.79490    0.000
 5898.00    0.81153   0.80239    0.000
 5899.00    0.83191   0.80982    0.000
 5900.00    0.84886   0.82025    0.000
 5901.00    0.86452   0.83451   12.037
 5902.00    0.89386   0.84787   12.179
 5903.00    0.94274   0.86091   12.052
 5904.00    0.99358   0.87486   11.855
 5905.00    1.02577   0.88670   11.777
 5906.00    1.03120   0.89586   11.773
 5907.00    1.01788   0.90388   11.699
 5908.00    1.00757   0.91020   11.445
 5909.00    1.01346   0.91433   11.127
 5910.00    1.02986   0.91723   11.034
 5911.00    1.04373   0.91935   11.172
 5912.00    1.04179   0.92033   11.200
 5913.00    1.01409   0.92030   11.079
 5914.00    0.95906   0.91984   11.187
 5915.00    0.89681   0.91915   11.540
 5916.00    0.86383   0.91816   11.658
 5917.00    0.87599   0.91732   11.406
 5918.00    0.91939   0.91708   11.158
 5919.00    0.96469   0.91722   11.043
 5920.00    0.98150   0.91792   10.926
 5921.00    0.96432   0.91913   10.852
 5922.00    0.93131   0.92032   11.010
 5923.00    0.90183   0.92176   11.374
 5924.00    0.88863   0.92318   11.703
 5925.00    0.89400   0.92410   11.836
 5926.00    0.91120   0.92497   11.787
 5927.00    0.92956   0.92558   11.694
 5928.00    0.93993   0.92572   11.697
 5929.00    0.94257   0.92583   11.804
 5930.00    0.94425   0.92559   11.947
 5931.00    0.95079   0.92519   12.123
 5932.00    0.96037   0.92514   12.323
 5933.00    0.95673   0.92495   12.400
 5934.00    0.92781   0.92475   12.257
 5935.00    0.89033   0.92511   12.120
 5936.00    0.86897   0.92563   12.167
 5937.00    0.86827   0.92595   12.150
 5938.00    0.87845   0.92634   11.867
 5939.00    0.88628   0.92698   11.650
 5940.00    0.88822   0.92734   11.733
 5941.00    0.89933   0.92720   11.765
 5942.00    0.92903   0.92724   11.471
 5943.00    0.96207   0.92731   11.191
 5944.00    0.98128   0.92688   11.207
 5945.00    0.98562   0.92660   11.358
 5946.00    0.98226   0.92657   11.408
 5947.00    0.97917   0.92620   11.319
 5948.00    0.97949   0.92569   11.211
 5949.00    0.97968   0.92504   11.257
 5950.00    0.97779   0.92416   11.465
 5951.00    0.97681   0.92333   11.607
 5952.00    0.97717   0.92218   11.539
 5953.00    0.97368   0.92099   11.376
 5954.00    0.95934   0.92052   11.277
 5955.00    0.92964   0.92015   11.325
 5956.00    0.89174   0.91957   11.498
 5957.00    0.86331   0.91985   11.677
 5958.00    0.85514   0.92078   11.798
 5959.00    0.86570   0.92153   11.883
 5960.00    0.88453   0.92276   11.902
 5961.00    0.89879   0.92475   11.786
 5962.00    0.90779   0.92661   11.571
 5963.00    0.92054   0.92832   11.360
 5964.00    0.93853   0.93023   11.151
 5965.00    0.95186   0.93174   10.903
 5966.00    0.94154   0.93266   10.746
 5967.00    0.89417   0.93359   10.850
 5968.00    0.83021   0.93426   11.122
 5969.00    0.79011   0.93443   11.280
 5970.00    0.79762   0.93486   11.193
 5971.00    0.85126   0.93523   10.949
 5972.00    0.92300   0.93501   10.743
 5973.00    0.97893   0.93472   10.739
 5974.00    1.00972   0.93412   10.933
 5975.00    1.02047   0.93275   11.193
 5976.00    1.01143   0.93107   11.305
 5977.00    0.98442   0.92921   11.186
 5978.00    0.95282   0.92711   11.096
 5979.00    0.93128   0.92518   11.259
 5980.00    0.92365   0.92360   11.503
 5981.00    0.92718   0.92220   11.566
 5982.00    0.93797   0.92120   11.491
 5983.00    0.95083   0.92052   11.478
 5984.00    0.95964   0.91972   11.685
 5985.00    0.96328   0.91918   12.079
 5986.00    0.96855   0.91910   12.321
 5987.00    0.97601   0.91899   12.228
 5988.00    0.97312   0.91924   12.106
 5989.00    0.95522   0.92035   12.144
 5990.00    0.93576   0.92175   12.118
 5991.00    0.92537   0.92320   11.892
 5992.00    0.92071   0.92505   11.645
 5993.00    0.91194   0.92704   11.578
 5994.00    0.89077   0.92856   11.757
 5995.00    0.86756   0.92966   11.975
 5996.00    0.87061   0.93056   11.792
 5997.00    0.91144   0.93091   11.260
 5998.00    0.97527   0.93056   10.890
 5999.00    1.03987   0.92989   10.815
 6000.00    1.08502   0.92893   10.813
 6001.00    1.09935   0.92768   10.829
 6002.00    1.08287   0.92626   11.007
 6003.00    1.04752   0.92469   11.341
 6004.00    1.01259   0.92331   11.602
 6005.00    0.99239   0.92184   11.515
 6006.00    0.99227   0.92015   11.019
 6007.00    1.00717   0.91894   10.493
 6008.00    1.02447   0.91779   10.337
 6009.00    1.03082   0.91664   10.478
 6010.00    1.01990   0.91618   10.596
 6011.00    1.00331   0.91590   10.627
 6012.00    0.99823   0.91576   10.684
 6013.00    1.00369   0.91600   10.719
 6014.00    1.00749   0.91621   10.630
 6015.00    1.00291   0.91640   10.512
 6016.00    0.99100   0.91628   10.565
 6017.00    0.97972   0.91596   10.956
 6018.00    0.97489   0.91576   11.682
 6019.00    0.97035   0.91513   12.272
 6020.00    0.95920   0.91428   12.214
 6021.00    0.94644   0.91387   11.832
 6022.00    0.93729   0.91358   11.610
 6023.00    0.92597   0.91340   11.522
 6024.00    0.91085   0.91372   11.439
 6025.00    0.90646   0.91484   11.430
 6026.00    0.92141   0.91657   11.581
 6027.00    0.94287   0.91840   11.843
 6028.00    0.95823   0.92104   12.052
 6029.00    0.96951   0.92421   11.999
 6030.00    0.98036   0.92691   11.721
 6031.00    0.98771   0.92974   11.556
 6032.00    0.98710   0.93266   11.620
 6033.00    0.97671   0.93491   11.651
 6034.00    0.96123   0.93670   11.486
 6035.00    0.95060   0.93824   11.276
 6036.00    0.94597   0.93927   11.229
 6037.00    0.93733   0.93966   11.463
 6038.00    0.92110   0.93977   11.849
 6039.00    0.90399   0.93956   12.007
 6040.00    0.88963   0.93903   11.853
 6041.00    0.87566   0.93856   11.700
 6042.00    0.86167   0.93810   11.676
 6043.00    0.85049   0.93784   11.670
 6044.00    0.84426   0.93806   11.676
 6045.00    0.84353   0.93843   11.787
 6046.00    0.84848   0.93908   11.926
 6047.00    0.85868   0.94008   11.908
 6048.00    0.87199   0.94098   11.791
 6049.00    0.88535   0.94166   11.786
 6050.00    0.89713   0.94226   11.893
 6051.00    0.90602   0.94255   11.938
 6052.00    0.90809   0.94221   11.793
 6053.00    0.89901   0.94155   11.483
 6054.00    0.87882   0.94070   11.243
 6055.00    0.85053   0.93934   11.271
 6056.00    0.81695   0.93776   11.462
 6057.00    0.78354   0.93645   11.606
 6058.00    0.76258   0.93510   11.741
 6059.00    0.76783   0.93379   11.984
 6060.00    0.80668   0.93285   12.232
 6061.00    0.87201   0.93196   12.274
 6062.00    0.93619   0.93086   12.036
 6063.00    0.97323   0.92976   11.680
 6064.00    0.98093   0.92870   11.556
 6065.00    0.97443   0.92730   11.763
 6066.00    0.97595   0.92628   11.880
 6067.00    0.99285   0.92618   11.651
 6068.00    1.00441   0.92624   11.530
 6069.00    0.99058   0.92735   11.828
 6070.00    0.95286   0.92974   12.232
 6071.00    0.90629   0.93205   12.346
 6072.00    0.87055   0.93473   12.172
 6073.00    0.85369   0.93750   11.900
 6074.00    0.84642   0.93933   11.702
 6075.00    0.84157   0.94049   11.707
 6076.00    0.84284   0.94078   11.992
 6077.00    0.85591   0.94000   12.410
 6078.00    0.88296   0.93846   12.562
 6079.00    0.91840   0.93619   12.382
 6080.00    0.94924   0.93361   12.266
 6081.00    0.96259   0.93086   12.357
 6082.00    0.95218   0.92800   12.431
 6083.00    0.92944   0.92576   12.238
 6084.00    0.91862   0.92397   11.691
 6085.00    0.93129   0.92228   10.910
 6086.00    0.96131   0.92151   10.124
 6087.00    0.99320   0.92122    9.565
 6088.00    1.01010   0.92082    9.390
 6089.00    1.00706   0.92093    9.631
 6090.00    0.98981   0.92109   10.190
 6091.00    0.96516   0.92119   10.684
 6092.00    0.93887   0.92162   10.644
 6093.00    0.91575   0.92183   10.348
 6094.00    0.89845   0.92238   10.384
 6095.00    0.88547   0.92345   10.796
 6096.00    0.87407   0.92397   11.290
 6097.00    0.86513   0.92453   11.685
 6098.00    0.86100   0.92528   11.950
 6099.00    0.86150   0.92473   12.085
 6100.00    0.86651   0.92340   12.138
 6101.00    0.87916   0.92203   12.228
 6102.00    0.90017   0.91929   12.442
 6103.00    0.92163   0.91610   12.710
 6104.00    0.93565   0.91409   12.803
 6105.00    0.94338   0.91186   12.418
 6106.00    0.95042   0.91032   11.581
 6107.00    0.96136   0.91110   10.738
 6108.00    0.97524   0.91215   10.179
 6109.00    0.98353   0.91379    9.893
 6110.00    0.98080   0.91686    9.829
 6111.00    0.97135   0.91936    9.994
 6112.00    0.95986   0.92172   10.397
 6113.00    0.94624   0.92423   10.988
 6114.00    0.93428   0.92559   11.538
 6115.00    0.93420   0.92656   11.628
 6116.00    0.94805   0.92701   11.264
 6117.00    0.96415   0.92618   11.004
 6118.00    0.96876   0.92482   11.109
 6119.00    0.95291   0.92236   11.402
 6120.00    0.91662   0.91895   11.698
 6121.00    0.87036   0.91555   11.962
 6122.00    0.83384   0.91128   12.180
 6123.00    0.82896   0.90746   12.298
 6124.00    0.85815   0.90517   12.276
 6125.00    0.90252   0.90293   12.118
 6126.00    0.93897   0.90236   11.907
 6127.00    0.94928   0.90388   11.779
 6128.00    0.92951   0.90533   11.876
 6129.00    0.89062   0.90762   12.270
 6130.00    0.85316   0.91075   12.730
 6131.00    0.83702   0.91278   12.885
 6132.00    0.84252   0.91393   12.965
 6133.00    0.85728   0.91449   13.362
 6134.00    0.87744   0.91327   13.322
 6135.00    0.90548   0.91060   12.029
 6136.00    0.93862   0.90734   10.707
 6137.00    0.96724   0.90304   10.337
 6138.00    0.97607   0.89895   10.508
 6139.00    0.95731   0.89601   10.537
 6140.00    0.92742   0.89375   10.652
 6141.00    0.91012   0.89342   11.341
 6142.00    0.91186   0.89506   12.212
 6143.00    0.92410   0.89761   12.462
 6144.00    0.93006   0.90117   12.337
 6145.00    0.91540   0.90528   -2.000
 6146.00    0.87823   0.90926   -2.000
 6147.00    0.82855   0.91259   -2.000
 6148.00    0.78561   0.91494   -2.000
 6149.00    0.76826   0.91655   -2.000
 6150.00    0.78606   0.91735   -2.000
 6151.00    0.83355   0.91701   -2.000
 6152.00    0.88856   0.91618   -2.000
 6153.00    0.92790   0.91526   -2.000
 6154.00    0.93883   0.91364   -2.000
 6155.00    0.92356   0.91160   -2.000
 6156.00    0.89888   0.90955   -2.000
 6157.00    0.88150   0.90637   10.080
 6158.00    0.87902   0.90202    9.978
 6159.00    0.88569   0.89714   10.188
 6160.00    0.88558   0.89076   10.924
 6161.00    0.87380   0.88304   12.078
 6162.00    0.86133   0.87539   13.003
 6163.00    0.85753   0.86782   13.245
 6164.00    0.86346   0.86061   13.171
 6165.00    0.87352   0.85520   13.155
 6166.00    0.87877   0.85173   13.223
 6167.00    0.87473   0.84997   13.156
 6168.00    0.86330   0.85010   12.722
 6169.00    0.85083   0.85128   12.155
 6170.00    0.84274   0.85352   11.879
 6171.00    0.83212   0.85680   11.930
 6172.00    0.80968   0.85967   12.081
 6173.00    0.79102   0.86285   12.196
 6174.00    0.80152   0.86722   12.227
 6175.00    0.83546   0.87101   12.061
 6176.00    0.86698   0.87445   11.623
 6177.00    0.88425   0.87871   11.061
 6178.00    0.89133   0.88271   10.585
 6179.00    0.90064   0.88578   10.299
 6180.00    0.91905   0.88858   10.242
 6181.00    0.93101   0.89149   10.456
 6182.00    0.91824   0.89353   10.972
 6183.00    0.88706   0.89443   11.756
 6184.00    0.85692   0.89540   12.610
 6185.00    0.84250   0.89556   13.077
 6186.00    0.84716   0.89412   12.925
 6187.00    0.85946   0.89242   12.689
 6188.00    0.86625   0.89001   12.833
 6189.00    0.86472   0.88637   13.156
 6190.00    0.85817   0.88297   13.325
 6191.00    0.85137   0.87942   13.385
 6192.00    0.84976   0.87614   13.424
 6193.00    0.85828   0.87444   13.305
 6194.00    0.87607   0.87297   12.997
 6195.00    0.89469   0.87284   12.732
 6196.00    0.90894   0.87467   12.612
 6197.00    0.92164   0.87596   12.489
 6198.00    0.93238   0.87777   12.306
 6199.00    0.93343   0.88040   12.205
 6200.00    0.92074   0.88202   12.234
 6201.00    0.89966   0.88340   12.253
 6202.00    0.88521   0.88477   12.083
 6203.00    0.89470   0.88586   11.643
 6204.00    0.91998   0.88721   11.111
 6205.00    0.92931   0.88848   10.809
 6206.00    0.91198   0.88974   10.961
 6207.00    0.88534   0.89105   11.604
 6208.00    0.86674   0.89186   12.078
 6209.00    0.86270   0.89213   11.295
 6210.00    0.86494   0.89140    9.934
 6211.00    0.85988   0.88964    9.160
 6212.00    0.85402   0.88731    8.901
 6213.00    0.86429   0.88366    8.704
 6214.00    0.88281   0.87938    8.697
 6215.00    0.88662   0.87547    9.320
 6216.00    0.87275   0.87086   10.582
 6217.00    0.85389   0.86691   11.901
 6218.00    0.83760   0.86431   12.810
 6219.00    0.82600   0.86163   13.363
 6220.00    0.82124   0.86029   13.599
 6221.00    0.82398   0.86012   13.498
 6222.00    0.83003   0.85979   13.239
 6223.00    0.83354   0.86036   13.043
 6224.00    0.83189   0.86123   12.974
 6225.00    0.82711   0.86162   12.969
 6226.00    0.82607   0.86201   12.887
 6227.00    0.83132   0.86185   12.640
 6228.00    0.83248   0.86132   12.319
 6229.00    0.81944   0.86044   12.130
 6230.00    0.79523   0.85860   12.300
 6231.00    0.77397   0.85709   12.727
 6232.00    0.77535   0.85614   12.666
 6233.00    0.80425   0.85480   11.912
 6234.00    0.83924   0.85474   11.405
 6235.00    0.86051   0.85599   11.617
 6236.00    0.86841   0.85687   12.151
 6237.00    0.87365   0.85842   12.543
 6238.00    0.88796   0.86037   12.816
 6239.00    0.91038   0.86117   13.102
 6240.00    0.92368   0.86122   13.342
 6241.00    0.91382   0.86094   13.467
 6242.00    0.87953   0.85971   13.504
 6243.00    0.83089   0.85759   13.528
 6244.00    0.78575   0.85630   13.613
 6245.00    0.75932   0.85511   13.730
 6246.00    0.75914   0.85346   13.760
 6247.00    0.78230   0.85360   13.672
 6248.00    0.81663   0.85418   13.543
 6249.00    0.84719   0.85403   13.392
 6250.00    0.86161   0.85484   13.192
 6251.00    0.85887   0.85551   13.019
 6252.00    0.84762   0.85478   13.014
 6253.00    0.83573   0.85379   13.187
 6254.00    0.82720   0.85229   13.423
 6255.00    0.82135   0.84968   13.560
 6256.00    0.81411   0.84701   13.484
 6257.00    0.80086   0.84483   13.279
 6258.00    0.77869   0.84283   13.145
 6259.00    0.74955   0.84160   13.224
 6260.00    0.72231   0.84195   13.504
 6261.00    0.71447   0.84299   13.676
 6262.00    0.73982   0.84504   13.431
 6263.00    0.79069   0.84864   13.005
 6264.00    0.84541   0.85188   12.759
 6265.00    0.88252   0.85527   12.680
 6266.00    0.89223   0.85946   12.658
 6267.00    0.88646   0.86241   12.781
 6268.00    0.88294   0.86447   13.125
 6269.00    0.88707   0.86693   13.479
 6270.00    0.89154   0.86871   13.601
 6271.00    0.87990   0.86965   13.571
 6272.00    0.84637   0.87078   13.560
 6273.00    0.81022   0.87193   13.599
 6274.00    0.79509   0.87258   13.644
 6275.00    0.81172   0.87311   13.641
 6276.00    0.85567   0.87361   13.518
 6277.00    0.90850   0.87348   13.214
 6278.00    0.95021   0.87305   12.851
 6279.00    0.96774   0.87263   12.709
 6280.00    0.95852   0.87159    0.000
 6281.00    0.93029   0.87068    0.000
 6282.00    0.89160   0.87020    0.000
 6283.00    0.84818   0.86964    0.000
 6284.00    0.80877   0.86997    0.000
 6285.00    0.78525   0.87099    0.000
 6286.00    0.78206   0.87237    0.000
 6287.00    0.79375   0.87445    0.000
 6288.00    0.81174   0.87649    0.000
 6289.00    0.82902   0.87861    0.000
 6290.00    0.84699   0.88051    0.000
 6291.00    0.87263   0.88156    0.000
 6292.00    0.90450   0.88216    0.000
 6293.00    0.93246   0.88191    0.000
 6294.00    0.94785   0.88089    0.000
 6295.00    0.94858   0.87953    0.000
 6296.00    0.94426   0.87748    0.000
 6297.00    0.94818   0.87524    0.000
 6298.00    0.95897   0.87322    0.000
 6299.00    0.96507   0.87084    0.000
 6300.00    0.96008   0.86868    0.000
 6301.00    0.94502   0.86735    0.000
 6302.00    0.92696   0.86645    0.000
 6303.00    0.91326   0.86600    0.000
 6304.00    0.90363   0.86636    0.000
 6305.00    0.89430   0.86755    0.000
 6306.00    0.88494   0.86938    0.000
 6307.00    0.87812   0.87186    0.000
 6308.00    0.87725   0.87432    0.000
 6309.00    0.88354   0.87659    0.000
 6310.00    0.89313   0.87898    0.000
 6311.00    0.90041   0.88057    0.000
 6312.00    0.90173   0.88099    0.000
 6313.00    0.89852   0.88108    0.000
 6314.00    0.89834   0.88039    0.000
 6315.00    0.90368   0.87868    0.000
 6316.00    0.90518   0.87735    0.000
 6317.00    0.89692   0.87569    0.000
 6318.00    0.88572   0.87351    0.000
 6319.00    0.87841   0.87279    0.000
 6320.00    0.87381   0.87253    0.000
 6321.00    0.86582   0.87196   12.752
 6322.00    0.84746   0.87295   13.389
 6323.00    0.82090   0.87487   13.389
 6324.00    0.79928   0.87665   13.169
 6325.00    0.79199   0.87875   13.083
 6326.00    0.79970   0.88125   13.050
 6327.00    0.82236   0.88358   12.996
 6328.00    0.85975   0.88540   12.981
 6329.00    0.90137   0.88709   13.060
 6330.00    0.92872   0.88799   13.224
 6331.00    0.93452   0.88863   13.387
 6332.00    0.92579   0.88900   13.419
 6333.00    0.91407   0.88819   13.308
 6334.00    0.90920   0.88740   13.144
 6335.00    0.91150   0.88620   12.978
 6336.00    0.91475   0.88454   12.834
 6337.00    0.91785   0.88315   12.822
 6338.00    0.92369   0.88130   13.044
 6339.00    0.93134   0.87994   13.348
 6340.00    0.93845   0.87968   13.340
 6341.00    0.94858   0.87940   12.676
 6342.00    0.96786   0.87924   11.489
 6343.00    0.99705   0.87994   10.417
 6344.00    1.03104   0.88037    9.892
 6345.00    1.06026   0.88078    9.931
 6346.00    1.07316   0.88140   10.414
 6347.00    1.05965   0.88152   11.115
 6348.00    1.01702   0.88243   11.705
 6349.00    0.95628   0.88352   11.966
 6350.00    0.89811   0.88403   11.949
 6351.00    0.86636   0.88501   11.952
 6352.00    0.87283   0.88588   12.205
 6353.00    0.90418   0.88581   12.618
 6354.00    0.93361   0.88523   12.968
 6355.00    0.93504   0.88406   13.131
 6356.00    0.90547   0.88198   13.113
 6357.00    0.87658   0.87922   13.014
 6358.00    0.87512   0.87584   12.924
 6359.00    0.89633   0.87261   12.859
 6360.00    0.92157   0.86952   12.847
 6361.00    0.93308   0.86617   12.961
 6362.00    0.92771   0.86352   13.213
 6363.00    0.92017   0.86217   13.481
 6364.00    0.92134   0.86143   13.531
 6365.00    0.92985   0.86133   13.152
 6366.00    0.94560   0.86258   12.588
 6367.00    0.97262   0.86475   12.353
 6368.00    1.00433   0.86746   12.443
 6369.00    1.02252   0.87049   12.391
 6370.00    1.01663   0.87378   12.248
 6371.00    0.99033   0.87716   12.585
 6372.00    0.95910   0.88014   13.324
 6373.00    0.94237   0.88261   13.545
 6374.00    0.94395   0.88469   12.897
 6375.00    0.95246   0.88641   11.968
 6376.00    0.95770   0.88749   11.174
 6377.00    0.95455   0.88776   10.638
 6378.00    0.94142   0.88759   10.451
 6379.00    0.91958   0.88698   10.663
 6380.00    0.89269   0.88606   11.088
 6381.00    0.86676   0.88474   11.368
 6382.00    0.85012   0.88346   11.359
 6383.00    0.85062   0.88260   11.112
 6384.00    0.87066   0.88176   10.570
 6385.00    0.90522   0.88138    9.886
 6386.00    0.94030   0.88137    9.683
 6387.00    0.95855   0.88121   10.390
 6388.00    0.94794   0.88112   11.491
 6389.00    0.91153   0.88113   11.888
 6390.00    0.87608   0.88076   11.869
 6391.00    0.86722   0.87997   12.324
 6392.00    0.88213   0.87904   13.069
 6393.00    0.90322   0.87774   13.314
 6394.00    0.91544   0.87663   12.740
 6395.00    0.91253   0.87564   11.762
 6396.00    0.90016   0.87417   11.019
 6397.00    0.88555   0.87361   10.696
 6398.00    0.86958   0.87379   10.500
 6399.00    0.85264   0.87365   10.342
 6400.00    0.83906   0.87379   10.607
 6401.00    0.83613   0.87473   11.485
 6402.00    0.85102   0.87540   12.436
 6403.00    0.87831   0.87577   12.581
 6404.00    0.89777   0.87763   11.713
 6405.00    0.90047   0.87950   10.562
 6406.00    0.89840   0.88052    9.909
 6407.00    0.90418   0.88193    9.872
 6408.00    0.92029   0.88268   10.163
 6409.00    0.93601   0.88308   10.625
 6410.00    0.93308   0.88318   11.332
 6411.00    0.91052   0.88229   12.091
 6412.00    0.88728   0.88212   12.318
 6413.00    0.87966   0.88213   12.102
 6414.00    0.89280   0.88114   12.206
 6415.00    0.91904   0.88092   12.740
 6416.00    0.94372   0.88128   13.102
 6417.00    0.96136   0.88113   12.950
 6418.00    0.97475   0.88112   12.485
 6419.00    0.98224   0.88115   11.941
 6420.00    0.97747   0.88086   11.464
 6421.00    0.95548   0.88083   11.203
 6422.00    0.91671   0.88097   11.278
 6423.00    0.87171   0.88116   11.679
 6424.00    0.83567   0.88170   12.267
 6425.00    0.81745   0.88298   12.770
 6426.00    0.81642   0.88473   12.962
 6427.00    0.82124   0.88600   13.062
 6428.00    0.82101   0.88702   13.346
 6429.00    0.82018   0.88788   13.494
 6430.00    0.82752   0.88806   13.155
 6431.00    0.84026   0.88775   12.785
 6432.00    0.85011   0.88722   12.828
 6433.00    0.85215   0.88601   12.983
 6434.00    0.84610   0.88493   12.873
 6435.00    0.83657   0.88452   12.756
 6436.00    0.83267   0.88389   12.902
 6437.00    0.84626   0.88340   13.063
 6438.00    0.88001   0.88301   12.958
 6439.00    0.91928   0.88268   12.734
 6440.00    0.94321   0.88310   12.647
 6441.00    0.93585   0.88324   12.826
 6442.00    0.90232   0.88351   13.189
 6443.00    0.87346   0.88520   13.399
 6444.00    0.87252   0.88697   13.242
 6445.00    0.89700   0.88829   12.875
 6446.00    0.92880   0.88953   12.473
 6447.00    0.94446   0.88997   12.090
 6448.00    0.93413   0.88956   11.890
 6449.00    0.90735   0.88825   12.125
 6450.00    0.87925   0.88605   12.705
 6451.00    0.86119   0.88392   13.088
 6452.00    0.84917   0.88137   13.120
 6453.00    0.82800   0.87900   13.274
 6454.00    0.79930   0.87847   13.652
 6455.00    0.78248   0.87835   13.837
 6456.00    0.78866   0.87874   13.656
 6457.00    0.81449   0.87983   13.365
 6458.00    0.84777   0.88068   13.212
 6459.00    0.87340   0.88167   13.292
 6460.00    0.88353   0.88243   13.460
 6461.00    0.87985   0.88252   13.488
 6462.00    0.87267   0.88193   13.504
 6463.00    0.87439   0.88117   13.767
 6464.00    0.88724   0.88052   14.026
 6465.00    0.90228   0.87923   13.846
 6466.00    0.90255   0.87876   13.516
 6467.00    0.87771   0.87958   13.542
 6468.00    0.84489   0.88039   13.805
 6469.00    0.83161   0.88141   13.884
 6470.00    0.84733   0.88259   13.715
 6471.00    0.88291   0.88350   13.474
 6472.00    0.91619   0.88414   13.264
 6473.00    0.92849   0.88445   13.109
 6474.00    0.92176   0.88408   13.002
 6475.00    0.90969   0.88357   12.899
 6476.00    0.90602   0.88337   12.730
 6477.00    0.91761   0.88271   12.549
 6478.00    0.93975   0.88177   12.608
 6479.00    0.96219   0.88109   12.972
 6480.00    0.97530   0.88044   13.237
 6481.00    0.97629   0.87938   13.121
 6482.00    0.97210   0.87822   12.961
 6483.00    0.96945   0.87715   13.050
 6484.00    0.96858   0.87594   13.270
 6485.00    0.96632   0.87476   13.456
 6486.00    0.95871   0.87400   13.602
 6487.00    0.94367   0.87348   13.705
 6488.00    0.92248   0.87272   13.709
 6489.00    0.90020   0.87146   13.667
 6490.00    0.88440   0.86954   13.752
 6491.00    0.87959   0.86668   13.930
 6492.00    0.88448   0.86266   13.919
 6493.00    0.89120   0.85735   13.651
 6494.00    0.88849   0.85092   13.353
 6495.00    0.87290   0.84449   13.205
 6496.00    0.85037   0.83821   13.236
 6497.00    0.82874   0.83217   13.300
 6498.00    0.81387   0.82838   13.212
 6499.00    0.80593   0.82662   13.147
 6500.00    0.80317   0.82697   13.428
 6501.00    0.81340   0.82987   13.776
 6502.00    0.84634   0.83386   13.544
 6503.00    0.89108   0.83959   12.944
 6504.00    0.92288   0.84621   12.641
 6505.00    0.92631   0.85256   12.736
 6506.00    0.90338   0.85870   12.984
 6507.00    0.87844   0.86395   13.218
 6508.00    0.87759   0.86826   13.377
 6509.00    0.89616   0.87170   13.439
 6510.00    0.91403   0.87404   13.449
 6511.00    0.92434   0.87532   13.554
 6512.00    0.92859   0.87600   13.818
 6513.00    0.92557   0.87610   13.988
 6514.00    0.91623   0.87552   13.859
 6515.00    0.91007   0.87465   13.746
 6516.00    0.91536   0.87332   13.914
 6517.00    0.92871   0.87198   14.044
 6518.00    0.93809   0.87068   13.792
 6519.00    0.92841   0.86949   13.384
 6520.00    0.89750   0.86895   13.153
 6521.00    0.86578   0.86860   13.191
 6522.00    0.85017   0.86872   13.385
 6523.00    0.84646   0.86953   13.447
 6524.00    0.84793   0.87036   13.258
 6525.00    0.85675   0.87127   13.051
 6526.00    0.87178   0.87204   12.960
 6527.00    0.88292   0.87255   12.851
 6528.00    0.88316   0.87304    0.000
 6529.00    0.87464   0.87311    0.000
 6530.00    0.86488   0.87281    0.000
 6531.00    0.86346   0.87253    0.000
 6532.00    0.87654   0.87225    0.000
 6533.00    0.90342   0.87188    0.000
 6534.00    0.93303   0.87154    0.000
 6535.00    0.94788   0.87131    0.000
 6536.00    0.94170   0.87117    0.000
 6537.00    0.92185   0.87119    0.000
 6538.00    0.89721   0.87131    0.000
 6539.00    0.87347   0.87118    0.000
 6540.00    0.85131   0.87077    0.000
 6541.00    0.82873   0.86993    0.000
 6542.00    0.80793   0.86866    0.000
 6543.00    0.79596   0.86688    0.000
 6544.00    0.80212   0.86430    0.000
 6545.00    0.83160   0.86110    0.000
 6546.00    0.87458   0.85745    0.000
 6547.00    0.91647   0.85384    0.000
 6548.00    0.95941   0.85000    0.000
 6549.00    1.01432   0.84583    0.000
 6550.00    1.08182   0.84209    0.000
 6551.00    1.14951   0.83840    0.000
 6552.00    1.19345   0.83449    0.000
 6553.00    1.19268   0.83019    0.000
 6554.00    1.14717   0.82503    0.000
 6555.00    1.07161   0.81939    0.000
 6556.00    0.98510   0.81274    0.000
 6557.00    0.90663   0.80433    0.000
 6558.00    0.85186   0.79467    0.000
 6559.00    0.83698   0.78380    0.000
 6560.00    0.88348   0.77148    0.000
 6561.00    1.02614   0.75834    0.000
 6562.00    1.31293   0.74486    0.000
 6563.00    1.75411   0.73265    0.000
 6564.00    2.28637   0.72354    0.000
 6565.00    2.79450   0.71653    0.000
 6566.00    3.13866   0.71353    0.000
 6567.00    3.21920   0.71705    0.000
 6568.00    3.01601   0.72430    0.000
 6569.00    2.58789   0.73411    0.000
 6570.00    2.05872   0.74577    0.000
 6571.00    1.55818   0.75780    0.000
 6572.00    1.18334   0.77032    0.000
 6573.00    0.96233   0.78192    0.000
 6574.00    0.85485   0.79131    0.000
 6575.00    0.81492   0.79927    0.000
 6576.00    0.81508   0.80622    0.000
 6577.00    0.84132   0.81207    0.000
 6578.00    0.88727   0.81763    0.000
 6579.00    0.94311   0.82290    0.000
 6580.00    0.99738   0.82762    0.000
 6581.00    1.05208   0.83200    0.000
 6582.00    1.12344   0.83600    0.000
 6583.00    1.23295   0.83956    0.000
 6584.00    1.39281   0.84252    0.000
 6585.00    1.57947   0.84523    0.000
 6586.00    1.74034   0.84735    0.000
 6587.00    1.81988   0.84901    0.000
 6588.00    1.78002   0.85021    0.000
 6589.00    1.62638   0.85075    0.000
 6590.00    1.40355   0.85108    0.000
 6591.00    1.17808   0.85075    0.000
 6592.00    1.00901   0.84992    0.000
 6593.00    0.91006   0.84866    0.000
 6594.00    0.86312   0.84737    0.000
 6595.00    0.84385   0.84625    0.000
 6596.00    0.83482   0.84507    0.000
 6597.00    0.83596   0.84488    0.000
 6598.00    0.85082   0.84550    0.000
 6599.00    0.87170   0.84658    0.000
 6600.00    0.88842   0.84817    0.000
 6601.00    0.89746   0.84974    0.000
 6602.00    0.89670   0.85161    0.000
 6603.00    0.88165   0.85366    0.000
 6604.00    0.85715   0.85501    0.000
 6605.00    0.84345   0.85571    0.000
 6606.00    0.85345   0.85599    0.000
 6607.00    0.87867   0.85565    0.000
 6608.00    0.90239   0.85521    0.000
 6609.00    0.91020   0.85465   13.765
 6610.00    0.89901   0.85417   13.906
 6611.00    0.87880   0.85401   13.836
 6612.00    0.85741   0.85392   13.544
 6613.00    0.83561   0.85460   13.401
 6614.00    0.81976   0.85575   13.485
 6615.00    0.82264   0.85712   13.487
 6616.00    0.84447   0.85854   13.332
 6617.00    0.87025   0.85973   13.276
 6618.00    0.88812   0.86123   13.375
 6619.00    0.89481   0.86242   13.442
 6620.00    0.89133   0.86314   13.485
 6621.00    0.88087   0.86342   13.691
 6622.00    0.86694   0.86325   13.926
 6623.00    0.85257   0.86285   13.844
 6624.00    0.83959   0.86206   13.657
 6625.00    0.82849   0.86091   13.872
 6626.00    0.81884   0.85960   14.365
 6627.00    0.81177   0.85814   14.540
 6628.00    0.81474   0.85663   14.327
 6629.00    0.83495   0.85534   14.106
 6630.00    0.86591   0.85410   13.988
 6631.00    0.89323   0.85278   13.887
 6632.00    0.90818   0.85160   13.787
 6633.00    0.90801   0.85054   13.702
 6634.00    0.89323   0.84962   13.583
 6635.00    0.86873   0.84913   13.385
 6636.00    0.84521   0.84862   13.173
 6637.00    0.83371   0.84839   13.059
 6638.00    0.83848   0.84867   13.125
 6639.00    0.85452   0.84897   13.341
 6640.00    0.86710   0.84959   13.487
 6641.00    0.86613   0.84990   13.474
 6642.00    0.85872   0.85009   13.626
 6643.00    0.85636   0.85019   14.071
 6644.00    0.86297   0.85015   14.224
 6645.00    0.87612   0.85021   13.839
 6646.00    0.88944   0.84974   13.737
 6647.00    0.89812   0.84947   14.280
 6648.00    0.90211   0.84955   14.599
 6649.00    0.90264   0.84962   14.182
 6650.00    0.90008   0.84986   13.901
 6651.00    0.89516   0.84988   14.179
 6652.00    0.88939   0.84987   14.394
 6653.00    0.88330   0.85004   14.149
 6654.00    0.87600   0.84990   13.836
 6655.00    0.86696   0.84958   13.669
 6656.00    0.85700   0.84909   13.446
 6657.00    0.84878   0.84851   13.153
 6658.00    0.84723   0.84784   13.022
 6659.00    0.86029   0.84698   13.050
 6660.00    0.89384   0.84603   12.974
 6661.00    0.93496   0.84483   12.682
 6662.00    0.95386   0.84369   12.252
 6663.00    0.92540   0.84244   11.694
 6664.00    0.84639   0.84134   10.984
 6665.00    0.76210   0.84051   10.244
 6666.00    0.73849   0.83973    9.657
 6667.00    0.78441   0.83962    9.367
 6668.00    0.85825   0.83996    9.402
 6669.00    0.92025   0.84069    9.501
 6670.00    0.94869   0.84176    9.363
 6671.00    0.94823   0.84283    9.252
 6672.00    0.93831   0.84391    9.606
 6673.00    0.93124   0.84482   10.333
 6674.00    0.92956   0.84532   10.956
 6675.00    0.92778   0.84502   11.319
 6676.00    0.91617   0.84419   11.603
 6677.00    0.88602   0.84283   11.861
 6678.00    0.83755   0.84111   12.037
 6679.00    0.78743   0.83953   12.128
 6680.00    0.75494   0.83771   12.173
 6681.00    0.74644   0.83619   12.214
 6682.00    0.75930   0.83548   12.336
 6683.00    0.78735   0.83536   12.695
 6684.00    0.82079   0.83582   13.258
 6685.00    0.84671   0.83657   13.535
 6686.00    0.85718   0.83744   13.295
 6687.00    0.85508   0.83864   13.148
 6688.00    0.84870   0.83977   13.475
 6689.00    0.84704   0.84068   13.895
 6690.00    0.85583   0.84127   14.038
 6691.00    0.87494   0.84160   14.125
 6692.00    0.89763   0.84176   14.331
 6693.00    0.91263   0.84159   14.441
 6694.00    0.91619   0.84119   14.323
 6695.00    0.91516   0.84058   14.052
 6696.00    0.91253   0.83979    0.000
 6697.00    0.90166   0.83907    0.000
 6698.00    0.87050   0.83837    0.000
 6699.00    0.81035   0.83769    0.000
 6700.00    0.73979   0.83732    0.000
 6701.00    0.69861   0.83709    0.000
 6702.00    0.70020   0.83705    0.000
 6703.00    0.72592   0.83725    0.000
 6704.00    0.75574   0.83737    0.000
 6705.00    0.78109   0.83761    0.000
 6706.00    0.81314   0.83780    0.000
 6707.00    0.86809   0.83780    0.000
 6708.00    0.92876   0.83782    0.000
 6709.00    0.95915   0.83769    0.000
 6710.00    0.95298   0.83734    0.000
 6711.00    0.93021   0.83677    0.000
 6712.00    0.91064   0.83588    0.000
 6713.00    0.90692   0.83451    0.000
 6714.00    0.92179   0.83292    0.000
 6715.00    0.95466   0.83084    0.000
 6716.00    1.01159   0.82850    0.000
 6717.00    1.09763   0.82614    0.000
 6718.00    1.20401   0.82379    0.000
 6719.00    1.30339   0.82190    0.000
 6720.00    1.34956   0.82027    0.000
 6721.00    1.31988   0.81930    0.000
 6722.00    1.25660   0.81911    0.000
 6723.00    1.20934   0.81954    0.000
 6724.00    1.17738   0.82045    0.000
 6725.00    1.14169   0.82160    0.000
 6726.00    1.09755   0.82295    0.000
 6727.00    1.04895   0.82445    0.000
 6728.00    1.00257   0.82595    0.000
 6729.00    0.97131   0.82711    0.000
 6730.00    0.97506   0.82820    0.000
 6731.00    1.02708   0.82906    0.000
 6732.00    1.12334   0.82977    0.000
 6733.00    1.23254   0.83030    0.000
 6734.00    1.29927   0.83051    0.000
 6735.00    1.28737   0.83058    0.000
 6736.00    1.20172   0.83035    0.000
 6737.00    1.08224   0.82997    0.000
 6738.00    0.98640   0.82929    0.000
 6739.00    0.93245   0.82861    0.000
 6740.00    0.89280   0.82768    0.000
 6741.00    0.85707   0.82668    0.000
 6742.00    0.84372   0.82567    0.000
 6743.00    0.85895   0.82452    0.000
 6744.00    0.88796   0.82373    0.000
 6745.00    0.91100   0.82280    0.000
 6746.00    0.91152   0.82195    0.000
 6747.00    0.88418   0.82125    0.000
 6748.00    0.83814   0.82039    0.000
 6749.00    0.79891   0.81990    0.000
 6750.00    0.79138   0.81927    0.000
 6751.00    0.80426   0.81879    0.000
 6752.00    0.80939   0.81859    0.000
 6753.00    0.81153   0.81840   12.915
 6754.00    0.83191   0.81888   13.256
 6755.00    0.86467   0.81952   12.639
 6756.00    0.88933   0.82055   11.439
 6757.00    0.90072   0.82208   10.270
 6758.00    0.90212   0.82356    9.503
 6759.00    0.89028   0.82538    9.254
 6760.00    0.86603   0.82702    9.545
 6761.00    0.84796   0.82846   10.295
 6762.00    0.84828   0.82962   11.274
 6763.00    0.84717   0.83034   12.033
 6764.00    0.82509   0.83066   12.252
 6765.00    0.79554   0.83041   12.307
 6766.00    0.78211   0.82989   12.539
 6767.00    0.79463   0.82894   12.578
 6768.00    0.82446   0.82795   12.255
 6769.00    0.84607   0.82689   12.230
 6770.00    0.84460   0.82591   12.726
 6771.00    0.83206   0.82515   12.821
 6772.00    0.82041   0.82486   12.093
 6773.00    0.80679   0.82499   11.529
 6774.00    0.79467   0.82552   11.511
 6775.00    0.80122   0.82648   11.456
 6776.00    0.82835   0.82742   11.234
 6777.00    0.85473   0.82868   11.539
 6778.00    0.87141   0.82975   12.439
 6779.00    0.89060   0.83049   12.739
 6780.00    0.91087   0.83086   11.843
 6781.00    0.91029   0.83052   10.681
 6782.00    0.87675   0.82974    9.764
 6783.00    0.81901   0.82850    9.073
 6784.00    0.76320   0.82685    8.717
 6785.00    0.74099   0.82515    8.911
 6786.00    0.75885   0.82333    9.643
 6787.00    0.79664   0.82174   10.609
 6788.00    0.82925   0.82051   11.479
 6789.00    0.83906   0.81963   12.107
 6790.00    0.83050   0.81930   12.504
 6791.00    0.82210   0.81910   12.761
 6792.00    0.82210   0.81928   12.902
 6793.00    0.82995   0.81942   12.906
 6794.00    0.84911   0.81969   12.873
 6795.00    0.88084   0.82005   12.951
 6796.00    0.90991   0.82022   13.181
 6797.00    0.92005   0.82062   13.478
 6798.00    0.92042   0.82089   13.628
 6799.00    0.92844   0.82125   13.462
 6800.00    0.94121   0.82180   13.103
 6801.00    0.94755   0.82220   12.732
 6802.00    0.94748   0.82275   12.324
 6803.00    0.94511   0.82320   11.874
 6804.00    0.93861   0.82349   11.580
 6805.00    0.92667   0.82376   11.563
 6806.00    0.91535   0.82381   11.680
 6807.00    0.91090   0.82364   11.742
 6808.00    0.91269   0.82338   11.732
 6809.00    0.91364   0.82300   11.595
 6810.00    0.90199   0.82251   11.127
 6811.00    0.86768   0.82219   10.422
 6812.00    0.80863   0.82171    9.924
 6813.00    0.74101   0.82135    9.878
 6814.00    0.70031   0.82115   10.247
 6815.00    0.70846   0.82086   10.925
 6816.00    0.75630   0.82091   11.765
 6817.00    0.81550   0.82087   12.572
 6818.00    0.85188   0.82094   13.169
 6819.00    0.85487   0.82103   13.560
 6820.00    0.84425   0.82120   13.945
 6821.00    0.83971   0.82153   14.254
 6822.00    0.84586   0.82188   14.096
 6823.00    0.84727   0.82221   13.617
 6824.00    0.81970   0.82241   13.423
 6825.00    0.77293   0.82267   13.598
 6826.00    0.74756   0.82284   13.695
 6827.00    0.76132   0.82305   13.436
 6828.00    0.79930   0.82300   12.951
 6829.00    0.83384   0.82298   12.580
 6830.00    0.84225   0.82287   12.593
 6831.00    0.83462   0.82278   12.834
 6832.00    0.84160   0.82273   12.878
 6833.00    0.87302   0.82262   12.654
 6834.00    0.91495   0.82272   12.417
 6835.00    0.94243   0.82267   12.361
 6836.00    0.93482   0.82250   12.559
 6837.00    0.89743   0.82196   12.981
 6838.00    0.85253   0.82121   13.488
 6839.00    0.81910   0.82018   13.848
 6840.00    0.80509   0.81898   13.859
 6841.00    0.80200   0.81758   13.571
 6842.00    0.79633   0.81609   13.176
 6843.00    0.78470   0.81491   12.799
 6844.00    0.76935   0.81387   12.504
 6845.00    0.75165   0.81335   12.315
 6846.00    0.73983   0.81314   12.262
 6847.00    0.75507   0.81331   12.394
 6848.00    0.80552   0.81390   12.684
 6849.00    0.86475   0.81454   12.927
 6850.00    0.89857   0.81515   12.999
 6851.00    0.88959   0.81556   13.085
 6852.00    0.84263   0.81564   13.301
 6853.00    0.78387   0.81544   13.448
 6854.00    0.73603   0.81500   13.480
 6855.00    0.70433   0.81411   13.756
 6856.00    0.69258   0.81318   14.357
 6857.00    0.70954   0.81214   14.698
 6858.00    0.74805   0.81104   14.476
 6859.00    0.78062   0.81013   14.196
 6860.00    0.79358   0.80928   14.183
 6861.00    0.79825   0.80889   14.283
 6862.00    0.80620   0.80890   14.333
 6863.00    0.81902   0.80907   14.323
 6864.00    0.83172   0.80938   14.233
 6865.00    0.83743   0.80980   14.007
 6866.00    0.83787   0.81017   13.673
 6867.00    0.84197   0.81069   13.334
 6868.00    0.85069   0.81118   13.044
 6869.00    0.85750   0.81146   12.794
 6870.00    0.86259   0.81159   12.547
 6871.00    0.86916   0.81143   12.293
 6872.00    0.86496   0.81147   12.147
 6873.00    0.83400   0.81157   12.254
 6874.00    0.79141   0.81190   12.566
 6875.00    0.76904   0.81231   12.870
 6876.00    0.77210   0.81288   12.982
 6877.00    0.78486   0.81352   12.889
 6878.00    0.79612   0.81429   12.857
 6879.00    0.80279   0.81511   13.071
 6880.00    0.80810   0.81567   13.075
 6881.00    0.81553   0.81614   12.476
 6882.00    0.82098   0.81637   11.966
 6883.00    0.81841   0.81649   12.179
 6884.00    0.80801   0.81654   12.744
 6885.00    0.79323   0.81648   12.953
 6886.00    0.77644   0.81651   12.895
 6887.00    0.76220   0.81671   12.955
 6888.00    0.76022   0.81720   13.026
 6889.00    0.77619   0.81803   12.879
 6890.00    0.80346   0.81893   12.575
 6891.00    0.82836   0.81984   12.341
 6892.00    0.83648   0.82085   12.404
 6893.00    0.82206   0.82170   12.785
 6894.00    0.79364   0.82253   13.155
 6895.00    0.76611   0.82301   13.255
 6896.00    0.75367   0.82330   13.244
 6897.00    0.76160   0.82354   13.281
 6898.00    0.78281   0.82343   13.281
 6899.00    0.80539   0.82340   13.209
 6900.00    0.81854   0.82328   13.203
 6901.00    0.82043   0.82328   13.312
 6902.00    0.81896   0.82343   13.416
 6903.00    0.81838   0.82358   13.430
 6904.00    0.81540   0.82396   13.390
 6905.00    0.80690   0.82438   13.408
 6906.00    0.79431   0.82480   13.569
 6907.00    0.78766   0.82544   13.644
 6908.00    0.79964   0.82598   13.230
 6909.00    0.82406   0.82626   12.554
 6910.00    0.84124   0.82638   12.188
 6911.00    0.85173   0.82614   12.191
 6912.00    0.87084   0.82587   12.257
 6913.00    0.89189   0.82525   12.255
 6914.00    0.89250   0.82425   12.276
 6915.00    0.86943   0.82328   12.444
 6916.00    0.84055   0.82225   12.803
 6917.00    0.83196   0.82135   13.168
 6918.00    0.85938   0.82063   13.256
 6919.00    0.90092   0.81999   13.123
 6920.00    0.91888   0.81987   13.044
 6921.00    0.90239   0.82000   13.161
 6922.00    0.86683   0.82008   13.471
 6923.00    0.84166   0.82035   13.835
 6924.00    0.84532   0.82062   14.037
 6925.00    0.85722   0.82100   13.926
 6926.00    0.84728   0.82149   13.601
 6927.00    0.81351   0.82188   13.475
 6928.00    0.77213   0.82228   13.737
 6929.00    0.74158   0.82262   13.907
 6930.00    0.73116   0.82313   13.573
 6931.00    0.73330   0.82368   13.169
 6932.00    0.73718   0.82440   13.110
 6933.00    0.74073   0.82499   13.252
 6934.00    0.74865   0.82542   13.359
 6935.00    0.76858   0.82585   13.438
 6936.00    0.79977   0.82611   13.537
 6937.00    0.82783   0.82635   13.618
 6938.00    0.83951   0.82649   13.716
 6939.00    0.83164   0.82671   14.001
 6940.00    0.80870   0.82695   14.435
 6941.00    0.77960   0.82693   14.634
 6942.00    0.75051   0.82685   14.489
 6943.00    0.72322   0.82663   14.392
 6944.00    0.70400   0.82644   14.499
 6945.00    0.70391   0.82629   14.540
 6946.00    0.72483   0.82616   14.263
 6947.00    0.75640   0.82607   13.691
 6948.00    0.78541   0.82599   13.183
 6949.00    0.80282   0.82601   13.128
 6950.00    0.81441   0.82608   13.381
 6951.00    0.83297   0.82645   13.385
 6952.00    0.84751   0.82689   13.101
 6953.00    0.83440   0.82717   12.970
 6954.00    0.80642   0.82738   13.095
 6955.00    0.79953   0.82751   13.240
 6956.00    0.81515   0.82767   13.165
 6957.00    0.82559   0.82794   12.846
 6958.00    0.81220   0.82828   12.648
 6959.00    0.77679   0.82862   12.956
 6960.00    0.74643   0.82906   13.617
 6961.00    0.74782   0.82969   14.087
 6962.00    0.76622   0.83026   14.089
 6963.00    0.77374   0.83084   13.795
 6964.00    0.77859   0.83140   13.594
 6965.00    0.79721   0.83191   13.712
 6966.00    0.81075   0.83254   13.902
 6967.00    0.79720   0.83305   13.804
 6968.00    0.77318   0.83354   13.475
 6969.00    0.76000   0.83386   13.146
 6970.00    0.74587   0.83403   12.903
 6971.00    0.71919   0.83403   12.751
 6972.00    0.70050   0.83379   12.680
 6973.00    0.70995   0.83330   12.622
 6974.00    0.73902   0.83229   12.434
 6975.00    0.76861   0.83085   12.156
 6976.00    0.78516   0.82892   12.101
 6977.00    0.78298   0.82696   12.367
 6978.00    0.76454   0.82495   12.622
 6979.00    0.73588   0.82312   12.742
 6980.00    0.70412   0.82170   13.171
 6981.00    0.67911   0.82073   13.994
 6982.00    0.67380   0.82065   14.399
 6983.00    0.70116   0.82088   14.090
 6984.00    0.76694   0.82211   13.942
 6985.00    0.84571   0.82405   14.175
 6986.00    0.88712   0.82607   14.015
 6987.00    0.88237   0.82806   13.287
 6988.00    0.87152   0.82968   12.657
 6989.00    0.87299   0.83107   12.379
 6990.00    0.87089   0.83206   12.271
 6991.00    0.85752   0.83279   12.247
 6992.00    0.84152   0.83312   12.341
 6993.00    0.83052   0.83329   -2.000
 6994.00    0.82489   0.83313   -2.000
 6995.00    0.81563   0.83315   -2.000
 6996.00    0.79447   0.83307   -2.000
 6997.00    0.77698   0.83282   -2.000
 6998.00    0.78595   0.83253   -2.000
 6999.00    0.80753   0.83184   -2.000
 7000.00    0.81066   0.83128   -2.000
 7001.00    0.79844   0.83066   -2.000
 7002.00    0.79456   0.82990   -2.000
 7003.00    0.80537   0.82913   -2.000
 7004.00    0.82306   0.82824   -2.000
 7005.00    0.83984   0.82748   -2.000
 7006.00    0.85041   0.82711   -2.000
 7007.00    0.85228   0.82683   -2.000
 7008.00    0.84352   0.82678   -2.000
 7009.00    0.82051   0.82650   -2.000
 7010.00    0.78548   0.82650   -2.000
 7011.00    0.75346   0.82656   -2.000
 7012.00    0.73835   0.82653   -2.000
 7013.00    0.73960   0.82651   -2.000
 7014.00    0.75038   0.82616   -2.000
 7015.00    0.76578   0.82580   -2.000
 7016.00    0.78370   0.82532   -2.000
 7017.00    0.80388   0.82484   -2.000
 7018.00    0.82031   0.82485   -2.000
 7019.00    0.81855   0.82470   -2.000
 7020.00    0.79339   0.82483   -2.000
 7021.00    0.75786   0.82489   -2.000
 7022.00    0.73010   0.82536   -2.000
 7023.00    0.72431   0.82628   -2.000
 7024.00    0.74463   0.82696   -2.000
 7025.00    0.78286   0.82777   -2.000
 7026.00    0.82155   0.82832   -2.000
 7027.00    0.83982   0.82887   -2.000
 7028.00    0.83051   0.82932   -2.000
 7029.00    0.80323   0.82993   -2.000
 7030.00    0.77047   0.83076   -2.000
 7031.00    0.74324   0.83169   -2.000
 7032.00    0.73415   0.83255   -2.000
 7033.00    0.75342   0.83336   -2.000
 7034.00    0.79463   0.83415   -2.000
 7035.00    0.83848   0.83485   -2.000
 7036.00    0.87310   0.83534   -2.000
 7037.00    0.89550   0.83591   -2.000
 7038.00    0.90249   0.83650   -2.000
 7039.00    0.89133   0.83732   -2.000
 7040.00    0.86567   0.83845   -2.000
 7041.00    0.83462   0.83989   -2.000
 7042.00    0.80874   0.84166   -2.000
 7043.00    0.79593   0.84341   -2.000
 7044.00    0.79641   0.84565   -2.000
 7045.00    0.80800   0.84812   -2.000
 7046.00    0.83464   0.85036   -2.000
 7047.00    0.87421   0.85228   -2.000
 7048.00    0.90224   0.85360   -2.000
 7049.00    0.89411   0.85424   -2.000
 7050.00    0.85372   0.85396   -2.000
 7051.00    0.80290   0.85302   -2.000
 7052.00    0.76552   0.85136   -2.000
 7053.00    0.75926   0.84885   -2.000
 7054.00    0.78835   0.84580   -2.000
 7055.00    0.83511   0.84220   -2.000
 7056.00    0.85888   0.83834   -2.000
 7057.00    0.84369   0.83435   -2.000
 7058.00    0.82792   0.83035   -2.000
 7059.00    0.84235   0.82688   -2.000
 7060.00    0.86989   0.82365   -2.000
 7061.00    0.88237   0.82105   -2.000
 7062.00    0.86713   0.81893   -2.000
 7063.00    0.83338   0.81715   -2.000
 7064.00    0.80923   0.81575   -2.000
 7065.00    0.81223   0.81457   -2.000
 7066.00    0.83649   0.81381   -2.000
 7067.00    0.86408   0.81339   -2.000
 7068.00    0.87554   0.81330   -2.000
 7069.00    0.86885   0.81354   -2.000
 7070.00    0.85729   0.81404   -2.000
 7071.00    0.83358   0.81472   -2.000
 7072.00    0.77965   0.81569   -2.000
 7073.00    0.74034   0.81685   -2.000
 7074.00    0.79337   0.81818   -2.000
 7075.00    0.89330   0.81968   -2.000
 7076.00    0.90451   0.82102   -2.000
 7077.00    0.80715   0.82214   -2.000
 7078.00    0.69251   0.82288   -2.000
 7079.00    0.62175   0.82316   -2.000
 7080.00    0.60638   0.82286   -2.000
 7081.00    0.63998   0.82189   -2.000
 7082.00    0.70642   0.82024   -2.000
 7083.00    0.78227   0.81793   -2.000
 7084.00    0.84240   0.81504   -2.000
 7085.00    0.86880   0.81155   -2.000
 7086.00    0.85816   0.80772   -2.000
 7087.00    0.83009   0.80349   -2.000
 7088.00    0.81112   0.79918   -2.000
 7089.00    0.81144   0.79477   -2.000
 7090.00    0.82596   0.79090   -2.000
 7091.00    0.84035   0.78730   -2.000
 7092.00    0.84107   0.78442   -2.000
 7093.00    0.82570   0.78198   -2.000
 7094.00    0.80241   0.78015   -2.000
 7095.00    0.78697   0.77916   -2.000
 7096.00    0.78892   0.77835   -2.000
 7097.00    0.80061   0.77900   -2.000
 7098.00    0.80741   0.77930   -2.000
 7099.00    0.80155   0.78082   -2.000
 7100.00    0.81786   0.78211   -2.000
 7101.00    0.93845   0.78384   -2.000
 7102.00    1.15814   0.78587   -2.000
 7103.00    1.32792   0.78750   -2.000
 7104.00    1.33893   0.78979   -2.000
 7105.00    1.21514   0.79116   -2.000
 7106.00    1.02105   0.79281   -2.000
 7107.00    0.81495   0.79378   -2.000
 7108.00    0.66996   0.79462   -2.000
 7109.00    0.66194   0.79517   -2.000
 7110.00    0.77713   0.79553   -2.000
 7111.00    0.90697   0.79583   -2.000
 7112.00    0.97261   0.79592   -2.000
 7113.00    0.96310   0.79612   -2.000
 7114.00    0.90229   0.79630   -2.000
 7115.00    0.82844   0.79667   -2.000
 7116.00    0.76961   0.79709   -2.000
 7117.00    0.73571   0.79769   -2.000
 7118.00    0.71807   0.79838   -2.000
 7119.00    0.70493   0.79899   -2.000
 7120.00    0.71707   0.79949   -2.000
 7121.00    0.78031   0.79975   -2.000
 7122.00    0.85158   0.79975   -2.000
 7123.00    0.86141   0.79924   -2.000
 7124.00    0.82277   0.79843   -2.000
 7125.00    0.79839   0.79710   -2.000
 7126.00    0.80938   0.79554   -2.000
 7127.00    0.84036   0.79355   -2.000
 7128.00    0.87199   0.79148   -2.000
 7129.00    0.88366   0.78928   -2.000
 7130.00    0.85217   0.78715   -2.000
 7131.00    0.77834   0.78526   -2.000
 7132.00    0.71540   0.78369   -2.000
 7133.00    0.70843   0.78267   -2.000
 7134.00    0.72845   0.78203   -2.000
 7135.00    0.73475   0.78209   -2.000
 7136.00    0.73964   0.78231   -2.000
 7137.00    0.76001   0.78320   -2.000
 7138.00    0.77543   0.78413   -2.000
 7139.00    0.79132   0.78542   -2.000
 7140.00    0.87647   0.78658   -2.000
 7141.00    1.03653   0.78758   -2.000
 7142.00    1.14512   0.78851   -2.000
 7143.00    1.11770   0.78896   -2.000
 7144.00    1.00885   0.78940   -2.000
 7145.00    0.88905   0.78933   -2.000
 7146.00    0.77671   0.78915   -2.000
 7147.00    0.68495   0.78881   -2.000
 7148.00    0.64018   0.78851   -2.000
 7149.00    0.64449   0.78825   -2.000
 7150.00    0.66915   0.78821   -2.000
 7151.00    0.70440   0.78853   -2.000
 7152.00    0.76866   0.78918   -2.000
 7153.00    0.86223   0.79017   -2.000
 7154.00    0.95449   0.79173   -2.000
 7155.00    1.00212   0.79356   -2.000
 7156.00    0.97030   0.79554   -2.000
 7157.00    0.87529   0.79754   -2.000
 7158.00    0.77363   0.79915   -2.000
 7159.00    0.69900   0.80037   -2.000
 7160.00    0.65925   0.80112   -2.000
 7161.00    0.67088   0.80126   -2.000
 7162.00    0.74733   0.80087   -2.000
 7163.00    0.85654   0.79998   -2.000
 7164.00    0.94025   0.79896   -2.000
 7165.00    0.96846   0.79774   -2.000
 7166.00    0.93545   0.79664   -2.000
 7167.00    0.83557   0.79574   -2.000
 7168.00    0.68860   0.79519   -2.000
 7169.00    0.58088   0.79505   -2.000
 7170.00    0.58335   0.79531   -2.000
 7171.00    0.63568   0.79599   -2.000
 7172.00    0.65027   0.79697   -2.000
 7173.00    0.65551   0.79810   -2.000
 7174.00    0.70330   0.79913   -2.000
 7175.00    0.75187   0.79997   -2.000
 7176.00    0.74506   0.80051   -2.000
 7177.00    0.70087   0.80073   -2.000
 7178.00    0.66189   0.80062   -2.000
 7179.00    0.64390   0.80019   -2.000
 7180.00    0.64970   0.79954   -2.000
 7181.00    0.68258   0.79883   -2.000
 7182.00    0.73446   0.79804   -2.000
 7183.00    0.77955   0.79724   -2.000
 7184.00    0.79553   0.79652   -2.000
 7185.00    0.77781   0.79566   -2.000
 7186.00    0.73796   0.79491   -2.000
 7187.00    0.69878   0.79410   -2.000
 7188.00    0.67593   0.79346   -2.000
 7189.00    0.67066   0.79308   -2.000
 7190.00    0.68197   0.79261   -2.000
 7191.00    0.71079   0.79248   -2.000
 7192.00    0.75196   0.79223   -2.000
 7193.00    0.79148   0.79243   -2.000
 7194.00    0.80976   0.79277   -2.000
 7195.00    0.78969   0.79319   -2.000
 7196.00    0.73884   0.79415   -2.000
 7197.00    0.68419   0.79474   -2.000
 7198.00    0.63376   0.79555   -2.000
 7199.00    0.58070   0.79587   -2.000
 7200.00    0.54644   0.79603   -2.000
 7201.00    0.56622   0.79610   -2.000
 7202.00    0.62614   0.79593   -2.000
 7203.00    0.67920   0.79569   -2.000
 7204.00    0.71395   0.79507   -2.000
 7205.00    0.74641   0.79436   -2.000
 7206.00    0.77475   0.79367   -2.000
 7207.00    0.78395   0.79288   -2.000
 7208.00    0.76981   0.79222   -2.000
 7209.00    0.74120   0.79187   -2.000
 7210.00    0.71610   0.79164   -2.000
 7211.00    0.71099   0.79196   -2.000
 7212.00    0.72702   0.79230   -2.000
 7213.00    0.75446   0.79311   -2.000
 7214.00    0.78125   0.79414   -2.000
 7215.00    0.79989   0.79558   -2.000
 7216.00    0.81307   0.79750   -2.000
 7217.00    0.82325   0.79914   -2.000
 7218.00    0.82241   0.80102   -2.000
