###################################################################
## OUTPUT of StarlightChains_v04.for    [Cid@UFSC - 01/Apr/2007] ##
###################################################################

## Some input info
2016esw.txt                              [arq_obs]
Base.CB07.vall.4m                        [arq_base]
Masks.EmLines.NEW.gm                     [arq_masks]
StCv04.C11.config                        [arq_config]
   66                                    [N_base]
    0                                    [N_YAV_components = # of components with extra extinction!]
    0                                    [i_FitPowerLaw (1/0 = Yes/No)]
-9.99                                    [alpha_PowerLaw]
CCM                                      [red_law_option]
 1.458241                                [q_norm = A(l_norm)/A(V)]

## (Re)Sampling Parameters
 3741.00                                 [l_ini (A)]
 7218.00                                 [l_fin (A)]
    1.00                                 [dl    (A)]     (OBS: dl_cushion =    50.00 A)

## Normalization info
 4020.00                                 [l_norm (A) - for base]
 4010.00                                 [llow_norm (A) - window for f_obs]
 4060.00                                 [lupp_norm (A) - window for f_obs]
1.060522E-17                             [fobs_norm (in input units)]

## S/N
 3691.00                                 [llow_SN (A) - window for S/N]
 7268.00                                 [lupp_SN (A) - window for S/N]
   4.071                                 [S/N in S/N window]
   4.361                                 [S/N in norm. window]
   6.265                                 [S/N_err in S/N window]
   6.711                                 [S/N_err in norm. window]
  1.0000                                 [fscale_chi2]

## etc...
    -2007432                             [idum_orig]
  2303                                   [NOl_eff]
  2152                                   [Nl_eff]
   151    NSIGMA                         [Ntot_cliped & clip_method]
   456540                                [Nglobal_steps]
   7                                     [N_chains]
   8                                     [NEX0s_base = N_base in EX0s-fits]
 0   0   1       40   2.0   2.359E+01    [Clip-Bug, RC-Crash & Burn-In warning-flags, n_censored_weights, wei_nsig_threshold & wei_limit]
    12     10.788     10.250      0.539  [idt_all, wdt_TotTime, wdt_UsrTime & wdt_SysTime (sec)]

## Synthesis Results - Best model ##

 6.72357E-01                             [chi2/Nl_eff]
    10.20096                             [adev (%)]

   107.49420                             [sum-of-x (%)]
 2.97583E-18                             [Flux_tot (units of input spectrum!)]
 9.85780E-14                             [Mini_tot (???)]
 5.30039E-14                             [Mcor_tot (???)]

-152.31                                  [v0_min  (km/s)]
 251.37                                  [vd_min  (km/s)]
-1.0000                                  [AV_min  (mag)]
 0.0000                                  [YAV_min (mag)]

# j     x_j(%)      Mini_j(%)     Mcor_j(%)     age_j(yr)     Z_j      (L/M)_j    YAV?  Mstars   component_j        a/Fe...       SSP_chi2r SSP_adev(%)   SSP_AV   SSP_x(%)
  1      0.0000     0.0000E+00    0.0000E+00    1.000000E+06  0.00400  1.094E-02    0   1.0000   age020_m42            0.0000     1.8815E+00    15.5011   3.0835    77.6983
  2      0.0000     0.0000E+00    0.0000E+00    3.160000E+06  0.00400  4.007E-02    0   0.9999   age045_m42            0.0000     1.7369E+00    14.8098   2.3149    84.8885
  3      0.0000     0.0000E+00    0.0000E+00    5.010000E+06  0.00400  2.539E-02    0   0.9488   age055_m42            0.0000     1.8463E+00    15.2801   2.6644    81.5534
  4      0.0000     0.0000E+00    0.0000E+00    6.610000E+06  0.00400  2.620E-02    0   0.9220   age061_m42            0.0000     1.7911E+00    15.0176   2.2491    84.7273
  5      0.0000     0.0000E+00    0.0000E+00    1.000000E+07  0.00400  1.322E-02    0   0.8862   age070_m42            0.0000     2.0426E+00    16.1513   1.9801    85.7478
  6      0.0000     0.0000E+00    0.0000E+00    1.445000E+07  0.00400  7.883E-03    0   0.8571   age078_m42            0.0000     2.0564E+00    16.2049   2.3186    83.1220
  7      0.0000     0.0000E+00    0.0000E+00    2.512000E+07  0.00400  5.251E-03    0   0.8174   age090_m42            0.0000     2.0834E+00    16.3188   1.8477    86.2979
  8      0.0000     0.0000E+00    0.0000E+00    4.000000E+07  0.00400  3.649E-03    0   0.7851   age104_m42            0.0000     1.9939E+00    15.9698   1.6032    87.8110
  9      0.0000     0.0000E+00    0.0000E+00    5.500000E+07  0.00400  3.098E-03    0   0.7629   age110_m42            0.0000     1.8951E+00    15.4494   1.7517    88.1679
 10      0.0000     0.0000E+00    0.0000E+00    1.015200E+08  0.00400  2.228E-03    0   0.7207   age116_m42            0.0000     1.8370E+00    15.1186   1.7677    88.5937
 11      0.0000     0.0000E+00    0.0000E+00    2.861200E+08  0.00400  1.093E-03    0   0.6648   age125_m42            0.0000     1.8248E+00    15.1707   1.1738    92.4299
 12      0.0000     0.0000E+00    0.0000E+00    5.088000E+08  0.00400  6.597E-04    0   0.6365   age130_m42            0.0000     1.6573E+00    14.3825   1.1405    94.4169
 13      0.0000     0.0000E+00    0.0000E+00    1.434000E+09  0.00400  2.132E-04    0   0.5798   age139_m42            0.0000     1.2739E+00    12.9330   0.0840   100.5325
 14      0.0000     0.0000E+00    0.0000E+00    4.250000E+09  0.00400  5.895E-05    0   0.5377   age158_m42            0.0000     9.3646E-01    11.5837  -0.4176    99.7078
 15      0.0000     0.0000E+00    0.0000E+00    7.500000E+09  0.00400  3.510E-05    0   0.5212   age171_m42            0.0000     8.5230E-01    11.1662  -0.6281   100.2361
 16      0.0000     0.0000E+00    0.0000E+00    1.300000E+10  0.00400  2.005E-05    0   0.5034   age193_m42            0.0000     8.0331E-01    10.8947  -0.8096   100.5778
 17      0.0000     0.0000E+00    0.0000E+00    1.800000E+10  0.00400  1.525E-05    0   0.4967   age213_m42            0.0000     8.1180E-01    10.9248  -0.8304   100.0022
 18      0.0000     0.0000E+00    0.0000E+00    1.000000E+06  0.00800  1.238E-02    0   1.0000   age020_m52            0.0000     1.8803E+00    15.4855   3.0788    77.8872
 19      0.0000     0.0000E+00    0.0000E+00    3.160000E+06  0.00800  3.074E-02    0   0.9966   age045_m52            0.0000     1.8691E+00    15.4249   3.0013    78.6129
 20      0.0000     0.0000E+00    0.0000E+00    5.010000E+06  0.00800  2.668E-02    0   0.9443   age055_m52            0.0000     1.8646E+00    15.3910   2.7516    80.6215
 21      0.0000     0.0000E+00    0.0000E+00    6.610000E+06  0.00800  2.136E-02    0   0.9177   age061_m52            0.0000     1.7986E+00    15.3688   1.4369    88.6632
 22      0.0000     0.0000E+00    0.0000E+00    1.000000E+07  0.00800  1.215E-02    0   0.8827   age070_m52            0.0000     2.1356E+00    16.5699   2.1678    85.1696
 23      0.0000     0.0000E+00    0.0000E+00    1.445000E+07  0.00800  8.717E-03    0   0.8552   age078_m52            0.0000     2.0454E+00    16.1754   2.2802    84.4408
 24      0.0000     0.0000E+00    0.0000E+00    2.512000E+07  0.00800  5.592E-03    0   0.8162   age090_m52            0.0000     2.0848E+00    16.3303   1.9075    87.5318
 25      0.0000     0.0000E+00    0.0000E+00    4.000000E+07  0.00800  3.896E-03    0   0.7841   age104_m52            0.0000     1.9866E+00    15.9108   1.8047    88.9761
 26      0.0000     0.0000E+00    0.0000E+00    1.015200E+08  0.00800  2.148E-03    0   0.7226   age116_m52            0.0000     1.8188E+00    15.1942   1.7257    89.7261
 27      0.0000     0.0000E+00    0.0000E+00    2.861200E+08  0.00800  9.925E-04    0   0.6683   age125_m52            0.0000     1.6482E+00    14.3990   1.2026    95.4297
 28      0.0000     0.0000E+00    0.0000E+00    9.047900E+08  0.00800  3.141E-04    0   0.6138   age135_m52            0.0000     1.0622E+00    12.0623   0.2641   106.8095
 29      0.0000     0.0000E+00    0.0000E+00    1.434000E+09  0.00800  1.719E-04    0   0.5853   age139_m52            0.0000     1.0094E+00    11.9081  -0.3110   104.4177
 30      0.0000     0.0000E+00    0.0000E+00    2.500000E+09  0.00800  7.872E-05    0   0.5600   age150_m52            0.0000     8.3252E-01    11.0605  -0.6137   103.3988
 31      0.0000     0.0000E+00    0.0000E+00    4.250000E+09  0.00800  4.336E-05    0   0.5426   age158_m52            0.0000     8.0382E-01    10.8907  -0.6401   102.9744
 32      0.0000     0.0000E+00    0.0000E+00    6.250000E+09  0.00800  3.159E-05    0   0.5319   age166_m52            0.0000     7.3635E-01    10.4859  -0.8668   104.2901
 33      0.0000     0.0000E+00    0.0000E+00    1.300000E+10  0.00800  1.361E-05    0   0.5073   age193_m52            0.0000     9.0922E-01    12.7721  -1.0000    90.4327
 34      0.0000     0.0000E+00    0.0000E+00    1.800000E+10  0.00800  9.886E-06    0   0.4990   age213_m52            0.0000     1.0439E+00    13.6722  -1.0000    86.0064
 35      0.0000     0.0000E+00    0.0000E+00    1.000000E+06  0.02000  1.544E-02    0   1.0000   age020_m62            0.0000     1.8825E+00    15.4996   3.0758    78.0282
 36      0.0000     0.0000E+00    0.0000E+00    3.160000E+06  0.02000  3.762E-02    0   0.9858   age045_m62            0.0000     1.8829E+00    15.5120   3.0185    78.5878
 37      0.0000     0.0000E+00    0.0000E+00    5.010000E+06  0.02000  3.296E-02    0   0.9342   age055_m62            0.0000     1.8065E+00    15.0988   2.6187    82.8322
 38      0.0000     0.0000E+00    0.0000E+00    8.710000E+06  0.02000  1.154E-02    0   0.8861   age067_m62            0.0000     2.8057E+00    19.4677   1.6416    86.0646
 39      0.0000     0.0000E+00    0.0000E+00    1.445000E+07  0.02000  7.663E-03    0   0.8472   age078_m62            0.0000     2.2447E+00    17.1377   1.8047    87.4603
 40      0.0000     0.0000E+00    0.0000E+00    2.512000E+07  0.02000  4.532E-03    0   0.8099   age090_m62            0.0000     2.3319E+00    17.4432   1.8070    86.7754
 41      0.0000     0.0000E+00    0.0000E+00    5.500000E+07  0.02000  2.733E-03    0   0.7595   age110_m62            0.0000     2.0091E+00    16.0113   1.7969    87.8899
 42      0.0000     0.0000E+00    0.0000E+00    1.609000E+08  0.02000  1.369E-03    0   0.6985   age120_m62            0.0000     1.8404E+00    15.1743   1.6105    91.6156
 43      0.0000     0.0000E+00    0.0000E+00    2.861200E+08  0.02000  9.013E-04    0   0.6714   age125_m62            0.0000     1.6923E+00    14.4897   1.3223    96.1143
 44      0.0000     0.0000E+00    0.0000E+00    5.088000E+08  0.02000  5.028E-04    0   0.6449   age130_m62            0.0000     1.2700E+00    12.7705   0.8522   103.5383
 45      0.0000     0.0000E+00    0.0000E+00    9.047900E+08  0.02000  2.428E-04    0   0.6179   age135_m62            0.0000     9.3148E-01    11.4709   0.1926   106.8633
 46      0.0000     0.0000E+00    0.0000E+00    1.434000E+09  0.02000  1.263E-04    0   0.5908   age139_m62            0.0000     8.4063E-01    11.0634  -0.2715   106.3460
 47      0.0000     0.0000E+00    0.0000E+00    2.500000E+09  0.02000  5.985E-05    0   0.5673   age150_m62            0.0000     7.4361E-01    10.5549  -0.6599   106.1201
 48      0.0000     0.0000E+00    0.0000E+00    4.250000E+09  0.02000  3.271E-05    0   0.5468   age158_m62            0.0000     6.8341E-01    10.1910  -0.9888   106.5363
 49      5.7222     1.1816E+01    1.1355E+01    1.000000E+10  0.02000  1.360E-05    0   0.5167   age181_m62            0.0000     8.7785E-01    12.3830  -1.0000    92.6321
 50      7.7334     3.0485E+01    2.8422E+01    1.800000E+10  0.02000  7.124E-06    0   0.5013   age213_m62            0.0000     1.1866E+00    14.3252  -1.0000    83.9679
 51      0.0000     0.0000E+00    0.0000E+00    1.000000E+06  0.05000  2.592E-02    0   0.9998   age020_m72            0.0000     1.8899E+00    15.5517   3.0682    78.0131
 52      0.0000     0.0000E+00    0.0000E+00    3.160000E+06  0.05000  4.845E-02    0   0.9577   age045_m72            0.0000     1.8493E+00    15.3278   2.8964    79.8610
 53      0.0000     0.0000E+00    0.0000E+00    5.010000E+06  0.05000  3.072E-02    0   0.9147   age055_m72            0.0000     2.1121E+00    16.5145   2.4086    83.6724
 54      0.0000     0.0000E+00    0.0000E+00    6.610000E+06  0.05000  1.455E-02    0   0.8877   age061_m72            0.0000     3.2374E+00    21.2348   1.7082    86.2926
 55      0.0000     0.0000E+00    0.0000E+00    1.000000E+07  0.05000  9.074E-03    0   0.8524   age070_m72            0.0000     2.1703E+00    16.6941   2.6113    82.9924
 56      0.0000     0.0000E+00    0.0000E+00    2.512000E+07  0.05000  4.250E-03    0   0.7902   age090_m72            0.0000     2.1561E+00    16.5841   2.2889    85.2218
 57      0.0000     0.0000E+00    0.0000E+00    4.000000E+07  0.05000  3.087E-03    0   0.7618   age104_m72            0.0000     2.1975E+00    16.7480   2.0554    86.8418
 58      0.0000     0.0000E+00    0.0000E+00    1.015200E+08  0.05000  1.700E-03    0   0.7096   age116_m72            0.0000     1.9502E+00    15.6492   1.7649    90.6616
 59      0.0000     0.0000E+00    0.0000E+00    2.861200E+08  0.05000  7.384E-04    0   0.6633   age125_m72            0.0000     1.4854E+00    13.6287   1.1456    99.7527
 60      0.0000     0.0000E+00    0.0000E+00    5.088000E+08  0.05000  3.819E-04    0   0.6372   age130_m72            0.0000     1.0694E+00    11.9836   0.5645   106.0606
 61      9.4561     1.5845E+00    1.8005E+00    9.047900E+08  0.05000  1.676E-04    0   0.6110   age135_m72            0.0000     7.6090E-01    10.6392  -0.1993   107.8731
 62      0.0000     0.0000E+00    0.0000E+00    1.434000E+09  0.05000  8.837E-05    0   0.5874   age139_m72            0.0000     7.1957E-01    10.3831  -0.6781   108.6458
 63     84.5826     5.6115E+01    5.8423E+01    2.500000E+09  0.05000  4.233E-05    0   0.5598   age150_m72            0.0000     6.7256E-01    10.1298  -0.9993   108.0077
 64      0.0000     0.0000E+00    0.0000E+00    6.250000E+09  0.05000  1.435E-05    0   0.5249   age166_m72            0.0000     9.9961E-01    13.2712  -1.0000    88.4948
 65      0.0000     0.0000E+00    0.0000E+00    1.300000E+10  0.05000  6.513E-06    0   0.5036   age193_m72            0.0000     1.4895E+00    16.0447  -1.0000    78.9555
 66      0.0000     0.0000E+00    0.0000E+00    1.800000E+10  0.05000  4.527E-06    0   0.4945   age213_m72            0.0000     1.8437E+00    17.7229  -1.0000    73.2395


## Synthesis Results - Average & Chains ##

# j      x_j: min, <> & last-chain-values for 1 ...  7 chains
  1      0.0000      0.0106      0.0000      0.0000      0.0000      0.0000      0.0000      0.0000      0.0000
  2      0.0000      0.0085      0.0000      0.0000      0.0000      0.0000      0.0000      0.0000      0.0000
  3      0.0000      0.0047      0.0000      0.0000      0.0000      0.0000      0.0000      0.0000      0.0000
  4      0.0000      0.0058      0.0000      0.0000      0.0000      0.0000      0.1235      0.0000      0.0000
  5      0.0000      0.0104      0.0000      0.0000      0.0000      0.0000      0.0000      0.0000      0.0000
  6      0.0000      0.0176      0.0000      0.0000      0.0000      0.0000      0.0000      0.0000      0.0000
  7      0.0000      0.0059      0.0000      0.0000      0.0000      0.0000      0.0000      0.0000      0.0000
  8      0.0000      0.0153      0.0000      0.0000      0.0000      0.0000      0.0000      0.0000      0.0000
  9      0.0000      0.0316      0.0000      0.0000      0.0000      0.0000      0.0000      0.0000      0.0000
 10      0.0000      0.0183      0.0000      0.0236      0.0000      0.0000      0.0000      0.0000      0.0000
 11      0.0000      0.0315      0.0000      0.0000      0.0000      0.0000      0.0000      0.0000      0.0000
 12      0.0000      0.0408      0.0000      0.0000      0.0000      0.0000      0.0000      0.0000      0.0000
 13      0.0000      0.0819      0.0000      0.0357      0.0000      0.0000      0.0000      0.0000      0.0000
 14      0.0000      0.2131      0.0000      0.0000      0.0000      0.0000      0.1694      0.0000      0.0000
 15      0.0000      0.4712      0.0000      0.0000      2.3662      0.5600      0.0000      0.2609      0.0000
 16      0.0000      0.5811      0.0000      2.9214      0.0000      0.0000      0.0000      0.0000      0.3471
 17      0.0000      0.5542      0.0000      0.0000      0.2995      0.0000      0.0000      0.0000      0.0000
 18      0.0000      0.0117      0.0000      0.0000      0.0000      0.0000      0.0000      0.0000      0.0000
 19      0.0000      0.0094      0.0000      0.0000      0.0000      0.0000      0.0000      0.0000      0.0000
 20      0.0000      0.0067      0.0000      0.0000      0.0000      0.0000      0.0000      0.0000      0.0000
 21      0.0000      0.0085      0.0000      0.0000      0.0000      0.0000      0.0000      0.0000      0.0000
 22      0.0000      0.0058      0.0000      0.0000      0.0000      0.0000      0.0000      0.0000      0.0000
 23      0.0000      0.0115      0.0000      0.0000      0.0000      0.0000      0.0000      0.0000      0.0000
 24      0.0000      0.0170      0.0141      0.0000      0.0000      0.0000      0.0000      0.0000      0.0000
 25      0.0000      0.0118      0.0000      0.0000      0.0000      0.0000      0.0000      0.0000      0.0000
 26      0.0000      0.0125      0.0000      0.0000      0.0000      0.0000      0.0000      0.0000      0.0000
 27      0.0000      0.0284      0.0000      0.0175      0.0000      0.0000      0.0000      0.0000      0.0000
 28      0.0000      0.1566      0.0000      0.9804      0.0000      0.0000      0.0817      0.0000      0.0000
 29      0.0000      0.1734      0.0000      0.5320      0.0000      0.0000      0.0000      0.0000      0.0000
 30      0.0000      0.5111      0.0000      0.0000      0.0000      1.0992      0.0000      0.0407      0.0000
 31      0.0000      0.7153      0.0000      4.9213      0.0000      0.0000      0.0000      0.0000      1.1791
 32      0.0000      0.8215      0.0000      0.0000      0.0000      0.0000      0.0000      1.6008      0.4333
 33      0.0000      0.1419      0.0000      0.0000      0.0000      0.0000      0.0000      0.6357      0.0000
 34      0.0000      0.3776      0.0000      0.0000      0.0000      0.0000      0.0000      0.0000      1.0652
 35      0.0000      0.0035      0.0000      0.0000      0.0000      0.0000      0.0000      0.0000      0.0000
 36      0.0000      0.0072      0.0000      0.0000      0.0000      0.0000      0.0000      0.0000      0.0000
 37      0.0000      0.0029      0.0000      0.0000      0.0000      0.0000      0.0000      0.0000      0.0000
 38      0.0000      0.0032      0.0000      0.0000      0.0000      0.0000      0.0000      0.0000      0.0000
 39      0.0000      0.0097      0.0000      0.0000      0.0000      0.0000      0.0000      0.0000      0.0000
 40      0.0000      0.0046      0.0000      0.0000      0.0000      0.0000      0.0000      0.0000      0.0000
 41      0.0000      0.0091      0.0000      0.0000      0.0000      0.0000      0.0000      0.0000      0.0000
 42      0.0000      0.0152      0.0000      0.0000      0.0000      0.0000      0.0000      0.0000      0.0000
 43      0.0000      0.0153      0.0000      0.0000      0.0000      0.0000      0.0000      0.0000      0.0000
 44      0.0000      0.1996      0.0000      0.0000      0.0000      0.0000      0.0000      0.0000      0.0000
 45      0.0000      0.4664      0.8960      0.0764      0.0000      0.0000      0.4973      0.0000      0.0000
 46      0.0000      1.1511      1.7993      3.2723      0.0000      0.0000      0.0000      1.3103      4.2297
 47      0.0000      4.8014      0.0000      1.4716      0.0000      5.8383      8.2007      4.9925      1.0581
 48      0.0000      6.8014     14.9874      8.3168     14.1672      8.3548      7.7163      5.6293     11.8671
 49      5.7222      2.5288      0.0000      3.3601      4.0269      7.8218      3.6743      0.0000      0.0000
 50      7.7334      1.8962      0.0000      0.7875      3.1322      2.9293      3.5457      2.8118      1.7092
 51      0.0000      0.0125      0.0000      0.0000      0.0000      0.0000      0.0000      0.0000      0.0000
 52      0.0000      0.0028      0.0000      0.0000      0.0000      0.0000      0.0000      0.0000      0.0000
 53      0.0000      0.0047      0.0000      0.0000      0.0000      0.0000      0.0000      0.0000      0.0000
 54      0.0000      0.0051      0.0000      0.0000      0.0000      0.0000      0.0000      0.0000      0.0000
 55      0.0000      0.0073      0.0000      0.0000      0.0000      0.0000      0.0000      0.0000      0.0000
 56      0.0000      0.0119      0.0000      0.0000      0.0000      0.0000      0.0000      0.0000      0.0000
 57      0.0000      0.0136      0.0000      0.0000      0.0000      0.0000      0.0000      0.0000      0.0000
 58      0.0000      0.0200      0.0000      0.0000      0.0000      0.0000      0.0000      0.0000      0.0000
 59      0.0000      0.0498      0.0000      0.0000      0.0000      0.0000      0.0000      0.0000      0.0000
 60      0.0000      0.3100      0.0000      0.0000      0.0000      0.0000      0.0000      0.0000      0.0000
 61      9.4561     30.1001     33.4601      9.2766     30.5531     31.1706     24.8009     28.2655     26.7839
 62      0.0000     28.1239     30.7993     27.3478     26.1365     19.6137     30.2254     32.4934     28.9852
 63     84.5826     22.0333     20.8933     40.5732     24.9178     27.9482     24.2374     25.4455     20.3203
 64      0.0000      0.7363      2.8391      0.0000      0.0000      0.0000      3.0437      1.7683      1.6166
 65      0.0000      0.1878      0.0000      0.0000      0.0000      0.2495      0.0000      0.4953      4.2322
 66      0.0000      0.1285      0.4117      1.2056      0.0000      0.4102      0.0000      0.0000      0.8467

# j      m_j: min, <> & last-chain-values for 1 ...  7 chains
  1  0.0000E+00  8.5504E-05  0.0000E+00  0.0000E+00  0.0000E+00  0.0000E+00  0.0000E+00  0.0000E+00  0.0000E+00
  2  0.0000E+00  1.8648E-05  0.0000E+00  0.0000E+00  0.0000E+00  0.0000E+00  0.0000E+00  0.0000E+00  0.0000E+00
  3  0.0000E+00  1.5638E-05  0.0000E+00  0.0000E+00  0.0000E+00  0.0000E+00  0.0000E+00  0.0000E+00  0.0000E+00
  4  0.0000E+00  1.7875E-05  0.0000E+00  0.0000E+00  0.0000E+00  0.0000E+00  3.2877E-04  0.0000E+00  0.0000E+00
  5  0.0000E+00  6.1693E-05  0.0000E+00  0.0000E+00  0.0000E+00  0.0000E+00  0.0000E+00  0.0000E+00  0.0000E+00
  6  0.0000E+00  1.6875E-04  0.0000E+00  0.0000E+00  0.0000E+00  0.0000E+00  0.0000E+00  0.0000E+00  0.0000E+00
  7  0.0000E+00  8.0809E-05  0.0000E+00  0.0000E+00  0.0000E+00  0.0000E+00  0.0000E+00  0.0000E+00  0.0000E+00
  8  0.0000E+00  2.9016E-04  0.0000E+00  0.0000E+00  0.0000E+00  0.0000E+00  0.0000E+00  0.0000E+00  0.0000E+00
  9  0.0000E+00  6.8710E-04  0.0000E+00  0.0000E+00  0.0000E+00  0.0000E+00  0.0000E+00  0.0000E+00  0.0000E+00
 10  0.0000E+00  5.2309E-04  0.0000E+00  5.5584E-04  0.0000E+00  0.0000E+00  0.0000E+00  0.0000E+00  0.0000E+00
 11  0.0000E+00  1.6916E-03  0.0000E+00  0.0000E+00  0.0000E+00  0.0000E+00  0.0000E+00  0.0000E+00  0.0000E+00
 12  0.0000E+00  3.4728E-03  0.0000E+00  0.0000E+00  0.0000E+00  0.0000E+00  0.0000E+00  0.0000E+00  0.0000E+00
 13  0.0000E+00  1.9660E-02  0.0000E+00  7.0607E-03  0.0000E+00  0.0000E+00  0.0000E+00  0.0000E+00  0.0000E+00
 14  0.0000E+00  1.7155E-01  0.0000E+00  0.0000E+00  0.0000E+00  0.0000E+00  1.1686E-01  0.0000E+00  0.0000E+00
 15  0.0000E+00  6.1736E-01  0.0000E+00  0.0000E+00  2.7671E+00  5.9732E-01  0.0000E+00  3.3430E-01  0.0000E+00
 16  0.0000E+00  1.2873E+00  0.0000E+00  5.3377E+00  0.0000E+00  0.0000E+00  0.0000E+00  0.0000E+00  5.9255E-01
 17  0.0000E+00  1.5927E+00  0.0000E+00  0.0000E+00  7.6825E-01  0.0000E+00  0.0000E+00  0.0000E+00  0.0000E+00
 18  0.0000E+00  8.3080E-05  0.0000E+00  0.0000E+00  0.0000E+00  0.0000E+00  0.0000E+00  0.0000E+00  0.0000E+00
 19  0.0000E+00  2.6970E-05  0.0000E+00  0.0000E+00  0.0000E+00  0.0000E+00  0.0000E+00  0.0000E+00  0.0000E+00
 20  0.0000E+00  2.0889E-05  0.0000E+00  0.0000E+00  0.0000E+00  0.0000E+00  0.0000E+00  0.0000E+00  0.0000E+00
 21  0.0000E+00  3.2254E-05  0.0000E+00  0.0000E+00  0.0000E+00  0.0000E+00  0.0000E+00  0.0000E+00  0.0000E+00
 22  0.0000E+00  3.7212E-05  0.0000E+00  0.0000E+00  0.0000E+00  0.0000E+00  0.0000E+00  0.0000E+00  0.0000E+00
 23  0.0000E+00  9.9816E-05  0.0000E+00  0.0000E+00  0.0000E+00  0.0000E+00  0.0000E+00  0.0000E+00  0.0000E+00
 24  0.0000E+00  2.1858E-04  2.0327E-04  0.0000E+00  0.0000E+00  0.0000E+00  0.0000E+00  0.0000E+00  0.0000E+00
 25  0.0000E+00  2.0985E-04  0.0000E+00  0.0000E+00  0.0000E+00  0.0000E+00  0.0000E+00  0.0000E+00  0.0000E+00
 26  0.0000E+00  3.7136E-04  0.0000E+00  0.0000E+00  0.0000E+00  0.0000E+00  0.0000E+00  0.0000E+00  0.0000E+00
 27  0.0000E+00  1.6878E-03  0.0000E+00  8.5835E-04  0.0000E+00  0.0000E+00  0.0000E+00  0.0000E+00  0.0000E+00
 28  0.0000E+00  2.6997E-02  0.0000E+00  1.3941E-01  0.0000E+00  0.0000E+00  1.2070E-02  0.0000E+00  0.0000E+00
 29  0.0000E+00  5.2104E-02  0.0000E+00  1.3181E-01  0.0000E+00  0.0000E+00  0.0000E+00  0.0000E+00  0.0000E+00
 30  0.0000E+00  3.2082E-01  0.0000E+00  0.0000E+00  0.0000E+00  5.6167E-01  0.0000E+00  2.5014E-02  0.0000E+00
 31  0.0000E+00  7.8985E-01  0.0000E+00  4.4815E+00  0.0000E+00  0.0000E+00  0.0000E+00  0.0000E+00  1.0032E+00
 32  0.0000E+00  1.2205E+00  0.0000E+00  0.0000E+00  0.0000E+00  0.0000E+00  0.0000E+00  2.3261E+00  4.9599E-01
 33  0.0000E+00  4.6683E-01  0.0000E+00  0.0000E+00  0.0000E+00  0.0000E+00  0.0000E+00  2.0449E+00  0.0000E+00
 34  0.0000E+00  1.6818E+00  0.0000E+00  0.0000E+00  0.0000E+00  0.0000E+00  0.0000E+00  0.0000E+00  3.6553E+00
 35  0.0000E+00  2.0031E-05  0.0000E+00  0.0000E+00  0.0000E+00  0.0000E+00  0.0000E+00  0.0000E+00  0.0000E+00
 36  0.0000E+00  1.6552E-05  0.0000E+00  0.0000E+00  0.0000E+00  0.0000E+00  0.0000E+00  0.0000E+00  0.0000E+00
 37  0.0000E+00  7.2489E-06  0.0000E+00  0.0000E+00  0.0000E+00  0.0000E+00  0.0000E+00  0.0000E+00  0.0000E+00
 38  0.0000E+00  2.1422E-05  0.0000E+00  0.0000E+00  0.0000E+00  0.0000E+00  0.0000E+00  0.0000E+00  0.0000E+00
 39  0.0000E+00  9.5040E-05  0.0000E+00  0.0000E+00  0.0000E+00  0.0000E+00  0.0000E+00  0.0000E+00  0.0000E+00
 40  0.0000E+00  7.2220E-05  0.0000E+00  0.0000E+00  0.0000E+00  0.0000E+00  0.0000E+00  0.0000E+00  0.0000E+00
 41  0.0000E+00  2.2351E-04  0.0000E+00  0.0000E+00  0.0000E+00  0.0000E+00  0.0000E+00  0.0000E+00  0.0000E+00
 42  0.0000E+00  6.8650E-04  0.0000E+00  0.0000E+00  0.0000E+00  0.0000E+00  0.0000E+00  0.0000E+00  0.0000E+00
 43  0.0000E+00  1.0084E-03  0.0000E+00  0.0000E+00  0.0000E+00  0.0000E+00  0.0000E+00  0.0000E+00  0.0000E+00
 44  0.0000E+00  2.2593E-02  0.0000E+00  0.0000E+00  0.0000E+00  0.0000E+00  0.0000E+00  0.0000E+00  0.0000E+00
 45  0.0000E+00  1.0474E-01  2.2509E-01  1.4147E-02  0.0000E+00  0.0000E+00  9.5725E-02  0.0000E+00  0.0000E+00
 46  0.0000E+00  4.7513E-01  8.3080E-01  1.1139E+00  0.0000E+00  0.0000E+00  0.0000E+00  5.2895E-01  1.3451E+00
 47  0.0000E+00  4.0159E+00  0.0000E+00  1.0151E+00  0.0000E+00  3.9751E+00  5.8799E+00  4.0839E+00  6.8187E-01
 48  0.0000E+00  1.0033E+01  2.4730E+01  1.0117E+01  1.8651E+01  1.0032E+01  9.7573E+00  8.1210E+00  1.3487E+01
 49  1.1355E+01  8.4777E+00  0.0000E+00  9.2899E+00  1.2049E+01  2.1346E+01  1.0560E+01  0.0000E+00  0.0000E+00
 50  2.8422E+01  1.1774E+01  0.0000E+00  4.0323E+00  1.7358E+01  1.4807E+01  1.8873E+01  1.7075E+01  8.1770E+00
 51  0.0000E+00  4.2595E-05  0.0000E+00  0.0000E+00  0.0000E+00  0.0000E+00  0.0000E+00  0.0000E+00  0.0000E+00
 52  0.0000E+00  4.8874E-06  0.0000E+00  0.0000E+00  0.0000E+00  0.0000E+00  0.0000E+00  0.0000E+00  0.0000E+00
 53  0.0000E+00  1.2389E-05  0.0000E+00  0.0000E+00  0.0000E+00  0.0000E+00  0.0000E+00  0.0000E+00  0.0000E+00
 54  0.0000E+00  2.7426E-05  0.0000E+00  0.0000E+00  0.0000E+00  0.0000E+00  0.0000E+00  0.0000E+00  0.0000E+00
 55  0.0000E+00  6.0684E-05  0.0000E+00  0.0000E+00  0.0000E+00  0.0000E+00  0.0000E+00  0.0000E+00  0.0000E+00
 56  0.0000E+00  1.9509E-04  0.0000E+00  0.0000E+00  0.0000E+00  0.0000E+00  0.0000E+00  0.0000E+00  0.0000E+00
 57  0.0000E+00  2.9541E-04  0.0000E+00  0.0000E+00  0.0000E+00  0.0000E+00  0.0000E+00  0.0000E+00  0.0000E+00
 58  0.0000E+00  7.3708E-04  0.0000E+00  0.0000E+00  0.0000E+00  0.0000E+00  0.0000E+00  0.0000E+00  0.0000E+00
 59  0.0000E+00  3.9467E-03  0.0000E+00  0.0000E+00  0.0000E+00  0.0000E+00  0.0000E+00  0.0000E+00  0.0000E+00
 60  0.0000E+00  4.5638E-02  0.0000E+00  0.0000E+00  0.0000E+00  0.0000E+00  0.0000E+00  0.0000E+00  0.0000E+00
 61  1.8005E+00  9.6828E+00  1.2041E+01  2.4610E+00  8.7720E+00  8.1626E+00  6.8392E+00  8.8928E+00  6.6383E+00
 62  0.0000E+00  1.6496E+01  2.0208E+01  1.3228E+01  1.3682E+01  9.3649E+00  1.5198E+01  1.8640E+01  1.3098E+01
 63  5.8423E+01  2.5712E+01  2.7274E+01  3.9046E+01  2.5952E+01  2.6549E+01  2.4246E+01  2.9041E+01  1.8270E+01
 64  0.0000E+00  2.3767E+00  1.0251E+01  0.0000E+00  0.0000E+00  0.0000E+00  8.4218E+00  5.5820E+00  4.0202E+00
 65  0.0000E+00  1.2812E+00  0.0000E+00  0.0000E+00  0.0000E+00  1.3856E+00  0.0000E+00  3.3052E+00  2.2248E+01
 66  0.0000E+00  1.2388E+00  4.4391E+00  9.5831E+00  0.0000E+00  3.2187E+00  0.0000E+00  0.0000E+00  6.2878E+00

# AV, chi2 & Mass for <> & i_chain = 1 ...  7 solutions
AV      -1.0000     -0.6260     -0.6454     -0.7846     -0.7054     -0.7368     -0.7384     -0.6807     -0.7121
chi2 6.7236E-01  7.2552E-01  7.1501E-01  7.0516E-01  7.0819E-01  7.0415E-01  7.0510E-01  7.1249E-01  7.1575E-01
Mass 5.3004E-14  5.1848E-14  4.5157E-14  5.0805E-14  5.2213E-14  5.4881E-14  5.2001E-14  4.9256E-14  5.9945E-14
-152.31                                  [v0_min (km/s) before EX0s...]
 251.37                                  [vd_min (km/s) before EX0s...]


## Synthetic spectrum (Best Model) ##l_obs f_obs f_syn wei
 3478    [Nl_obs]
 3741.00   -2.12884   0.51868   -2.000
 3742.00   -1.58657   0.50071   -2.000
 3743.00   -0.79241   0.47995   -2.000
 3744.00   -0.15173   0.46150   -2.000
 3745.00    0.18786   0.44892   -1.000
 3746.00    0.24774   0.44374   23.591
 3747.00    0.09429   0.45057   -1.000
 3748.00   -0.10753   0.47218   -2.000
 3749.00   -0.07087   0.50314   -2.000
 3750.00    0.34489   0.53422   -1.000
 3751.00    0.94840   0.56165   -1.000
 3752.00    1.38602   0.58545   -1.000
 3753.00    1.30900   0.60096   -1.000
 3754.00    0.62080   0.60227   16.108
 3755.00   -0.40502   0.59126   -2.000
 3756.00   -1.27048   0.57754   -2.000
 3757.00   -1.44736   0.56858   -2.000
 3758.00   -0.88138   0.56344   -2.000
 3759.00   -0.09388   0.55895   -2.000
 3760.00    0.36057   0.55603   -1.000
 3761.00    0.20300   0.55729   -1.000
 3762.00   -0.30793   0.56272   -2.000
 3763.00   -0.55243   0.56771   -2.000
 3764.00   -0.37447   0.56967   -2.000
 3765.00   -0.12734   0.57348   -2.000
 3766.00   -0.06550   0.58305   -2.000
 3767.00   -0.17116   0.59457   -2.000
 3768.00   -0.17089   0.60542   -2.000
 3769.00    0.20070   0.61975   -1.000
 3770.00    0.67397   0.63828   14.837
 3771.00    0.78565   0.65544   12.728
 3772.00    0.70722   0.66930   14.140
 3773.00    0.85297   0.68316   -1.000
 3774.00    1.00354   0.69795   -1.000
 3775.00    0.80914   0.71144   12.359
 3776.00    0.68457   0.72355   14.608
 3777.00    1.05898   0.73638   -1.000
 3778.00    1.32048   0.74725   -1.000
 3779.00    0.82062   0.75097   12.186
 3780.00    0.08594   0.74834   -1.000
 3781.00   -0.12341   0.74139   -2.000
 3782.00    0.14608   0.72777   -1.000
 3783.00    0.45472   0.70423   -1.000
 3784.00    0.45713   0.67575   21.876
 3785.00    0.15554   0.65036   -1.000
 3786.00   -0.01038   0.62763   -2.000
 3787.00    0.26578   0.60597   -1.000
 3788.00    0.80594   0.58858   -1.000
 3789.00    1.28385   0.57722   -1.000
 3790.00    1.47143   0.56619   -1.000
 3791.00    1.36434   0.55250   -1.000
 3792.00    1.16940   0.54009   -1.000
 3793.00    0.95506   0.53228   -1.000
 3794.00    0.56137   0.52770   17.814
 3795.00   -0.07353   0.52500   -2.000
 3796.00   -0.78718   0.52895   -2.000
 3797.00   -1.25331   0.54382   -2.000
 3798.00   -1.12930   0.56654   -2.000
 3799.00   -0.43685   0.59021   -2.000
 3800.00    0.43388   0.61303   -1.000
 3801.00    1.06495   0.63589   -1.000
 3802.00    1.21625   0.65565   -1.000
 3803.00    1.07031   0.66849   -1.000
 3804.00    1.03114   0.67453   -1.000
 3805.00    1.16585   0.67769   -1.000
 3806.00    1.30821   0.67998   -1.000
 3807.00    1.48566   0.67905   -1.000
 3808.00    1.76911   0.67188   -1.000
 3809.00    1.89770   0.65881   -1.000
 3810.00    1.59056   0.64153   -1.000
 3811.00    1.08338   0.62091   -1.000
 3812.00    0.81250   0.59819   -1.000
 3813.00    0.89982   0.57480   -1.000
 3814.00    1.19986   0.55479   -1.000
 3815.00    1.44727   0.54129   -1.000
 3816.00    1.43580   0.52984   -1.000
 3817.00    1.17684   0.51545   -1.000
 3818.00    0.81086   0.50075   -1.000
 3819.00    0.50309   0.49144   19.877
 3820.00    0.36166   0.48464   -1.000
 3821.00    0.38364   0.47295   23.591
 3822.00    0.49435   0.45720   20.229
 3823.00    0.59395   0.44449   16.836
 3824.00    0.65487   0.43642   -1.000
 3825.00    0.75646   0.42884   -1.000
 3826.00    0.94604   0.42024   -1.000
 3827.00    1.17297   0.41314   -1.000
 3828.00    1.35178   0.40828   -1.000
 3829.00    1.40841   0.40268   -1.000
 3830.00    1.33405   0.39526   -1.000
 3831.00    1.18222   0.38926   -1.000
 3832.00    0.97450   0.38632   -1.000
 3833.00    0.71327   0.38631   -1.000
 3834.00    0.53626   0.38902   -1.000
 3835.00    0.64528   0.39510   -1.000
 3836.00    0.96107   0.40542   -1.000
 3837.00    1.16807   0.42083   -1.000
 3838.00    1.08229   0.44041   -1.000
 3839.00    0.74378   0.46376   -1.000
 3840.00    0.39930   0.49017   23.591
 3841.00    0.33656   0.51534   -1.000
 3842.00    0.57646   0.53641   17.347
 3843.00    0.92813   0.55263   -1.000
 3844.00    1.19033   0.56519   -1.000
 3845.00    1.19644   0.57512   -1.000
 3846.00    0.83744   0.58002   -1.000
 3847.00    0.20923   0.57825    0.000
 3848.00   -0.22795   0.57487   -2.000
 3849.00   -0.10054   0.57423   -2.000
 3850.00    0.35605   0.57207    0.000
 3851.00    0.72966   0.56432    0.000
 3852.00    0.93298   0.55403    0.000
 3853.00    1.05941   0.54391    0.000
 3854.00    1.19259   0.53457    0.000
 3855.00    1.31291   0.52762    0.000
 3856.00    1.26773   0.52251    0.000
 3857.00    1.02610   0.52007    0.000
 3858.00    0.81698   0.52439    0.000
 3859.00    0.81168   0.53648    0.000
 3860.00    0.94411   0.55129    0.000
 3861.00    1.08664   0.56333    0.000
 3862.00    1.15911   0.57146    0.000
 3863.00    1.14164   0.57611    0.000
 3864.00    1.07054   0.57636    0.000
 3865.00    1.00238   0.57153    0.000
 3866.00    0.98729   0.56291    0.000
 3867.00    1.02956   0.55391    0.000
 3868.00    1.07484   0.54652    0.000
 3869.00    1.01924   0.54220    0.000
 3870.00    0.75782   0.54121    0.000
 3871.00    0.31273   0.54417    0.000
 3872.00   -0.15863   0.55013   -2.000
 3873.00   -0.44519   0.55639   -2.000
 3874.00   -0.40889   0.55923   -2.000
 3875.00   -0.20968   0.55630   -2.000
 3876.00   -0.12688   0.55040   -2.000
 3877.00   -0.11227   0.54801   -2.000
 3878.00    0.05058   0.54683    0.000
 3879.00    0.31644   0.53924    0.000
 3880.00    0.50989   0.53013    0.000
 3881.00    0.64211   0.52873   15.574
 3882.00    0.84203   0.53050   -1.000
 3883.00    1.18788   0.52607   -1.000
 3884.00    1.60321   0.52217   -1.000
 3885.00    1.78763   0.52795   -1.000
 3886.00    1.56210   0.53957   -1.000
 3887.00    1.20569   0.55199   -1.000
 3888.00    1.02918   0.56938   -1.000
 3889.00    0.97294   0.59200   -1.000
 3890.00    0.91115   0.61481   -1.000
 3891.00    0.90449   0.63394   -1.000
 3892.00    0.95798   0.64879   -1.000
 3893.00    0.87800   0.65976   -1.000
 3894.00    0.60788   0.66985   16.450
 3895.00    0.38923   0.67876   -1.000
 3896.00    0.38500   0.68163   -1.000
 3897.00    0.49120   0.68074   20.358
 3898.00    0.52241   0.68206   19.142
 3899.00    0.34104   0.68415   -1.000
 3900.00   -0.01989   0.68114   -2.000
 3901.00   -0.35252   0.67733   -2.000
 3902.00   -0.46394   0.67949   -2.000
 3903.00   -0.28275   0.68373   -2.000
 3904.00    0.04576   0.68954   -1.000
 3905.00    0.25085   0.70262   -1.000
 3906.00    0.29646   0.72079   -1.000
 3907.00    0.36781   0.73661   -1.000
 3908.00    0.54681   0.74919   18.288
 3909.00    0.75716   0.76111   13.207
 3910.00    0.84736   0.76860   11.801
 3911.00    0.70574   0.76797   14.170
 3912.00    0.44553   0.76157   -1.000
 3913.00    0.30235   0.75143   -1.000
 3914.00    0.38289   0.73585   -1.000
 3915.00    0.63462   0.71726   15.757
 3916.00    0.87948   0.69828   11.370
 3917.00    0.95837   0.67820   -1.000
 3918.00    0.91404   0.65728   -1.000
 3919.00    0.84097   0.63725   -1.000
 3920.00    0.68408   0.61855   14.618
 3921.00    0.41681   0.59841   -1.000
 3922.00    0.23798   0.57469   -1.000
 3923.00    0.32122   0.54517   -1.000
 3924.00    0.57229   0.51048   17.474
 3925.00    0.80104   0.47155   -1.000
 3926.00    0.88493   0.42868   -1.000
 3927.00    0.75143   0.38517   -1.000
 3928.00    0.37761   0.34504   23.591
 3929.00   -0.06175   0.31143   -2.000
 3930.00   -0.18531   0.28675   -2.000
 3931.00    0.06801   0.27368   -1.000
 3932.00    0.26725   0.27363   23.591
 3933.00    0.21042   0.28644   23.591
 3934.00    0.17103   0.31017   23.591
 3935.00    0.28598   0.34171   23.591
 3936.00    0.37627   0.37851   23.591
 3937.00    0.37626   0.41717   23.591
 3938.00    0.42415   0.45390   23.576
 3939.00    0.56029   0.48869   17.848
 3940.00    0.68503   0.52259   14.598
 3941.00    0.76312   0.55197   -1.000
 3942.00    0.84254   0.57707   -1.000
 3943.00    0.93121   0.60544   -1.000
 3944.00    0.98289   0.63678   -1.000
 3945.00    0.94702   0.66173   -1.000
 3946.00    0.82595   0.67968   12.107
 3947.00    0.76138   0.69950   13.134
 3948.00    0.91071   0.72148   10.980
 3949.00    1.19522   0.73527   -1.000
 3950.00    1.39031   0.73789   -1.000
 3951.00    1.34912   0.73950   -1.000
 3952.00    1.07046   0.74421   -1.000
 3953.00    0.73255   0.74125   13.651
 3954.00    0.53378   0.72594   18.734
 3955.00    0.49341   0.70590   -1.000
 3956.00    0.53267   0.68528   18.773
 3957.00    0.59009   0.65840   16.947
 3958.00    0.60041   0.62052   16.655
 3959.00    0.47015   0.57468   21.270
 3960.00    0.15327   0.52815    0.000
 3961.00   -0.27695   0.48319   -2.000
 3962.00   -0.59853   0.43758   -2.000
 3963.00   -0.47779   0.39346   -2.000
 3964.00    0.15141   0.35698    0.000
 3965.00    0.90283   0.33185    0.000
 3966.00    1.37860   0.31862    0.000
 3967.00    1.43504   0.31835    0.000
 3968.00    1.13520   0.33265    0.000
 3969.00    0.68574   0.36109    0.000
 3970.00    0.29737   0.40004    0.000
 3971.00    0.10102   0.44608    0.000
 3972.00    0.07765   0.49777    0.000
 3973.00    0.10150   0.55269    0.000
 3974.00    0.18590   0.60574    0.000
 3975.00    0.44577   0.65386    0.000
 3976.00    0.71146   0.69717    0.000
 3977.00    0.64471   0.73551    0.000
 3978.00    0.38029   0.76697    0.000
 3979.00    0.38821   0.79037    0.000
 3980.00    0.71811   0.80753    0.000
 3981.00    1.04843   0.82240   -1.000
 3982.00    1.18725   0.83692   -1.000
 3983.00    1.13023   0.84948   -1.000
 3984.00    0.96001   0.85904   10.417
 3985.00    0.77678   0.86982   12.874
 3986.00    0.61828   0.88331   16.174
 3987.00    0.48303   0.89315   -1.000
 3988.00    0.38283   0.89810   -1.000
 3989.00    0.34051   0.90374   -1.000
 3990.00    0.37531   0.90932   -1.000
 3991.00    0.47788   0.91025   -1.000
 3992.00    0.58898   0.90853   -1.000
 3993.00    0.65348   0.91001   15.303
 3994.00    0.67657   0.91351   14.781
 3995.00    0.72025   0.91558   13.884
 3996.00    0.88170   0.92001   11.342
 3997.00    1.18014   0.93063   -1.000
 3998.00    1.48685   0.93947   -1.000
 3999.00    1.65155   0.93940   -1.000
 4000.00    1.60039   0.93795   -1.000
 4001.00    1.37283   0.94001   -1.000
 4002.00    1.11670   0.93730    8.955
 4003.00    0.95931   0.92793   10.424
 4004.00    0.93512   0.92515   10.694
 4005.00    0.97986   0.93292   10.205
 4006.00    0.96788   0.94228   10.332
 4007.00    0.86775   0.95038   11.524
 4008.00    0.76013   0.96204   13.155
 4009.00    0.66680   0.97714   -1.000
 4010.00    0.53882   0.99035   -1.000
 4011.00    0.42086   0.99929   -1.000
 4012.00    0.43438   1.00582   -1.000
 4013.00    0.58242   1.01406   -1.000
 4014.00    0.75468   1.02067   13.264
 4015.00    0.87783   1.02132   11.401
 4016.00    0.93966   1.02147   10.617
 4017.00    0.95647   1.02562   10.436
 4018.00    0.94106   1.02593   10.703
 4019.00    0.85952   1.02085   11.688
 4020.00    0.69229   1.01848   14.044
 4021.00    0.54571   1.01892   -1.000
 4022.00    0.58051   1.01538   -1.000
 4023.00    0.87103   1.00958   11.681
 4024.00    1.28631   1.00334    6.881
 4025.00    1.39896   0.99302   -1.000
 4026.00    0.97514   0.97854   20.623
 4027.00    0.49458   0.96096   -1.000
 4028.00    0.47089   0.94000    3.624
 4029.00    0.74750   0.92228    1.928
 4030.00    0.99513   0.91426    1.736
 4031.00    1.19284   0.91378    1.885
 4032.00    1.36710   0.92038    1.941
 4033.00    1.39180   0.93578    1.919
 4034.00    1.28437   0.95644    1.959
 4035.00    1.34503   0.97550    2.001
 4036.00    1.64841   0.98986    1.988
 4037.00    1.82431   0.99692    1.989
 4038.00    1.63792   0.99312    2.048
 4039.00    1.25385   0.97920    2.116
 4040.00    0.91879   0.96209    2.132
 4041.00    0.78584   0.94565    2.085
 4042.00    0.86332   0.92802    2.020
 4043.00    1.03168   0.91219    1.998
 4044.00    1.17662   0.90890    2.029
 4045.00    1.24033   0.92035    2.075
 4046.00    1.22013   0.93371    2.100
 4047.00    1.16024   0.94378    2.092
 4048.00    1.13037   0.95564    2.058
 4049.00    1.18855   0.96592    2.017
 4050.00    1.30709   0.96716    1.994
 4051.00    1.40334   0.96117    2.002
 4052.00    1.44769   0.95134    2.019
 4053.00    1.45285   0.93979    2.012
 4054.00    1.40616   0.93023    2.001
 4055.00    1.27923   0.92143    2.029
 4056.00    1.06867   0.91150    2.088
 4057.00    0.82103   0.90303    2.132
 4058.00    0.65573   0.89738    2.138
 4059.00    0.70094   0.89312    2.120
 4060.00    1.00000   0.88761    2.126
 4061.00    1.45755   0.88020    2.140
 4062.00    1.80856   0.87877    2.004
 4063.00    1.82797   0.88824    1.811
 4064.00    1.54384   0.89745    2.022
 4065.00    1.14242   0.90031    3.665
 4066.00    0.84431   0.90675   14.011
 4067.00    0.76160   0.91950   23.591
 4068.00    0.81588   0.92542   11.411
 4069.00    0.93719   0.91968    9.437
 4070.00    1.17893   0.91397   -1.000
 4071.00    1.50061   0.91334   -1.000
 4072.00    1.67896   0.90943   -1.000
 4073.00    1.61351   0.90184   -1.000
 4074.00    1.44929   0.89845   -1.000
 4075.00    1.31458   0.90248   -1.000
 4076.00    1.21000   0.91176   -1.000
 4077.00    1.11215   0.92419    9.300
 4078.00    1.02895   0.93937    9.239
 4079.00    1.02563   0.95699    8.878
 4080.00    1.17686   0.97323   -1.000
 4081.00    1.38316   0.98665   -1.000
 4082.00    1.42852   1.00041    4.660
 4083.00    1.32237   1.01363    2.581
 4084.00    1.26823   1.02397    1.956
 4085.00    1.32383   1.03365    1.997
 4086.00    1.37839   1.04230    2.851
 4087.00    1.30755   1.04556    6.114
 4088.00    1.06872   1.04398   14.021
 4089.00    0.80927   1.03787   13.645
 4090.00    0.72445   1.02403   11.770
 4091.00    0.78026   1.00517   12.483
 4092.00    0.83695   0.98395    0.000
 4093.00    0.90714   0.95742    0.000
 4094.00    1.04938   0.92772    0.000
 4095.00    1.17858   0.89971    0.000
 4096.00    1.19332   0.87392    0.000
 4097.00    1.14998   0.85237    0.000
 4098.00    1.15216   0.83696    0.000
 4099.00    1.21517   0.82770    0.000
 4100.00    1.30541   0.82912    0.000
 4101.00    1.38997   0.84189    0.000
 4102.00    1.43605   0.85856    0.000
 4103.00    1.41100   0.87691    0.000
 4104.00    1.31278   0.89830    0.000
 4105.00    1.18754   0.91801    0.000
 4106.00    1.09654   0.93285    0.000
 4107.00    1.08481   0.94506    0.000
 4108.00    1.13212   0.95587    0.000
 4109.00    1.14920   0.96430    0.000
 4110.00    1.09500   0.97176    0.000
 4111.00    1.01669   0.98049    0.000
 4112.00    0.96149   0.98734    0.000
 4113.00    0.93831   0.98923    2.681
 4114.00    0.92813   0.98992    2.725
 4115.00    0.91017   0.99075    2.727
 4116.00    0.93217   0.98632    2.689
 4117.00    1.07742   0.97852    2.659
 4118.00    1.29901   0.97526    2.635
 4119.00    1.44107   0.97416    2.581
 4120.00    1.42589   0.97011    2.513
 4121.00    1.29419   0.96584    2.483
 4122.00    1.17710   0.96448    2.500
 4123.00    1.20354   0.96157    2.533
 4124.00    1.33307   0.95442    2.527
 4125.00    1.42942   0.94544    2.457
 4126.00    1.45108   0.93575    2.391
 4127.00    1.44552   0.92586    2.399
 4128.00    1.48147   0.91762    2.429
 4129.00    1.57457   0.91223    2.399
 4130.00    1.61034   0.91088    2.351
 4131.00    1.49826   0.91607    2.353
 4132.00    1.35740   0.92508    2.371
 4133.00    1.32028   0.93716    2.366
 4134.00    1.31272   0.95058    2.387
 4135.00    1.22864   0.96018    2.467
 4136.00    1.10619   0.96542    2.513
 4137.00    1.00611   0.96533    2.468
 4138.00    0.90797   0.95826    2.451
 4139.00    0.81268   0.94824    2.523
 4140.00    0.80099   0.93785    2.547
 4141.00    0.86878   0.92552    2.469
 4142.00    0.86447   0.91721    2.468
 4143.00    0.77843   0.91678    2.603
 4144.00    0.83744   0.91666    2.680
 4145.00    1.10605   0.91552    2.577
 4146.00    1.35433   0.91773    2.460
 4147.00    1.40681   0.91899    2.442
 4148.00    1.28211   0.91610    2.521
 4149.00    1.09518   0.91280    2.645
 4150.00    0.98163   0.91054    2.721
 4151.00    0.98513   0.90765    2.700
 4152.00    1.04697   0.90578    2.621
 4153.00    1.09476   0.90967    2.567
 4154.00    1.07868   0.91707    2.610
 4155.00    0.99184   0.92520    2.740
 4156.00    0.88535   0.93646    2.866
 4157.00    0.88684   0.95171    2.880
 4158.00    1.09821   0.96468    2.763
 4159.00    1.38507   0.97256    2.654
 4160.00    1.52093   0.98083    2.678
 4161.00    1.52095   0.98632    2.768
 4162.00    1.52150   0.98303    2.778
 4163.00    1.49556   0.97664    2.749
 4164.00    1.35456   0.97077    2.800
 4165.00    1.15236   0.95964    2.892
 4166.00    1.01537   0.94422    2.917
 4167.00    1.01467   0.92968    2.885
 4168.00    1.10599   0.91526    2.873
 4169.00    1.10271   0.89984    2.930
 4170.00    0.91480   0.88560    3.049
 4171.00    0.75068   0.87553    3.147
 4172.00    0.79203   0.86969    3.144
 4173.00    0.92638   0.86725    3.079
 4174.00    0.99373   0.86896    3.025
 4175.00    0.98259   0.87394    3.010
 4176.00    0.96246   0.87991    3.023
 4177.00    1.01062   0.88747    3.025
 4178.00    1.10431   0.89641    3.013
 4179.00    1.10469   0.90355    3.044
 4180.00    0.99715   0.91040    3.118
 4181.00    0.95615   0.91710    3.136
 4182.00    1.05682   0.92056    3.072
 4183.00    1.18808   0.92522    3.019
 4184.00    1.25411   0.93184    3.025
 4185.00    1.25044   0.93453    3.062
 4186.00    1.23027   0.93608    3.098
 4187.00    1.26114   0.94303    3.116
 4188.00    1.33466   0.94997    3.106
 4189.00    1.37471   0.94928    3.070
 4190.00    1.33669   0.94588    3.045
 4191.00    1.22889   0.94392    3.073
 4192.00    1.09472   0.93669    3.122
 4193.00    0.98758   0.92067    3.125
 4194.00    0.92871   0.90571    3.110
 4195.00    0.91593   0.89617    3.137
 4196.00    0.95529   0.88433    3.131
 4197.00    1.03047   0.87433    3.003
 4198.00    1.04934   0.87566    2.884
 4199.00    0.94679   0.88140    2.908
 4200.00    0.83525   0.88740    2.997
 4201.00    0.85202   0.90079    3.009
 4202.00    0.94732   0.91862    2.985
 4203.00    1.01063   0.93447    3.019
 4204.00    1.03744   0.94923    3.072
 4205.00    1.06903   0.96323    3.068
 4206.00    1.11431   0.97474    3.025
 4207.00    1.14898   0.98190    3.003
 4208.00    1.13207   0.98475    3.039
 4209.00    1.09391   0.98564    3.099
 4210.00    1.17205   0.98391    3.061
 4211.00    1.38677   0.98127    2.917
 4212.00    1.53226   0.98266    2.842
 4213.00    1.47462   0.98466    2.895
 4214.00    1.30663   0.98582    2.952
 4215.00    1.17385   0.99119    2.932
 4216.00    1.16449   0.99644    2.917
 4217.00    1.26033   0.99230    2.954
 4218.00    1.35588   0.98105    2.989
 4219.00    1.42093   0.96616    2.968
 4220.00    1.51398   0.94259    2.900
 4221.00    1.58722   0.91054    2.855
 4222.00    1.50172   0.88122    2.920
 4223.00    1.29965   0.86313    3.057
 4224.00    1.17240   0.85086    3.109
 4225.00    1.13059   0.84611    3.047
 4226.00    1.03587   0.85872    2.997
 4227.00    0.90570   0.87832    3.019
 4228.00    0.86955   0.89396    3.093
 4229.00    0.91347   0.91356    3.175
 4230.00    0.93481   0.93168    3.214
 4231.00    0.94822   0.93726   -2.000
 4232.00    1.02298   0.94180   -2.000
 4233.00    1.11648   0.94852   -2.000
 4234.00    1.14306   0.94864   -2.000
 4235.00    1.11348   0.95107   -2.000
 4236.00    1.09413   0.96326   -2.000
 4237.00    1.12485   0.97416   -2.000
 4238.00    1.18493   0.98313   -2.000
 4239.00    1.17692   0.99931   -2.000
 4240.00    1.05100   1.01353   -2.000
 4241.00    0.91835   1.01769   -2.000
 4242.00    0.90516   1.01865   -2.000
 4243.00    1.01665   1.01798   -2.000
 4244.00    1.18390   1.00954   -2.000
 4245.00    1.31800   0.99336   -2.000
 4246.00    1.36640   0.97907    3.176
 4247.00    1.34491   0.96939    3.223
 4248.00    1.30406   0.95746    3.356
 4249.00    1.29543   0.94617    3.470
 4250.00    1.31147   0.94309    3.491
 4251.00    1.28285   0.94470    3.481
 4252.00    1.21838   0.94420    3.480
 4253.00    1.22693   0.94349    3.454
 4254.00    1.32506   0.94682    3.411
 4255.00    1.40106   0.94999    3.413
 4256.00    1.38795   0.95102    3.454
 4257.00    1.31433   0.95715    3.457
 4258.00    1.25220   0.96807    3.411
 4259.00    1.26437   0.97802    3.389
 4260.00    1.31087   0.99039    3.432
 4261.00    1.28854   1.00567    3.542
 4262.00    1.19443   1.01345    3.685
 4263.00    1.11081   1.01224    3.795
 4264.00    1.08035   1.00730    3.807
 4265.00    1.08844   0.99335    3.715
 4266.00    1.08584   0.96671    3.625
 4267.00    1.02574   0.93964    3.640
 4268.00    0.91766   0.91892    3.703
 4269.00    0.81226   0.89716    3.704
 4270.00    0.76277   0.88140    3.678
 4271.00    0.79299   0.88267    3.696
 4272.00    0.86671   0.89149    3.685
 4273.00    0.94244   0.90309    3.581
 4274.00    1.03710   0.92204    3.501
 4275.00    1.16615   0.94184    3.537
 4276.00    1.28001   0.95752    3.588
 4277.00    1.32376   0.96897    3.543
 4278.00    1.29674   0.97442    3.468
 4279.00    1.24343   0.97542    3.444
 4280.00    1.23157   0.97112    3.451
 4281.00    1.27674   0.96097    3.433
 4282.00    1.30582   0.94976    3.364
 4283.00    1.26497   0.93737    3.278
 4284.00    1.18190   0.92096    3.257
 4285.00    1.11977   0.90589    3.312
 4286.00    1.13401   0.89522    3.349
 4287.00    1.20024   0.88624    3.326
 4288.00    1.21776   0.87978    3.314
 4289.00    1.17125   0.87615    3.355
 4290.00    1.15242   0.87467    3.416
 4291.00    1.17651   0.87193    3.445
 4292.00    1.16280   0.86386    3.415
 4293.00    1.10436   0.85242    3.395
 4294.00    1.07874   0.83577    3.473
 4295.00    1.11186   0.81338    3.483
 4296.00    1.16825   0.79128    3.229
 4297.00    1.22996   0.76834    3.154
 4298.00    1.28818   0.74555    3.980
 4299.00    1.28046   0.72985   -1.000
 4300.00    1.15414   0.71740   -1.000
 4301.00    1.01286   0.70608   -1.000
 4302.00    0.99903   0.70103   -1.000
 4303.00    1.04743   0.69909   -1.000
 4304.00    1.01424   0.69909   -1.000
 4305.00    0.93394   0.70623   10.750
 4306.00    0.91967   0.71934   10.669
 4307.00    0.97871   0.73889   10.200
 4308.00    1.05787   0.76963   -1.000
 4309.00    1.12757   0.80719   -1.000
 4310.00    1.18829   0.84913   -1.000
 4311.00    1.26267   0.89891   -1.000
 4312.00    1.35166   0.94835   -1.000
 4313.00    1.40066   0.99066   -1.000
 4314.00    1.35617   1.02955    4.367
 4315.00    1.21802   1.05849    3.431
 4316.00    1.05768   1.07016    3.487
 4317.00    1.00411   1.07076    3.795
 4318.00    1.08260   1.06120    3.755
 4319.00    1.15032   1.04014    3.593
 4320.00    1.12287   1.01552    3.570
 4321.00    1.07352   0.99308    3.582
 4322.00    1.06641   0.97564    3.558
 4323.00    1.08582   0.96802    3.593
 4324.00    1.10932   0.97150    3.691
 4325.00    1.13123   0.98370    3.705
 4326.00    1.12251   1.00341    3.642
 4327.00    1.04140   1.02722    3.680
 4328.00    0.92108   1.04736    3.826
 4329.00    0.85570   1.06016    3.892
 4330.00    0.87143   1.06751    0.000
 4331.00    0.92398   1.06505    0.000
 4332.00    0.99440   1.04732    0.000
 4333.00    1.10485   1.02294    0.000
 4334.00    1.29347   0.99745    0.000
 4335.00    1.56894   0.96445    0.000
 4336.00    1.83529   0.93266    0.000
 4337.00    1.95989   0.91595    0.000
 4338.00    1.91858   0.90677    0.000
 4339.00    1.77116   0.90343    0.000
 4340.00    1.58129   0.91766    0.000
 4341.00    1.39591   0.94175    0.000
 4342.00    1.23562   0.96321    0.000
 4343.00    1.11236   0.98696    0.000
 4344.00    1.05068   1.01209    0.000
 4345.00    1.06573   1.02823    0.000
 4346.00    1.13766   1.03497    0.000
 4347.00    1.22125   1.03838    0.000
 4348.00    1.26330   1.03986    0.000
 4349.00    1.25313   1.03714    0.000
 4350.00    1.24984   1.03325    0.000
 4351.00    1.27278   1.03564    3.950
 4352.00    1.24122   1.04323    3.961
 4353.00    1.13052   1.05075    4.008
 4354.00    1.04897   1.06068    4.022
 4355.00    1.06610   1.07534    4.002
 4356.00    1.13058   1.09021    4.046
 4357.00    1.17835   1.10273    4.162
 4358.00    1.19055   1.11494    4.200
 4359.00    1.18994   1.12733    4.103
 4360.00    1.22290   1.13714    3.995
 4361.00    1.30089   1.14208    3.981
 4362.00    1.38856   1.14270    4.076
 4363.00    1.44369   1.14017    4.181
 4364.00    1.43572   1.13363    4.130
 4365.00    1.35740   1.12176    3.999
 4366.00    1.23599   1.10735    4.012
 4367.00    1.15144   1.09395    4.173
 4368.00    1.18680   1.07998    4.288
 4369.00    1.30523   1.06509    4.254
 4370.00    1.39309   1.05335    4.139
 4371.00    1.40684   1.04502    4.052
 4372.00    1.36642   1.03741    4.058
 4373.00    1.28776   1.03147    4.115
 4374.00    1.18979   1.02689    4.143
 4375.00    1.12369   1.01952    4.166
 4376.00    1.14147   1.00841    4.233
 4377.00    1.24498   0.99383    4.261
 4378.00    1.38204   0.97321    4.169
 4379.00    1.45666   0.94931    4.069
 4380.00    1.40615   0.92851    4.070
 4381.00    1.27888   0.91146    4.096
 4382.00    1.17100   0.89908    4.050
 4383.00    1.15176   0.89660    3.970
 4384.00    1.21699   0.90421    3.927
 4385.00    1.26845   0.91633    3.928
 4386.00    1.22268   0.93118    3.956
 4387.00    1.09083   0.94979    3.994
 4388.00    0.94429   0.96885    4.009
 4389.00    0.87533   0.98495    3.965
 4390.00    0.92447   0.99965    3.898
 4391.00    1.04878   1.01472    3.917
 4392.00    1.17843   1.02770    4.017
 4393.00    1.25376   1.03620    4.039
 4394.00    1.25302   1.04327    3.948
 4395.00    1.19947   1.04789    3.905
 4396.00    1.14065   1.04454    3.961
 4397.00    1.12817   1.03773    4.017
 4398.00    1.17874   1.03008    4.010
 4399.00    1.26409   1.01565    3.980
 4400.00    1.32385   1.00012    3.979
 4401.00    1.30344   0.99123    4.029
 4402.00    1.24140   0.98351    4.094
 4403.00    1.23233   0.97753    4.102
 4404.00    1.28380   0.98212    4.059
 4405.00    1.33409   0.99429    4.025
 4406.00    1.36163   1.00592    4.012
 4407.00    1.37436   1.01983    4.004
 4408.00    1.34871   1.03789    4.021
 4409.00    1.27169   1.05101    4.085
 4410.00    1.22246   1.05677    4.165
 4411.00    1.27989   1.06326    4.201
 4412.00    1.37798   1.06839    4.182
 4413.00    1.40491   1.06778    4.135
 4414.00    1.35160   1.06971    4.093
 4415.00    1.27107   1.07555    4.081
 4416.00    1.21024   1.07906    4.115
 4417.00    1.18716   1.08243    4.197
 4418.00    1.18051   1.08710    4.316
 4419.00    1.17600   1.08971    4.423
 4420.00    1.20068   1.08987    4.426
 4421.00    1.26289   1.08930    4.314
 4422.00    1.31217   1.08826    4.218
 4423.00    1.30224   1.08640    4.226
 4424.00    1.23304   1.08465    4.311
 4425.00    1.13062   1.08159    4.408
 4426.00    1.03199   1.07714    4.471
 4427.00    0.97868   1.07385    4.484
 4428.00    1.00368   1.06870    4.475
 4429.00    1.08685   1.06231    4.483
 4430.00    1.15851   1.05926    4.533
 4431.00    1.19784   1.05777    4.599
 4432.00    1.24369   1.05820    4.608
 4433.00    1.28679   1.06215    4.542
 4434.00    1.26578   1.06828    4.464
 4435.00    1.17893   1.07593    4.471
 4436.00    1.09162   1.08260    4.635
 4437.00    1.05575   1.08801    4.856
 4438.00    1.08390   1.09314    4.890
 4439.00    1.14445   1.09596    4.744
 4440.00    1.18524   1.09908    4.636
 4441.00    1.18554   1.10499    4.648
 4442.00    1.15900   1.10998    4.736
 4443.00    1.13652   1.11579    4.803
 4444.00    1.14374   1.12412    4.775
 4445.00    1.17065   1.12754    4.728
 4446.00    1.19257   1.12641    4.758
 4447.00    1.20705   1.12400    4.790
 4448.00    1.21716   1.11441    4.725
 4449.00    1.20467   1.09897    4.650
 4450.00    1.15434   1.08208    4.678
 4451.00    1.08471   1.06213    4.771
 4452.00    1.03949   1.04213    4.830
 4453.00    1.06928   1.02407    4.804
 4454.00    1.17202   1.00764    4.713
 4455.00    1.25472   0.99710    4.625
 4456.00    1.24638   0.99169    4.593
 4457.00    1.17888   0.98817    4.616
 4458.00    1.10531   0.99138    4.691
 4459.00    1.04451   1.00025    4.828
 4460.00    1.01899   1.00817    4.972
 4461.00    1.06603   1.01909    0.000
 4462.00    1.16031   1.03308    0.000
 4463.00    1.20019   1.04437    0.000
 4464.00    1.14433   1.05519    0.000
 4465.00    1.05665   1.06722    0.000
 4466.00    1.01422   1.07937    0.000
 4467.00    1.05497   1.09173    0.000
 4468.00    1.13723   1.10519    0.000
 4469.00    1.17354   1.12090    0.000
 4470.00    1.18229   1.13623    0.000
 4471.00    1.26010   1.14912    0.000
 4472.00    1.36717   1.16056    0.000
 4473.00    1.36168   1.16817    0.000
 4474.00    1.23680   1.16953    0.000
 4475.00    1.10767   1.16703    0.000
 4476.00    1.05056   1.16212    0.000
 4477.00    1.07016   1.15440    0.000
 4478.00    1.10998   1.14720    0.000
 4479.00    1.10897   1.14346    0.000
 4480.00    1.09025   1.14164    0.000
 4481.00    1.11607   1.14208    0.000
 4482.00    1.19837   1.14510    5.008
 4483.00    1.30311   1.14703    4.989
 4484.00    1.37585   1.14671    5.047
 4485.00    1.37331   1.14495    5.109
 4486.00    1.29549   1.14027    5.146
 4487.00    1.17487   1.13329    5.173
 4488.00    1.05978   1.12706    5.228
 4489.00    0.99631   1.12115    5.309
 4490.00    1.01167   1.11627    5.337
 4491.00    1.10167   1.11544    5.274
 4492.00    1.22473   1.11718    5.221
 4493.00    1.32357   1.12163    5.243
 4494.00    1.34958   1.13023    5.284
 4495.00    1.31526   1.14180    5.285
 4496.00    1.30337   1.15579    5.266
 4497.00    1.33951   1.17069    5.272
 4498.00    1.34853   1.18729    5.335
 4499.00    1.29164   1.20428    5.429
 4500.00    1.21470   1.21818    5.474
 4501.00    1.16006   1.23139    5.468
 4502.00    1.13388   1.24238    5.505
 4503.00    1.13225   1.24836    5.588
 4504.00    1.15212   1.25159    5.609
 4505.00    1.19215   1.25159    5.539
 4506.00    1.24799   1.24803    5.456
 4507.00    1.29845   1.24169    5.407
 4508.00    1.31366   1.23331    5.390
 4509.00    1.28516   1.22453    5.388
 4510.00    1.22167   1.21424    5.397
 4511.00    1.12290   1.20443    5.456
 4512.00    0.99456   1.19725    5.597
 4513.00    0.88805   1.18995    5.734
 4514.00    0.86984   1.18501    5.731
 4515.00    0.95563   1.18221    5.635
 4516.00    1.10996   1.17790    5.576
 4517.00    1.26556   1.17430    5.570
 4518.00    1.36140   1.16768    5.567
 4519.00    1.38836   1.15695    5.548
 4520.00    1.37117   1.14474    5.521
 4521.00    1.33890   1.12688    5.510
 4522.00    1.31648   1.10709    5.525
 4523.00    1.31792   1.08807    5.538
 4524.00    1.33392   1.06756    5.541
 4525.00    1.32640   1.05127    5.586
 4526.00    1.27660   1.03953    5.666
 4527.00    1.21715   1.03102    5.641
 4528.00    1.17195   1.02931    5.491
 4529.00    1.11915   1.03210    5.442
 4530.00    1.04867   1.03892    5.569
 4531.00    0.99368   1.04973    5.646
 4532.00    0.98879   1.06270    5.532
 4533.00    1.04212   1.07808    5.394
 4534.00    1.12125   1.09233    5.372
 4535.00    1.16692   1.10599    5.456
 4536.00    1.17801   1.11876    5.532
 4537.00    1.21513   1.12623    5.459
 4538.00    1.27274   1.13168    5.320
 4539.00    1.27313   1.13476    5.363
 4540.00    1.21272   1.13292    5.575
 4541.00    1.16961   1.13034    5.677
 4542.00    1.17738   1.12611    5.592
 4543.00    1.21069   1.12007    5.505
 4544.00    1.24820   1.11525    5.485
 4545.00    1.28387   1.10899    5.468
 4546.00    1.31380   1.10427    5.422
 4547.00    1.32936   1.10225    5.383
 4548.00    1.31103   1.09926    5.441
 4549.00    1.25196   1.10045    5.659
 4550.00    1.19898   1.10481    0.000
 4551.00    1.20582   1.10933    0.000
 4552.00    1.25220   1.11869    0.000
 4553.00    1.28627   1.12977    0.000
 4554.00    1.29873   1.14029    0.000
 4555.00    1.30513   1.15268    0.000
 4556.00    1.31225   1.16249    0.000
 4557.00    1.31857   1.16930    0.000
 4558.00    1.31982   1.17439    0.000
 4559.00    1.31666   1.17505    0.000
 4560.00    1.31860   1.17434    0.000
 4561.00    1.31832   1.17242    0.000
 4562.00    1.27844   1.16963    0.000
 4563.00    1.19762   1.17012    0.000
 4564.00    1.14494   1.16962    0.000
 4565.00    1.15596   1.17020    0.000
 4566.00    1.17916   1.17494    0.000
 4567.00    1.17204   1.17593    0.000
 4568.00    1.15137   1.17718    0.000
 4569.00    1.15342   1.18101    0.000
 4570.00    1.20227   1.17977    0.000
 4571.00    1.26764   1.17823    0.000
 4572.00    1.27463   1.17687    0.000
 4573.00    1.21187   1.17042    0.000
 4574.00    1.14722   1.16331    0.000
 4575.00    1.13338   1.15525    0.000
 4576.00    1.17694   1.14385    0.000
 4577.00    1.24814   1.13383    0.000
 4578.00    1.30114   1.12575    0.000
 4579.00    1.31780   1.11796    0.000
 4580.00    1.30617   1.11436    0.000
 4581.00    1.27002   1.11454    0.000
 4582.00    1.21442   1.11598    0.000
 4583.00    1.17106   1.12088    0.000
 4584.00    1.17755   1.12654    0.000
 4585.00    1.23154   1.13081    0.000
 4586.00    1.29883   1.13529    0.000
 4587.00    1.34083   1.13677    0.000
 4588.00    1.34140   1.13485    0.000
 4589.00    1.33444   1.13255    0.000
 4590.00    1.35365   1.12763    0.000
 4591.00    1.36964   1.12127    0.000
 4592.00    1.34146   1.11747    0.000
 4593.00    1.27943   1.11264    0.000
 4594.00    1.22666   1.10912    0.000
 4595.00    1.22928   1.10981    0.000
 4596.00    1.28740   1.10909    0.000
 4597.00    1.32784   1.11076    0.000
 4598.00    1.30462   1.11542    0.000
 4599.00    1.26433   1.11926    0.000
 4600.00    1.26010   1.12631    0.000
 4601.00    1.29538   1.13493    0.000
 4602.00    1.35291   1.14450    0.000
 4603.00    1.41334   1.15587    0.000
 4604.00    1.45254   1.16704    0.000
 4605.00    1.44535   1.17884    0.000
 4606.00    1.39052   1.18815    0.000
 4607.00    1.31334   1.19572    0.000
 4608.00    1.23119   1.20283    0.000
 4609.00    1.14860   1.20474    0.000
 4610.00    1.08926   1.20675    0.000
 4611.00    1.09009   1.20933    0.000
 4612.00    1.14844   1.20706    0.000
 4613.00    1.22544   1.20802    0.000
 4614.00    1.29915   1.21046    0.000
 4615.00    1.36531   1.20834    0.000
 4616.00    1.40443   1.20972    0.000
 4617.00    1.39107   1.21216    0.000
 4618.00    1.32957   1.21042    0.000
 4619.00    1.25302   1.21061    0.000
 4620.00    1.20614   1.21152    0.000
 4621.00    1.22091   1.20947    0.000
 4622.00    1.28359   1.20738    0.000
 4623.00    1.35301   1.20585    0.000
 4624.00    1.39494   1.20374    0.000
 4625.00    1.39339   1.20020    0.000
 4626.00    1.35755   1.19609    0.000
 4627.00    1.30818   1.19275    0.000
 4628.00    1.26105   1.18759    0.000
 4629.00    1.22327   1.18086    0.000
 4630.00    1.19229   1.17380    0.000
 4631.00    1.16333   1.16549    0.000
 4632.00    1.13612   1.15703    0.000
 4633.00    1.11471   1.14734    0.000
 4634.00    1.10654   1.13839    0.000
 4635.00    1.12005   1.13129    0.000
 4636.00    1.16023   1.12242    0.000
 4637.00    1.21269   1.11564    0.000
 4638.00    1.24159   1.11012    0.000
 4639.00    1.22962   1.10150    0.000
 4640.00    1.19319   1.09466    0.000
 4641.00    1.15366   1.08831    0.000
 4642.00    1.12404   1.08007    0.000
 4643.00    1.11238   1.07525    0.000
 4644.00    1.11961   1.07234    0.000
 4645.00    1.12670   1.07121    0.000
 4646.00    1.10506   1.07545    0.000
 4647.00    1.06240   1.08042    0.000
 4648.00    1.03928   1.08720    0.000
 4649.00    1.05922   1.09747    0.000
 4650.00    1.11622   1.10522    0.000
 4651.00    1.17973   1.11372    0.000
 4652.00    1.21309   1.12323    0.000
 4653.00    1.20884   1.12988    0.000
 4654.00    1.18540   1.13739    0.000
 4655.00    1.16586   1.14340    0.000
 4656.00    1.16589   1.14548    0.000
 4657.00    1.18147   1.14543    0.000
 4658.00    1.20090   1.14083    0.000
 4659.00    1.22436   1.13049    0.000
 4660.00    1.25045   1.11669    0.000
 4661.00    1.25689   1.10131    0.000
 4662.00    1.22180   1.08403    0.000
 4663.00    1.15013   1.06728    0.000
 4664.00    1.06744   1.05600    0.000
 4665.00    1.00883   1.04967    0.000
 4666.00    1.00162   1.04784    0.000
 4667.00    1.05023   1.05240    0.000
 4668.00    1.13260   1.06042    0.000
 4669.00    1.20466   1.07073    0.000
 4670.00    1.24604   1.08242    0.000
 4671.00    1.28234   1.09182    0.000
 4672.00    1.32638   1.10016    0.000
 4673.00    1.35050   1.10592    0.000
 4674.00    1.33801   1.10701    0.000
 4675.00    1.30584   1.10695    0.000
 4676.00    1.27509   1.10598    0.000
 4677.00    1.25695   1.10326    0.000
 4678.00    1.25639   1.10109    0.000
 4679.00    1.27046   1.10084    0.000
 4680.00    1.27668   1.10087    0.000
 4681.00    1.24181   1.10118    0.000
 4682.00    1.16301   1.10320    0.000
 4683.00    1.07622   1.10445    0.000
 4684.00    1.04030   1.10475    0.000
 4685.00    1.09959   1.10603    0.000
 4686.00    1.20632   1.10616    0.000
 4687.00    1.26403   1.10529    0.000
 4688.00    1.26176   1.10560    0.000
 4689.00    1.25358   1.10562    0.000
 4690.00    1.26269   1.10480    0.000
 4691.00    1.27464   1.10388    0.000
 4692.00    1.25921   1.10204    0.000
 4693.00    1.19708   1.09865    0.000
 4694.00    1.11238   1.09262    0.000
 4695.00    1.05018   1.08547    0.000
 4696.00    1.03933   1.07866    0.000
 4697.00    1.07301   1.07098    0.000
 4698.00    1.09714   1.06364    0.000
 4699.00    1.07334   1.05726    0.000
 4700.00    1.03855   1.05338    0.000
 4701.00    1.04120   1.05212    0.000
 4702.00    1.08095   1.05095    0.000
 4703.00    1.13536   1.05128    0.000
 4704.00    1.18586   1.05436    0.000
 4705.00    1.22193   1.05741    0.000
 4706.00    1.24184   1.06164    0.000
 4707.00    1.24708   1.06807    0.000
 4708.00    1.23953   1.07387    0.000
 4709.00    1.22534   1.08145    0.000
 4710.00    1.21378   1.08955    0.000
 4711.00    1.20098   1.09788    0.000
 4712.00    1.17332   1.11032    0.000
 4713.00    1.15434   1.12181    0.000
 4714.00    1.19772   1.13248    0.000
 4715.00    1.28761   1.14513    0.000
 4716.00    1.34043   1.15556    0.000
 4717.00    1.33294   1.16368    0.000
 4718.00    1.31105   1.16862    0.000
 4719.00    1.29185   1.16958    0.000
 4720.00    1.25511   1.16789    0.000
 4721.00    1.19562   1.16177    0.000
 4722.00    1.13121   1.15190    0.000
 4723.00    1.08941   1.13873    0.000
 4724.00    1.09255   1.12417    0.000
 4725.00    1.13536   1.11181    0.000
 4726.00    1.19021   1.10041    0.000
 4727.00    1.22455   1.09092    0.000
 4728.00    1.21729   1.08703    0.000
 4729.00    1.17800   1.08610    0.000
 4730.00    1.13045   1.08740    0.000
 4731.00    1.08742   1.09383    0.000
 4732.00    1.05743   1.09935    0.000
 4733.00    1.05555   1.10473    0.000
 4734.00    1.08932   1.11474    0.000
 4735.00    1.14383   1.12210    0.000
 4736.00    1.19346   1.12729    0.000
 4737.00    1.21665   1.13388    0.000
 4738.00    1.21779   1.13920    0.000
 4739.00    1.23589   1.14512    0.000
 4740.00    1.28274   1.14990    0.000
 4741.00    1.30997   1.15216    0.000
 4742.00    1.29047   1.15658    0.000
 4743.00    1.26015   1.16014    0.000
 4744.00    1.25023   1.16007    0.000
 4745.00    1.25481   1.15983    0.000
 4746.00    1.26824   1.15885    0.000
 4747.00    1.29742   1.15549    0.000
 4748.00    1.33121   1.15043    0.000
 4749.00    1.33774   1.14482    0.000
 4750.00    1.30599   1.13862    0.000
 4751.00    1.25559   1.13291    0.000
 4752.00    1.21474   1.12730    0.000
 4753.00    1.20249   1.12190    0.000
 4754.00    1.20099   1.11758    0.000
 4755.00    1.17302   1.11284    0.000
 4756.00    1.12652   1.10820    0.000
 4757.00    1.10061   1.10216    0.000
 4758.00    1.09651   1.09432    0.000
 4759.00    1.09044   1.08783    0.000
 4760.00    1.09005   1.08161    0.000
 4761.00    1.11642   1.07546    6.258
 4762.00    1.15386   1.07181    6.282
 4763.00    1.17202   1.07212    6.295
 4764.00    1.17301   1.07516    6.246
 4765.00    1.17932   1.08124    6.158
 4766.00    1.20651   1.09032    6.114
 4767.00    1.25266   1.09943    6.149
 4768.00    1.29209   1.11017    6.135
 4769.00    1.29856   1.12177    6.005
 4770.00    1.27149   1.13250    5.956
 4771.00    1.24223   1.14205    6.103
 4772.00    1.26760   1.14865    6.203
 4773.00    1.34252   1.15493    6.079
 4774.00    1.35012   1.15899    5.999
 4775.00    1.23569   1.15866    6.143
 4776.00    1.11099   1.15670    6.299
 4777.00    1.07054   1.15285    6.296
 4778.00    1.08416   1.14717    6.292
 4779.00    1.09938   1.13888    6.399
 4780.00    1.10160   1.13092    6.486
 4781.00    1.09886   1.12532    6.455
 4782.00    1.10725   1.11754    6.378
 4783.00    1.12843   1.11291    6.343
 4784.00    1.14594   1.11281    6.378
 4785.00    1.14968   1.11217    6.448
 4786.00    1.14479   1.11587    6.479
 4787.00    1.14799   1.12228    6.445
 4788.00    1.17757   1.12887    6.387
 4789.00    1.22870   1.13838    6.337
 4790.00    1.27399   1.14719    6.303
 4791.00    1.28515   1.15410    6.291
 4792.00    1.24831   1.15988    6.301
 4793.00    1.18424   1.16310    6.322
 4794.00    1.13253   1.16378    6.348
 4795.00    1.11017   1.16254    6.423
 4796.00    1.11161   1.15983    6.586
 4797.00    1.12474   1.15713    6.728
 4798.00    1.13836   1.15442    6.690
 4799.00    1.14877   1.15095    6.508
 4800.00    1.15053   1.14747    6.356
 4801.00    1.12409   1.14351    6.388
 4802.00    1.06280   1.14084    6.630
 4803.00    1.00501   1.13788    6.817
 4804.00    0.99234   1.13410    6.710
 4805.00    1.02184   1.13344    6.553
 4806.00    1.06393   1.13362    6.603
 4807.00    1.08708   1.13454    6.744
 4808.00    1.08198   1.13760    6.796
 4809.00    1.07568   1.14125    6.804
 4810.00    1.09483   1.14681    6.830
 4811.00    1.13821   1.15263    6.789
 4812.00    1.18526   1.15794    6.648
 4813.00    1.20825   1.16337    6.529
 4814.00    1.20226   1.16643    6.507
 4815.00    1.19566   1.16853    6.535
 4816.00    1.21489   1.16843    6.542
 4817.00    1.26482   1.16526    6.496
 4818.00    1.32600   1.16150    6.448
 4819.00    1.36041   1.15422    6.514
 4820.00    1.33757   1.14685    6.729
 4821.00    1.25293   1.14208    7.005
 4822.00    1.15344   1.13539    7.186
 4823.00    1.11306   1.12985    7.141
 4824.00    1.13387   1.12619    6.961
 4825.00    1.15125   1.12268    6.870
 4826.00    1.13056   1.12159    6.924
 4827.00    1.08509   1.11936    7.023
 4828.00    1.05331   1.11674    7.068
 4829.00    1.06889   1.11705    7.016
 4830.00    1.11221   1.11654    6.934
 4831.00    1.13813   1.11521    6.921
 4832.00    1.14351   1.11393    6.975
 4833.00    1.14460   1.11260    7.028
 4834.00    1.12260   1.11074    7.029
 4835.00    1.05867   1.10771    6.982
 4836.00    0.99341   1.10485    6.949
 4837.00    0.98430   1.10280    6.959
 4838.00    1.04257   1.10123    6.900
 4839.00    1.14032   1.09874    6.713
 4840.00    1.23020   1.09797    6.567
 4841.00    1.27895   1.09929    6.586
 4842.00    1.29425   1.09885    6.659
 4843.00    1.28509   1.09820    6.671
 4844.00    1.23132   1.09673    6.710
 4845.00    1.13354   1.09363    6.859
 4846.00    1.04444   1.09018    7.037
 4847.00    1.00697   1.08315    7.095
 4848.00    1.01464   1.07370    0.000
 4849.00    1.03714   1.06332    0.000
 4850.00    1.04568   1.04906    0.000
 4851.00    1.05669   1.03130    0.000
 4852.00    1.14300   1.01222    0.000
 4853.00    1.38116   0.99313    0.000
 4854.00    1.81506   0.97284    0.000
 4855.00    2.41311   0.95224    0.000
 4856.00    3.06088   0.93456    0.000
 4857.00    3.59716   0.91986    0.000
 4858.00    3.85593   0.91140    0.000
 4859.00    3.75253   0.90885    0.000
 4860.00    3.31381   0.90946    0.000
 4861.00    2.68214   0.91678    0.000
 4862.00    2.05772   0.92735    0.000
 4863.00    1.56056   0.93886    0.000
 4864.00    1.21913   0.95135    0.000
 4865.00    1.01978   0.96178    0.000
 4866.00    0.92978   0.97078    0.000
 4867.00    0.91934   0.97749    0.000
 4868.00    0.96217   0.98407    0.000
 4869.00    1.02942   0.99142    0.000
 4870.00    1.09070   0.99847    0.000
 4871.00    1.11798   1.00677    0.000
 4872.00    1.10251   1.01617    0.000
 4873.00    1.07298   1.02752    0.000
 4874.00    1.06183   1.03809    0.000
 4875.00    1.06573   1.04720    7.273
 4876.00    1.06000   1.05439    7.298
 4877.00    1.02053   1.05725    7.334
 4878.00    0.95507   1.05881    7.362
 4879.00    0.92036   1.05734    7.344
 4880.00    0.94947   1.05144    7.281
 4881.00    1.00330   1.04427    7.244
 4882.00    1.03999   1.03593    7.257
 4883.00    1.06098   1.02956    7.239
 4884.00    1.08188   1.02500    7.137
 4885.00    1.10944   1.02115    7.001
 4886.00    1.12361   1.02239    6.946
 4887.00    1.08432   1.02679    7.085
 4888.00    1.00430   1.03684    7.334
 4889.00    0.95695   1.05113    7.371
 4890.00    0.96632   1.06473    7.193
 4891.00    0.98632   1.08181    7.162
 4892.00    0.99468   1.09840    7.293
 4893.00    1.00870   1.11191    7.236
 4894.00    1.02321   1.12310    7.006
 4895.00    1.01391   1.12923    6.936
 4896.00    1.00255   1.13203    7.004
 4897.00    1.03786   1.13351    6.932
 4898.00    1.10475   1.13134    6.797
 4899.00    1.14608   1.12698    6.879
 4900.00    1.15733   1.12343    7.085
 4901.00    1.16673   1.11902    7.091
 4902.00    1.15948   1.11462    6.951
 4903.00    1.10644   1.10959    6.934
 4904.00    1.03452   1.10358    7.065
 4905.00    0.99074   1.09876    7.210
 4906.00    0.97331   1.09346    7.287
 4907.00    0.95732   1.08831    7.270
 4908.00    0.94120   1.08376    7.157
 4909.00    0.94081   1.07869    7.003
 4910.00    0.97436   1.07365    6.946
 4911.00    1.04515   1.06806    7.026
 4912.00    1.12742   1.06037    7.051
 4913.00    1.18447   1.05076    6.903
 4914.00    1.18895   1.03926    6.797
 4915.00    1.14502   1.02718    6.884
 4916.00    1.09691   1.01710    7.017
 4917.00    1.07271   1.00931    7.025
 4918.00    1.05267   1.00525    6.943
 4919.00    1.02441   1.00573    6.899
 4920.00    1.01103   1.01164    6.992
 4921.00    1.02749   1.02265    7.156
 4922.00    1.05881   1.03699    7.138
 4923.00    1.07570   1.05235    6.952
 4924.00    1.05219   1.06648    6.935
 4925.00    1.00388   1.08060    7.157
 4926.00    0.98627   1.09134    7.328
 4927.00    1.02910   1.09689    7.301
 4928.00    1.11536   1.09897    7.234
 4929.00    1.19575   1.09592    7.198
 4930.00    1.21684   1.09038    7.134
 4931.00    1.18466   1.08413    7.089
 4932.00    1.15369   1.07498    7.181
 4933.00    1.15343   1.06654    7.347
 4934.00    1.17847   1.06172    7.410
 4935.00    1.20919   1.05961    7.411
 4936.00    1.22546   1.06136    7.516
 4937.00    1.22337   1.06621    7.656
 4938.00    1.21303   1.07321    7.631
 4939.00    1.20833   1.08351    7.467
 4940.00    1.21225   1.09536    0.000
 4941.00    1.19924   1.10615    0.000
 4942.00    1.14167   1.11618    0.000
 4943.00    1.04795   1.12488    0.000
 4944.00    0.95337   1.13090    0.000
 4945.00    0.90125   1.13496    0.000
 4946.00    0.91688   1.13593    0.000
 4947.00    0.98473   1.13421    0.000
 4948.00    1.07074   1.12962    0.000
 4949.00    1.14721   1.12226    0.000
 4950.00    1.21166   1.11388    0.000
 4951.00    1.29573   1.10225    0.000
 4952.00    1.42965   1.09128    0.000
 4953.00    1.61463   1.08153    0.000
 4954.00    1.81513   1.07375    0.000
 4955.00    1.96270   1.07065    0.000
 4956.00    1.99887   1.06705    0.000
 4957.00    1.90144   1.06684    0.000
 4958.00    1.69364   1.06973    0.000
 4959.00    1.43969   1.07191    0.000
 4960.00    1.20955   1.07479    0.000
 4961.00    1.05676   1.07520    0.000
 4962.00    0.99547   1.07475    0.000
 4963.00    0.99979   1.07544    0.000
 4964.00    1.03048   1.07439    0.000
 4965.00    1.05407   1.07462    0.000
 4966.00    1.07009   1.07618    0.000
 4967.00    1.09768   1.07767    0.000
 4968.00    1.12196   1.08144    0.000
 4969.00    1.10411   1.08356    0.000
 4970.00    1.03549   1.08474    0.000
 4971.00    0.94201   1.08467    0.000
 4972.00    0.86698   1.08024    0.000
 4973.00    0.84769   1.07392    0.000
 4974.00    0.88179   1.06403    0.000
 4975.00    0.93577   1.05146    0.000
 4976.00    0.96897   1.03772    0.000
 4977.00    0.96334   1.02270    0.000
 4978.00    0.95526   1.00979    0.000
 4979.00    0.98788   0.99946    0.000
 4980.00    1.05102   0.99278    0.000
 4981.00    1.10789   0.99050    0.000
 4982.00    1.13238   0.99120    0.000
 4983.00    1.12391   0.99632    0.000
 4984.00    1.11317   1.00382    0.000
 4985.00    1.12050   1.01184    0.000
 4986.00    1.12620   1.02183    0.000
 4987.00    1.11224   1.02937    0.000
 4988.00    1.09140   1.03542    0.000
 4989.00    1.08519   1.04064    0.000
 4990.00    1.10558   1.04186    0.000
 4991.00    1.14058   1.04295    0.000
 4992.00    1.15453   1.04136    0.000
 4993.00    1.12803   1.03625    0.000
 4994.00    1.07392   1.03077    0.000
 4995.00    1.01765   1.02233    0.000
 4996.00    0.98762   1.01315    0.000
 4997.00    1.01378   1.00411    0.000
 4998.00    1.13313   0.99362    0.000
 4999.00    1.40885   0.98395    0.000
 5000.00    1.89464   0.97512    0.000
 5001.00    2.51316   0.96799    0.000
 5002.00    3.07361   0.96386    0.000
 5003.00    3.41370   0.96067    0.000
 5004.00    3.44446   0.95836    0.000
 5005.00    3.16293   0.95645    0.000
 5006.00    2.65204   0.95388    0.000
 5007.00    2.07173   0.95214    0.000
 5008.00    1.59274   0.94901    0.000
 5009.00    1.28442   0.94570    0.000
 5010.00    1.12614   0.94262    0.000
 5011.00    1.05932   0.93804    0.000
 5012.00    1.02489   0.93538    0.000
 5013.00    1.00225   0.93417    0.000
 5014.00    0.98970   0.93495    0.000
 5015.00    0.97525   0.93828    0.000
 5016.00    0.95099   0.94122    0.000
 5017.00    0.93014   0.94613    0.000
 5018.00    0.92259   0.95278    0.000
 5019.00    0.91342   0.95930    0.000
 5020.00    0.89504   0.96738    0.000
 5021.00    0.89114   0.97356    0.000
 5022.00    0.91712   0.98081    0.000
 5023.00    0.95492   0.98942    0.000
 5024.00    0.99319   0.99631    0.000
 5025.00    1.04859   1.00436    0.000
 5026.00    1.12728   1.01080    0.000
 5027.00    1.20583   1.01640    0.000
 5028.00    1.25321   1.02132    0.000
 5029.00    1.24604   1.02184    7.901
 5030.00    1.18228   1.01964    8.009
 5031.00    1.08399   1.01597    8.055
 5032.00    0.98430   1.00880    8.059
 5033.00    0.91882   0.99957    8.232
 5034.00    0.91455   0.98865    8.485
 5035.00    0.97636   0.97672    8.438
 5036.00    1.05926   0.96979    8.204
 5037.00    1.09563   0.96577    8.244
 5038.00    1.08785   0.96467    8.492
 5039.00    1.09096   0.96817    8.472
 5040.00    1.11388   0.97282    8.219
 5041.00    1.12520   0.98072    8.113
 5042.00    1.11412   0.98895    8.115
 5043.00    1.08867   0.99594    7.986
 5044.00    1.04937   1.00283    7.857
 5045.00    0.99859   1.00693    7.974
 5046.00    0.96240   1.00951    8.213
 5047.00    0.97428   1.01183    8.253
 5048.00    1.04646   1.01432    8.034
 5049.00    1.15758   1.01867    7.758
 5050.00    1.24656   1.02395    7.690
 5051.00    1.26837   1.03049    7.873
 5052.00    1.25052   1.03870    7.894
 5053.00    1.23154   1.04638    7.499
 5054.00    1.19966   1.05374    7.166
 5055.00    1.13813   1.05993    7.214
 5056.00    1.06602   1.06337    7.396
 5057.00    1.01197   1.06447    7.430
 5058.00    0.99126   1.06144    7.416
 5059.00    1.00334   1.05601    7.499
 5060.00    1.03345   1.05042    7.625
 5061.00    1.06628   1.04216    7.695
 5062.00    1.09325   1.03358    7.676
 5063.00    1.10823   1.02470    7.631
 5064.00    1.10651   1.01720    7.678
 5065.00    1.09151   1.01180    7.808
 5066.00    1.07564   1.00604    7.856
 5067.00    1.07096   1.00283    7.760
 5068.00    1.08282   1.00018    7.631
 5069.00    1.10185   0.99710    7.544
 5070.00    1.10741   0.99390    7.506
 5071.00    1.08709   0.98976    7.551
 5072.00    1.04310   0.98534    7.711
 5073.00    0.99207   0.97815    7.836
 5074.00    0.95767   0.97077    7.697
 5075.00    0.95341   0.96497    7.422
 5076.00    0.97692   0.96006    7.303
 5077.00    1.00773   0.95606    7.340
 5078.00    1.01853   0.95337    7.370
 5079.00    0.99719   0.95438    7.363
 5080.00    0.95263   0.95834    7.412
 5081.00    0.91672   0.96462    7.600
 5082.00    0.92519   0.97272    7.889
 5083.00    0.98961   0.98229    7.968
 5084.00    1.09180   0.99210    7.645
 5085.00    1.18463   1.00092    7.351
 5086.00    1.22502   1.00903    7.443
 5087.00    1.20961   1.01564    7.719
 5088.00    1.15904   1.01969    7.815
 5089.00    1.09793   1.02101    7.726
 5090.00    1.05089   1.01960    7.622
 5091.00    1.03843   1.01585    7.577
 5092.00    1.06008   1.01007    7.579
 5093.00    1.08582   1.00235    7.569
 5094.00    1.08665   0.99557    7.540
 5095.00    1.05630   0.98940    7.584
 5096.00    1.01085   0.98362    7.732
 5097.00    0.98169   0.97885    7.876
 5098.00    0.98416   0.97516    7.929
 5099.00    1.00590   0.97376    7.921
 5100.00    1.03124   0.97351    7.929
 5101.00    1.05214   0.97286    8.020
 5102.00    1.06387   0.97228    8.179
 5103.00    1.06523   0.97213    8.306
 5104.00    1.06646   0.97130    8.341
 5105.00    1.08341   0.97248    8.303
 5106.00    1.11086   0.97474    8.230
 5107.00    1.12521   0.97782    8.143
 5108.00    1.11585   0.98315    8.031
 5109.00    1.09188   0.98841    7.883
 5110.00    1.07578   0.99524    7.750
 5111.00    1.08762   1.00247    7.705
 5112.00    1.11554   1.00784    7.751
 5113.00    1.12862   1.01189    7.848
 5114.00    1.11316   1.01279    7.999
 5115.00    1.07590   1.01068    8.212
 5116.00    1.03660   1.00639    8.417
 5117.00    1.01111   0.99844    8.531
 5118.00    0.98976   0.98875    8.609
 5119.00    0.96079   0.97824    8.732
 5120.00    0.94232   0.96710    8.817
 5121.00    0.95244   0.95711    8.769
 5122.00    0.97277   0.94824    8.692
 5123.00    0.97934   0.94178    8.667
 5124.00    0.97606   0.93850    8.557
 5125.00    0.97431   0.93782    8.311
 5126.00    0.97286   0.93912    8.160
 5127.00    0.96664   0.94216    8.204
 5128.00    0.95466   0.94563    8.204
 5129.00    0.93686   0.95016    8.031
 5130.00    0.91297   0.95386    7.926
 5131.00    0.89133   0.95561    8.003
 5132.00    0.89020   0.95707    8.065
 5133.00    0.91559   0.95565    8.034
 5134.00    0.95287   0.95425    8.114
 5135.00    0.98609   0.95174    8.319
 5136.00    1.00623   0.94650    8.337
 5137.00    1.00574   0.94257    8.112
 5138.00    0.98077   0.93830    7.953
 5139.00    0.94786   0.93483    7.969
 5140.00    0.93818   0.93212    8.012
 5141.00    0.95909   0.92884    7.984
 5142.00    0.99012   0.92702    7.904
 5143.00    1.00806   0.92626    7.816
 5144.00    0.99657   0.92540    7.766
 5145.00    0.95145   0.92499    7.818
 5146.00    0.88563   0.92550    7.995
 5147.00    0.83597   0.92680    8.126
 5148.00    0.83760   0.92935    8.009
 5149.00    0.87326   0.93309    7.847
 5150.00    0.90014   0.93771    7.929
 5151.00    0.91113   0.94312    8.067
 5152.00    0.92275   0.94839    7.939
 5153.00    0.94135   0.95277    7.778
 5154.00    0.96678   0.95629    7.913
 5155.00    1.00292   0.95742    8.153
 5156.00    1.04517   0.95462    8.146
 5157.00    1.06680   0.94798    7.973
 5158.00    1.05062   0.93631    7.889
 5159.00    1.02032   0.91963    7.961
 5160.00    1.01024   0.89939    8.093
 5161.00    1.03322   0.87572    8.069
 5162.00    1.06838   0.85245    7.851
 5163.00    1.06189   0.82985    7.728
 5164.00    0.98980   0.80891    7.867
 5165.00    0.89299   0.79139    8.113
 5166.00    0.81065   0.77750    8.294
 5167.00    0.74477   0.77117    8.430
 5168.00    0.70652   0.77224    8.514
 5169.00    0.73030   0.77926    8.429
 5170.00    0.81055   0.78928    8.250
 5171.00    0.88986   0.80084    8.254
 5172.00    0.94293   0.81437    8.456
 5173.00    0.99568   0.82807    8.535
 5174.00    1.05778   0.83978    8.352
 5175.00    1.10484   0.84724    8.109
 5176.00    1.10757   0.85058    8.020
 5177.00    1.05234   0.84998    8.176
 5178.00    0.96963   0.84703    8.445
 5179.00    0.91662   0.84532    8.522
 5180.00    0.91257   0.84386    8.372
 5181.00    0.93538   0.84443    8.222
 5182.00    0.95235   0.84661    8.189
 5183.00    0.93854   0.85178    8.254
 5184.00    0.89774   0.86149    8.325
 5185.00    0.85416   0.87119    8.309
 5186.00    0.83027   0.88127    8.232
 5187.00    0.83356   0.88998    8.179
 5188.00    0.84415   0.89749    8.177
 5189.00    0.84089   0.90386    8.210
 5190.00    0.83737   0.90848    0.000
 5191.00    0.85872   0.91318    0.000
 5192.00    0.90847   0.91811    0.000
 5193.00    0.97349   0.92327    0.000
 5194.00    1.03445   0.92731    0.000
 5195.00    1.07859   0.93104    0.000
 5196.00    1.10908   0.93286    0.000
 5197.00    1.13001   0.93205    0.000
 5198.00    1.13486   0.92931    0.000
 5199.00    1.11838   0.92388    0.000
 5200.00    1.08616   0.91667    0.000
 5201.00    1.05528   0.90878    0.000
 5202.00    1.04821   0.90094    0.000
 5203.00    1.05841   0.89464    0.000
 5204.00    1.04363   0.89095    0.000
 5205.00    0.98914   0.89043    0.000
 5206.00    0.92729   0.89417    0.000
 5207.00    0.88134   0.89941    0.000
 5208.00    0.84848   0.90782    0.000
 5209.00    0.83240   0.91771    0.000
 5210.00    0.84768   0.92784    0.000
 5211.00    0.89101   0.93871    6.811
 5212.00    0.94176   0.94770    6.837
 5213.00    0.99284   0.95566    6.961
 5214.00    1.04757   0.96059    7.057
 5215.00    1.08752   0.96367    7.115
 5216.00    1.08504   0.96465    7.230
 5217.00    1.05004   0.96303    7.357
 5218.00    1.01450   0.95927    7.369
 5219.00    0.98025   0.95266    7.341
 5220.00    0.93754   0.94563    7.424
 5221.00    0.91471   0.93763    7.541
 5222.00    0.94252   0.93046    7.517
 5223.00    0.98765   0.92515    7.412
 5224.00    0.99936   0.92112    7.382
 5225.00    0.98546   0.92013    7.442
 5226.00    0.97866   0.92164    7.532
 5227.00    0.98353   0.92673    7.629
 5228.00    0.98451   0.93443    7.716
 5229.00    0.96343   0.94257    7.746
 5230.00    0.92158   0.95214    7.708
 5231.00    0.89499   0.96087    7.690
 5232.00    0.91632   0.96908    7.745
 5233.00    0.98230   0.97821    7.809
 5234.00    1.06150   0.98602    7.832
 5235.00    1.10779   0.99390    7.882
 5236.00    1.09962   1.00037    7.977
 5237.00    1.05905   1.00492    8.003
 5238.00    1.01431   1.00724    7.939
 5239.00    0.98050   1.00667    7.935
 5240.00    0.97693   1.00495    8.061
 5241.00    1.02547   1.00093    8.202
 5242.00    1.10248   0.99519    8.199
 5243.00    1.13881   0.98928    7.988
 5244.00    1.10437   0.98286    7.769
 5245.00    1.02851   0.97658    7.846
 5246.00    0.95259   0.97085    8.156
 5247.00    0.90976   0.96685    8.272
 5248.00    0.91646   0.96545    8.130
 5249.00    0.96809   0.96517    8.071
 5250.00    1.03507   0.96714    8.148
 5251.00    1.07910   0.96989    8.152
 5252.00    1.09267   0.97194    8.026
 5253.00    1.09129   0.97303    7.877
 5254.00    1.07887   0.97078    7.759
 5255.00    1.05249   0.96645    7.694
 5256.00    1.02356   0.95845    7.778
 5257.00    1.00455   0.94678    8.047
 5258.00    0.98277   0.93180    8.199
 5259.00    0.93804   0.91476    7.979
 5260.00    0.87322   0.89649    7.836
 5261.00    0.81110   0.87723    8.160
 5262.00    0.78310   0.86046    8.461
 5263.00    0.80057   0.84772    8.139
 5264.00    0.82906   0.83954    7.744
 5265.00    0.83457   0.83536    7.799
 5266.00    0.82804   0.83704    8.030
 5267.00    0.83590   0.84240    8.038
 5268.00    0.87057   0.85084    7.927
 5269.00    0.92560   0.86344    7.900
 5270.00    0.97791   0.87876    7.918
 5271.00    1.01635   0.89532    7.910
 5272.00    1.05367   0.91103    7.902
 5273.00    1.08332   0.92623    7.912
 5274.00    1.06565   0.93909    7.911
 5275.00    0.99231   0.95014    7.912
 5276.00    0.90924   0.96024    7.997
 5277.00    0.86486   0.96905    8.160
 5278.00    0.88223   0.97695    8.270
 5279.00    0.94833   0.98372    8.234
 5280.00    1.02150   0.99018    8.082
 5281.00    1.07112   0.99727    7.942
 5282.00    1.08968   1.00527    7.949
 5283.00    1.08520   1.01326    8.087
 5284.00    1.07195   1.02167    8.215
 5285.00    1.05323   1.02861    8.286
 5286.00    1.02491   1.03362    8.362
 5287.00    0.99509   1.03574    8.448
 5288.00    0.98009   1.03452    8.476
 5289.00    0.98607   1.03043    8.367
 5290.00    1.00603   1.02372    8.125
 5291.00    1.02210   1.01606    7.935
 5292.00    1.01684   1.00724    7.965
 5293.00    0.99043   0.99857    8.135
 5294.00    0.95378   0.99146    8.256
 5295.00    0.91483   0.98649    8.307
 5296.00    0.87933   0.98464    8.374
 5297.00    0.85417   0.98571    8.489
 5298.00    0.84568   0.99066    8.597
 5299.00    0.85738   0.99791    8.571
 5300.00    0.88996   1.00666    8.394
 5301.00    0.94091   1.01651    8.291
 5302.00    0.99743   1.02615    8.357
 5303.00    1.03268   1.03508   -2.000
 5304.00    1.02433   1.04254   -2.000
 5305.00    0.97070   1.04788   -2.000
 5306.00    0.89962   1.05111   -2.000
 5307.00    0.86574   1.05254   -2.000
 5308.00    0.90189   1.05215   -2.000
 5309.00    0.99269   1.05014   -2.000
 5310.00    1.09216   1.04684   -2.000
 5311.00    1.14358   1.04232   -2.000
 5312.00    1.12224   1.03678   -2.000
 5313.00    1.05085   1.03060   -2.000
 5314.00    0.97971   1.02380   -2.000
 5315.00    0.96112   1.01611   -2.000
 5316.00    0.99082   1.00737   -2.000
 5317.00    1.01293   0.99856   -2.000
 5318.00    1.00147   0.98816    7.811
 5319.00    0.97409   0.97705    7.939
 5320.00    0.95593   0.96479    7.961
 5321.00    0.96296   0.95328    7.993
 5322.00    0.98798   0.94311    8.093
 5323.00    1.01064   0.93401    8.221
 5324.00    1.02574   0.92835    8.286
 5325.00    1.03886   0.92548    8.224
 5326.00    1.04663   0.92646    8.120
 5327.00    1.04089   0.92976    8.088
 5328.00    1.02173   0.93692    8.086
 5329.00    0.99699   0.94625    8.042
 5330.00    0.97809   0.95603    8.060
 5331.00    0.97289   0.96531    8.235
 5332.00    0.97788   0.97223    8.379
 5333.00    0.98327   0.97792    8.295
 5334.00    0.98055   0.98170    8.176
 5335.00    0.96741   0.98336    8.256
 5336.00    0.95109   0.98356    8.480
 5337.00    0.93939   0.98298    8.649
 5338.00    0.93317   0.98200    8.600
 5339.00    0.93345   0.98108    8.400
 5340.00    0.94621   0.98085    8.358
 5341.00    0.97311   0.98223    8.602
 5342.00    1.00545   0.98431    8.863
 5343.00    1.02878   0.98762    8.871
 5344.00    1.02931   0.99181    8.687
 5345.00    1.01147   0.99654    8.491
 5346.00    1.00104   1.00338    8.406
 5347.00    1.01553   1.01084    8.437
 5348.00    1.05115   1.01923    8.481
 5349.00    1.08936   1.02856    8.454
 5350.00    1.10564   1.03793    8.359
 5351.00    1.08983   1.04668    8.303
 5352.00    1.04996   1.05367    8.417
 5353.00    1.00021   1.05889    8.613
 5354.00    0.95709   1.06169    8.627
 5355.00    0.94025   1.06163    8.466
 5356.00    0.95987   1.05915    8.373
 5357.00    0.98662   1.05374    8.407
 5358.00    0.97537   1.04645    8.468
 5359.00    0.93209   1.03718    8.544
 5360.00    0.89744   1.02656    8.671
 5361.00    0.88693   1.01513    8.750
 5362.00    0.88987   1.00384    8.656
 5363.00    0.88839   0.99371    8.500
 5364.00    0.87480   0.98426    8.447
 5365.00    0.87068   0.97776    8.445
 5366.00    0.89812   0.97274    8.370
 5367.00    0.94023   0.97077    8.255
 5368.00    0.96908   0.97137    8.206
 5369.00    0.98283   0.97401    8.289
 5370.00    0.99003   0.97916    8.457
 5371.00    0.98989   0.98576    8.500
 5372.00    0.97996   0.99391    8.357
 5373.00    0.96454   1.00095    8.347
 5374.00    0.95281   1.00761    8.599
 5375.00    0.95506   1.01229    8.683
 5376.00    0.97077   1.01524    8.397
 5377.00    0.98406   1.01699    8.265
 5378.00    0.98719   1.01719    8.513
 5379.00    0.99224   1.01617    8.698
 5380.00    1.01143   1.01400    8.527
 5381.00    1.04519   1.01121    8.333
 5382.00    1.07976   1.00724    8.377
 5383.00    1.09160   1.00282    8.599
 5384.00    1.06974   0.99775    8.783
 5385.00    1.02412   0.99171    8.685
 5386.00    0.98013   0.98493    8.408
 5387.00    0.96617   0.97749    8.293
 5388.00    0.98162   0.97004    8.348
 5389.00    1.00027   0.96277    8.296
 5390.00    1.01053   0.95609    8.106
 5391.00    1.01864   0.95009    7.989
 5392.00    1.02635   0.94522    8.016
 5393.00    1.02742   0.94098    8.121
 5394.00    1.01349   0.93731    8.268
 5395.00    0.98564   0.93395    8.444
 5396.00    0.97285   0.93039    8.568
 5397.00    1.00465   0.92793    8.550
 5398.00    1.05941   0.92520    8.439
 5399.00    1.09140   0.92193    8.354
 5400.00    1.08506   0.91857    8.355
 5401.00    1.04787   0.91592    8.449
 5402.00    0.98977   0.91387    8.617
 5403.00    0.92534   0.91289    8.781
 5404.00    0.87851   0.91386    8.787
 5405.00    0.86887   0.91701    8.573
 5406.00    0.89742   0.92313    8.322
 5407.00    0.95463   0.93093    8.172
 5408.00    1.02857   0.93995    8.048
 5409.00    1.10013   0.94929    7.883
 5410.00    1.14082   0.95925    7.764
 5411.00    1.12993   0.96869    7.746
 5412.00    1.06744   0.97708   -2.000
 5413.00    0.97450   0.98379   -2.000
 5414.00    0.88715   0.98843   -2.000
 5415.00    0.82242   0.99190   -2.000
 5416.00    0.76051   0.99369   -2.000
 5417.00    0.65215   0.99397   -2.000
 5418.00    0.46400   0.99283   -2.000
 5419.00    0.35161   0.99046   -2.000
 5420.00    0.63287   0.98754   -2.000
 5421.00    1.40328   0.98461   -2.000
 5422.00    2.44147   0.98081   -2.000
 5423.00    3.40198   0.97622   -2.000
 5424.00    3.93891   0.97174   -2.000
 5425.00    3.86355   0.96731   -2.000
 5426.00    3.21506   0.96294   -2.000
 5427.00    2.31231   0.95900   -2.000
 5428.00    1.58568   0.95554   -2.000
 5429.00    1.17492   0.95360   -2.000
 5430.00    0.96923   0.95465   -2.000
 5431.00    0.87508   0.95683   -2.000
 5432.00    0.84904   0.96130   -2.000
 5433.00    0.85768   0.96713   -2.000
 5434.00    0.87501   0.97378   -2.000
 5435.00    0.88951   0.98105   -2.000
 5436.00    0.89919   0.98742    8.278
 5437.00    0.90324   0.99281    8.462
 5438.00    0.89830   0.99603    8.579
 5439.00    0.87662   0.99699    8.668
 5440.00    0.84153   0.99569    8.807
 5441.00    0.82100   0.99253    8.845
 5442.00    0.83468   0.98838    8.677
 5443.00    0.86473   0.98355    8.500
 5444.00    0.88726   0.97865    8.487
 5445.00    0.90013   0.97436    8.579
 5446.00    0.91613   0.97063    8.605
 5447.00    0.95220   0.96886    8.415
 5448.00    1.00193   0.96718    8.049
 5449.00    1.02672   0.96620    7.729
 5450.00    1.00681   0.96498    7.580
 5451.00    0.96452   0.96408    7.580
 5452.00    0.92942   0.96329    7.721
 5453.00    0.91958   0.96289    8.041
 5454.00    0.94102   0.96268    8.419
 5455.00    0.98590   0.96301    8.522
 5456.00    1.02536   0.96425    8.354
 5457.00    1.02192   0.96512    8.298
 5458.00    0.97968   0.96608    8.456
 5459.00    0.94210   0.96638    8.594
 5460.00    0.93312   0.96642    8.570
 5461.00    0.94578   0.96616    8.452
 5462.00    0.96126   0.96550    8.355
 5463.00    0.96515   0.96493    8.346
 5464.00    0.97140   0.96390    8.354
 5465.00    1.00437   0.96181    8.236
 5466.00    1.05158   0.95905    7.988
 5467.00    1.07665   0.95542    7.737
 5468.00    1.06025   0.95075    7.662
 5469.00    1.00591   0.94543    7.878
 5470.00    0.93623   0.93991    8.289
 5471.00    0.87762   0.93475    8.671
 5472.00    0.84021   0.93000    8.929
 5473.00    0.82350   0.92646    9.086
 5474.00    0.82664   0.92455    9.131
 5475.00    0.84536   0.92355    9.054
 5476.00    0.86849   0.92426    8.909
 5477.00    0.88851   0.92714    8.794
 5478.00    0.91072   0.93070    8.824
 5479.00    0.93953   0.93514    8.973
 5480.00    0.96708   0.93916    8.969
 5481.00    0.98179   0.94360    8.717
 5482.00    0.97670   0.94764    8.543
 5483.00    0.95746   0.95135    8.618
 5484.00    0.94321   0.95453    8.734
 5485.00    0.94312   0.95658    8.725
 5486.00    0.94578   0.95804    8.690
 5487.00    0.93773   0.95898    8.657
 5488.00    0.91613   0.96012    8.488
 5489.00    0.90025   0.96053    8.241
 5490.00    0.92313   0.96109    8.176
 5491.00    0.97982   0.96138    8.333
 5492.00    1.02408   0.96106    8.496
 5493.00    1.02981   0.96068    8.557
 5494.00    1.00557   0.95988    8.595
 5495.00    0.97052   0.95880    8.584
 5496.00    0.94085   0.95695    8.428
 5497.00    0.91537   0.95499    8.294
 5498.00    0.88548   0.95285    8.444
 5499.00    0.86733   0.95020    8.734
 5500.00    0.88885   0.94725    8.761
 5501.00    0.94743   0.94425    8.601
 5502.00    1.01458   0.94167    8.593
 5503.00    1.06143   0.93918    8.629
 5504.00    1.06926   0.93726    8.447
 5505.00    1.03868   0.93525    8.261
 5506.00    0.98809   0.93407    8.377
 5507.00    0.94839   0.93365    8.646
 5508.00    0.94425   0.93379    8.729
 5509.00    0.97281   0.93471    8.612
 5510.00    1.01753   0.93673    8.445
 5511.00    1.06631   0.93938    8.244
 5512.00    1.10708   0.94324    8.041
 5513.00    1.12315   0.94787    7.996
 5514.00    1.10882   0.95264    8.174
 5515.00    1.08064   0.95751    8.370
 5516.00    1.05558   0.96129    8.380
 5517.00    1.03516   0.96443    8.279
 5518.00    1.01717   0.96587    8.216
 5519.00    1.00324   0.96586    8.246
 5520.00    0.99108   0.96440    8.298
 5521.00    0.97146   0.96193    8.204
 5522.00    0.93762   0.95882    7.988
 5523.00    0.89209   0.95552    7.884
 5524.00    0.85372   0.95247    7.881
 5525.00    0.84980   0.94992    7.697
 5526.00    0.87233   0.94834    7.352
 5527.00    0.87895   0.94750    7.152
 5528.00    0.85951   0.94800    7.098
 5529.00    0.84426   0.94951    6.955
 5530.00    0.85253   0.95136    6.808
 5531.00    0.87903   0.95369    6.941
 5532.00    0.90301   0.95601    7.185
 5533.00    0.90450   0.95870    7.047
 5534.00    0.89572   0.96112    6.753
 5535.00    0.90918   0.96389    6.863
 5536.00    0.95615   0.96656    7.268
 5537.00    1.02267   0.96889    7.416
 5538.00    1.07980   0.97133    7.334
 5539.00    1.09852   0.97347    7.438
 5540.00    1.07070   0.97555    7.677
 5541.00    1.00595   0.97742    7.778
 5542.00    0.92217   0.97912    7.900
 5543.00    0.84865   0.98087    8.281
 5544.00    0.82913   0.98256    8.570
 5545.00    0.88778   0.98390    8.343
 5546.00    0.99258   0.98486    8.017
 5547.00    1.08427   0.98551    8.032
 5548.00    1.11230   0.98517    8.239
 5549.00    1.06232   0.98425    8.345
 5550.00    0.97211   0.98250    8.338
 5551.00    0.88636   0.98019    8.361
 5552.00    0.82169   0.97732    8.532
 5553.00    0.78120   0.97417    8.799
 5554.00    0.76673   0.97089    8.869
 5555.00    0.78173   0.96752    8.655
 5556.00    0.82999   0.96405    8.473
 5557.00    0.90191   0.96043    8.487
 5558.00    0.97074   0.95697    8.560
 5559.00    1.01003   0.95347    8.615
 5560.00    1.00553   0.95014    8.742
 5561.00    0.96811   0.94714    8.854
 5562.00    0.92877   0.94435    8.685
 5563.00    0.90226   0.94242    8.372
 5564.00    0.88219   0.94091    8.336
 5565.00    0.86871   0.93997    8.553
 5566.00    0.86814   0.93993    8.607
 5567.00    0.86671   0.94039    8.444
 5568.00    0.84101   0.94152    8.386
 5569.00    0.80161   0.94292    8.535
 5570.00    0.78707   0.94506    8.748
 5571.00    0.82638   0.94684    8.834
 5572.00    0.92113   0.94841    8.698
 5573.00    1.02924   0.95003    8.505
 5574.00    1.09414   0.95076    8.458
 5575.00    1.09841   0.95034    8.482
 5576.00    1.05809   0.94894    8.419
 5577.00    0.99985   0.94606    8.353
 5578.00    0.94676   0.94168    8.426
 5579.00    0.90450   0.93623    8.564
 5580.00    0.86701   0.92962    8.634
 5581.00    0.82614   0.92226    8.682
 5582.00    0.78454   0.91501    8.798
 5583.00    0.76512   0.90812    8.936
 5584.00    0.78445   0.90212    8.974
 5585.00    0.82972   0.89763    8.831
 5586.00    0.87506   0.89460    8.610
 5587.00    0.89881   0.89367    8.588
 5588.00    0.90173   0.89436    8.800
 5589.00    0.91179   0.89637    8.834
 5590.00    0.93762   0.89941    8.550
 5591.00    0.94887   0.90240    8.407
 5592.00    0.93004   0.90561    8.620
 5593.00    0.90307   0.90826    8.909
 5594.00    0.88779   0.91079    8.967
 5595.00    0.88414   0.91336    8.786
 5596.00    0.88173   0.91563    8.603
 5597.00    0.86912   0.91824    8.692
 5598.00    0.85073   0.92146    8.977
 5599.00    0.84651   0.92596    9.038
 5600.00    0.87033   0.93088    8.821
 5601.00    0.92062   0.93703    8.689
 5602.00    0.97519   0.94310    8.733
 5603.00    1.00237   0.94942    8.757
 5604.00    0.99203   0.95467    8.585
 5605.00    0.95726   0.95845    8.216
 5606.00    0.92012   0.96033    7.870
 5607.00    0.89917   0.96005    7.742
 5608.00    0.89268   0.95786    7.719
 5609.00    0.88824   0.95400    7.581
 5610.00    0.88463   0.94897    7.383
 5611.00    0.88418   0.94338    7.318
 5612.00    0.87655   0.93759    7.476
 5613.00    0.85418   0.93215    7.835
 5614.00    0.83462   0.92718    8.214
 5615.00    0.84049   0.92357    8.381
 5616.00    0.87237   0.92149    8.333
 5617.00    0.91014   0.92006    8.229
 5618.00    0.92069   0.91959    8.199
 5619.00    0.88842   0.91969    8.267
 5620.00    0.83900   0.92068    8.314
 5621.00    0.80615   0.92225    8.286
 5622.00    0.80324   0.92440    8.324
 5623.00    0.82742   0.92683    8.491
 5624.00    0.86525   0.92977    8.586
 5625.00    0.89949   0.93313    8.444
 5626.00    0.91522   0.93626    8.152
 5627.00    0.91098   0.93873    7.869
 5628.00    0.90061   0.94045    7.696
 5629.00    0.89213   0.94098    7.627
 5630.00    0.88155   0.94037    7.567
 5631.00    0.87165   0.93868    7.498
 5632.00    0.87628   0.93622    7.499
 5633.00    0.90435   0.93330    7.631
 5634.00    0.95289   0.93030    7.888
 5635.00    1.00511   0.92765    8.167
 5636.00    1.03737   0.92541    8.300
 5637.00    1.04034   0.92407    8.280
 5638.00    1.02013   0.92354    8.264
 5639.00    0.98470   0.92376    8.336
 5640.00    0.94316   0.92452    8.470
 5641.00    0.91214   0.92580    8.566
 5642.00    0.90709   0.92760    8.515
 5643.00    0.92284   0.92915    8.334
 5644.00    0.94026   0.93075    8.142
 5645.00    0.94510   0.93161    8.071
 5646.00    0.93403   0.93199    8.186
 5647.00    0.91787   0.93136    8.384
 5648.00    0.90723   0.92982    8.475
 5649.00    0.89364   0.92730    8.374
 5650.00    0.86853   0.92407    8.161
 5651.00    0.84756   0.92023    8.044
 5652.00    0.85242   0.91592    8.125
 5653.00    0.88805   0.91159    8.228
 5654.00    0.93997   0.90754    8.170
 5655.00    0.97713   0.90458    8.045
 5656.00    0.98018   0.90249    8.002
 5657.00    0.96235   0.90138    8.055
 5658.00    0.94890   0.90162    8.168
 5659.00    0.95824   0.90360    8.305
 5660.00    0.98582   0.90613    8.390
 5661.00    1.00076   0.90957    8.306
 5662.00    0.98265   0.91340    8.121
 5663.00    0.94106   0.91802    8.086
 5664.00    0.90523   0.92259    8.217
 5665.00    0.90890   0.92746    8.211
 5666.00    0.95027   0.93200    8.032
 5667.00    0.98867   0.93669    8.000
 5668.00    1.00022   0.94105    8.169
 5669.00    0.99299   0.94508    8.262
 5670.00    0.98275   0.94838    8.204
 5671.00    0.98152   0.95088    8.204
 5672.00    0.99002   0.95234    8.305
 5673.00    0.99726   0.95252    8.374
 5674.00    0.98587   0.95145    8.420
 5675.00    0.94676   0.94931    8.546
 5676.00    0.90828   0.94645    8.616
 5677.00    0.91196   0.94269    8.402
 5678.00    0.95093   0.93877    8.089
 5679.00    0.98431   0.93483    7.996
 5680.00    0.98600   0.93144    8.121
 5681.00    0.95310   0.92850    8.264
 5682.00    0.90433   0.92661    8.272
 5683.00    0.86535   0.92598    8.134
 5684.00    0.84914   0.92622    8.004
 5685.00    0.85835   0.92754    8.011
 5686.00    0.89194   0.92917    8.074
 5687.00    0.94982   0.93159    8.047
 5688.00    1.03476   0.93374    7.906
 5689.00    1.12801   0.93590    7.727
 5690.00    1.17232   0.93699    7.626
 5691.00    1.13233   0.93728    7.675
 5692.00    1.04193   0.93635    7.853
 5693.00    0.96024   0.93410    8.061
 5694.00    0.93103   0.93091    8.125
 5695.00    0.95330   0.92667    7.999
 5696.00    0.97551   0.92188    7.849
 5697.00    0.96736   0.91634    7.825
 5698.00    0.95171   0.91074    7.942
 5699.00    0.94875   0.90512    8.037
 5700.00    0.95248   0.89953    7.830
 5701.00    0.96045   0.89442    7.402
 5702.00    0.98232   0.88995    7.120
 5703.00    1.01829   0.88635    6.997
 5704.00    1.05260   0.88370    6.769
 5705.00    1.06249   0.88235    6.503
 5706.00    1.03198   0.88255    6.508
 5707.00    0.98232   0.88460    6.779
 5708.00    0.95843   0.88820    7.006
 5709.00    0.96828   0.89368    7.094
 5710.00    0.98381   0.90044    7.224
 5711.00    0.98265   0.90801    7.440
 5712.00    0.96150   0.91643    7.625
 5713.00    0.94140   0.92480    7.725
 5714.00    0.94813   0.93280    7.767
 5715.00    0.97536   0.94016    7.751
 5716.00    0.99587   0.94661    7.682
 5717.00    0.99073   0.95188    7.651
 5718.00    0.95680   0.95610    7.763
 5719.00    0.90967   0.95909    8.029
 5720.00    0.87077   0.96086    8.315
 5721.00    0.85084   0.96177    8.280
 5722.00    0.85144   0.96160   -2.000
 5723.00    0.86904   0.96096   -2.000
 5724.00    0.89590   0.95972   -2.000
 5725.00    0.92114   0.95851   -2.000
 5726.00    0.93646   0.95707   -2.000
 5727.00    0.94106   0.95616   -2.000
 5728.00    0.94114   0.95555   -2.000
 5729.00    0.94731   0.95520   -2.000
 5730.00    0.96095   0.95503   -2.000
 5731.00    0.96800   0.95509   -2.000
 5732.00    0.95700   0.95549   -2.000
 5733.00    0.93001   0.95575   -2.000
 5734.00    0.90146   0.95592   -2.000
 5735.00    0.89203   0.95584   -2.000
 5736.00    0.90582   0.95554   -2.000
 5737.00    0.92614   0.95507   -2.000
 5738.00    0.94176   0.95433   -2.000
 5739.00    0.95306   0.95339   -2.000
 5740.00    0.95497   0.95217   -2.000
 5741.00    0.93801   0.95067    0.000
 5742.00    0.91054   0.94888    0.000
 5743.00    0.89306   0.94686    0.000
 5744.00    0.88414   0.94472    0.000
 5745.00    0.86487   0.94224    0.000
 5746.00    0.83247   0.93976    0.000
 5747.00    0.80042   0.93714    0.000
 5748.00    0.78093   0.93509    0.000
 5749.00    0.77845   0.93334    0.000
 5750.00    0.78556   0.93201    0.000
 5751.00    0.79496   0.93095    0.000
 5752.00    0.81906   0.93032    0.000
 5753.00    0.86771   0.93019    0.000
 5754.00    0.91322   0.93044    0.000
 5755.00    0.91883   0.93123    0.000
 5756.00    0.88097   0.93191    0.000
 5757.00    0.82054   0.93313    0.000
 5758.00    0.76575   0.93435    0.000
 5759.00    0.73679   0.93621    0.000
 5760.00    0.73372   0.93818    0.000
 5761.00    0.75010   0.94075    0.000
 5762.00    0.78465   0.94325    0.000
 5763.00    0.82898   0.94600    0.000
 5764.00    0.86023   0.94822    0.000
 5765.00    0.86166   0.94976    0.000
 5766.00    0.83668   0.95050    0.000
 5767.00    0.80439   0.95029    0.000
 5768.00    0.79165   0.94916    0.000
 5769.00    0.80819   0.94702    0.000
 5770.00    0.83914   0.94403    0.000
 5771.00    0.87175   0.94006    0.000
 5772.00    0.90492   0.93534    0.000
 5773.00    0.93429   0.92995    0.000
 5774.00    0.94981   0.92380    0.000
 5775.00    0.95020   0.91753    0.000
 5776.00    0.94435   0.91092    0.000
 5777.00    0.93895   0.90480    0.000
 5778.00    0.93670   0.89908    0.000
 5779.00    0.94263   0.89463    0.000
 5780.00    0.96082   0.89131    0.000
 5781.00    0.98232   0.88996    0.000
 5782.00    0.99497   0.89027    0.000
 5783.00    1.01010   0.89215    0.000
 5784.00    1.04502   0.89527    0.000
 5785.00    1.07971   0.89952    0.000
 5786.00    1.07292   0.90469    0.000
 5787.00    1.00366   0.90997    0.000
 5788.00    0.88565   0.91538    0.000
 5789.00    0.77519   0.92053    0.000
 5790.00    0.72565   0.92527    0.000
 5791.00    0.72953   0.92975    0.000
 5792.00    0.75507   0.93379    0.000
 5793.00    0.79557   0.93723    0.000
 5794.00    0.85269   0.94026    0.000
 5795.00    0.91406   0.94266    0.000
 5796.00    0.95716   0.94452    0.000
 5797.00    0.95718   0.94580    0.000
 5798.00    0.90771   0.94681    0.000
 5799.00    0.83417   0.94731    0.000
 5800.00    0.77459   0.94730    0.000
 5801.00    0.76165   0.94693    0.000
 5802.00    0.80009   0.94640    0.000
 5803.00    0.85945   0.94567    0.000
 5804.00    0.90782   0.94512    0.000
 5805.00    0.92913   0.94467    0.000
 5806.00    0.91434   0.94442    0.000
 5807.00    0.86148   0.94427    0.000
 5808.00    0.79454   0.94431    0.000
 5809.00    0.75862   0.94449    0.000
 5810.00    0.77273   0.94492    0.000
 5811.00    0.81890   0.94552    0.000
 5812.00    0.86555   0.94643    0.000
 5813.00    0.88327   0.94767    0.000
 5814.00    0.86622   0.94916    0.000
 5815.00    0.83241   0.95096    0.000
 5816.00    0.80865   0.95295    0.000
 5817.00    0.81585   0.95509    0.000
 5818.00    0.84649   0.95707    0.000
 5819.00    0.87542   0.95877    0.000
 5820.00    0.89065   0.96026    0.000
 5821.00    0.89499   0.96128    0.000
 5822.00    0.89808   0.96208    0.000
 5823.00    0.90910   0.96238    0.000
 5824.00    0.92810   0.96252    0.000
 5825.00    0.94705   0.96219    0.000
 5826.00    0.95368   0.96170    0.000
 5827.00    0.94135   0.96092    0.000
 5828.00    0.91901   0.96008    0.000
 5829.00    0.89944   0.95912    0.000
 5830.00    0.88602   0.95823    0.000
 5831.00    0.87542   0.95740    0.000
 5832.00    0.86198   0.95685    0.000
 5833.00    0.84384   0.95640    0.000
 5834.00    0.82630   0.95623    0.000
 5835.00    0.81061   0.95611    0.000
 5836.00    0.78974   0.95609    0.000
 5837.00    0.77364   0.95576    0.000
 5838.00    0.79646   0.95522    0.000
 5839.00    0.86569   0.95417    0.000
 5840.00    0.94203   0.95256    0.000
 5841.00    0.98273   0.95025    0.000
 5842.00    0.96595   0.94727    0.000
 5843.00    0.89880   0.94368    0.000
 5844.00    0.81553   0.93950    0.000
 5845.00    0.75869   0.93495    0.000
 5846.00    0.76200   0.93004    0.000
 5847.00    0.81901   0.92503    0.000
 5848.00    0.88775   0.91995    0.000
 5849.00    0.93421   0.91505    0.000
 5850.00    0.94538   0.91043    0.000
 5851.00    0.92833   0.90627    0.000
 5852.00    0.90189   0.90289    0.000
 5853.00    0.87893   0.90018    0.000
 5854.00    0.86436   0.89865    0.000
 5855.00    0.85936   0.89775    0.000
 5856.00    0.86190   0.89817    0.000
 5857.00    0.86648   0.89909    0.000
 5858.00    0.86916   0.90122    0.000
 5859.00    0.87496   0.90351    0.000
 5860.00    0.89023   0.90650    0.000
 5861.00    0.91086   0.90945    0.000
 5862.00    0.92367   0.91261    0.000
 5863.00    0.91158   0.91563    0.000
 5864.00    0.87326   0.91842    0.000
 5865.00    0.83999   0.92095    0.000
 5866.00    0.84178   0.92293    0.000
 5867.00    0.87627   0.92451    0.000
 5868.00    0.93091   0.92534    0.000
 5869.00    1.00233   0.92549    0.000
 5870.00    1.08546   0.92483    0.000
 5871.00    1.16509   0.92331    0.000
 5872.00    1.21936   0.92104    0.000
 5873.00    1.22591   0.91773    0.000
 5874.00    1.18133   0.91372    0.000
 5875.00    1.10711   0.90846    0.000
 5876.00    1.02393   0.90234    0.000
 5877.00    0.94192   0.89471    0.000
 5878.00    0.87572   0.88592    0.000
 5879.00    0.84386   0.87537    0.000
 5880.00    0.84017   0.86336    0.000
 5881.00    0.83434   0.84962    0.000
 5882.00    0.81175   0.83474    0.000
 5883.00    0.78321   0.81884    0.000
 5884.00    0.77175   0.80290    0.000
 5885.00    0.79612   0.78734    0.000
 5886.00    0.83997   0.77340    0.000
 5887.00    0.86558   0.76154    0.000
 5888.00    0.86332   0.75311    0.000
 5889.00    0.85034   0.74806    0.000
 5890.00    0.84404   0.74695    0.000
 5891.00    0.85240   0.74947    0.000
 5892.00    0.86736   0.75554    0.000
 5893.00    0.87414   0.76452    0.000
 5894.00    0.86761   0.77630    0.000
 5895.00    0.84964   0.78977    0.000
 5896.00    0.82215   0.80424    0.000
 5897.00    0.78914   0.81898    0.000
 5898.00    0.76013   0.83319    0.000
 5899.00    0.74545   0.84644    0.000
 5900.00    0.75027   0.85812    0.000
 5901.00    0.76907   0.86827    8.879
 5902.00    0.78348   0.87643    8.753
 5903.00    0.78480   0.88295    8.767
 5904.00    0.78996   0.88774    8.884
 5905.00    0.81505   0.89109    9.009
 5906.00    0.85588   0.89319    9.122
 5907.00    0.89730   0.89422    9.167
 5908.00    0.92227   0.89465    9.013
 5909.00    0.92355   0.89443    8.748
 5910.00    0.90858   0.89419    8.692
 5911.00    0.89072   0.89374    8.897
 5912.00    0.88228   0.89375    9.032
 5913.00    0.88464   0.89388    8.949
 5914.00    0.88847   0.89455    8.875
 5915.00    0.89182   0.89546    8.901
 5916.00    0.90258   0.89667    8.886
 5917.00    0.92176   0.89798    8.825
 5918.00    0.94115   0.89923    8.865
 5919.00    0.95428   0.90035    8.970
 5920.00    0.96028   0.90114    8.944
 5921.00    0.96464   0.90162    8.787
 5922.00    0.97358   0.90171    8.674
 5923.00    0.98105   0.90145    8.663
 5924.00    0.97351   0.90098    8.707
 5925.00    0.94622   0.90029    8.751
 5926.00    0.90646   0.89967    8.766
 5927.00    0.87253   0.89905    8.764
 5928.00    0.86167   0.89864    8.775
 5929.00    0.87171   0.89840    8.811
 5930.00    0.88745   0.89839    8.857
 5931.00    0.89414   0.89862    8.861
 5932.00    0.88343   0.89893    8.789
 5933.00    0.85828   0.89943    8.683
 5934.00    0.83029   0.89981    8.617
 5935.00    0.81512   0.90030    8.641
 5936.00    0.82027   0.90056    8.731
 5937.00    0.83528   0.90081    8.755
 5938.00    0.84673   0.90079    8.646
 5939.00    0.85154   0.90070    8.537
 5940.00    0.85213   0.90031    8.515
 5941.00    0.85130   0.89983    8.483
 5942.00    0.84655   0.89905    8.388
 5943.00    0.82951   0.89821    8.335
 5944.00    0.80324   0.89710    8.328
 5945.00    0.78716   0.89603    8.206
 5946.00    0.78914   0.89483    7.998
 5947.00    0.79642   0.89386    7.981
 5948.00    0.80310   0.89294    8.224
 5949.00    0.81688   0.89246    8.492
 5950.00    0.83445   0.89219    8.608
 5951.00    0.83767   0.89251    8.633
 5952.00    0.81623   0.89313    8.706
 5953.00    0.77527   0.89435    8.918
 5954.00    0.73249   0.89581    9.145
 5955.00    0.70990   0.89775    9.113
 5956.00    0.71458   0.89977    8.871
 5957.00    0.73821   0.90206    8.707
 5958.00    0.76872   0.90423    8.692
 5959.00    0.79660   0.90645    8.719
 5960.00    0.82134   0.90843    8.735
 5961.00    0.84279   0.91024    8.754
 5962.00    0.84397   0.91178    8.807
 5963.00    0.81221   0.91298    8.903
 5964.00    0.77711   0.91388    8.981
 5965.00    0.77851   0.91427    8.944
 5966.00    0.81263   0.91429    8.732
 5967.00    0.84693   0.91367    8.400
 5968.00    0.85079   0.91261    8.137
 5969.00    0.82031   0.91092    8.063
 5970.00    0.79760   0.90880    8.112
 5971.00    0.82209   0.90626    8.173
 5972.00    0.88279   0.90344    8.236
 5973.00    0.94667   0.90050    8.314
 5974.00    0.98906   0.89751    8.362
 5975.00    1.00676   0.89470    8.348
 5976.00    1.02134   0.89202    8.312
 5977.00    1.04396   0.88974    8.301
 5978.00    1.05564   0.88772    8.330
 5979.00    1.03711   0.88623    8.378
 5980.00    0.98709   0.88512    8.399
 5981.00    0.91796   0.88463    8.388
 5982.00    0.84978   0.88453    8.403
 5983.00    0.79596   0.88503    8.476
 5984.00    0.75836   0.88581    8.592
 5985.00    0.73465   0.88701    8.734
 5986.00    0.72242   0.88823    8.893
 5987.00    0.72231   0.88954    9.003
 5988.00    0.73753   0.89060    8.963
 5989.00    0.76929   0.89140    8.805
 5990.00    0.81427   0.89179    8.659
 5991.00    0.86205   0.89175    8.558
 5992.00    0.89781   0.89126    8.480
 5993.00    0.91043   0.89039    8.541
 5994.00    0.89925   0.88919    8.870
 5995.00    0.88339   0.88776    9.212
 5996.00    0.88564   0.88613    9.079
 5997.00    0.89946   0.88443    8.577
 5998.00    0.90289   0.88266    8.145
 5999.00    0.89184   0.88093    7.948
 6000.00    0.87321   0.87920    7.958
 6001.00    0.84686   0.87757    8.066
 6002.00    0.81198   0.87604    8.194
 6003.00    0.77820   0.87466    8.450
 6004.00    0.76121   0.87341    8.880
 6005.00    0.77486   0.87234    9.079
 6006.00    0.81744   0.87137    8.788
 6007.00    0.86153   0.87057    8.577
 6008.00    0.88193   0.86975    8.848
 6009.00    0.88041   0.86909    9.213
 6010.00    0.87393   0.86833    9.171
 6011.00    0.88113   0.86772    8.890
 6012.00    0.90406   0.86709    8.700
 6013.00    0.91974   0.86668    8.694
 6014.00    0.90376   0.86645    8.834
 6015.00    0.84715   0.86652    9.010
 6016.00    0.76611   0.86706    9.135
 6017.00    0.69952   0.86798    9.200
 6018.00    0.67502   0.86958    9.195
 6019.00    0.69463   0.87156    9.092
 6020.00    0.74467   0.87419    8.921
 6021.00    0.80380   0.87716    8.773
 6022.00    0.85535   0.88056    8.729
 6023.00    0.89149   0.88415    8.827
 6024.00    0.91174   0.88782    9.018
 6025.00    0.92057   0.89155    9.175
 6026.00    0.92261   0.89500    9.191
 6027.00    0.92288   0.89834    9.047
 6028.00    0.93072   0.90116    8.830
 6029.00    0.95249   0.90374    8.655
 6030.00    0.97394   0.90574    8.526
 6031.00    0.97125   0.90741    8.388
 6032.00    0.93941   0.90861    8.245
 6033.00    0.89157   0.90947    8.175
 6034.00    0.84799   0.91008    8.322
 6035.00    0.82637   0.91042    8.756
 6036.00    0.83054   0.91079    9.182
 6037.00    0.85253   0.91097    9.203
 6038.00    0.87819   0.91135    9.045
 6039.00    0.89645   0.91157    9.050
 6040.00    0.90851   0.91201    9.028
 6041.00    0.91905   0.91224    8.794
 6042.00    0.92679   0.91249    8.687
 6043.00    0.93221   0.91244    8.959
 6044.00    0.94350   0.91216    9.315
 6045.00    0.96069   0.91153    9.351
 6046.00    0.96530   0.91049    9.105
 6047.00    0.94168   0.90912    8.790
 6048.00    0.89251   0.90740    8.514
 6049.00    0.83587   0.90548    8.325
 6050.00    0.79853   0.90345    8.259
 6051.00    0.79211   0.90138    8.356
 6052.00    0.80422   0.89948    8.648
 6053.00    0.81884   0.89765    9.039
 6054.00    0.82657   0.89617    9.267
 6055.00    0.82347   0.89484    9.307
 6056.00    0.81150   0.89392    9.449
 6057.00    0.80275   0.89322    9.649
 6058.00    0.81430   0.89295    9.428
 6059.00    0.84687   0.89307    8.652
 6060.00    0.88346   0.89361    7.681
 6061.00    0.90645   0.89467    6.867
 6062.00    0.90557   0.89614    6.356
 6063.00    0.88473   0.89804    6.114
 6064.00    0.85715   0.90019    6.064
 6065.00    0.83095   0.90242    6.198
 6066.00    0.80992   0.90453    6.534
 6067.00    0.80140   0.90622    6.985
 6068.00    0.81121   0.90741    7.350
 6069.00    0.83257   0.90770    7.528
 6070.00    0.85366   0.90719    7.591
 6071.00    0.87142   0.90568    7.706
 6072.00    0.88077   0.90344    8.004
 6073.00    0.85954   0.90043    8.421
 6074.00    0.79918   0.89704    8.800
 6075.00    0.74033   0.89331    9.108
 6076.00    0.73038   0.88963    9.343
 6077.00    0.77526   0.88605    9.350
 6078.00    0.84872   0.88285    9.144
 6079.00    0.90951   0.88002    9.115
 6080.00    0.93663   0.87770    9.300
 6081.00    0.95092   0.87587    8.946
 6082.00    0.96648   0.87449    7.870
 6083.00    0.96023   0.87347    6.893
 6084.00    0.91401   0.87286    6.366
 6085.00    0.84111   0.87253    6.194
 6086.00    0.77427   0.87248    6.322
 6087.00    0.75075   0.87255    6.817
 6088.00    0.77726   0.87287    7.561
 6089.00    0.82224   0.87313    7.957
 6090.00    0.85806   0.87346    7.781
 6091.00    0.87706   0.87350    7.636
 6092.00    0.87991   0.87345    7.769
 6093.00    0.86890   0.87301    7.923
 6094.00    0.84247   0.87230    8.035
 6095.00    0.79886   0.87126    8.344
 6096.00    0.75217   0.87005    8.851
 6097.00    0.72688   0.86880    9.220
 6098.00    0.73150   0.86757    9.302
 6099.00    0.75621   0.86683    9.251
 6100.00    0.78401   0.86641    9.106
 6101.00    0.79925   0.86678    8.837
 6102.00    0.79914   0.86747    8.616
 6103.00    0.79239   0.86885    8.643
 6104.00    0.79204   0.87041    8.851
 6105.00    0.80491   0.87250    9.026
 6106.00    0.81847   0.87440    9.067
 6107.00    0.81879   0.87605    9.033
 6108.00    0.81708   0.87720    9.081
 6109.00    0.83594   0.87777    9.194
 6110.00    0.88718   0.87772    8.924
 6111.00    0.96108   0.87696    8.091
 6112.00    1.02052   0.87550    7.260
 6113.00    1.03266   0.87345    6.787
 6114.00    0.99856   0.87109    6.616
 6115.00    0.94363   0.86843    6.686
 6116.00    0.90333   0.86579    7.076
 6117.00    0.89325   0.86323    7.820
 6118.00    0.89442   0.86110    8.612
 6119.00    0.89938   0.85948    9.036
 6120.00    0.93535   0.85831    9.064
 6121.00    1.01714   0.85759   -2.000
 6122.00    1.12283   0.85720   -2.000
 6123.00    1.21468   0.85702   -2.000
 6124.00    1.25528   0.85677   -2.000
 6125.00    1.22850   0.85647   -2.000
 6126.00    1.14686   0.85547   -2.000
 6127.00    1.04395   0.85398   -2.000
 6128.00    0.96043   0.85189   -2.000
 6129.00    0.90832   0.84939   -2.000
 6130.00    0.87044   0.84660   -2.000
 6131.00    0.83614   0.84396   -2.000
 6132.00    0.80910   0.84153   -2.000
 6133.00    0.79784   0.83986    6.573
 6134.00    0.80762   0.83891    6.564
 6135.00    0.82831   0.83917    6.824
 6136.00    0.84068   0.84023    7.559
 6137.00    0.83510   0.84235    8.575
 6138.00    0.81523   0.84503    9.123
 6139.00    0.79698   0.84829    9.003
 6140.00    0.79577   0.85172    8.745
 6141.00    0.80746   0.85462    8.584
 6142.00    0.81998   0.85694    8.493
 6143.00    0.83319   0.85840    8.430
 6144.00    0.85004   0.85938    8.365
 6145.00    0.86285   0.85937    8.273
 6146.00    0.86152   0.85865    8.160
 6147.00    0.84480   0.85694    8.084
 6148.00    0.82264   0.85473    8.157
 6149.00    0.81535   0.85157    8.535
 6150.00    0.83406   0.84793    9.110
 6151.00    0.86584   0.84345    9.121
 6152.00    0.88859   0.83853    8.319
 6153.00    0.88478   0.83295    7.596
 6154.00    0.85038   0.82703    7.298
 6155.00    0.79817   0.82089    7.092
 6156.00    0.74474   0.81480    6.902
 6157.00    0.70302   0.80925    7.127
 6158.00    0.68495   0.80439    7.953
 6159.00    0.70023   0.80042    8.946
 6160.00    0.74364   0.79761    9.504
 6161.00    0.79308   0.79595    9.642
 6162.00    0.82506   0.79544    9.579
 6163.00    0.82464   0.79604    9.378
 6164.00    0.79677   0.79785    9.207
 6165.00    0.76374   0.80041    9.280
 6166.00    0.74495   0.80355    9.483
 6167.00    0.74884   0.80702    9.452
 6168.00    0.76900   0.81073    9.218
 6169.00    0.78931   0.81468    9.102
 6170.00    0.79865   0.81846    9.064
 6171.00    0.79637   0.82231    8.858
 6172.00    0.79590   0.82612    8.560
 6173.00    0.81373   0.82965    8.413
 6174.00    0.84828   0.83255    8.473
 6175.00    0.88412   0.83490    8.659
 6176.00    0.90537   0.83672    8.839
 6177.00    0.90196   0.83767    8.867
 6178.00    0.87533   0.83798    8.662
 6179.00    0.83783   0.83737    8.286
 6180.00    0.80973   0.83622    7.943
 6181.00    0.80483   0.83413    7.821
 6182.00    0.81569   0.83178    8.010
 6183.00    0.82520   0.82904    8.386
 6184.00    0.81997   0.82635    8.392
 6185.00    0.79399   0.82379    7.758
 6186.00    0.75019   0.82180    7.048
 6187.00    0.69594   0.82037    6.619
 6188.00    0.64060   0.81976    6.393
 6189.00    0.60433   0.81997    6.349
 6190.00    0.61806   0.82096    6.669
 6191.00    0.68695   0.82248    7.441
 6192.00    0.77481   0.82451    8.322
 6193.00    0.84019   0.82669    8.857
 6194.00    0.85897   0.82936    9.118
 6195.00    0.83649   0.83170    9.337
 6196.00    0.80443   0.83390    9.544
 6197.00    0.78767   0.83577    9.742
 6198.00    0.79189   0.83738    9.951
 6199.00    0.81011   0.83851   10.022
 6200.00    0.82990   0.83914    9.716
 6201.00    0.84767   0.83919    9.217
 6202.00    0.86622   0.83866    8.935
 6203.00    0.87561   0.83739    8.950
 6204.00    0.85827   0.83516    9.102
 6205.00    0.81416   0.83216    9.233
 6206.00    0.75965   0.82834    9.242
 6207.00    0.71166   0.82408    9.106
 6208.00    0.68298   0.81935    8.890
 6209.00    0.68007   0.81457    8.718
 6210.00    0.70237   0.80985    8.672
 6211.00    0.74199   0.80559    8.666
 6212.00    0.78633   0.80183    8.629
 6213.00    0.82236   0.79886    8.772
 6214.00    0.84157   0.79661    9.268
 6215.00    0.84514   0.79510    9.738
 6216.00    0.83836   0.79440    9.700
 6217.00    0.82374   0.79416    9.546
 6218.00    0.80437   0.79431    9.720
 6219.00    0.78713   0.79450    9.899
 6220.00    0.77373   0.79465    9.730
 6221.00    0.75438   0.79460    9.566
 6222.00    0.72434   0.79453    9.733
 6223.00    0.69544   0.79420   10.053
 6224.00    0.68166   0.79373   10.210
 6225.00    0.68785   0.79317   10.090
 6226.00    0.70628   0.79256    9.869
 6227.00    0.71910   0.79232    9.874
 6228.00    0.72025   0.79194   10.106
 6229.00    0.72296   0.79201   10.134
 6230.00    0.73854   0.79185    9.908
 6231.00    0.76596   0.79194    9.927
 6232.00    0.79247   0.79169   10.263
 6233.00    0.80078   0.79157   10.391
 6234.00    0.79260   0.79093   10.134
 6235.00    0.78916   0.78996    9.878
 6236.00    0.80512   0.78872    9.748
 6237.00    0.84063   0.78715    9.583
 6238.00    0.88414   0.78558    9.371
 6239.00    0.91768   0.78411    9.251
 6240.00    0.92776   0.78286    9.266
 6241.00    0.90995   0.78191    9.341
 6242.00    0.87266   0.78110    9.309
 6243.00    0.83116   0.78053    9.094
 6244.00    0.79510   0.77971    8.984
 6245.00    0.77106   0.77884    9.273
 6246.00    0.77074   0.77788    9.688
 6247.00    0.80200   0.77646    9.694
 6248.00    0.85389   0.77499    9.438
 6249.00    0.90224   0.77327    9.376
 6250.00    0.92121   0.77176    9.581
 6251.00    0.90142   0.77027    9.900
 6252.00    0.86703   0.76954   10.123
 6253.00    0.84923   0.76933   10.112
 6254.00    0.85716   0.77009    9.937
 6255.00    0.87985   0.77182    9.748
 6256.00    0.89307   0.77421    9.652
 6257.00    0.88043   0.77745    9.723
 6258.00    0.84848   0.78084   10.026
 6259.00    0.81519   0.78489   10.460
 6260.00    0.79963   0.78864   10.635
 6261.00    0.81473   0.79264   10.393
 6262.00    0.86205   0.79603   10.104
 6263.00    0.92701   0.79911    9.995
 6264.00    0.98147   0.80175    9.940
 6265.00    1.00811   0.80394    9.856
 6266.00    1.00933   0.80572    9.808
 6267.00    0.99400   0.80719    9.769
 6268.00    0.97142   0.80853    9.602
 6269.00    0.95118   0.80943    9.366
 6270.00    0.94044   0.81013    9.273
 6271.00    0.93523   0.81058    9.304
 6272.00    0.92389   0.81100    9.262
 6273.00    0.90483   0.81119    9.203
 6274.00    0.88706   0.81150    9.367
 6275.00    0.87786   0.81168    9.718
 6276.00    0.87880   0.81213    9.944
 6277.00    0.88421   0.81270    9.876
 6278.00    0.88487   0.81355    9.633
 6279.00    0.87599   0.81456    9.493
 6280.00    0.86009   0.81571    0.000
 6281.00    0.84877   0.81699    0.000
 6282.00    0.85368   0.81806    0.000
 6283.00    0.87299   0.81921    0.000
 6284.00    0.89955   0.81969    0.000
 6285.00    0.93407   0.81988    0.000
 6286.00    0.97694   0.81932    0.000
 6287.00    1.01730   0.81824    0.000
 6288.00    1.04382   0.81666    0.000
 6289.00    1.05644   0.81456    0.000
 6290.00    1.05807   0.81210    0.000
 6291.00    1.04713   0.80943    0.000
 6292.00    1.02953   0.80671    0.000
 6293.00    1.02615   0.80422    0.000
 6294.00    1.05135   0.80207    0.000
 6295.00    1.09814   0.80032    0.000
 6296.00    1.14656   0.79914    0.000
 6297.00    1.17186   0.79845    0.000
 6298.00    1.15607   0.79837    0.000
 6299.00    1.09499   0.79887    0.000
 6300.00    1.00091   0.79976    0.000
 6301.00    0.90132   0.80080    0.000
 6302.00    0.82847   0.80186    0.000
 6303.00    0.80863   0.80269    0.000
 6304.00    0.83978   0.80336    0.000
 6305.00    0.89115   0.80341    0.000
 6306.00    0.93028   0.80298    0.000
 6307.00    0.93726   0.80182    0.000
 6308.00    0.91791   0.80037    0.000
 6309.00    0.89554   0.79844    0.000
 6310.00    0.88031   0.79637    0.000
 6311.00    0.86876   0.79435    0.000
 6312.00    0.86132   0.79272    0.000
 6313.00    0.86246   0.79159    0.000
 6314.00    0.87295   0.79120    0.000
 6315.00    0.88731   0.79147    0.000
 6316.00    0.89309   0.79251    0.000
 6317.00    0.88296   0.79422    0.000
 6318.00    0.87245   0.79663    0.000
 6319.00    0.87955   0.79927    0.000
 6320.00    0.89451   0.80206    0.000
 6321.00    0.90026   0.80507    6.530
 6322.00    0.90094   0.80748    7.053
 6323.00    0.90924   0.80962    7.628
 6324.00    0.92892   0.81096    7.938
 6325.00    0.95177   0.81188    7.886
 6326.00    0.95856   0.81195    7.895
 6327.00    0.93871   0.81136    8.283
 6328.00    0.90455   0.81028    8.835
 6329.00    0.87347   0.80864    9.227
 6330.00    0.85362   0.80689    9.543
 6331.00    0.84214   0.80484    9.909
 6332.00    0.82747   0.80282   10.136
 6333.00    0.80613   0.80110   10.132
 6334.00    0.78967   0.79942   10.140
 6335.00    0.79112   0.79825   10.284
 6336.00    0.81492   0.79723   10.393
 6337.00    0.84532   0.79689   10.321
 6338.00    0.85206   0.79691   10.102
 6339.00    0.83137   0.79738    9.827
 6340.00    0.81104   0.79795    9.548
 6341.00    0.81191   0.79865    9.169
 6342.00    0.83220   0.79952    8.618
 6343.00    0.84294   0.80011    8.228
 6344.00    0.80856   0.80067    8.402
 6345.00    0.74284   0.80086    8.980
 6346.00    0.69585   0.80073    9.311
 6347.00    0.68933   0.80004    9.358
 6348.00    0.71291   0.79863    9.568
 6349.00    0.74828   0.79653    9.468
 6350.00    0.77988   0.79387    8.450
 6351.00    0.80429   0.79066    7.416
 6352.00    0.82390   0.78713    7.068
 6353.00    0.83464   0.78352    7.171
 6354.00    0.83278   0.78001    7.333
 6355.00    0.82658   0.77699    7.671
 6356.00    0.82673   0.77461    8.491
 6357.00    0.83306   0.77319    9.542
 6358.00    0.84038   0.77280   10.062
 6359.00    0.84638   0.77341    9.876
 6360.00    0.85011   0.77509    9.435
 6361.00    0.84989   0.77788    9.072
 6362.00    0.84548   0.78148    8.865
 6363.00    0.83998   0.78568    8.696
 6364.00    0.83897   0.79024    8.516
 6365.00    0.84860   0.79502    8.473
 6366.00    0.86764   0.79955    8.680
 6367.00    0.88345   0.80382    9.086
 6368.00    0.87892   0.80746    9.325
 6369.00    0.84085   0.81057    8.808
 6370.00    0.78036   0.81299    7.791
 6371.00    0.73524   0.81472    7.045
 6372.00    0.73363   0.81600    6.712
 6373.00    0.77664   0.81671    6.570
 6374.00    0.83766   0.81710    6.615
 6375.00    0.87521   0.81705    7.082
 6376.00    0.87663   0.81687    8.015
 6377.00    0.86195   0.81656    8.924
 6378.00    0.84794   0.81623    9.167
 6379.00    0.83582   0.81582    8.702
 6380.00    0.81017   0.81540    8.051
 6381.00    0.75546   0.81506    7.673
 6382.00    0.69443   0.81459    7.632
 6383.00    0.67203   0.81391    7.823
 6384.00    0.70326   0.81310    8.201
 6385.00    0.76891   0.81195    8.721
 6386.00    0.82971   0.81056    9.112
 6387.00    0.85145   0.80921    9.087
 6388.00    0.83994   0.80763    8.947
 6389.00    0.82363   0.80614    9.112
 6390.00    0.82048   0.80456    9.443
 6391.00    0.83192   0.80331    9.435
 6392.00    0.84260   0.80211    8.794
 6393.00    0.83591   0.80127    7.844
 6394.00    0.81151   0.80078    7.213
 6395.00    0.78548   0.80058    7.076
 6396.00    0.78567   0.80094    7.083
 6397.00    0.82315   0.80103    7.005
 6398.00    0.87171   0.80131    7.170
 6399.00    0.90044   0.80129    7.853
 6400.00    0.89954   0.80148    8.750
 6401.00    0.87495   0.80147    9.286
 6402.00    0.84180   0.80155    9.412
 6403.00    0.81394   0.80162    9.469
 6404.00    0.79711   0.80119    9.754
 6405.00    0.78565   0.80062   10.291
 6406.00    0.76530   0.79992   10.745
 6407.00    0.73329   0.79918   10.890
 6408.00    0.70397   0.79860   10.895
 6409.00    0.69271   0.79813   10.838
 6410.00    0.70663   0.79777   10.581
 6411.00    0.73605   0.79772   10.161
 6412.00    0.75998   0.79751    9.778
 6413.00    0.77179   0.79766    9.448
 6414.00    0.78016   0.79803    9.101
 6415.00    0.78887   0.79864    8.908
 6416.00    0.79478   0.79928    9.107
 6417.00    0.79663   0.80014    9.504
 6418.00    0.79850   0.80111    9.538
 6419.00    0.81178   0.80194    9.055
 6420.00    0.84445   0.80300    8.407
 6421.00    0.88110   0.80377    7.963
 6422.00    0.89721   0.80466    7.895
 6423.00    0.88851   0.80515    8.114
 6424.00    0.86546   0.80548    8.453
 6425.00    0.83814   0.80533    8.919
 6426.00    0.81317   0.80487    9.591
 6427.00    0.79279   0.80445   10.312
 6428.00    0.77537   0.80396   10.780
 6429.00    0.75670   0.80364   10.927
 6430.00    0.73698   0.80332   10.899
 6431.00    0.72677   0.80343   10.835
 6432.00    0.73868   0.80378   10.824
 6433.00    0.77825   0.80465   10.890
 6434.00    0.83516   0.80567   10.950
 6435.00    0.88049   0.80660   10.804
 6436.00    0.89291   0.80747   10.462
 6437.00    0.87563   0.80803   10.229
 6438.00    0.84689   0.80827   10.168
 6439.00    0.82953   0.80835    9.986
 6440.00    0.83102   0.80792    9.685
 6441.00    0.83759   0.80723    9.667
 6442.00    0.83724   0.80601    9.931
 6443.00    0.83058   0.80420    9.916
 6444.00    0.82871   0.80208    9.496
 6445.00    0.84522   0.79999    9.167
 6446.00    0.87173   0.79810    9.139
 6447.00    0.87927   0.79643    9.284
 6448.00    0.85098   0.79520    9.487
 6449.00    0.79263   0.79423    9.695
 6450.00    0.73083   0.79405    9.783
 6451.00    0.69925   0.79417    9.647
 6452.00    0.70692   0.79527    9.517
 6453.00    0.73923   0.79631    9.735
 6454.00    0.77783   0.79730   10.241
 6455.00    0.80951   0.79810   10.622
 6456.00    0.83421   0.79894   10.626
 6457.00    0.85566   0.79956   10.360
 6458.00    0.86409   0.80036   10.148
 6459.00    0.84927   0.80097   10.229
 6460.00    0.82320   0.80145   10.492
 6461.00    0.80525   0.80189   10.652
 6462.00    0.79882   0.80216   10.585
 6463.00    0.79658   0.80276   10.355
 6464.00    0.79055   0.80310   10.125
 6465.00    0.77590   0.80414    9.976
 6466.00    0.75356   0.80455    9.800
 6467.00    0.72759   0.80502    9.571
 6468.00    0.70289   0.80504    9.507
 6469.00    0.68786   0.80497    9.714
 6470.00    0.69472   0.80453    9.968
 6471.00    0.72558   0.80391   10.050
 6472.00    0.76526   0.80338   10.041
 6473.00    0.79922   0.80236   10.068
 6474.00    0.82506   0.80142   10.135
 6475.00    0.85133   0.80005   10.231
 6476.00    0.89123   0.79863   10.383
 6477.00    0.93718   0.79693   10.570
 6478.00    0.95822   0.79518   10.685
 6479.00    0.94067   0.79314   10.630
 6480.00    0.90059   0.79072   10.393
 6481.00    0.86360   0.78797   10.148
 6482.00    0.85132   0.78453   10.118
 6483.00    0.86386   0.78075   10.236
 6484.00    0.88176   0.77644   10.196
 6485.00    0.88805   0.77176    9.971
 6486.00    0.87468   0.76656    9.799
 6487.00    0.84213   0.76088    9.782
 6488.00    0.79911   0.75538    9.870
 6489.00    0.76207   0.74996    9.966
 6490.00    0.74795   0.74544    9.991
 6491.00    0.76067   0.74166    9.974
 6492.00    0.79028   0.73936    9.978
 6493.00    0.81686   0.73836    9.959
 6494.00    0.82035   0.73891    9.895
 6495.00    0.79443   0.74109    9.998
 6496.00    0.74970   0.74438   10.442
 6497.00    0.71342   0.74936   10.934
 6498.00    0.70793   0.75450   11.014
 6499.00    0.72644   0.76031   10.790
 6500.00    0.74892   0.76580   10.631
 6501.00    0.76173   0.77106   10.685
 6502.00    0.75978   0.77587   10.897
 6503.00    0.74663   0.77981   11.044
 6504.00    0.73359   0.78308   10.973
 6505.00    0.73677   0.78547   10.803
 6506.00    0.76131   0.78717   10.688
 6507.00    0.79334   0.78807   10.636
 6508.00    0.82207   0.78861   10.538
 6509.00    0.85120   0.78854   10.236
 6510.00    0.88160   0.78844    9.752
 6511.00    0.90357   0.78800    9.311
 6512.00    0.90861   0.78769    9.092
 6513.00    0.89544   0.78718    9.177
 6514.00    0.86926   0.78685    9.468
 6515.00    0.84012   0.78657    9.686
 6516.00    0.81825   0.78647    9.720
 6517.00    0.81214   0.78649    9.738
 6518.00    0.82814   0.78667    9.864
 6519.00    0.86559   0.78706   10.065
 6520.00    0.90381   0.78723   10.142
 6521.00    0.91258   0.78754    9.923
 6522.00    0.88815   0.78757    9.721
 6523.00    0.85226   0.78757    9.987
 6524.00    0.82808   0.78744   10.518
 6525.00    0.82659   0.78732   10.637
 6526.00    0.83202   0.78715   10.390
 6527.00    0.82254   0.78705   10.276
 6528.00    0.81007   0.78702    0.000
 6529.00    0.81767   0.78717    0.000
 6530.00    0.83513   0.78739    0.000
 6531.00    0.83836   0.78738    0.000
 6532.00    0.82490   0.78730    0.000
 6533.00    0.80873   0.78701    0.000
 6534.00    0.80735   0.78652    0.000
 6535.00    0.82863   0.78582    0.000
 6536.00    0.86091   0.78457    0.000
 6537.00    0.89842   0.78311    0.000
 6538.00    0.96292   0.78116    0.000
 6539.00    1.07438   0.77895    0.000
 6540.00    1.22545   0.77642    0.000
 6541.00    1.38594   0.77348    0.000
 6542.00    1.51162   0.77037    0.000
 6543.00    1.57096   0.76683    0.000
 6544.00    1.55941   0.76326    0.000
 6545.00    1.48227   0.75917    0.000
 6546.00    1.34760   0.75500    0.000
 6547.00    1.18253   0.75040    0.000
 6548.00    1.03408   0.74530    0.000
 6549.00    0.93570   0.73978    0.000
 6550.00    0.89906   0.73317    0.000
 6551.00    0.94046   0.72603    0.000
 6552.00    1.11428   0.71793    0.000
 6553.00    1.58566   0.70966    0.000
 6554.00    2.57175   0.70216    0.000
 6555.00    4.09670   0.69499    0.000
 6556.00    5.93171   0.68874    0.000
 6557.00    7.64168   0.68353    0.000
 6558.00    8.71292   0.67993    0.000
 6559.00    8.81368   0.67781    0.000
 6560.00    7.89312   0.67744    0.000
 6561.00    6.24747   0.67881    0.000
 6562.00    4.38721   0.68161    0.000
 6563.00    2.77256   0.68640    0.000
 6564.00    1.68796   0.69224    0.000
 6565.00    1.12859   0.69943    0.000
 6566.00    0.91198   0.70701    0.000
 6567.00    0.86094   0.71377    0.000
 6568.00    0.85226   0.72016    0.000
 6569.00    0.84279   0.72595    0.000
 6570.00    0.83594   0.73121    0.000
 6571.00    0.84203   0.73596    0.000
 6572.00    0.88092   0.74035    0.000
 6573.00    0.98758   0.74436    0.000
 6574.00    1.20457   0.74771    0.000
 6575.00    1.56851   0.75100    0.000
 6576.00    2.05823   0.75362    0.000
 6577.00    2.56626   0.75613    0.000
 6578.00    2.96535   0.75812    0.000
 6579.00    3.15718   0.75950    0.000
 6580.00    3.08750   0.76043    0.000
 6581.00    2.75898   0.76082    0.000
 6582.00    2.25749   0.76078    0.000
 6583.00    1.74156   0.76011    0.000
 6584.00    1.33681   0.75955    0.000
 6585.00    1.08916   0.75858    0.000
 6586.00    0.97419   0.75748    0.000
 6587.00    0.92211   0.75626    0.000
 6588.00    0.88658   0.75496    0.000
 6589.00    0.85939   0.75408    0.000
 6590.00    0.84008   0.75332    0.000
 6591.00    0.82707   0.75294    0.000
 6592.00    0.82020   0.75271    0.000
 6593.00    0.82012   0.75295    0.000
 6594.00    0.82503   0.75351    0.000
 6595.00    0.83068   0.75431    0.000
 6596.00    0.83192   0.75536    0.000
 6597.00    0.82483   0.75601    0.000
 6598.00    0.81003   0.75645    0.000
 6599.00    0.79387   0.75657    0.000
 6600.00    0.78857   0.75682    0.000
 6601.00    0.79853   0.75703    0.000
 6602.00    0.80283   0.75708    0.000
 6603.00    0.78219   0.75700    0.000
 6604.00    0.75360   0.75695    0.000
 6605.00    0.74372   0.75748    0.000
 6606.00    0.75547   0.75801    0.000
 6607.00    0.77575   0.75899    0.000
 6608.00    0.78770   0.76007    0.000
 6609.00    0.78067   0.76152   10.253
 6610.00    0.75743   0.76309   10.079
 6611.00    0.73011   0.76460   10.150
 6612.00    0.71505   0.76604   10.429
 6613.00    0.72252   0.76687   10.733
 6614.00    0.75041   0.76736   10.908
 6615.00    0.78713   0.76734   10.921
 6616.00    0.81608   0.76721   10.884
 6617.00    0.82807   0.76651   10.856
 6618.00    0.82660   0.76543   10.790
 6619.00    0.82200   0.76399   10.687
 6620.00    0.82508   0.76232   10.621
 6621.00    0.83366   0.76042   10.510
 6622.00    0.83279   0.75825   10.185
 6623.00    0.81466   0.75596    9.868
 6624.00    0.78446   0.75358    9.957
 6625.00    0.75593   0.75171   10.244
 6626.00    0.74309   0.74990   10.064
 6627.00    0.74277   0.74858    9.664
 6628.00    0.74171   0.74739    9.775
 6629.00    0.74487   0.74630   10.148
 6630.00    0.76721   0.74556    9.925
 6631.00    0.80247   0.74512    9.453
 6632.00    0.83175   0.74494    9.571
 6633.00    0.85150   0.74483   10.096
 6634.00    0.86305   0.74514   10.206
 6635.00    0.84787   0.74560    9.738
 6636.00    0.78463   0.74628    9.045
 6637.00    0.67962   0.74697    8.168
 6638.00    0.56621   0.74744    7.208
 6639.00    0.49614   0.74793    6.506
 6640.00    0.50642   0.74838    6.164
 6641.00    0.58463   0.74885    5.957
 6642.00    0.68564   0.74926    5.726
 6643.00    0.75522   0.74965    5.587
 6644.00    0.76023   0.74999    5.625
 6645.00    0.71161   0.75032    5.711
 6646.00    0.64840   0.75068    5.780
 6647.00    0.61828   0.75081    6.030
 6648.00    0.63984   0.75073    6.614
 6649.00    0.68438   0.75042    7.332
 6650.00    0.71970   0.74994    7.821
 6651.00    0.73640   0.74917    7.982
 6652.00    0.73959   0.74811    7.955
 6653.00    0.74159   0.74666    7.930
 6654.00    0.75211   0.74527    8.063
 6655.00    0.77375   0.74365    8.458
 6656.00    0.80205   0.74206    9.066
 6657.00    0.82759   0.74061    9.607
 6658.00    0.84274   0.73911    9.870
 6659.00    0.84353   0.73804    9.927
 6660.00    0.82745   0.73712    9.954
 6661.00    0.79616   0.73663   10.083
 6662.00    0.76464   0.73631   10.300
 6663.00    0.75289   0.73643   10.476
 6664.00    0.75996   0.73677   10.536
 6665.00    0.76933   0.73724   10.485
 6666.00    0.77398   0.73792   10.299
 6667.00    0.77059   0.73824   10.006
 6668.00    0.73872   0.73832    9.815
 6669.00    0.65919   0.73837    9.664
 6670.00    0.55038   0.73811    8.684
 6671.00    0.45531   0.73793    6.890
 6672.00    0.41252   0.73768    5.519
 6673.00    0.44226   0.73720    4.845
 6674.00    0.53445   0.73703    4.493
 6675.00    0.65247   0.73681    4.255
 6676.00    0.74271   0.73695    4.283
 6677.00    0.77123   0.73703    4.753
 6678.00    0.75729   0.73758    5.557
 6679.00    0.74417   0.73838    6.255
 6680.00    0.76714   0.73928    6.496
 6681.00    0.82971   0.74056    6.379
 6682.00    0.89319   0.74123    6.280
 6683.00    0.92350   0.74195    6.459
 6684.00    0.92175   0.74227    6.977
 6685.00    0.90351   0.74237    7.699
 6686.00    0.88301   0.74207    8.163
 6687.00    0.86531   0.74142    8.053
 6688.00    0.84494   0.74059    7.696
 6689.00    0.81832   0.73957    7.447
 6690.00    0.78801   0.73870    7.419
 6691.00    0.75474   0.73760    7.594
 6692.00    0.71707   0.73669    7.871
 6693.00    0.68322   0.73561    8.140
 6694.00    0.66825   0.73470    8.284
 6695.00    0.67109   0.73374    8.081
 6696.00    0.67458   0.73300    0.000
 6697.00    0.66732   0.73246    0.000
 6698.00    0.65271   0.73205    0.000
 6699.00    0.65428   0.73189    0.000
 6700.00    0.69941   0.73134    0.000
 6701.00    0.78132   0.73090    0.000
 6702.00    0.86290   0.73001    0.000
 6703.00    0.90175   0.72902    0.000
 6704.00    0.87419   0.72789    0.000
 6705.00    0.80682   0.72651    0.000
 6706.00    0.76627   0.72513    0.000
 6707.00    0.83272   0.72348    0.000
 6708.00    1.05162   0.72190    0.000
 6709.00    1.37802   0.72013    0.000
 6710.00    1.71878   0.71871    0.000
 6711.00    1.99094   0.71771    0.000
 6712.00    2.12478   0.71678    0.000
 6713.00    2.06498   0.71637    0.000
 6714.00    1.81944   0.71610    0.000
 6715.00    1.49349   0.71644    0.000
 6716.00    1.19916   0.71704    0.000
 6717.00    0.98113   0.71790    0.000
 6718.00    0.83657   0.71914    0.000
 6719.00    0.74037   0.72053    0.000
 6720.00    0.68969   0.72218    0.000
 6721.00    0.72233   0.72351    0.000
 6722.00    0.86460   0.72481    0.000
 6723.00    1.09946   0.72583    0.000
 6724.00    1.35889   0.72675    0.000
 6725.00    1.54084   0.72727    0.000
 6726.00    1.59292   0.72769    0.000
 6727.00    1.53505   0.72785    0.000
 6728.00    1.40602   0.72786    0.000
 6729.00    1.24206   0.72758    0.000
 6730.00    1.07653   0.72687    0.000
 6731.00    0.93559   0.72610    0.000
 6732.00    0.82644   0.72510    0.000
 6733.00    0.74298   0.72412    0.000
 6734.00    0.68903   0.72284    0.000
 6735.00    0.67330   0.72159    0.000
 6736.00    0.68523   0.72041    0.000
 6737.00    0.70497   0.71921    0.000
 6738.00    0.73335   0.71795    0.000
 6739.00    0.77916   0.71682    0.000
 6740.00    0.82731   0.71583    0.000
 6741.00    0.84911   0.71507    0.000
 6742.00    0.82720   0.71433    0.000
 6743.00    0.76426   0.71397    0.000
 6744.00    0.68830   0.71376    0.000
 6745.00    0.63340   0.71358    0.000
 6746.00    0.61581   0.71415    0.000
 6747.00    0.63283   0.71459    0.000
 6748.00    0.66611   0.71556    0.000
 6749.00    0.69681   0.71665    0.000
 6750.00    0.71770   0.71802    0.000
 6751.00    0.71697   0.71955    0.000
 6752.00    0.66927   0.72092    0.000
 6753.00    0.57695   0.72258    8.409
 6754.00    0.49326   0.72361    7.377
 6755.00    0.47273   0.72486    6.285
 6756.00    0.53575   0.72573    5.560
 6757.00    0.65858   0.72618    5.250
 6758.00    0.77786   0.72629    5.281
 6759.00    0.83602   0.72596    5.644
 6760.00    0.81053   0.72557    6.416
 6761.00    0.73836   0.72507    7.553
 6762.00    0.69857   0.72450    8.522
 6763.00    0.70718   0.72377    8.821
 6764.00    0.70855   0.72343    8.777
 6765.00    0.68470   0.72326    8.751
 6766.00    0.67057   0.72339    8.769
 6767.00    0.68570   0.72358    8.818
 6768.00    0.72138   0.72415    8.904
 6769.00    0.76284   0.72471    8.967
 6770.00    0.79377   0.72539    8.932
 6771.00    0.79333   0.72620    8.880
 6772.00    0.75082   0.72656    8.920
 6773.00    0.69548   0.72691    8.894
 6774.00    0.67462   0.72665    8.567
 6775.00    0.70425   0.72610    8.082
 6776.00    0.76499   0.72509    7.691
 6777.00    0.81166   0.72403    7.414
 6778.00    0.80804   0.72288    7.267
 6779.00    0.77014   0.72158    7.479
 6780.00    0.73198   0.72058    8.147
 6781.00    0.69794   0.71924    8.502
 6782.00    0.66016   0.71814    7.810
 6783.00    0.62307   0.71724    6.973
 6784.00    0.60068   0.71660    6.579
 6785.00    0.60985   0.71612    6.292
 6786.00    0.65484   0.71593    5.946
 6787.00    0.71683   0.71614    5.935
 6788.00    0.77018   0.71611    6.501
 6789.00    0.79563   0.71643    7.328
 6790.00    0.78135   0.71659    7.921
 6791.00    0.72603   0.71679    8.416
 6792.00    0.65494   0.71706    9.072
 6793.00    0.61817   0.71735    9.594
 6794.00    0.63474   0.71776    9.641
 6795.00    0.67456   0.71792    9.361
 6796.00    0.70763   0.71829    9.144
 6797.00    0.72423   0.71862    9.299
 6798.00    0.72360   0.71885    9.677
 6799.00    0.70734   0.71893    9.672
 6800.00    0.67383   0.71910    9.257
 6801.00    0.62295   0.71909    8.998
 6802.00    0.57545   0.71891    8.981
 6803.00    0.56390   0.71885    8.896
 6804.00    0.59308   0.71872    8.722
 6805.00    0.63904   0.71855    8.664
 6806.00    0.67248   0.71831    8.655
 6807.00    0.67500   0.71819    8.472
 6808.00    0.65964   0.71826    8.156
 6809.00    0.65836   0.71844    7.896
 6810.00    0.69132   0.71872    7.727
 6811.00    0.75745   0.71892    7.651
 6812.00    0.82960   0.71914    7.825
 6813.00    0.87115   0.71960    8.337
 6814.00    0.86101   0.72003    8.722
 6815.00    0.80138   0.72065    8.412
 6816.00    0.72121   0.72122    7.830
 6817.00    0.65415   0.72169    7.527
 6818.00    0.61414   0.72214    7.518
 6819.00    0.59978   0.72215    7.691
 6820.00    0.60250   0.72208    8.050
 6821.00    0.61931   0.72198    8.548
 6822.00    0.66001   0.72192    8.872
 6823.00    0.72175   0.72182    8.812
 6824.00    0.77376   0.72135    8.644
 6825.00    0.78918   0.72074    8.654
 6826.00    0.76689   0.71985    8.858
 6827.00    0.72861   0.71887    9.084
 6828.00    0.70895   0.71771    9.052
 6829.00    0.71790   0.71643    8.803
 6830.00    0.73088   0.71511    8.727
 6831.00    0.73304   0.71347    8.881
 6832.00    0.73260   0.71179    8.898
 6833.00    0.73058   0.70983    8.738
 6834.00    0.71632   0.70811    8.781
 6835.00    0.69588   0.70661    9.051
 6836.00    0.69096   0.70544    9.159
 6837.00    0.70385   0.70465    9.057
 6838.00    0.71648   0.70398    9.077
 6839.00    0.71780   0.70375    9.229
 6840.00    0.70794   0.70361    9.254
 6841.00    0.68943   0.70386    9.222
 6842.00    0.66472   0.70436    9.382
 6843.00    0.63575   0.70501    9.489
 6844.00    0.61030   0.70571    9.091
 6845.00    0.61235   0.70621    8.432
 6846.00    0.65802   0.70626    7.978
 6847.00    0.71518   0.70586    7.807
 6848.00    0.73376   0.70542    7.809
 6849.00    0.69890   0.70476    7.837
 6850.00    0.63020   0.70398    7.741
 6851.00    0.56903   0.70322    7.448
 6852.00    0.54932   0.70222    7.057
 6853.00    0.56791   0.70109    6.813
 6854.00    0.59835   0.70004    6.849
 6855.00    0.61034   0.69936    7.055
 6856.00    0.59261   0.69890    7.311
 6857.00    0.56803   0.69857    7.688
 6858.00    0.56458   0.69855    8.198
 6859.00    0.59189   0.69818    8.508
 6860.00    0.64330   0.69780    8.406
 6861.00    0.70020   0.69777    8.227
 6862.00    0.74297   0.69779    8.241
 6863.00    0.75938   0.69798    8.377
 6864.00    0.75387   0.69810    8.478
 6865.00    0.74537   0.69825    8.448
 6866.00    0.73574   0.69812    8.329
 6867.00    0.70397   0.69798    8.262
 6868.00    0.64405   0.69813    8.272
 6869.00    0.57672   0.69844    8.246
 6870.00    0.53367   0.69891    8.143
 6871.00    0.53993   0.69936    8.030
 6872.00    0.57915   0.69983    7.938
 6873.00    0.60537   0.70006    7.858
 6874.00    0.60574   0.70043    7.847
 6875.00    0.60037   0.70091    7.971
 6876.00    0.59856   0.70162    8.098
 6877.00    0.59413   0.70244    8.016
 6878.00    0.57962   0.70329    7.870
 6879.00    0.55600   0.70442    7.951
 6880.00    0.54383   0.70523    8.233
 6881.00    0.56209   0.70635    8.477
 6882.00    0.59130   0.70759    8.577
 6883.00    0.59937   0.70895    8.561
 6884.00    0.58763   0.71031    8.428
 6885.00    0.57641   0.71156    8.202
 6886.00    0.57735   0.71288    8.014
 6887.00    0.58932   0.71368    7.964
 6888.00    0.59910   0.71458    8.017
 6889.00    0.59569   0.71537    8.062
 6890.00    0.58364   0.71593    7.989
 6891.00    0.57209   0.71637    7.782
 6892.00    0.56442   0.71664    7.558
 6893.00    0.56442   0.71687    7.419
 6894.00    0.57941   0.71693    7.377
 6895.00    0.60380   0.71708    7.456
 6896.00    0.61385   0.71729    7.724
 6897.00    0.60813   0.71734    8.146
 6898.00    0.62201   0.71738    8.461
 6899.00    0.66820   0.71743    8.492
 6900.00    0.71380   0.71731    8.397
 6901.00    0.72970   0.71728    8.380
 6902.00    0.71241   0.71703    8.529
 6903.00    0.67219   0.71675    8.735
 6904.00    0.62460   0.71624    8.743
 6905.00    0.57976   0.71551    8.609
 6906.00    0.54255   0.71480    8.651
 6907.00    0.52531   0.71403    8.732
 6908.00    0.54066   0.71328    8.397
 6909.00    0.57028   0.71244    7.883
 6910.00    0.57819   0.71177    7.743
 6911.00    0.56538   0.71096    7.898
 6912.00    0.56167   0.71035    7.875
 6913.00    0.57778   0.70978    7.582
 6914.00    0.60575   0.70940    7.292
 6915.00    0.64058   0.70903    7.192
 6916.00    0.67912   0.70841    7.333
 6917.00    0.71101   0.70804    7.613
 6918.00    0.72012   0.70731    7.855
 6919.00    0.68997   0.70689    8.014
 6920.00    0.62021   0.70649    8.171
 6921.00    0.54516   0.70615    8.431
 6922.00    0.50640   0.70586    8.796
 6923.00    0.51774   0.70527    9.015
 6924.00    0.56329   0.70499    8.906
 6925.00    0.60301   0.70448    8.747
 6926.00    0.60717   0.70452    8.753
 6927.00    0.58468   0.70459    8.691
 6928.00    0.56012   0.70485    8.412
 6929.00    0.55199   0.70522    8.188
 6930.00    0.56411   0.70518    8.166
 6931.00    0.58380   0.70534    8.125
 6932.00    0.60262   0.70519    7.889
 6933.00    0.62444   0.70539    7.565
 6934.00    0.63722   0.70540    7.324
 6935.00    0.61022   0.70523    7.280
 6936.00    0.55772   0.70493    7.400
 6937.00    0.54695   0.70413    7.515
 6938.00    0.59751   0.70346    7.583
 6939.00    0.65964   0.70268    7.746
 6940.00    0.69795   0.70215    7.995
 6941.00    0.71299   0.70172    8.092
 6942.00    0.70445   0.70107    7.948
 6943.00    0.66720   0.70042    7.724
 6944.00    0.61648   0.69981    7.617
 6945.00    0.58387   0.69931    7.717
 6946.00    0.58806   0.69923    7.788
 6947.00    0.62555   0.69938    7.503
 6948.00    0.66811   0.69985    7.150
 6949.00    0.67850   0.70034    7.168
 6950.00    0.64214   0.70080    7.431
 6951.00    0.56938   0.70158    7.516
 6952.00    0.48782   0.70220    7.462
 6953.00    0.42990   0.70316    7.553
 6954.00    0.41625   0.70424    7.701
 6955.00    0.45569   0.70542    7.646
 6956.00    0.54723   0.70656    7.422
 6957.00    0.66018   0.70738    7.229
 6958.00    0.71699   0.70818    7.192
 6959.00    0.67438   0.70869    7.315
 6960.00    0.60092   0.70916    7.441
 6961.00    0.57333   0.70950    7.444
 6962.00    0.57925   0.70960    7.432
 6963.00    0.57802   0.70921    7.498
 6964.00    0.55744   0.70839    7.522
 6965.00    0.52952   0.70717   -2.000
 6966.00    0.51998   0.70583   -2.000
 6967.00    0.53928   0.70459   -2.000
 6968.00    0.56868   0.70285   -2.000
 6969.00    0.58585   0.70099   -2.000
 6970.00    0.58037   0.69879   -2.000
 6971.00    0.55556   0.69681   -2.000
 6972.00    0.52583   0.69511   -2.000
 6973.00    0.50348   0.69376   -2.000
 6974.00    0.49412   0.69354   -2.000
 6975.00    0.50184   0.69339   -2.000
 6976.00    0.52861   0.69354   -2.000
 6977.00    0.56528   0.69410   -2.000
 6978.00    0.59272   0.69507   -2.000
 6979.00    0.59442   0.69662   -2.000
 6980.00    0.56422   0.69827   -2.000
 6981.00    0.51576   0.70017   -2.000
 6982.00    0.47332   0.70196   -2.000
 6983.00    0.44594   0.70325   -2.000
 6984.00    0.43368   0.70444   -2.000
 6985.00    0.45133   0.70544   -2.000
 6986.00    0.50983   0.70602   -2.000
 6987.00    0.57667   0.70626   -2.000
 6988.00    0.60594   0.70607   -2.000
 6989.00    0.59524   0.70575   -2.000
 6990.00    0.57466   0.70518   -2.000
 6991.00    0.57763   0.70420   -2.000
 6992.00    0.61572   0.70313   -2.000
 6993.00    0.65582   0.70165   -2.000
 6994.00    0.65718   0.70018   -2.000
 6995.00    0.61394   0.69892   -2.000
 6996.00    0.55290   0.69776   -2.000
 6997.00    0.52254   0.69652   -2.000
 6998.00    0.55075   0.69495   -2.000
 6999.00    0.61467   0.69370   -2.000
 7000.00    0.67748   0.69273   -2.000
 7001.00    0.71703   0.69212   -2.000
 7002.00    0.72112   0.69153   -2.000
 7003.00    0.68547   0.69082   -2.000
 7004.00    0.62665   0.69018   -2.000
 7005.00    0.58098   0.68949   -2.000
 7006.00    0.56163   0.68911   -2.000
 7007.00    0.54722   0.68887   -2.000
 7008.00    0.52969   0.68856   -2.000
 7009.00    0.52683   0.68800   -2.000
 7010.00    0.54496   0.68696   -2.000
 7011.00    0.57117   0.68653   -2.000
 7012.00    0.59890   0.68677   -2.000
 7013.00    0.63145   0.68699   -2.000
 7014.00    0.66554   0.68707   -2.000
 7015.00    0.69007   0.68689   -2.000
 7016.00    0.69676   0.68684   -2.000
 7017.00    0.68477   0.68681   -2.000
 7018.00    0.66431   0.68713   -2.000
 7019.00    0.65080   0.68798   -2.000
 7020.00    0.65116   0.68887   -2.000
 7021.00    0.65768   0.68936   -2.000
 7022.00    0.64378   0.68972   -2.000
 7023.00    0.59424   0.69038   -2.000
 7024.00    0.55120   0.69109   -2.000
 7025.00    0.56343   0.69182   -2.000
 7026.00    0.60844   0.69264   -2.000
 7027.00    0.63924   0.69373   -2.000
 7028.00    0.65342   0.69486   -2.000
 7029.00    0.66207   0.69585   -2.000
 7030.00    0.65009   0.69713   -2.000
 7031.00    0.61290   0.69827   -2.000
 7032.00    0.59022   0.69900   -2.000
 7033.00    0.61164   0.70038   -2.000
 7034.00    0.64835   0.70235   -2.000
 7035.00    0.62411   0.70440   -2.000
 7036.00    0.44631   0.70604   -2.000
 7037.00    0.13997   0.70721   -2.000
 7038.00   -0.10433   0.70830   -2.000
 7039.00   -0.17338   0.70889   -2.000
 7040.00   -0.14367   0.70971   -2.000
 7041.00   -0.10148   0.71038   -2.000
 7042.00   -0.05943   0.71034   -2.000
 7043.00   -0.02388   0.70956   -2.000
 7044.00   -0.01761   0.70778   -2.000
 7045.00   -0.03906   0.70581   -2.000
 7046.00   -0.05615   0.70311   -2.000
 7047.00   -0.04377   0.70005   -2.000
 7048.00   -0.00007   0.69710   -2.000
 7049.00    0.04696   0.69377   -2.000
 7050.00    0.05954   0.69055   -2.000
 7051.00    0.04782   0.68715   -2.000
 7052.00    0.05949   0.68376   -2.000
 7053.00    0.11732   0.68045   -2.000
 7054.00    0.21027   0.67716   -2.000
 7055.00    0.30788   0.67475   -2.000
 7056.00    0.38360   0.67283   -2.000
 7057.00    0.44980   0.67107   -2.000
 7058.00    0.52296   0.66971   -2.000
 7059.00    0.56100   0.66839   -2.000
 7060.00    0.53431   0.66720   -2.000
 7061.00    0.53126   0.66638   -2.000
 7062.00    0.60124   0.66592   -2.000
 7063.00    0.56178   0.66622   -2.000
 7064.00    0.30994   0.66698   -2.000
 7065.00    0.15379   0.66772   -2.000
 7066.00    0.33651   0.66827   -2.000
 7067.00    0.58399   0.66896   -2.000
 7068.00    0.61763   0.66992   -2.000
 7069.00    0.58915   0.67091   -2.000
 7070.00    0.66085   0.67180   -2.000
 7071.00    0.69586   0.67233   -2.000
 7072.00    0.56200   0.67255   -2.000
 7073.00    0.32534   0.67213   -2.000
 7074.00    0.06731   0.67133   -2.000
 7075.00   -0.20711   0.67032   -2.000
 7076.00   -0.43058   0.66854   -2.000
 7077.00   -0.44659   0.66611   -2.000
 7078.00   -0.23899   0.66310   -2.000
 7079.00    0.01809   0.66011   -2.000
 7080.00    0.20182   0.65761   -2.000
 7081.00    0.31508   0.65471   -2.000
 7082.00    0.38578   0.65149   -2.000
 7083.00    0.42503   0.64862   -2.000
 7084.00    0.41745   0.64576   -2.000
 7085.00    0.33885   0.64368   -2.000
 7086.00    0.21093   0.64228   -2.000
 7087.00    0.09512   0.64094   -2.000
 7088.00    0.03987   0.64037   -2.000
 7089.00    0.05910   0.63951   -2.000
 7090.00    0.11718   0.63921   -2.000
 7091.00    0.16993   0.63949   -2.000
 7092.00    0.24384   0.63976   -2.000
 7093.00    0.37156   0.64078   -2.000
 7094.00    0.46733   0.64115   -2.000
 7095.00    0.44305   0.64167   -2.000
 7096.00    0.39717   0.64206   -2.000
 7097.00    0.45532   0.64226   -2.000
 7098.00    0.54103   0.64300   -2.000
 7099.00    0.52397   0.64327   -2.000
 7100.00    0.41636   0.64323   -2.000
 7101.00    0.30736   0.64281   -2.000
 7102.00    0.27043   0.64243   -2.000
 7103.00    0.31782   0.64240   -2.000
 7104.00    0.37811   0.64191   -2.000
 7105.00    0.38368   0.64133   -2.000
 7106.00    0.33916   0.64089   -2.000
 7107.00    0.30210   0.64054   -2.000
 7108.00    0.34588   0.64037   -2.000
 7109.00    0.43647   0.63989   -2.000
 7110.00    0.40277   0.63978   -2.000
 7111.00    0.18175   0.63948   -2.000
 7112.00   -0.09149   0.63904   -2.000
 7113.00   -0.29825   0.63883   -2.000
 7114.00   -0.42049   0.63832   -2.000
 7115.00   -0.44855   0.63805   -2.000
 7116.00   -0.36082   0.63712   -2.000
 7117.00   -0.19725   0.63637   -2.000
 7118.00   -0.05005   0.63586   -2.000
 7119.00    0.05306   0.63467   -2.000
 7120.00    0.14850   0.63358   -2.000
 7121.00    0.22839   0.63255   -2.000
 7122.00    0.25105   0.63186   -2.000
 7123.00    0.24309   0.63131   -2.000
 7124.00    0.27612   0.63030   -2.000
 7125.00    0.36089   0.62966   -2.000
 7126.00    0.45805   0.62972   -2.000
 7127.00    0.54372   0.62984   -2.000
 7128.00    0.60500   0.63040   -2.000
 7129.00    0.61353   0.63088   -2.000
 7130.00    0.57573   0.63145   -2.000
 7131.00    0.60234   0.63247   -2.000
 7132.00    0.72270   0.63312   -2.000
 7133.00    0.65639   0.63396   -2.000
 7134.00    0.20649   0.63476   -2.000
 7135.00   -0.29119   0.63564   -2.000
 7136.00   -0.45387   0.63620   -2.000
 7137.00   -0.37137   0.63607   -2.000
 7138.00   -0.28249   0.63641   -2.000
 7139.00   -0.24145   0.63651   -2.000
 7140.00   -0.18240   0.63663   -2.000
 7141.00   -0.01550   0.63665   -2.000
 7142.00    0.21457   0.63609   -2.000
 7143.00    0.28352   0.63626   -2.000
 7144.00    0.18776   0.63646   -2.000
 7145.00    0.26104   0.63668   -2.000
 7146.00    0.41507   0.63738   -2.000
 7147.00   -0.00176   0.63777   -2.000
 7148.00   -0.83323   0.63826   -2.000
 7149.00   -0.91487   0.63834   -2.000
 7150.00   -0.08430   0.63879   -2.000
 7151.00    0.48534   0.63998   -2.000
 7152.00    0.30531   0.64019   -2.000
 7153.00   -0.03338   0.64008   -2.000
 7154.00   -0.12460   0.63962   -2.000
 7155.00   -0.03390   0.63956   -2.000
 7156.00    0.12784   0.63995   -2.000
 7157.00    0.30690   0.63979   -2.000
 7158.00    0.43749   0.63929   -2.000
 7159.00    0.46026   0.63862   -2.000
 7160.00    0.40169   0.63876   -2.000
 7161.00    0.33157   0.63943   -2.000
 7162.00    0.24821   0.64022   -2.000
 7163.00    0.13877   0.64074   -2.000
 7164.00    0.11510   0.64097   -2.000
 7165.00    0.28687   0.64148   -2.000
 7166.00    0.54231   0.64234   -2.000
 7167.00    0.68371   0.64358   -2.000
 7168.00    0.65172   0.64421   -2.000
 7169.00    0.50031   0.64409   -2.000
 7170.00    0.32700   0.64345   -2.000
 7171.00    0.21417   0.64305   -2.000
 7172.00    0.17826   0.64328   -2.000
 7173.00    0.19592   0.64270   -2.000
 7174.00    0.23480   0.64129   -2.000
 7175.00    0.27022   0.63948   -2.000
 7176.00    0.29521   0.63781   -2.000
 7177.00    0.30803   0.63697   -2.000
 7178.00    0.30454   0.63594   -2.000
 7179.00    0.29047   0.63462   -2.000
 7180.00    0.28523   0.63327   -2.000
 7181.00    0.29676   0.63130   -2.000
 7182.00    0.31235   0.63014   -2.000
 7183.00    0.32477   0.62961   -2.000
 7184.00    0.33919   0.62939   -2.000
 7185.00    0.34576   0.62945   -2.000
 7186.00    0.32684   0.62855   -2.000
 7187.00    0.32939   0.62830   -2.000
 7188.00    0.44451   0.62865   -2.000
 7189.00    0.64868   0.62938   -2.000
 7190.00    0.80567   0.63038   -2.000
 7191.00    0.83108   0.63052   -2.000
 7192.00    0.71495   0.63135   -2.000
 7193.00    0.45166   0.63222   -2.000
 7194.00    0.07081   0.63285   -2.000
 7195.00   -0.25574   0.63356   -2.000
 7196.00   -0.33231   0.63335   -2.000
 7197.00   -0.21603   0.63378   -2.000
 7198.00   -0.09388   0.63419   -2.000
 7199.00    0.02497   0.63432   -2.000
 7200.00    0.20478   0.63453   -2.000
 7201.00    0.34517   0.63359   -2.000
 7202.00    0.31951   0.63329   -2.000
 7203.00    0.20467   0.63323   -2.000
 7204.00    0.14329   0.63343   -2.000
 7205.00    0.14562   0.63428   -2.000
 7206.00    0.16027   0.63422   -2.000
 7207.00    0.17417   0.63444   -2.000
 7208.00    0.20590   0.63461   -2.000
 7209.00    0.28416   0.63525   -2.000
 7210.00    0.39727   0.63655   -2.000
 7211.00    0.46511   0.63758   -2.000
 7212.00    0.43650   0.63857   -2.000
 7213.00    0.35291   0.63910   -2.000
 7214.00    0.27868   0.64002   -2.000
 7215.00    0.25238   0.64104   -2.000
 7216.00    0.28764   0.64227   -2.000
 7217.00    0.37183   0.64333   -2.000
 7218.00    0.45025   0.64415   -2.000
