###################################################################
## OUTPUT of StarlightChains_v04.for    [Cid@UFSC - 01/Apr/2007] ##
###################################################################

## Some input info
2016hrv.txt                              [arq_obs]
Base.CB07.vall.4m                        [arq_base]
Masks.EmLines.NEW.gm                     [arq_masks]
StCv04.C11.config                        [arq_config]
   66                                    [N_base]
    0                                    [N_YAV_components = # of components with extra extinction!]
    0                                    [i_FitPowerLaw (1/0 = Yes/No)]
-9.99                                    [alpha_PowerLaw]
CCM                                      [red_law_option]
 1.458241                                [q_norm = A(l_norm)/A(V)]

## (Re)Sampling Parameters
 3741.00                                 [l_ini (A)]
 7218.00                                 [l_fin (A)]
    1.00                                 [dl    (A)]     (OBS: dl_cushion =    50.00 A)

## Normalization info
 4020.00                                 [l_norm (A) - for base]
 4010.00                                 [llow_norm (A) - window for f_obs]
 4060.00                                 [lupp_norm (A) - window for f_obs]
1.611592E-16                             [fobs_norm (in input units)]

## S/N
 3691.00                                 [llow_SN (A) - window for S/N]
 7268.00                                 [lupp_SN (A) - window for S/N]
   8.400                                 [S/N in S/N window]
  10.101                                 [S/N in norm. window]
  11.440                                 [S/N_err in S/N window]
  13.758                                 [S/N_err in norm. window]
  1.0000                                 [fscale_chi2]

## etc...
    -2007436                             [idum_orig]
  2383                                   [NOl_eff]
  2383                                   [Nl_eff]
     0    NSIGMA                         [Ntot_cliped & clip_method]
  1686720                                [Nglobal_steps]
   7                                     [N_chains]
  24                                     [NEX0s_base = N_base in EX0s-fits]
 0   0   1        0   2.0   4.097E+01    [Clip-Bug, RC-Crash & Burn-In warning-flags, n_censored_weights, wei_nsig_threshold & wei_limit]
    17     16.789     16.291      0.497  [idt_all, wdt_TotTime, wdt_UsrTime & wdt_SysTime (sec)]

## Synthesis Results - Best model ##

 4.36377E-01                             [chi2/Nl_eff]
     4.69283                             [adev (%)]

    98.22767                             [sum-of-x (%)]
 5.01496E-16                             [Flux_tot (units of input spectrum!)]
 1.26164E-12                             [Mini_tot (???)]
 7.29445E-13                             [Mcor_tot (???)]

-121.26                                  [v0_min  (km/s)]
 141.22                                  [vd_min  (km/s)]
 0.8585                                  [AV_min  (mag)]
 0.0000                                  [YAV_min (mag)]

# j     x_j(%)      Mini_j(%)     Mcor_j(%)     age_j(yr)     Z_j      (L/M)_j    YAV?  Mstars   component_j        a/Fe...       SSP_chi2r SSP_adev(%)   SSP_AV   SSP_x(%)
  1      0.0171     6.3258E-04    1.0941E-03    1.000000E+06  0.00400  1.094E-02    0   1.0000   age020_m42            0.0000     1.1784E+00     7.7278   2.9741    75.9380
  2      0.0000     0.0000E+00    0.0000E+00    3.160000E+06  0.00400  4.007E-02    0   0.9999   age045_m42            0.0000     9.6815E-01     6.7830   2.2322    81.9836
  3      0.0000     0.0000E+00    0.0000E+00    5.010000E+06  0.00400  2.539E-02    0   0.9488   age055_m42            0.0000     1.0146E+00     7.0337   2.5529    79.8710
  4      0.0008     1.2962E-05    2.0671E-05    6.610000E+06  0.00400  2.620E-02    0   0.9220   age061_m42            0.0000     8.8347E-01     6.4666   2.1427    82.8469
  5      0.2822     8.6377E-03    1.3240E-02    1.000000E+07  0.00400  1.322E-02    0   0.8862   age070_m42            0.0000     5.9657E-01     5.3315   1.7444    89.7413
  6      0.0013     6.8213E-05    1.0112E-04    1.445000E+07  0.00400  7.883E-03    0   0.8571   age078_m42            0.0000     6.8833E-01     5.7075   2.0910    86.5604
  7      7.1058     5.4761E-01    7.7419E-01    2.512000E+07  0.00400  5.251E-03    0   0.8174   age090_m42            0.0000     5.5157E-01     5.1388   1.5882    91.4615
  8     10.1716     1.1280E+00    1.5317E+00    4.000000E+07  0.00400  3.649E-03    0   0.7851   age104_m42            0.0000     5.3415E-01     5.0649   1.3703    91.8038
  9      0.0000     0.0000E+00    0.0000E+00    5.500000E+07  0.00400  3.098E-03    0   0.7629   age110_m42            0.0000     6.0474E-01     5.3541   1.5741    89.5488
 10      1.7883     3.2481E-01    4.0488E-01    1.015200E+08  0.00400  2.228E-03    0   0.7207   age116_m42            0.0000     6.5136E-01     5.5974   1.6247    88.3923
 11      0.0000     0.0000E+00    0.0000E+00    2.861200E+08  0.00400  1.093E-03    0   0.6648   age125_m42            0.0000     5.9341E-01     5.1901   1.0185    92.9636
 12      0.0000     0.0000E+00    0.0000E+00    5.088000E+08  0.00400  6.597E-04    0   0.6365   age130_m42            0.0000     6.2721E-01     5.5860   1.0588    91.4022
 13      4.8458     9.1978E+00    9.2236E+00    1.434000E+09  0.00400  2.132E-04    0   0.5798   age139_m42            0.0000     5.7323E-01     5.6355   0.1032    92.4472
 14      0.0000     0.0000E+00    0.0000E+00    4.250000E+09  0.00400  5.895E-05    0   0.5377   age158_m42            0.0000     7.7788E-01     6.9435  -0.2392    84.5909
 15      0.0085     9.8567E-02    8.8854E-02    7.500000E+09  0.00400  3.510E-05    0   0.5212   age171_m42            0.0000     8.7140E-01     7.4894  -0.3877    82.4632
 16      0.0000     0.0000E+00    0.0000E+00    1.300000E+10  0.00400  2.005E-05    0   0.5034   age193_m42            0.0000     9.7304E-01     8.0102  -0.5157    80.5887
 17      0.0000     0.0000E+00    0.0000E+00    1.800000E+10  0.00400  1.525E-05    0   0.4967   age213_m42            0.0000     9.6511E-01     7.9356  -0.5480    80.5772
 18      0.0000     0.0000E+00    0.0000E+00    1.000000E+06  0.00800  1.238E-02    0   1.0000   age020_m52            0.0000     1.1751E+00     7.7263   2.9704    76.0809
 19      0.0000     0.0000E+00    0.0000E+00    3.160000E+06  0.00800  3.074E-02    0   0.9966   age045_m52            0.0000     1.1564E+00     7.6613   2.8964    76.6550
 20      0.0000     0.0000E+00    0.0000E+00    5.010000E+06  0.00800  2.668E-02    0   0.9443   age055_m52            0.0000     1.0033E+00     7.0570   2.6319    79.2634
 21      0.0027     5.2009E-05    8.2550E-05    6.610000E+06  0.00800  2.136E-02    0   0.9177   age061_m52            0.0000     5.7117E-01     5.4951   1.2638    89.8112
 22      0.0000     0.0000E+00    0.0000E+00    1.000000E+07  0.00800  1.215E-02    0   0.8827   age070_m52            0.0000     5.7684E-01     5.2596   1.8942    90.8972
 23      0.0000     0.0000E+00    0.0000E+00    1.445000E+07  0.00800  8.717E-03    0   0.8552   age078_m52            0.0000     6.3726E-01     5.5208   2.0481    88.1379
 24      2.2850     1.6536E-01    2.3343E-01    2.512000E+07  0.00800  5.592E-03    0   0.8162   age090_m52            0.0000     5.1443E-01     4.9878   1.6421    93.0557
 25      0.0000     0.0000E+00    0.0000E+00    4.000000E+07  0.00800  3.896E-03    0   0.7841   age104_m52            0.0000     5.2625E-01     4.9761   1.5772    92.7726
 26      0.0000     0.0000E+00    0.0000E+00    1.015200E+08  0.00800  2.148E-03    0   0.7226   age116_m52            0.0000     5.8581E-01     5.2447   1.5685    90.2032
 27      0.0084     3.4342E-03    3.9695E-03    2.861200E+08  0.00800  9.925E-04    0   0.6683   age125_m52            0.0000     5.5596E-01     5.3832   1.1154    92.6322
 28      0.0000     0.0000E+00    0.0000E+00    9.047900E+08  0.00800  3.141E-04    0   0.6138   age135_m52            0.0000     6.4108E-01     6.1559   0.3855    93.3555
 29      0.0000     0.0000E+00    0.0000E+00    1.434000E+09  0.00800  1.719E-04    0   0.5853   age139_m52            0.0000     7.5092E-01     6.5981  -0.1750    90.5314
 30      0.0000     0.0000E+00    0.0000E+00    2.500000E+09  0.00800  7.872E-05    0   0.5600   age150_m52            0.0000     9.1951E-01     7.6926  -0.3528    84.2090
 31      0.0000     0.0000E+00    0.0000E+00    4.250000E+09  0.00800  4.336E-05    0   0.5426   age158_m52            0.0000     9.3926E-01     7.8129  -0.3589    83.0441
 32      0.0000     0.0000E+00    0.0000E+00    6.250000E+09  0.00800  3.159E-05    0   0.5319   age166_m52            0.0000     1.0903E+00     8.5323  -0.5121    81.1194
 33      0.6332     1.8826E+01    1.6519E+01    1.300000E+10  0.00800  1.361E-05    0   0.5073   age193_m52            0.0000     1.3224E+00     9.4530  -0.9249    78.4812
 34      0.0000     0.0000E+00    0.0000E+00    1.800000E+10  0.00800  9.886E-06    0   0.4990   age213_m52            0.0000     1.4991E+00    10.1830  -0.9794    76.1538
 35      0.0000     0.0000E+00    0.0000E+00    1.000000E+06  0.02000  1.544E-02    0   1.0000   age020_m62            0.0000     1.1805E+00     7.7570   2.9690    76.1605
 36      0.0000     0.0000E+00    0.0000E+00    3.160000E+06  0.02000  3.762E-02    0   0.9858   age045_m62            0.0000     1.1781E+00     7.7469   2.9128    76.6451
 37      0.0000     0.0000E+00    0.0000E+00    5.010000E+06  0.02000  3.296E-02    0   0.9342   age055_m62            0.0000     9.8051E-01     6.9436   2.5241    80.4367
 38     37.4476     1.3132E+00    2.0125E+00    8.710000E+06  0.02000  1.154E-02    0   0.8861   age067_m62            0.0000     6.5310E-01     6.8485   1.1246   104.7459
 39      0.0000     0.0000E+00    0.0000E+00    1.445000E+07  0.02000  7.663E-03    0   0.8472   age078_m62            0.0000     5.3704E-01     5.2855   1.4758    96.1993
 40      0.0000     0.0000E+00    0.0000E+00    2.512000E+07  0.02000  4.532E-03    0   0.8099   age090_m62            0.0000     5.5538E-01     5.3525   1.4530    96.7382
 41      0.0000     0.0000E+00    0.0000E+00    5.500000E+07  0.02000  2.733E-03    0   0.7595   age110_m62            0.0000     5.2118E-01     4.9985   1.5639    91.8933
 42      0.6735     1.9909E-01    2.4052E-01    1.609000E+08  0.02000  1.369E-03    0   0.6985   age120_m62            0.0000     5.4703E-01     5.2167   1.4561    92.0113
 43     10.9786     4.9292E+00    5.7240E+00    2.861200E+08  0.02000  9.013E-04    0   0.6714   age125_m62            0.0000     5.4518E-01     5.4541   1.2263    93.7098
 44      0.9180     7.3881E-01    8.2408E-01    5.088000E+08  0.02000  5.028E-04    0   0.6449   age130_m62            0.0000     6.5000E-01     6.2499   0.9245    92.7100
 45      0.0000     0.0000E+00    0.0000E+00    9.047900E+08  0.02000  2.428E-04    0   0.6179   age135_m62            0.0000     7.2115E-01     6.7822   0.3893    89.9153
 46      0.0009     3.0364E-03    3.1027E-03    1.434000E+09  0.02000  1.263E-04    0   0.5908   age139_m62            0.0000     8.4222E-01     7.3294  -0.0256    87.2912
 47      0.0000     0.0000E+00    0.0000E+00    2.500000E+09  0.02000  5.985E-05    0   0.5673   age150_m62            0.0000     1.0730E+00     8.4168  -0.3162    82.9796
 48      2.3873     2.9535E+01    2.7932E+01    4.250000E+09  0.02000  3.271E-05    0   0.5468   age158_m62            0.0000     1.3419E+00     9.5224  -0.5511    79.5567
 49      0.0000     0.0000E+00    0.0000E+00    1.000000E+10  0.02000  1.360E-05    0   0.5167   age181_m62            0.0000     1.6827E+00    10.7201  -0.8230    76.4623
 50      0.0000     0.0000E+00    0.0000E+00    1.800000E+10  0.02000  7.124E-06    0   0.5013   age213_m62            0.0000     1.9555E+00    11.6300  -0.9679    73.5954
 51      0.0000     0.0000E+00    0.0000E+00    1.000000E+06  0.05000  2.592E-02    0   0.9998   age020_m72            0.0000     1.1901E+00     7.8005   2.9571    76.2913
 52      0.0000     0.0000E+00    0.0000E+00    3.160000E+06  0.05000  4.845E-02    0   0.9577   age045_m72            0.0000     1.1379E+00     7.5309   2.8019    77.4805
 53      0.0000     0.0000E+00    0.0000E+00    5.010000E+06  0.05000  3.072E-02    0   0.9147   age055_m72            0.0000     7.8181E-01     6.0459   2.1701    87.6816
 54      0.0000     0.0000E+00    0.0000E+00    6.610000E+06  0.05000  1.455E-02    0   0.8877   age061_m72            0.0000     1.6892E+00     9.5467   1.1304   108.9286
 55      0.0000     0.0000E+00    0.0000E+00    1.000000E+07  0.05000  9.074E-03    0   0.8524   age070_m72            0.0000     1.1144E+00     6.8996   2.3857    86.4416
 56      0.0000     0.0000E+00    0.0000E+00    2.512000E+07  0.05000  4.250E-03    0   0.7902   age090_m72            0.0000     8.2181E-01     5.9129   2.0399    89.8904
 57      0.0000     0.0000E+00    0.0000E+00    4.000000E+07  0.05000  3.087E-03    0   0.7618   age104_m72            0.0000     7.8945E-01     5.7183   1.7819    92.8127
 58      0.0000     0.0000E+00    0.0000E+00    1.015200E+08  0.05000  1.700E-03    0   0.7096   age116_m72            0.0000     5.5224E-01     5.0391   1.5653    93.2032
 59      0.9225     5.0555E-01    5.7998E-01    2.861200E+08  0.05000  7.384E-04    0   0.6633   age125_m72            0.0000     5.8131E-01     5.8034   1.1300    93.3545
 60     14.7436     1.5623E+01    1.7218E+01    5.088000E+08  0.05000  3.819E-04    0   0.6372   age130_m72            0.0000     6.8212E-01     6.5515   0.7074    91.6353
 61      1.6614     4.0114E+00    4.2391E+00    9.047900E+08  0.05000  1.676E-04    0   0.6110   age135_m72            0.0000     1.0322E+00     8.2574   0.1284    85.0157
 62      0.0000     0.0000E+00    0.0000E+00    1.434000E+09  0.05000  8.837E-05    0   0.5874   age139_m72            0.0000     1.1537E+00     8.6458  -0.3125    84.0326
 63      1.3433     1.2841E+01    1.2433E+01    2.500000E+09  0.05000  4.233E-05    0   0.5598   age150_m72            0.0000     1.4572E+00     9.9175  -0.5293    79.3800
 64      0.0000     0.0000E+00    0.0000E+00    6.250000E+09  0.05000  1.435E-05    0   0.5249   age166_m72            0.0000     1.8522E+00    11.1642  -0.8983    75.3516
 65      0.0000     0.0000E+00    0.0000E+00    1.300000E+10  0.05000  6.513E-06    0   0.5036   age193_m72            0.0000     2.2806E+00    12.6769  -1.0000    70.1279
 66      0.0000     0.0000E+00    0.0000E+00    1.800000E+10  0.05000  4.527E-06    0   0.4945   age213_m72            0.0000     2.7185E+00    13.9435  -1.0000    65.0321


## Synthesis Results - Average & Chains ##

# j      x_j: min, <> & last-chain-values for 1 ...  7 chains
  1      0.0171      0.1392      0.7490      0.0000      0.0000      0.0000      0.0000      0.0448      0.0000
  2      0.0000      0.3416      0.0000      0.0000      0.0000      0.0000      0.2789      0.6220      0.9670
  3      0.0000      0.1388      0.0000      0.0000      0.3356      0.0000      0.0000      0.0000      0.0000
  4      0.0008      0.5082      0.6138      0.0000      0.0000      0.0000      0.7112      0.0000      0.0000
  5      0.2822      0.7748      1.0730      0.4437      0.8165      1.9574      0.0000      0.0000      0.0000
  6      0.0013      0.6289      0.5578      1.7715      0.0000      0.0000      0.0000      0.9737      1.0107
  7      7.1058      4.3254      8.9440      7.8076      6.4571      4.1619      5.0841      4.9007      4.7967
  8     10.1716      4.7371      4.2528      4.5681      7.7044      3.6075      4.8983      5.9056      7.5100
  9      0.0000      1.2562      0.0000      1.9784      2.4517      2.0205      1.3591      0.6275      1.8368
 10      1.7883      0.7349      1.4296      0.0000      0.0000      0.0000      2.2154      0.0000      1.2160
 11      0.0000      0.9119      0.0000      0.0557      0.3095      0.0000      0.4976      0.0000      0.1800
 12      0.0000      1.0336      0.1259      0.0000      0.0000      1.0016      0.0000      0.3430      0.0000
 13      4.8458      6.3185      6.1936      6.3483      5.3158      8.6551      8.4096      5.4149      7.8071
 14      0.0000      0.0798      0.2896      0.0000      0.2733      0.0000      0.0000      0.0000      0.0111
 15      0.0085      0.8166      1.0326      1.7214      1.1440      0.5455      0.7634      0.0000      0.6875
 16      0.0000      0.0575      0.0000      0.2525      0.0000      0.0000      0.0000      0.0000      0.0000
 17      0.0000      0.0569      0.0000      0.0000      0.0000      0.0000      0.0000      0.0000      0.0000
 18      0.0000      0.2040      0.0000      0.7011      0.8671      0.0000      0.8320      0.4534      0.0000
 19      0.0000      0.1925      0.3199      0.0000      0.0000      0.0304      0.6454      0.0000      0.0000
 20      0.0000      0.2003      0.0000      0.0000      0.0000      0.0069      0.0000      0.0000      0.0000
 21      0.0027      0.7348      0.8022      0.0000      0.9136      0.0000      0.0000      0.4282      0.0481
 22      0.0000      0.3987      0.0000      0.0000      0.1305      0.2021      0.8883      0.2377      0.0000
 23      0.0000      0.3512      0.2341      0.0000      0.0000      0.0442      0.1941      0.0000      0.0000
 24      2.2850      1.1332      3.6751      0.5750      0.0000      1.8046      1.0087      1.3097      0.6823
 25      0.0000      2.0099      0.0000      2.1990      1.4175      3.0080      1.7516      0.0000      2.9092
 26      0.0000      1.1423      0.0000      1.7027      0.8106      0.5279      0.0000      2.2583      0.7298
 27      0.0084      1.6474      0.7568      2.4579      0.9876      0.5506      4.4967      0.5236      0.0000
 28      0.0000      1.9893      0.0000      2.0403      2.4243      2.5018      0.3322      0.3866      1.1602
 29      0.0000      0.0666      0.0000      0.0000      0.0000      0.0000      0.0000      0.0000      0.0000
 30      0.0000      0.1182      0.0000      0.0743      0.0000      0.0000      0.0000      0.0000      0.4754
 31      0.0000      0.0538      0.0000      0.0000      0.0000      0.0000      0.0000      0.0618      0.0000
 32      0.0000      0.3277      0.0000      0.6920      0.0000      0.0000      0.0000      0.9657      0.0000
 33      0.6332      0.2704      0.5834      0.0000      0.3496      0.4490      0.2128      0.3444      0.1213
 34      0.0000      0.0311      0.0000      0.0000      0.1981      0.0000      0.0000      0.0571      0.0493
 35      0.0000      0.2792      0.1406      0.0000      1.0640      0.0000      0.0000      0.9370      0.6354
 36      0.0000      0.2003      0.2351      0.0000      0.0000      0.2275      0.0000      0.0000      0.0000
 37      0.0000      0.1631      0.0000      1.0461      0.2977      0.0000      0.6317      0.0747      0.0000
 38     37.4476     31.0944     31.3877     33.2030     31.7148     35.1675     35.2047     35.8376     34.5223
 39      0.0000      0.4765      0.3072      0.0753      0.0092      0.0000      0.4772      0.0000      0.0000
 40      0.0000      0.7321      1.4161      0.0000      0.0000      0.2768      0.0000      1.1544      1.0134
 41      0.0000      0.8362      0.0000      0.0000      1.3393      0.0000      3.2931      0.0000      0.0000
 42      0.6735      2.8166      3.4192      3.1404      3.5382      3.0551      1.7207      2.6344      1.4415
 43     10.9786      4.4267      6.3150      2.1224      5.4892      5.3360      1.8651      5.3379      5.3902
 44      0.9180      2.4067      1.3947      0.3767      3.1363      0.0000      1.8248      0.7053      3.3262
 45      0.0000      0.9304      0.0000      0.0000      1.5821      0.0000      0.3699      0.0000      0.5448
 46      0.0009      1.0603      1.0491      0.8716      0.6033      0.0000      1.0386      0.0000      0.0000
 47      0.0000      0.1145      0.0000      0.0000      0.0000      0.0000      0.0000      0.0000      0.0000
 48      2.3873      0.9814      1.2688      1.1503      0.7703      0.1525      1.1019      1.8131      1.0844
 49      0.0000      0.0712      0.0000      0.1899      0.2031      0.0000      0.0000      0.0000      0.0000
 50      0.0000      0.0340      0.0000      0.0000      0.0000      0.0000      0.0000      0.0000      0.0000
 51      0.0000      0.4470      0.0263      1.1409      0.7183      0.0000      0.0000      0.6963      0.1113
 52      0.0000      0.2660      0.0000      0.0000      0.0000      0.0000      0.0000      0.0000      0.0000
 53      0.0000      0.1520      0.0000      0.0000      0.0000      0.0025      0.0000      0.0000      0.0000
 54      0.0000      0.1845      0.0760      0.0000      0.0000      0.0000      0.0000      0.0000      0.0119
 55      0.0000      0.1673      0.0000      0.0000      0.0000      0.0000      0.0000      0.0000      0.0000
 56      0.0000      0.2392      0.0000      0.0000      0.0000      0.9455      0.1247      0.3632      0.0555
 57      0.0000      0.2571      0.0000      0.0000      0.0000      0.2128      0.0000      0.0000      0.0000
 58      0.0000      0.6672      0.0000      0.9535      0.0000      1.3755      0.0000      0.0000      0.0000
 59      0.9225      1.3523      3.4322      3.5752      1.1408      0.1569      0.3285      3.8803      2.1312
 60     14.7436      9.1755     11.0491     10.5394      8.4948     14.4954     10.1125     13.2590     10.1124
 61      1.6614      2.9296      2.6384      3.2443      3.1517      3.6424      3.9367      3.4966      3.2910
 62      0.0000      0.1107      0.0000      0.0000      0.0000      0.0054      0.0000      0.0000      0.0000
 63      1.3433      1.1813      1.9575      0.5978      1.0661      1.5320      1.3089      1.1991      1.6073
 64      0.0000      0.0266      0.0000      0.0000      0.0000      0.0000      0.0000      0.3646      0.1115
 65      0.0000      0.0066      0.0345      0.0000      0.0000      0.0000      0.0000      0.0000      0.0000
 66      0.0000      0.0771      0.0000      0.0577      0.3398      0.0000      0.0000      0.0000      0.0000

# j      m_j: min, <> & last-chain-values for 1 ...  7 chains
  1  1.0941E-03  8.1203E-03  4.3454E-02  0.0000E+00  0.0000E+00  0.0000E+00  0.0000E+00  2.5680E-03  0.0000E+00
  2  0.0000E+00  5.4387E-03  0.0000E+00  0.0000E+00  0.0000E+00  0.0000E+00  5.3085E-03  9.7342E-03  1.7727E-02
  3  0.0000E+00  3.3100E-03  0.0000E+00  0.0000E+00  6.7892E-03  0.0000E+00  0.0000E+00  0.0000E+00  0.0000E+00
  4  2.0671E-05  1.1410E-02  1.3709E-02  0.0000E+00  0.0000E+00  0.0000E+00  1.9091E-02  0.0000E+00  0.0000E+00
  5  1.3240E-02  3.3137E-02  4.5653E-02  1.9172E-02  2.9628E-02  1.0310E-01  0.0000E+00  0.0000E+00  0.0000E+00
  6  1.0112E-04  4.3627E-02  3.8491E-02  1.2416E-01  0.0000E+00  0.0000E+00  0.0000E+00  6.6391E-02  8.0729E-02
  7  7.7419E-01  4.2959E-01  8.8365E-01  7.8341E-01  5.4409E-01  5.0908E-01  6.0374E-01  4.7844E-01  5.4854E-01
  8  1.5317E+00  6.5028E-01  5.8074E-01  6.3353E-01  8.9729E-01  6.0991E-01  8.0396E-01  7.9686E-01  1.1870E+00
  9  0.0000E+00  1.9738E-01  0.0000E+00  3.1404E-01  3.2681E-01  3.9098E-01  2.5531E-01  9.6911E-02  3.3229E-01
 10  4.0488E-01  1.5168E-01  2.9350E-01  0.0000E+00  0.0000E+00  0.0000E+00  5.4669E-01  0.0000E+00  2.8896E-01
 11  0.0000E+00  3.5388E-01  0.0000E+00  2.1833E-02  1.0191E-01  0.0000E+00  2.3088E-01  0.0000E+00  8.0416E-02
 12  0.0000E+00  6.3624E-01  7.7090E-02  0.0000E+00  0.0000E+00  7.5938E-01  0.0000E+00  2.0756E-01  0.0000E+00
 13  9.2236E+00  1.0963E+01  1.0690E+01  1.1128E+01  7.8253E+00  1.8496E+01  1.7446E+01  9.2354E+00  1.5597E+01
 14  0.0000E+00  4.6412E-01  1.6765E+00  0.0000E+00  1.3491E+00  0.0000E+00  0.0000E+00  0.0000E+00  7.4220E-02
 15  8.8854E-02  7.7368E+00  9.7318E+00  1.6476E+01  9.1953E+00  6.3652E+00  8.6475E+00  0.0000E+00  7.4998E+00
 16  0.0000E+00  9.2042E-01  0.0000E+00  4.0866E+00  0.0000E+00  0.0000E+00  0.0000E+00  0.0000E+00  0.0000E+00
 17  0.0000E+00  1.1820E+00  0.0000E+00  0.0000E+00  0.0000E+00  0.0000E+00  0.0000E+00  0.0000E+00  0.0000E+00
 18  0.0000E+00  1.0514E-02  0.0000E+00  3.6506E-02  3.7911E-02  0.0000E+00  5.1270E-02  2.2969E-02  0.0000E+00
 19  0.0000E+00  3.9816E-03  6.5831E-03  0.0000E+00  0.0000E+00  7.7459E-04  1.5961E-02  0.0000E+00  0.0000E+00
 20  0.0000E+00  4.5225E-03  0.0000E+00  0.0000E+00  0.0000E+00  1.9251E-04  0.0000E+00  0.0000E+00  0.0000E+00
 21  8.2550E-05  2.0143E-02  2.1874E-02  0.0000E+00  2.1248E-02  0.0000E+00  0.0000E+00  1.1537E-02  1.5197E-03
 22  0.0000E+00  1.8478E-02  0.0000E+00  0.0000E+00  5.1307E-03  1.1535E-02  4.9230E-02  1.0831E-02  0.0000E+00
 23  0.0000E+00  2.1983E-02  1.4577E-02  0.0000E+00  0.0000E+00  3.4084E-03  1.4527E-02  0.0000E+00  0.0000E+00
 24  2.3343E-01  1.0552E-01  3.4045E-01  5.4096E-02  0.0000E+00  2.0698E-01  1.1232E-01  1.1989E-01  7.3164E-02
 25  0.0000E+00  2.5809E-01  0.0000E+00  2.8527E-01  1.5442E-01  4.7571E-01  2.6892E-01  0.0000E+00  4.3013E-01
 26  0.0000E+00  2.4518E-01  0.0000E+00  3.6922E-01  1.4761E-01  1.3954E-01  0.0000E+00  4.7645E-01  1.8036E-01
 27  3.9695E-03  7.0776E-01  3.2341E-01  1.0668E+00  3.5997E-01  2.9133E-01  2.3098E+00  2.2113E-01  0.0000E+00
 28  0.0000E+00  2.4802E+00  0.0000E+00  2.5701E+00  2.5644E+00  3.8416E+00  4.9516E-01  4.7378E-01  1.6655E+00
 29  0.0000E+00  1.4460E-01  0.0000E+00  0.0000E+00  0.0000E+00  0.0000E+00  0.0000E+00  0.0000E+00  0.0000E+00
 30  0.0000E+00  5.3627E-01  0.0000E+00  3.4091E-01  0.0000E+00  0.0000E+00  0.0000E+00  0.0000E+00  2.4843E+00
 31  0.0000E+00  4.2920E-01  0.0000E+00  0.0000E+00  0.0000E+00  0.0000E+00  0.0000E+00  4.8526E-01  0.0000E+00
 32  0.0000E+00  3.5201E+00  0.0000E+00  7.5108E+00  0.0000E+00  0.0000E+00  0.0000E+00  1.0198E+01  0.0000E+00
 33  1.6519E+01  6.4296E+00  1.3801E+01  0.0000E+00  7.0534E+00  1.3150E+01  6.0522E+00  8.0517E+00  3.3217E+00
 34  0.0000E+00  1.0015E+00  0.0000E+00  0.0000E+00  5.4132E+00  0.0000E+00  0.0000E+00  1.8070E+00  1.8287E+00
 35  0.0000E+00  1.1538E-02  5.7778E-03  0.0000E+00  3.7302E-02  0.0000E+00  0.0000E+00  3.8060E-02  3.0230E-02
 36  0.0000E+00  3.3496E-03  3.9105E-03  0.0000E+00  0.0000E+00  4.6851E-03  0.0000E+00  0.0000E+00  0.0000E+00
 37  0.0000E+00  2.9496E-03  0.0000E+00  1.9113E-02  4.5678E-03  0.0000E+00  1.3658E-02  1.3274E-03  0.0000E+00
 38  2.0125E+00  1.5233E+00  1.5297E+00  1.6434E+00  1.3182E+00  2.1219E+00  2.0621E+00  1.7258E+00  1.9474E+00
 39  0.0000E+00  3.3609E-02  2.1559E-02  5.3645E-03  5.5270E-04  0.0000E+00  4.0246E-02  0.0000E+00  0.0000E+00
 40  0.0000E+00  8.3469E-02  1.6062E-01  0.0000E+00  0.0000E+00  3.8868E-02  0.0000E+00  1.2938E-01  1.3304E-01
 41  0.0000E+00  1.4827E-01  0.0000E+00  0.0000E+00  2.0147E-01  0.0000E+00  6.9813E-01  0.0000E+00  0.0000E+00
 42  2.4052E-01  9.1691E-01  1.1072E+00  1.0328E+00  9.7719E-01  1.2249E+00  6.6974E-01  8.4296E-01  5.4032E-01
 43  5.7240E+00  2.1039E+00  2.9857E+00  1.0191E+00  2.2134E+00  3.1235E+00  1.0599E+00  2.4937E+00  2.9498E+00
 44  8.2408E-01  1.9695E+00  1.1354E+00  3.1148E-01  2.1775E+00  0.0000E+00  1.7855E+00  5.6737E-01  3.1342E+00
 45  0.0000E+00  1.5108E+00  0.0000E+00  0.0000E+00  2.1794E+00  0.0000E+00  7.1809E-01  0.0000E+00  1.0186E+00
 46  3.1027E-03  3.1643E+00  3.1145E+00  2.6282E+00  1.5275E+00  0.0000E+00  3.7061E+00  0.0000E+00  0.0000E+00
 47  0.0000E+00  6.9266E-01  0.0000E+00  0.0000E+00  0.0000E+00  0.0000E+00  0.0000E+00  0.0000E+00  0.0000E+00
 48  2.7932E+01  1.0467E+01  1.3461E+01  1.2395E+01  6.9698E+00  2.0027E+00  1.4051E+01  1.9008E+01  1.3317E+01
 49  0.0000E+00  1.7254E+00  0.0000E+00  4.6500E+00  4.1766E+00  0.0000E+00  0.0000E+00  0.0000E+00  0.0000E+00
 50  0.0000E+00  1.5249E+00  0.0000E+00  0.0000E+00  0.0000E+00  0.0000E+00  0.0000E+00  0.0000E+00  0.0000E+00
 51  0.0000E+00  1.1001E-02  6.4305E-04  2.8368E-02  1.4997E-02  0.0000E+00  0.0000E+00  1.6843E-02  3.1548E-03
 52  0.0000E+00  3.3552E-03  0.0000E+00  0.0000E+00  0.0000E+00  0.0000E+00  0.0000E+00  0.0000E+00  0.0000E+00
 53  0.0000E+00  2.8867E-03  0.0000E+00  0.0000E+00  0.0000E+00  5.9218E-05  0.0000E+00  0.0000E+00  0.0000E+00
 54  0.0000E+00  7.1824E-03  2.9424E-03  0.0000E+00  0.0000E+00  0.0000E+00  0.0000E+00  0.0000E+00  5.3227E-04
 55  0.0000E+00  1.0025E-02  0.0000E+00  0.0000E+00  0.0000E+00  0.0000E+00  0.0000E+00  0.0000E+00  0.0000E+00
 56  0.0000E+00  2.8377E-02  0.0000E+00  0.0000E+00  0.0000E+00  1.3814E-01  1.7688E-02  4.2349E-02  7.5813E-03
 57  0.0000E+00  4.0487E-02  0.0000E+00  0.0000E+00  0.0000E+00  4.1256E-02  0.0000E+00  0.0000E+00  0.0000E+00
 58  0.0000E+00  1.7770E-01  0.0000E+00  2.5655E-01  0.0000E+00  4.5116E-01  0.0000E+00  0.0000E+00  0.0000E+00
 59  5.7998E-01  7.7506E-01  1.9568E+00  2.0702E+00  5.5469E-01  1.1077E-01  2.2513E-01  2.1860E+00  1.4064E+00
 60  1.7218E+01  9.7677E+00  1.1701E+01  1.1335E+01  7.6722E+00  1.9005E+01  1.2871E+01  1.3874E+01  1.2395E+01
 61  4.2391E+00  6.8141E+00  6.1046E+00  7.6237E+00  6.2194E+00  1.0434E+01  1.0948E+01  7.9943E+00  8.8139E+00
 62  0.0000E+00  4.6940E-01  0.0000E+00  0.0000E+00  0.0000E+00  2.8191E-02  0.0000E+00  0.0000E+00  0.0000E+00
 63  1.2433E+01  9.9671E+00  1.6431E+01  5.0959E+00  7.6314E+00  1.5920E+01  1.3205E+01  9.9447E+00  1.5615E+01
 64  0.0000E+00  6.2089E-01  0.0000E+00  0.0000E+00  0.0000E+00  0.0000E+00  0.0000E+00  8.3634E+00  2.9951E+00
 65  0.0000E+00  3.2335E-01  1.6948E+00  0.0000E+00  0.0000E+00  0.0000E+00  0.0000E+00  0.0000E+00  0.0000E+00
 66  0.0000E+00  5.3712E+00  0.0000E+00  4.0649E+00  2.0090E+01  0.0000E+00  0.0000E+00  0.0000E+00  0.0000E+00

# AV, chi2 & Mass for <> & i_chain = 1 ...  7 solutions
AV       0.8585      0.8399      0.8390      0.8467      0.8414      0.8399      0.8422      0.8423      0.8381
chi2 4.3638E-01  4.4276E-01  4.3928E-01  4.4075E-01  4.4052E-01  4.4049E-01  4.4033E-01  4.4025E-01  4.3981E-01
Mass 7.2944E-13  7.8047E-13  7.8353E-13  7.7953E-13  9.2170E-13  6.3368E-13  6.5471E-13  7.9648E-13  6.7619E-13
-121.26                                  [v0_min (km/s) before EX0s...]
 141.22                                  [vd_min (km/s) before EX0s...]


## Synthetic spectrum (Best Model) ##l_obs f_obs f_syn wei
 3478    [Nl_obs]
 3741.00    0.40959   0.73889    0.000
 3742.00    0.35675   0.72495    0.000
 3743.00    0.28307   0.70162    0.000
 3744.00    0.16131   0.67031    0.000
 3745.00    0.13906   0.63265    2.768
 3746.00    0.27410   0.59295    2.747
 3747.00    0.45610   0.55944    2.727
 3748.00    0.58868   0.54205    2.727
 3749.00    0.65731   0.54753    2.778
 3750.00    0.68642   0.57528    2.868
 3751.00    0.71189   0.61754    2.937
 3752.00    0.74766   0.66316    2.935
 3753.00    0.78037   0.70284    2.871
 3754.00    0.79073   0.73151    2.819
 3755.00    0.76768   0.74874    2.856
 3756.00    0.72771   0.75793    2.940
 3757.00    0.70201   0.76350    2.935
 3758.00    0.68494   0.76829    2.875
 3759.00    0.64543   0.77225    2.917
 3760.00    0.59348   0.77330    3.043
 3761.00    0.56620   0.76907    3.081
 3762.00    0.55267   0.75805    3.005
 3763.00    0.51018   0.73891    2.941
 3764.00    0.44033   0.71122    2.956
 3765.00    0.37815   0.67599    3.042
 3766.00    0.33393   0.63607    3.144
 3767.00    0.29570   0.59747    3.193
 3768.00    0.25772   0.56921    3.180
 3769.00    0.23004   0.55966    3.164
 3770.00    0.24399   0.57223    3.226
 3771.00    0.32239   0.60359    3.382
 3772.00    0.43146   0.64523    3.424
 3773.00    0.52046   0.68835    3.190
 3774.00    0.59238   0.72794    3.019
 3775.00    0.67176   0.76240    3.188
 3776.00    0.74576   0.79212    3.480
 3777.00    0.79135   0.81771    3.418
 3778.00    0.82062   0.83896    3.153
 3779.00    0.85855   0.85536    3.037
 3780.00    0.90862   0.86638    3.045
 3781.00    0.95261   0.87158    3.051
 3782.00    0.95787   0.87087    3.042
 3783.00    0.91082   0.86462    3.076
 3784.00    0.84706   0.85399    3.204
 3785.00    0.80056   0.84065    3.418
 3786.00    0.75582   0.82629    3.570
 3787.00    0.69861   0.81154    3.522
 3788.00    0.66059   0.79547    3.384
 3789.00    0.66526   0.77606    3.295
 3790.00    0.68463   0.75092    3.259
 3791.00    0.68969   0.71814    3.224
 3792.00    0.68698   0.67746    3.143
 3793.00    0.67299   0.63107    3.069
 3794.00    0.60979   0.58429    3.166
 3795.00    0.50218   0.54615    3.447
 3796.00    0.43305   0.52682    3.551
 3797.00    0.44325   0.53244    3.337
 3798.00    0.47354   0.56212    3.282
 3799.00    0.48209   0.60799    3.586
 3800.00    0.50022   0.65898    3.909
 3801.00    0.54557   0.70571    3.876
 3802.00    0.58580   0.74311    3.731
 3803.00    0.60445   0.77062    3.710
 3804.00    0.62572   0.79159    3.776
 3805.00    0.66944   0.81062    3.846
 3806.00    0.73077   0.83054    3.873
 3807.00    0.78818   0.85110    3.824
 3808.00    0.81680   0.86886    3.695
 3809.00    0.82495   0.87989    3.613
 3810.00    0.84998   0.88272    3.752
 3811.00    0.89019   0.87900    4.023
 3812.00    0.90170   0.87189    4.004
 3813.00    0.87495   0.86427    3.751
 3814.00    0.84398   0.85673    3.744
 3815.00    0.83072   0.84685    4.043
 3816.00    0.83300   0.83259    4.267
 3817.00    0.84321   0.81711    4.172
 3818.00    0.85575   0.80659    3.964
 3819.00    0.87104   0.80501    3.895
 3820.00    0.89121   0.81108    4.087
 3821.00    0.90683   0.81782    4.369
 3822.00    0.90048   0.81845    4.338
 3823.00    0.86281   0.81097    4.129
 3824.00    0.79989   0.79732    4.169
 3825.00    0.73964   0.78020    4.410
 3826.00    0.71092   0.76031    4.468
 3827.00    0.70067   0.73650    4.284
 3828.00    0.67560   0.70666    4.130
 3829.00    0.63721   0.66923    4.153
 3830.00    0.61010   0.62506    4.360
 3831.00    0.60441   0.57794    4.587
 3832.00    0.62008   0.53545    4.591
 3833.00    0.66338   0.50743    4.431
 3834.00    0.73774   0.50039    4.324
 3835.00    0.82694   0.51532    4.339
 3836.00    0.90575   0.54817    4.431
 3837.00    0.95787   0.59117    4.486
 3838.00    0.97661   0.63749    4.425
 3839.00    0.96309   0.68292    4.352
 3840.00    0.93138   0.72458    4.390
 3841.00    0.91218   0.76086    4.508
 3842.00    0.92020   0.79099    4.594
 3843.00    0.92213   0.81495    4.561
 3844.00    0.88682   0.83377    4.439
 3845.00    0.83601   0.84831    4.399
 3846.00    0.80067   0.85909    4.519
 3847.00    0.77783   0.86720    0.000
 3848.00    0.75908   0.87434    0.000
 3849.00    0.75700   0.88157    0.000
 3850.00    0.78692   0.88860    0.000
 3851.00    0.85047   0.89414    0.000
 3852.00    0.93748   0.89647    0.000
 3853.00    1.02954   0.89562    0.000
 3854.00    1.10716   0.89402    0.000
 3855.00    1.15559   0.89286    0.000
 3856.00    1.16891   0.89249    0.000
 3857.00    1.15151   0.89339    0.000
 3858.00    1.11092   0.89553    0.000
 3859.00    1.05549   0.89879    0.000
 3860.00    1.00647   0.90280    0.000
 3861.00    0.99561   0.90621    0.000
 3862.00    1.01757   0.90748    0.000
 3863.00    1.02170   0.90642    0.000
 3864.00    0.99428   0.90392    0.000
 3865.00    0.98023   0.90151    0.000
 3866.00    0.99846   0.89953    0.000
 3867.00    1.01665   0.89633    0.000
 3868.00    1.00922   0.89024    0.000
 3869.00    0.97763   0.88108    0.000
 3870.00    0.93130   0.87156    0.000
 3871.00    0.88051   0.86483    0.000
 3872.00    0.83912   0.86138    0.000
 3873.00    0.82110   0.85866    0.000
 3874.00    0.82618   0.85293    0.000
 3875.00    0.84144   0.84252    0.000
 3876.00    0.86053   0.82937    0.000
 3877.00    0.88268   0.81562    0.000
 3878.00    0.89359   0.80107    0.000
 3879.00    0.87184   0.78441    0.000
 3880.00    0.81966   0.76378    0.000
 3881.00    0.76105   0.73735    4.770
 3882.00    0.71743   0.70401    4.830
 3883.00    0.69622   0.66360    4.921
 3884.00    0.68034   0.61757    5.008
 3885.00    0.64757   0.57069    5.104
 3886.00    0.61442   0.53244    5.155
 3887.00    0.61463   0.51322    5.108
 3888.00    0.64150   0.51838    5.099
 3889.00    0.66591   0.54641    5.281
 3890.00    0.68753   0.58930    5.448
 3891.00    0.71988   0.63629    5.286
 3892.00    0.75156   0.67966    5.066
 3893.00    0.76590   0.71662    5.152
 3894.00    0.77910   0.74716    5.374
 3895.00    0.81303   0.77195    5.333
 3896.00    0.85011   0.79218    5.121
 3897.00    0.86420   0.80946    5.055
 3898.00    0.86798   0.82529    5.227
 3899.00    0.88518   0.84014    5.534
 3900.00    0.91038   0.85342    5.644
 3901.00    0.92614   0.86401    5.378
 3902.00    0.92768   0.87113    5.147
 3903.00    0.91908   0.87658    5.268
 3904.00    0.90651   0.88319    5.550
 3905.00    0.90002   0.89227    5.610
 3906.00    0.91393   0.90370    5.374
 3907.00    0.94781   0.91542    5.053
 3908.00    0.97242   0.92458    4.876
 3909.00    0.96265   0.92970    4.951
 3910.00    0.92438   0.93109    5.242
 3911.00    0.87543   0.93029    5.584
 3912.00    0.82837   0.92875    5.666
 3913.00    0.78839   0.92662    5.445
 3914.00    0.75434   0.92338    5.337
 3915.00    0.73080   0.91792    5.538
 3916.00    0.73330   0.91010    5.759
 3917.00    0.76817   0.90186    5.708
 3918.00    0.82128   0.89605    5.519
 3919.00    0.86935   0.89450    5.421
 3920.00    0.89150   0.89654    5.510
 3921.00    0.89315   0.89938    5.704
 3922.00    0.90771   0.89921    5.728
 3923.00    0.94098   0.89396    5.517
 3924.00    0.95770   0.88475    5.342
 3925.00    0.95175   0.87326    5.375
 3926.00    0.95988   0.86075    5.589
 3927.00    0.97597   0.84719    5.782
 3928.00    0.93842   0.83073    5.640
 3929.00    0.83060   0.81015    5.284
 3930.00    0.70136   0.78744    5.140
 3931.00    0.58781   0.76864    5.337
 3932.00    0.49749   0.76055    5.715
 3933.00    0.44899   0.76699    5.997
 3934.00    0.46939   0.78680    5.935
 3935.00    0.54164   0.81365    5.644
 3936.00    0.61026   0.84037    5.459
 3937.00    0.64750   0.86243    5.504
 3938.00    0.66378   0.87789    5.716
 3939.00    0.68143   0.88685    5.910
 3940.00    0.72072   0.89030    5.869
 3941.00    0.78457   0.89040    5.686
 3942.00    0.85974   0.89038    5.619
 3943.00    0.92905   0.89199    5.659
 3944.00    0.97820   0.89499    5.616
 3945.00    1.00392   0.89821    5.435
 3946.00    1.01147   0.90021    5.232
 3947.00    1.00628   0.90043    5.182
 3948.00    0.99440   0.89939    5.412
 3949.00    0.98633   0.89735    5.829
 3950.00    0.98887   0.89419    6.115
 3951.00    0.99104   0.88962    6.043
 3952.00    0.97983   0.88352    5.723
 3953.00    0.96816   0.87612    5.520
 3954.00    0.97412   0.86762    5.663
 3955.00    0.98506   0.85806    5.951
 3956.00    0.97784   0.84710    5.971
 3957.00    0.95291   0.83318    5.705
 3958.00    0.92171   0.81418    5.429
 3959.00    0.88525   0.78925    5.343
 3960.00    0.84175   0.75883    0.000
 3961.00    0.79771   0.72418    0.000
 3962.00    0.75314   0.68642    0.000
 3963.00    0.68711   0.64492    0.000
 3964.00    0.59598   0.59908    0.000
 3965.00    0.52777   0.55090    0.000
 3966.00    0.51666   0.50534    0.000
 3967.00    0.52445   0.47055    0.000
 3968.00    0.51132   0.45530    0.000
 3969.00    0.49731   0.46397    0.000
 3970.00    0.51054   0.49479    0.000
 3971.00    0.54387   0.54070    0.000
 3972.00    0.58302   0.59255    0.000
 3973.00    0.62934   0.64336    0.000
 3974.00    0.68985   0.68965    0.000
 3975.00    0.76805   0.72998    0.000
 3976.00    0.85744   0.76416    0.000
 3977.00    0.94031   0.79239    0.000
 3978.00    1.00422   0.81455    0.000
 3979.00    1.04991   0.83099    0.000
 3980.00    1.07769   0.84329    0.000
 3981.00    1.08219   0.85374    4.577
 3982.00    1.06702   0.86439    5.013
 3983.00    1.04846   0.87607    5.580
 3984.00    1.03493   0.88817    5.805
 3985.00    1.01939   0.89929    5.799
 3986.00    0.99153   0.90844    5.807
 3987.00    0.94702   0.91577    5.855
 3988.00    0.90117   0.92172    5.909
 3989.00    0.88520   0.92669    5.949
 3990.00    0.91061   0.93073    5.964
 3991.00    0.95779   0.93312    5.938
 3992.00    0.98602   0.93319    5.816
 3993.00    0.95750   0.93118    5.614
 3994.00    0.90080   0.92861    5.704
 3995.00    0.89389   0.92790    6.757
 3996.00    0.94906   0.93044    9.160
 3997.00    1.00979   0.93570   10.839
 3998.00    1.04302   0.94210    9.955
 3999.00    1.05374   0.94731    9.206
 4000.00    1.05186   0.94888    9.376
 4001.00    1.04547   0.94578    9.724
 4002.00    1.04655   0.93915    9.649
 4003.00    1.06465   0.93146    9.208
 4004.00    1.08997   0.92486    9.032
 4005.00    1.09915   0.92104    9.551
 4006.00    1.07557   0.92090    9.696
 4007.00    1.01921   0.92381    8.157
 4008.00    0.95609   0.92876    6.597
 4009.00    0.91532   0.93558    6.035
 4010.00    0.88652   0.94361    6.045
 4011.00    0.84923   0.95112    6.024
 4012.00    0.83196   0.95713    5.897
 4013.00    0.87178   0.96152    5.899
 4014.00    0.94000   0.96450    6.079
 4015.00    0.98701   0.96682    6.304
 4016.00    1.02012   0.96873    6.323
 4017.00    1.06490   0.96972    6.038
 4018.00    1.10174   0.96871    5.774
 4019.00    1.10077   0.96381    5.818
 4020.00    1.07282   0.95340    6.100
 4021.00    1.04048   0.93786    6.349
 4022.00    1.00000   0.92014    6.305
 4023.00    0.94360   0.90515    5.997
 4024.00    0.88655   0.89763    5.807
 4025.00    0.85246   0.89926    5.921
 4026.00    0.85549   0.90752    6.040
 4027.00    0.89410   0.91676    5.995
 4028.00    0.94873   0.92211    6.343
 4029.00    0.99812   0.92293    7.730
 4030.00    1.03338   0.92232    9.959
 4031.00    1.05502   0.92397   10.800
 4032.00    1.06845   0.92975    9.026
 4033.00    1.07342   0.93958    6.984
 4034.00    1.05908   0.95177    6.025
 4035.00    1.02269   0.96356    5.947
 4036.00    0.97983   0.97209    6.098
 4037.00    0.94595   0.97556    6.076
 4038.00    0.92588   0.97429    6.143
 4039.00    0.92441   0.96954    6.422
 4040.00    0.94994   0.96205    6.471
 4041.00    0.99826   0.95228    6.143
 4042.00    1.04777   0.94148    5.944
 4043.00    1.08183   0.93245    6.078
 4044.00    1.09797   0.92858    6.284
 4045.00    1.09682   0.93174    6.338
 4046.00    1.07814   0.94075    6.303
 4047.00    1.04735   0.95122    6.246
 4048.00    1.01717   0.95864    6.140
 4049.00    1.00211   0.96137    6.050
 4050.00    1.01167   0.95974    6.121
 4051.00    1.03440   0.95499    6.317
 4052.00    1.04239   0.94917    6.398
 4053.00    1.02699   0.94401    6.329
 4054.00    1.00247   0.94044    6.316
 4055.00    0.97828   0.93889    6.377
 4056.00    0.95407   0.93884    6.344
 4057.00    0.93236   0.93923    6.297
 4058.00    0.92016   0.93868    6.485
 4059.00    0.92301   0.93555    6.793
 4060.00    0.94140   0.92979    6.760
 4061.00    0.96659   0.92359    6.385
 4062.00    0.98512   0.91940    6.076
 4063.00    0.99163   0.91884    6.009
 4064.00    0.98806   0.92166    6.172
 4065.00    0.97543   0.92508    6.462
 4066.00    0.95301   0.92619    6.671
 4067.00    0.92074   0.92426    6.555
 4068.00    0.88691   0.91999    6.128
 4069.00    0.88014   0.91488    5.850
 4070.00    0.91935   0.91031    6.074
 4071.00    0.96097   0.90683    6.555
 4072.00    0.94713   0.90353    6.660
 4073.00    0.89481   0.89841    6.444
 4074.00    0.85957   0.89123    6.376
 4075.00    0.86136   0.88536    6.466
 4076.00    0.89435   0.88477    6.499
 4077.00    0.95482   0.89039    6.445
 4078.00    1.03065   0.89949    6.394
 4079.00    1.08554   0.90742    6.388
 4080.00    1.09385   0.91045    6.349
 4081.00    1.08101   0.90778    6.065
 4082.00    1.07901   0.90161    5.592
 4083.00    1.07489   0.89515    5.396
 4084.00    1.04266   0.89043    5.735
 4085.00    0.98136   0.88744    6.329
 4086.00    0.90958   0.88476    6.603
 4087.00    0.85479   0.88038    6.487
 4088.00    0.83448   0.87284    6.338
 4089.00    0.84186   0.86186    6.439
 4090.00    0.85967   0.84743    6.791
 4091.00    0.87295   0.82871    6.933
 4092.00    0.87088   0.80518    0.000
 4093.00    0.84834   0.77694    0.000
 4094.00    0.81117   0.74384    0.000
 4095.00    0.77707   0.70620    0.000
 4096.00    0.75675   0.66496    0.000
 4097.00    0.74441   0.62166    0.000
 4098.00    0.73718   0.58082    0.000
 4099.00    0.74431   0.55002    0.000
 4100.00    0.76855   0.53679    0.000
 4101.00    0.79892   0.54594    0.000
 4102.00    0.83070   0.57592    0.000
 4103.00    0.87108   0.61813    0.000
 4104.00    0.91411   0.66265    0.000
 4105.00    0.93606   0.70295    0.000
 4106.00    0.93095   0.73601    0.000
 4107.00    0.91938   0.76188    0.000
 4108.00    0.91700   0.78268    0.000
 4109.00    0.92287   0.80086    0.000
 4110.00    0.92787   0.81805    0.000
 4111.00    0.92261   0.83467    0.000
 4112.00    0.91245   0.85001    0.000
 4113.00    0.91473   0.86255    6.903
 4114.00    0.93205   0.87055    6.863
 4115.00    0.95033   0.87355    6.854
 4116.00    0.96046   0.87253    6.905
 4117.00    0.96336   0.86952    7.064
 4118.00    0.96420   0.86765    7.239
 4119.00    0.96873   0.86984    7.217
 4120.00    0.97794   0.87689    6.949
 4121.00    0.98917   0.88728    6.606
 4122.00    1.00197   0.89779    6.429
 4123.00    1.01820   0.90517    6.563
 4124.00    1.03890   0.90772    6.805
 4125.00    1.06250   0.90563    6.761
 4126.00    1.08285   0.90025    6.558
 4127.00    1.09257   0.89371    6.583
 4128.00    1.09021   0.88823    6.766
 4129.00    1.07919   0.88501    6.799
 4130.00    1.06361   0.88473    6.763
 4131.00    1.04985   0.88846    6.933
 4132.00    1.04996   0.89648    7.213
 4133.00    1.06703   0.90705    7.278
 4134.00    1.07379   0.91786    7.093
 4135.00    1.04684   0.92673    6.883
 4136.00    1.01709   0.93189    6.845
 4137.00    1.02252   0.93222    7.031
 4138.00    1.03902   0.92629    7.220
 4139.00    1.02763   0.91329    7.166
 4140.00    1.00119   0.89609    7.039
 4141.00    0.98638   0.88055    7.040
 4142.00    0.97338   0.87223    6.986
 4143.00    0.94485   0.87480    6.756
 4144.00    0.91110   0.88671    6.710
 4145.00    0.88961   0.90090    7.093
 4146.00    0.88240   0.91133    7.520
 4147.00    0.88851   0.91656    7.443
 4148.00    0.91527   0.91755    7.078
 4149.00    0.95883   0.91613    6.852
 4150.00    0.99130   0.91405    6.883
 4151.00    0.99991   0.91195    7.077
 4152.00    1.01261   0.91009    7.156
 4153.00    1.04704   0.90957    7.006
 4154.00    1.07858   0.91146    6.913
 4155.00    1.09264   0.91559    7.017
 4156.00    1.11362   0.92102    7.061
 4157.00    1.14936   0.92665    6.896
 4158.00    1.16492   0.93134    6.764
 4159.00    1.14616   0.93437    6.815
 4160.00    1.12722   0.93578    6.927
 4161.00    1.12740   0.93622    6.975
 4162.00    1.12441   0.93573    6.975
 4163.00    1.10052   0.93386    6.974
 4164.00    1.06230   0.93085    6.983
 4165.00    1.01789   0.92740    7.015
 4166.00    0.96887   0.92369    7.094
 4167.00    0.92422   0.91927    7.245
 4168.00    0.89957   0.91362    7.453
 4169.00    0.88956   0.90663    7.525
 4170.00    0.86937   0.89915    7.201
 4171.00    0.84204   0.89320    6.777
 4172.00    0.83861   0.89079    6.800
 4173.00    0.85762   0.89202    7.271
 4174.00    0.86567   0.89503    7.606
 4175.00    0.86663   0.89818    7.530
 4176.00    0.89745   0.90114    7.399
 4177.00    0.95003   0.90432    7.303
 4178.00    0.97762   0.90807    7.060
 4179.00    0.97564   0.91199    6.831
 4180.00    0.97966   0.91493    6.933
 4181.00    1.00279   0.91653    7.255
 4182.00    1.03183   0.91707    7.339
 4183.00    1.05658   0.91648    7.189
 4184.00    1.07436   0.91500    7.183
 4185.00    1.08436   0.91319    7.313
 4186.00    1.08811   0.91203    7.318
 4187.00    1.09277   0.91307    7.244
 4188.00    1.10207   0.91691    7.310
 4189.00    1.09935   0.92233    7.441
 4190.00    1.06398   0.92738    7.410
 4191.00    1.00455   0.93049    7.280
 4192.00    0.94692   0.93045    7.229
 4193.00    0.90577   0.92617    7.189
 4194.00    0.88302   0.91806    7.047
 4195.00    0.87251   0.90881    6.981
 4196.00    0.86400   0.90116    7.186
 4197.00    0.84836   0.89608    7.497
 4198.00    0.82625   0.89394    7.601
 4199.00    0.81680   0.89473    7.561
 4200.00    0.83294   0.89732    7.576
 4201.00    0.85337   0.90104    7.577
 4202.00    0.85690   0.90627    7.462
 4203.00    0.86116   0.91267    7.378
 4204.00    0.88718   0.91913    7.468
 4205.00    0.92167   0.92479    7.633
 4206.00    0.94767   0.92901    7.660
 4207.00    0.97468   0.93154    7.420
 4208.00    1.01105   0.93258    7.045
 4209.00    1.04013   0.93247    6.870
 4210.00    1.04796   0.93116    7.031
 4211.00    1.04475   0.92812    7.273
 4212.00    1.03954   0.92365    7.333
 4213.00    1.02322   0.91947    7.315
 4214.00    0.99729   0.91773    7.347
 4215.00    0.98842   0.92009    7.334
 4216.00    1.00200   0.92600    7.300
 4217.00    1.00182   0.93207    7.521
 4218.00    0.98047   0.93469    7.895
 4219.00    0.98799   0.93222    7.607
 4220.00    1.04085   0.92423    6.731
 4221.00    1.08358   0.91089    6.278
 4222.00    1.06950   0.89406    6.482
 4223.00    1.00186   0.87766    6.898
 4224.00    0.91729   0.86634    7.131
 4225.00    0.86607   0.86369    7.288
 4226.00    0.86535   0.87079    7.485
 4227.00    0.88909   0.88488    7.588
 4228.00    0.91480   0.89952    7.581
 4229.00    0.93855   0.90894    7.658
 4230.00    0.95384   0.91162    7.822
 4231.00    0.94908   0.90913    7.828
 4232.00    0.92895   0.90465    7.631
 4233.00    0.91213   0.90153    7.458
 4234.00    0.89860   0.90080    7.454
 4235.00    0.87174   0.90175    7.609
 4236.00    0.83836   0.90431    7.752
 4237.00    0.82503   0.90834    7.652
 4238.00    0.83242   0.91315    7.440
 4239.00    0.83895   0.91864    7.439
 4240.00    0.84475   0.92446    7.607
 4241.00    0.86747   0.92932    7.624
 4242.00    0.90361   0.93195    7.497
 4243.00    0.93443   0.93164    7.479
 4244.00    0.96060   0.92781    7.552
 4245.00    0.99323   0.92085    7.522
 4246.00    1.01937   0.91287    7.460
 4247.00    1.01791   0.90618    7.541
 4248.00    1.00366   0.90132    7.566
 4249.00    1.00918   0.89773    7.275
 4250.00    1.03701   0.89572    7.037
 4251.00    1.06509   0.89577    7.303
 4252.00    1.07121   0.89732    7.876
 4253.00    1.05134   0.89998    8.115
 4254.00    1.03922   0.90357    7.940
 4255.00    1.06368   0.90650    7.743
 4256.00    1.08702   0.90666    7.635
 4257.00    1.06431   0.90414    7.538
 4258.00    1.02983   0.90178    7.397
 4259.00    1.03474   0.90280    7.274
 4260.00    1.05941   0.90848    7.401
 4261.00    1.06117   0.91708    7.893
 4262.00    1.03948   0.92447    8.314
 4263.00    1.01114   0.92714    8.143
 4264.00    0.97718   0.92430    7.767
 4265.00    0.93462   0.91695    7.668
 4266.00    0.89092   0.90687    7.779
 4267.00    0.85715   0.89629    7.894
 4268.00    0.84006   0.88629    8.004
 4269.00    0.83955   0.87692    8.085
 4270.00    0.84749   0.86940    7.923
 4271.00    0.85251   0.86617    7.538
 4272.00    0.84530   0.86845    7.333
 4273.00    0.82907   0.87506    7.476
 4274.00    0.82348   0.88432    7.661
 4275.00    0.83979   0.89476    7.627
 4276.00    0.86664   0.90403    7.570
 4277.00    0.89131   0.90967    7.693
 4278.00    0.91250   0.91076    7.947
 4279.00    0.93066   0.90830   -2.000
 4280.00    0.94294   0.90433   -2.000
 4281.00    0.94966   0.90047   -2.000
 4282.00    0.95566   0.89732   -2.000
 4283.00    0.95883   0.89437   -2.000
 4284.00    0.94679   0.89032   -2.000
 4285.00    0.90926   0.88442   -2.000
 4286.00    0.84610   0.87725   -2.000
 4287.00    0.77521   0.87041   -2.000
 4288.00    0.72890   0.86618   -2.000
 4289.00    0.72623   0.86646   -2.000
 4290.00    0.76292   0.87114   -2.000
 4291.00    0.81719   0.87726   -2.000
 4292.00    0.85933   0.88093   -2.000
 4293.00    0.87581   0.88027   -2.000
 4294.00    0.87235   0.87575   -2.000
 4295.00    0.85643   0.86827    7.861
 4296.00    0.83265   0.85841    7.785
 4297.00    0.80661   0.84733    7.764
 4298.00    0.78554   0.83705    7.706
 4299.00    0.77666   0.83015    7.676
 4300.00    0.78345   0.82767    7.824
 4301.00    0.79810   0.82811    8.000
 4302.00    0.80770   0.82933    7.882
 4303.00    0.81323   0.82998    7.650
 4304.00    0.82549   0.82909    7.718
 4305.00    0.84627   0.82692    8.014
 4306.00    0.86644   0.82542    8.119
 4307.00    0.87088   0.82688    7.967
 4308.00    0.85173   0.83232    7.829
 4309.00    0.82991   0.84052    7.852
 4310.00    0.83535   0.84926    8.022
 4311.00    0.86646   0.85741    8.174
 4312.00    0.90207   0.86545    8.141
 4313.00    0.93170   0.87444    8.048
 4314.00    0.95064   0.88449    8.099
 4315.00    0.94627   0.89369    8.226
 4316.00    0.91445   0.89905    8.246
 4317.00    0.88275   0.89908    8.164
 4318.00    0.87512   0.89423    8.082
 4319.00    0.86563   0.88531    8.026
 4320.00    0.82306   0.87273    8.004
 4321.00    0.76821   0.85723    8.097
 4322.00    0.73487   0.84060    8.299
 4323.00    0.72106   0.82609    8.340
 4324.00    0.71304   0.81734    8.086
 4325.00    0.71400   0.81618    7.930
 4326.00    0.72884   0.82056    8.155
 4327.00    0.74846   0.82507    8.482
 4328.00    0.76650   0.82477    8.524
 4329.00    0.79300   0.81832    8.381
 4330.00    0.83168   0.80701    0.000
 4331.00    0.86344   0.79151    0.000
 4332.00    0.87330   0.77052    0.000
 4333.00    0.87057   0.74215    0.000
 4334.00    0.87542   0.70529    0.000
 4335.00    0.90549   0.66094    0.000
 4336.00    0.95780   0.61447    0.000
 4337.00    1.00236   0.57497    0.000
 4338.00    1.01538   0.55085    0.000
 4339.00    0.99727   0.54716    0.000
 4340.00    0.95576   0.56464    0.000
 4341.00    0.89772   0.59806    0.000
 4342.00    0.84108   0.63815    0.000
 4343.00    0.81396   0.67757    0.000
 4344.00    0.81878   0.71304    0.000
 4345.00    0.82524   0.74282    0.000
 4346.00    0.81921   0.76562    0.000
 4347.00    0.81723   0.78141    0.000
 4348.00    0.83135   0.79120    0.000
 4349.00    0.85580   0.79703    0.000
 4350.00    0.87577   0.80259    0.000
 4351.00    0.87660   0.81214    8.288
 4352.00    0.86289   0.82695    8.130
 4353.00    0.85586   0.84393    8.071
 4354.00    0.86183   0.85914    8.203
 4355.00    0.87101   0.87071    8.366
 4356.00    0.88670   0.87859    8.469
 4357.00    0.92312   0.88400    8.535
 4358.00    0.97346   0.88915    8.495
 4359.00    1.01308   0.89592    8.253
 4360.00    1.03267   0.90404    8.000
 4361.00    1.04077   0.91149    8.014
 4362.00    1.04779   0.91634    8.196
 4363.00    1.05685   0.91768    8.206
 4364.00    1.05324   0.91553    8.058
 4365.00    1.02230   0.91071    8.029
 4366.00    0.99036   0.90540    8.157
 4367.00    0.99288   0.90191    8.258
 4368.00    0.99833   0.90063    8.143
 4369.00    0.95394   0.89978    7.831
 4370.00    0.89215   0.89769    7.709
 4371.00    0.87882   0.89425    8.094
 4372.00    0.89704   0.89082    8.603
 4373.00    0.89027   0.88963    8.513
 4374.00    0.85815   0.89255    8.199
 4375.00    0.83328   0.89918    8.335
 4376.00    0.82660   0.90601    8.638
 4377.00    0.82988   0.90835    8.518
 4378.00    0.83037   0.90324    8.308
 4379.00    0.82361   0.89086    8.508
 4380.00    0.82537   0.87372    8.819
 4381.00    0.85095   0.85548    8.734
 4382.00    0.89069   0.84047    8.530
 4383.00    0.92393   0.83281    8.589
 4384.00    0.93768   0.83365    8.668
 4385.00    0.93461   0.84012    8.487
 4386.00    0.93611   0.84864    8.346
 4387.00    0.95162   0.85824    8.469
 4388.00    0.95462   0.86897    8.505
 4389.00    0.92794   0.87928    8.255
 4390.00    0.89931   0.88763    8.226
 4391.00    0.89509   0.89389    8.658
 4392.00    0.90493   0.89841    8.859
 4393.00    0.91411   0.90202    8.374
 4394.00    0.92708   0.90604    7.976
 4395.00    0.94911   0.91067    8.121
 4396.00    0.97432   0.91399    8.465
 4397.00    0.99801   0.91388    8.564
 4398.00    1.02290   0.91039    8.413
 4399.00    1.04588   0.90517    8.253
 4400.00    1.05338   0.89981    8.307
 4401.00    1.04106   0.89454    8.565
 4402.00    1.02110   0.88871    8.714
 4403.00    1.00199   0.88340    8.583
 4404.00    0.98023   0.88163    8.377
 4405.00    0.95119   0.88489    8.277
 4406.00    0.91498   0.89166    8.307
 4407.00    0.87781   0.90003    8.459
 4408.00    0.85150   0.90868    8.726
 4409.00    0.84922   0.91530    8.983
 4410.00    0.87938   0.91704    8.989
 4411.00    0.92956   0.91284    8.704
 4412.00    0.96946   0.90413    8.345
 4413.00    0.98165   0.89442    8.129
 4414.00    0.96959   0.88872    8.164
 4415.00    0.94783   0.89035    8.334
 4416.00    0.93229   0.89821    8.362
 4417.00    0.92204   0.90839    8.274
 4418.00    0.90579   0.91693    8.347
 4419.00    0.89396   0.92128    8.580
 4420.00    0.90929   0.92148    8.693
 4421.00    0.94086   0.91958    8.569
 4422.00    0.95333   0.91800    8.346
 4423.00    0.93625   0.91753    8.205
 4424.00    0.90368   0.91724    8.259
 4425.00    0.86689   0.91643    8.457
 4426.00    0.83231   0.91531    8.622
 4427.00    0.80945   0.91416    8.594
 4428.00    0.80685   0.91252    8.363
 4429.00    0.82164   0.90983    8.155
 4430.00    0.84302   0.90639    8.194
 4431.00    0.86185   0.90250    8.415
 4432.00    0.87429   0.89857    8.557
 4433.00    0.88459   0.89653    8.437
 4434.00    0.89825   0.89869    8.093
 4435.00    0.91172   0.90537    7.788
 4436.00    0.91871   0.91389    7.707
 4437.00    0.92068   0.92012    7.733
 4438.00    0.91922   0.92105    7.700
 4439.00    0.90561   0.91655    7.723
 4440.00    0.87851   0.90968    7.946
 4441.00    0.86396   0.90483    8.198
 4442.00    0.88098   0.90513    8.234
 4443.00    0.90387   0.91057    8.134
 4444.00    0.90186   0.91829    8.080
 4445.00    0.88231   0.92452    8.068
 4446.00    0.86799   0.92751    8.016
 4447.00    0.87031   0.92785    7.895
 4448.00    0.88381   0.92610    7.771
 4449.00    0.88600   0.92219    7.799
 4450.00    0.86194   0.91653    8.071
 4451.00    0.82294   0.90947    8.507
 4452.00    0.79098   0.90139    8.909
 4453.00    0.78377   0.89362    9.056
 4454.00    0.80245   0.88795    8.835
 4455.00    0.82719   0.88527    8.354
 4456.00    0.84316   0.88450    7.894
 4457.00    0.85515   0.88420    7.756
 4458.00    0.86787   0.88422    7.990
 4459.00    0.87576   0.88535    8.314
 4460.00    0.87811   0.88806    8.400
 4461.00    0.88504   0.89221    0.000
 4462.00    0.90060   0.89668    0.000
 4463.00    0.91631   0.89890    0.000
 4464.00    0.92492   0.89698    0.000
 4465.00    0.92610   0.89108    0.000
 4466.00    0.91965   0.88262    0.000
 4467.00    0.90448   0.87382    0.000
 4468.00    0.88732   0.86772    0.000
 4469.00    0.88200   0.86741    0.000
 4470.00    0.89223   0.87449    0.000
 4471.00    0.90889   0.88842    0.000
 4472.00    0.92490   0.90564    0.000
 4473.00    0.93998   0.92085    0.000
 4474.00    0.95719   0.93027    0.000
 4475.00    0.97784   0.93265    0.000
 4476.00    0.98985   0.92793    0.000
 4477.00    0.97781   0.91727    0.000
 4478.00    0.96090   0.90416    0.000
 4479.00    0.97693   0.89422    0.000
 4480.00    1.01232   0.89263    0.000
 4481.00    1.01773   0.90078    0.000
 4482.00    0.99171   0.91467    8.035
 4483.00    0.97112   0.92751    8.159
 4484.00    0.96208   0.93458    8.332
 4485.00    0.94613   0.93478    8.417
 4486.00    0.92642   0.92988    8.345
 4487.00    0.91922   0.92333    8.160
 4488.00    0.91839   0.91859    8.012
 4489.00    0.90602   0.91723    8.009
 4490.00    0.88386   0.91815    8.035
 4491.00    0.86525   0.91918    7.931
 4492.00    0.85237   0.91910    7.856
 4493.00    0.84110   0.91867    8.038
 4494.00    0.83458   0.91990    8.371
 4495.00    0.84275   0.92362    8.513
 4496.00    0.87766   0.92885    8.275
 4497.00    0.93891   0.93408    7.830
 4498.00    0.99714   0.93850    7.622
 4499.00    1.02591   0.94258    7.885
 4500.00    1.04141   0.94753    8.265
 4501.00    1.06725   0.95397    8.245
 4502.00    1.09048   0.96034    8.031
 4503.00    1.09211   0.96388    8.012
 4504.00    1.08295   0.96365    8.106
 4505.00    1.07654   0.96093    8.070
 4506.00    1.06113   0.95768    7.861
 4507.00    1.02697   0.95525    7.640
 4508.00    0.99107   0.95351    7.667
 4509.00    0.96625   0.95121    7.984
 4510.00    0.93672   0.94720    8.167
 4511.00    0.89356   0.94176    7.958
 4512.00    0.86006   0.93647    7.834
 4513.00    0.85274   0.93275    8.051
 4514.00    0.85604   0.93127    8.145
 4515.00    0.85967   0.93182    7.865
 4516.00    0.88012   0.93323    7.763
 4517.00    0.92228   0.93446    8.083
 4518.00    0.96100   0.93492    8.294
 4519.00    0.98478   0.93376    8.086
 4520.00    1.01260   0.93031    7.974
 4521.00    1.03742   0.92445    8.036
 4522.00    1.01184   0.91704    7.659
 4523.00    0.93890   0.90907    7.282
 4524.00    0.89429   0.90064    8.485
 4525.00    0.90680   0.89241   13.598
 4526.00    0.92365   0.88588   22.950
 4527.00    0.91380   0.88227   22.741
 4528.00    0.90021   0.88194   19.376
 4529.00    0.89890   0.88394   19.571
 4530.00    0.90040   0.88648   20.560
 4531.00    0.89752   0.88869   20.280
 4532.00    0.89335   0.89115   19.796
 4533.00    0.89117   0.89583   19.805
 4534.00    0.89127   0.90404   19.854
 4535.00    0.89286   0.91446   19.743
 4536.00    0.89577   0.92369   19.723
 4537.00    0.90314   0.92871   19.769
 4538.00    0.91736   0.92946   19.629
 4539.00    0.92746   0.92814   19.572
 4540.00    0.91613   0.92685   20.145
 4541.00    0.88653   0.92631   21.111
 4542.00    0.85950   0.92552   21.508
 4543.00    0.85052   0.92317   21.206
 4544.00    0.86317   0.91926   20.908
 4545.00    0.88755   0.91448   20.827
 4546.00    0.90579   0.90929   20.741
 4547.00    0.90394   0.90421   20.588
 4548.00    0.88095   0.90028   20.481
 4549.00    0.85974   0.89850   20.537
 4550.00    0.86585   0.89822    0.000
 4551.00    0.88788   0.89801    0.000
 4552.00    0.89736   0.89858    0.000
 4553.00    0.89158   0.90163    0.000
 4554.00    0.88676   0.90792    0.000
 4555.00    0.89664   0.91696    0.000
 4556.00    0.92375   0.92667    0.000
 4557.00    0.95281   0.93435    0.000
 4558.00    0.96694   0.93859    0.000
 4559.00    0.96905   0.93916    0.000
 4560.00    0.96978   0.93649    0.000
 4561.00    0.97027   0.93183    0.000
 4562.00    0.96786   0.92722    0.000
 4563.00    0.96453   0.92515    0.000
 4564.00    0.96436   0.92682    0.000
 4565.00    0.96946   0.93099    0.000
 4566.00    0.97531   0.93501    0.000
 4567.00    0.96856   0.93664    0.000
 4568.00    0.94711   0.93551    0.000
 4569.00    0.93441   0.93289    0.000
 4570.00    0.94502   0.93066    0.000
 4571.00    0.95875   0.93073    0.000
 4572.00    0.95392   0.93293    0.000
 4573.00    0.93329   0.93480    0.000
 4574.00    0.91091   0.93473    0.000
 4575.00    0.89986   0.93252    0.000
 4576.00    0.90159   0.92820    0.000
 4577.00    0.90265   0.92223    0.000
 4578.00    0.89590   0.91582    0.000
 4579.00    0.89076   0.91064    0.000
 4580.00    0.89478   0.90779    0.000
 4581.00    0.90408   0.90725    0.000
 4582.00    0.91122   0.90845    0.000
 4583.00    0.91114   0.91127    0.000
 4584.00    0.90732   0.91542    0.000
 4585.00    0.91105   0.91990    0.000
 4586.00    0.92496   0.92359    0.000
 4587.00    0.93895   0.92549    0.000
 4588.00    0.94584   0.92496    0.000
 4589.00    0.94628   0.92228    0.000
 4590.00    0.94140   0.91871    0.000
 4591.00    0.93057   0.91578    0.000
 4592.00    0.91439   0.91428    0.000
 4593.00    0.89712   0.91402    0.000
 4594.00    0.89065   0.91463    0.000
 4595.00    0.90730   0.91600    0.000
 4596.00    0.93421   0.91762    0.000
 4597.00    0.94088   0.91868    0.000
 4598.00    0.92313   0.91878    0.000
 4599.00    0.90184   0.91819    0.000
 4600.00    0.88539   0.91791    0.000
 4601.00    0.86898   0.91881    0.000
 4602.00    0.85829   0.92086    0.000
 4603.00    0.86605   0.92408    0.000
 4604.00    0.89100   0.92858    0.000
 4605.00    0.92004   0.93432    0.000
 4606.00    0.94320   0.94039    0.000
 4607.00    0.95489   0.94518    0.000
 4608.00    0.95001   0.94732    0.000
 4609.00    0.92826   0.94675    0.000
 4610.00    0.90296   0.94472    0.000
 4611.00    0.89168   0.94267    0.000
 4612.00    0.89798   0.94126    0.000
 4613.00    0.91377   0.94048    0.000
 4614.00    0.92828   0.93961    0.000
 4615.00    0.93362   0.93796    0.000
 4616.00    0.93071   0.93615    0.000
 4617.00    0.92532   0.93503    0.000
 4618.00    0.92145   0.93542    0.000
 4619.00    0.91982   0.93785    0.000
 4620.00    0.91728   0.94121    0.000
 4621.00    0.91216   0.94362    0.000
 4622.00    0.90983   0.94440    0.000
 4623.00    0.91525   0.94355    0.000
 4624.00    0.92499   0.94142    0.000
 4625.00    0.93512   0.93889    0.000
 4626.00    0.94881   0.93677    0.000
 4627.00    0.96409   0.93519    0.000
 4628.00    0.96442   0.93415    0.000
 4629.00    0.94288   0.93378    0.000
 4630.00    0.92053   0.93323    0.000
 4631.00    0.91641   0.93123    0.000
 4632.00    0.92424   0.92776    0.000
 4633.00    0.92999   0.92398    0.000
 4634.00    0.92676   0.92050    0.000
 4635.00    0.91719   0.91722    0.000
 4636.00    0.91220   0.91417    0.000
 4637.00    0.91610   0.91206    0.000
 4638.00    0.91939   0.91161    0.000
 4639.00    0.91454   0.91257    0.000
 4640.00    0.90396   0.91375    0.000
 4641.00    0.89053   0.91335    0.000
 4642.00    0.87371   0.91005    0.000
 4643.00    0.85874   0.90405    0.000
 4644.00    0.85755   0.89686    0.000
 4645.00    0.87028   0.89082    0.000
 4646.00    0.88186   0.88847    0.000
 4647.00    0.88576   0.89075    0.000
 4648.00    0.89114   0.89655    0.000
 4649.00    0.90744   0.90361    0.000
 4650.00    0.93633   0.90965    0.000
 4651.00    0.96675   0.91339    0.000
 4652.00    0.97936   0.91498    0.000
 4653.00    0.96815   0.91585    0.000
 4654.00    0.94490   0.91835    0.000
 4655.00    0.92800   0.92366    0.000
 4656.00    0.93188   0.93082    0.000
 4657.00    0.94727   0.93738    0.000
 4658.00    0.94927   0.94051    0.000
 4659.00    0.93522   0.93869    0.000
 4660.00    0.92287   0.93241    0.000
 4661.00    0.91825   0.92341    0.000
 4662.00    0.91489   0.91323    0.000
 4663.00    0.91210   0.90287    0.000
 4664.00    0.91291   0.89330    0.000
 4665.00    0.91012   0.88614    0.000
 4666.00    0.89468   0.88368    0.000
 4667.00    0.87834   0.88708    0.000
 4668.00    0.88002   0.89478    0.000
 4669.00    0.89217   0.90363    0.000
 4670.00    0.89425   0.91103    0.000
 4671.00    0.88701   0.91593    0.000
 4672.00    0.88437   0.91877    0.000
 4673.00    0.89030   0.92054    0.000
 4674.00    0.89889   0.92144    0.000
 4675.00    0.90064   0.92108    0.000
 4676.00    0.89062   0.91905    0.000
 4677.00    0.87795   0.91588    0.000
 4678.00    0.87514   0.91296    0.000
 4679.00    0.88301   0.91150    0.000
 4680.00    0.89717   0.91184    0.000
 4681.00    0.91750   0.91362    0.000
 4682.00    0.94152   0.91591    0.000
 4683.00    0.95681   0.91756    0.000
 4684.00    0.95435   0.91815    0.000
 4685.00    0.94218   0.91803    0.000
 4686.00    0.93178   0.91754    0.000
 4687.00    0.92416   0.91698    0.000
 4688.00    0.91597   0.91668    0.000
 4689.00    0.90621   0.91684    0.000
 4690.00    0.89634   0.91785    0.000
 4691.00    0.88960   0.91987    0.000
 4692.00    0.88747   0.92212    0.000
 4693.00    0.88762   0.92322    0.000
 4694.00    0.88869   0.92196    0.000
 4695.00    0.89312   0.91782    0.000
 4696.00    0.90166   0.91142    0.000
 4697.00    0.90998   0.90444    0.000
 4698.00    0.91113   0.89881    0.000
 4699.00    0.89881   0.89533    0.000
 4700.00    0.87626   0.89350    0.000
 4701.00    0.85795   0.89289    0.000
 4702.00    0.85160   0.89341    0.000
 4703.00    0.85100   0.89462    0.000
 4704.00    0.84950   0.89563    0.000
 4705.00    0.84584   0.89595    0.000
 4706.00    0.83895   0.89603    0.000
 4707.00    0.82826   0.89653    0.000
 4708.00    0.82542   0.89749    0.000
 4709.00    0.84947   0.89840    0.000
 4710.00    0.88894   0.89871    0.000
 4711.00    0.90390   0.89858    0.000
 4712.00    0.88779   0.89975    0.000
 4713.00    0.87326   0.90392    0.000
 4714.00    0.87463   0.91111    0.000
 4715.00    0.87858   0.91974    0.000
 4716.00    0.87723   0.92785    0.000
 4717.00    0.87516   0.93406    0.000
 4718.00    0.87841   0.93796    0.000
 4719.00    0.89006   0.93968    0.000
 4720.00    0.90734   0.93972    0.000
 4721.00    0.92210   0.93857    0.000
 4722.00    0.92371   0.93619    0.000
 4723.00    0.90633   0.93190    0.000
 4724.00    0.88303   0.92503    0.000
 4725.00    0.87461   0.91607    0.000
 4726.00    0.87989   0.90705    0.000
 4727.00    0.88369   0.90052    0.000
 4728.00    0.88498   0.89789    0.000
 4729.00    0.89253   0.89890    0.000
 4730.00    0.90681   0.90237    0.000
 4731.00    0.92115   0.90690    0.000
 4732.00    0.92941   0.91100    0.000
 4733.00    0.92856   0.91388    0.000
 4734.00    0.92054   0.91564    0.000
 4735.00    0.90882   0.91673    0.000
 4736.00    0.89340   0.91791    0.000
 4737.00    0.87543   0.91933    0.000
 4738.00    0.86380   0.92035    0.000
 4739.00    0.86508   0.92090    0.000
 4740.00    0.87102   0.92162    0.000
 4741.00    0.87269   0.92291    0.000
 4742.00    0.87766   0.92461    0.000
 4743.00    0.89402   0.92636    0.000
 4744.00    0.91223   0.92799    0.000
 4745.00    0.92050   0.92939    0.000
 4746.00    0.92127   0.93005    0.000
 4747.00    0.92344   0.92960    0.000
 4748.00    0.93289   0.92805    0.000
 4749.00    0.94499   0.92536    0.000
 4750.00    0.94178   0.92167    0.000
 4751.00    0.91668   0.91765    0.000
 4752.00    0.89065   0.91421    0.000
 4753.00    0.87935   0.91195    0.000
 4754.00    0.87146   0.91110    0.000
 4755.00    0.85722   0.91137    0.000
 4756.00    0.84666   0.91197    0.000
 4757.00    0.84967   0.91182    0.000
 4758.00    0.86355   0.90992    0.000
 4759.00    0.88063   0.90580    0.000
 4760.00    0.89318   0.89995    0.000
 4761.00    0.89270   0.89381   24.525
 4762.00    0.87253   0.88910   24.700
 4763.00    0.84337   0.88688   25.072
 4764.00    0.83300   0.88754   24.961
 4765.00    0.84717   0.89087   24.437
 4766.00    0.86054   0.89581   24.513
 4767.00    0.86088   0.90080   25.245
 4768.00    0.86198   0.90468   25.372
 4769.00    0.87408   0.90721   24.615
 4770.00    0.89345   0.90911   24.140
 4771.00    0.91104   0.91147   24.261
 4772.00    0.91767   0.91454   24.289
 4773.00    0.90971   0.91746   24.194
 4774.00    0.89194   0.91924   24.672
 4775.00    0.87983   0.91950   25.395
 4776.00    0.88991   0.91833   25.074
 4777.00    0.90983   0.91582   24.159
 4778.00    0.90803   0.91237   24.284
 4779.00    0.88513   0.90862   25.354
 4780.00    0.87038   0.90497   25.750
 4781.00    0.87521   0.90164   25.210
 4782.00    0.88898   0.89898   24.939
 4783.00    0.89852   0.89722   25.222
 4784.00    0.89729   0.89616   25.485
 4785.00    0.89425   0.89576   25.390
 4786.00    0.90236   0.89642   25.054
 4787.00    0.91179   0.89834   24.840
 4788.00    0.90352   0.90165   25.064
 4789.00    0.88452   0.90652   25.609
 4790.00    0.87533   0.91258   26.060
 4791.00    0.87669   0.91881   26.123
 4792.00    0.87683   0.92384   25.811
 4793.00    0.87281   0.92628   25.471
 4794.00    0.86941   0.92542   25.413
 4795.00    0.87183   0.92191   25.461
 4796.00    0.87998   0.91742   25.313
 4797.00    0.88293   0.91374   25.098
 4798.00    0.87232   0.91209   25.084
 4799.00    0.85955   0.91245   25.237
 4800.00    0.85858   0.91358   25.393
 4801.00    0.86353   0.91388   25.530
 4802.00    0.86284   0.91245   25.637
 4803.00    0.85751   0.90969   25.559
 4804.00    0.85331   0.90681   25.277
 4805.00    0.85091   0.90484   25.160
 4806.00    0.85032   0.90409   25.413
 4807.00    0.85523   0.90443   25.612
 4808.00    0.86427   0.90544   25.426
 4809.00    0.86485   0.90659   25.276
 4810.00    0.85147   0.90766   25.541
 4811.00    0.83907   0.90888   25.950
 4812.00    0.84267   0.91064   26.074
 4813.00    0.86157   0.91303   25.814
 4814.00    0.88730   0.91578   25.389
 4815.00    0.91076   0.91826   25.191
 4816.00    0.92537   0.91963   25.401
 4817.00    0.92863   0.91908   25.835
 4818.00    0.91987   0.91618   26.213
 4819.00    0.89963   0.91110   26.363
 4820.00    0.87449   0.90474   26.294
 4821.00    0.85784   0.89852   26.185
 4822.00    0.85812   0.89416   26.160
 4823.00    0.87291   0.89262   26.200
 4824.00    0.89130   0.89303   26.275
 4825.00    0.89876   0.89357   26.388
 4826.00    0.89270   0.89307   26.499
 4827.00    0.88528   0.89156   26.507
 4828.00    0.88432   0.88975   26.399
 4829.00    0.88671   0.88817   26.287
 4830.00    0.88572   0.88720   26.323
 4831.00    0.87626   0.88717   26.614
 4832.00    0.86263   0.88776   27.024
 4833.00    0.85694   0.88791   27.189
 4834.00    0.86424   0.88669   26.928
 4835.00    0.87842   0.88392   26.426
 4836.00    0.88552   0.87987   26.175
 4837.00    0.87205   0.87512   26.645
 4838.00    0.84481   0.87055   27.494
 4839.00    0.82542   0.86689   27.708
 4840.00    0.82045   0.86424   27.213
 4841.00    0.82067   0.86216   26.849
 4842.00    0.81982   0.86015   26.919
 4843.00    0.81848   0.85756   27.164
 4844.00    0.82171   0.85348   27.291
 4845.00    0.83327   0.84743   27.153
 4846.00    0.84494   0.83991   26.863
 4847.00    0.84336   0.83185   26.675
 4848.00    0.82766   0.82345    0.000
 4849.00    0.80630   0.81364    0.000
 4850.00    0.78480   0.80099    0.000
 4851.00    0.76640   0.78483    0.000
 4852.00    0.75699   0.76516    0.000
 4853.00    0.76407   0.74250    0.000
 4854.00    0.79372   0.71749    0.000
 4855.00    0.84891   0.69012    0.000
 4856.00    0.92749   0.66026    0.000
 4857.00    1.01870   0.62979    0.000
 4858.00    1.09944   0.60363    0.000
 4859.00    1.14338   0.58837    0.000
 4860.00    1.13344   0.58912    0.000
 4861.00    1.06932   0.60589    0.000
 4862.00    0.97329   0.63348    0.000
 4863.00    0.87671   0.66522    0.000
 4864.00    0.80403   0.69574    0.000
 4865.00    0.76669   0.72152    0.000
 4866.00    0.75937   0.74108    0.000
 4867.00    0.76927   0.75477    0.000
 4868.00    0.78498   0.76411    0.000
 4869.00    0.79601   0.77147    0.000
 4870.00    0.79310   0.77953    0.000
 4871.00    0.78083   0.78984    0.000
 4872.00    0.78296   0.80187    0.000
 4873.00    0.80452   0.81431    0.000
 4874.00    0.81098   0.82630    0.000
 4875.00    0.78734   0.83731   27.410
 4876.00    0.77105   0.84671   28.432
 4877.00    0.78614   0.85391   28.158
 4878.00    0.80756   0.85828   27.156
 4879.00    0.81419   0.85966   26.377
 4880.00    0.81664   0.85889   26.198
 4881.00    0.82422   0.85706   26.502
 4882.00    0.82921   0.85472   26.774
 4883.00    0.82665   0.85236   26.694
 4884.00    0.82242   0.85049   26.434
 4885.00    0.82017   0.84932   26.224
 4886.00    0.81672   0.84860   26.150
 4887.00    0.81110   0.84838   26.237
 4888.00    0.80760   0.84959   26.446
 4889.00    0.81165   0.85404   26.521
 4890.00    0.82673   0.86321   26.097
 4891.00    0.84972   0.87634   25.352
 4892.00    0.87186   0.89053   24.882
 4893.00    0.88798   0.90266   24.807
 4894.00    0.89843   0.91049   24.769
 4895.00    0.90427   0.91335   24.568
 4896.00    0.90583   0.91199   24.288
 4897.00    0.90302   0.90797   24.050
 4898.00    0.89702   0.90332   23.919
 4899.00    0.89403   0.89981   23.882
 4900.00    0.90051   0.89811   23.869
 4901.00    0.90853   0.89813   23.826
 4902.00    0.90243   0.89962   23.801
 4903.00    0.88324   0.90171   24.115
 4904.00    0.86632   0.90277   24.986
 4905.00    0.86247   0.90143   25.459
 4906.00    0.87214   0.89770   24.487
 4907.00    0.88282   0.89303   23.898
 4908.00    0.88156   0.88943   25.591
 4909.00    0.87883   0.88860   26.264
 4910.00    0.89332   0.89077   21.715
 4911.00    0.91782   0.89443   17.600
 4912.00    0.93130   0.89717   16.790
 4913.00    0.92814   0.89646   17.541
 4914.00    0.91207   0.89025   17.308
 4915.00    0.88048   0.87801   16.543
 4916.00    0.83505   0.86143   17.026
 4917.00    0.79858   0.84418   19.233
 4918.00    0.79211   0.83055   22.852
 4919.00    0.80373   0.82375   26.482
 4920.00    0.81341   0.82505   27.821
 4921.00    0.82638   0.83331   27.146
 4922.00    0.85043   0.84629   26.443
 4923.00    0.86830   0.86191   26.421
 4924.00    0.86634   0.87829   26.879
 4925.00    0.86473   0.89310   27.197
 4926.00    0.88313   0.90456   26.941
 4927.00    0.90711   0.91162   26.484
 4928.00    0.91707   0.91369   26.265
 4929.00    0.91548   0.91116   26.197
 4930.00    0.91053   0.90531   26.154
 4931.00    0.90129   0.89789   26.334
 4932.00    0.88622   0.89091   26.874
 4933.00    0.87000   0.88538   27.536
 4934.00    0.85879   0.88080   27.944
 4935.00    0.85622   0.87687   27.860
 4936.00    0.86213   0.87459   27.438
 4937.00    0.87229   0.87554   27.202
 4938.00    0.88173   0.88037   27.436
 4939.00    0.88733   0.88793   27.921
 4940.00    0.89063   0.89604    0.000
 4941.00    0.89754   0.90311    0.000
 4942.00    0.90778   0.90831    0.000
 4943.00    0.91198   0.91160    0.000
 4944.00    0.90555   0.91383    0.000
 4945.00    0.89407   0.91596    0.000
 4946.00    0.88503   0.91812    0.000
 4947.00    0.88297   0.91986    0.000
 4948.00    0.88597   0.92055    0.000
 4949.00    0.88703   0.91945    0.000
 4950.00    0.88494   0.91585    0.000
 4951.00    0.88599   0.90950    0.000
 4952.00    0.89442   0.90067    0.000
 4953.00    0.90870   0.89022    0.000
 4954.00    0.92176   0.88000    0.000
 4955.00    0.92508   0.87283    0.000
 4956.00    0.92093   0.87163    0.000
 4957.00    0.92007   0.87671    0.000
 4958.00    0.92403   0.88502    0.000
 4959.00    0.92514   0.89284    0.000
 4960.00    0.92077   0.89768    0.000
 4961.00    0.91461   0.89862    0.000
 4962.00    0.90979   0.89607    0.000
 4963.00    0.90682   0.89160    0.000
 4964.00    0.90293   0.88728    0.000
 4965.00    0.89413   0.88465    0.000
 4966.00    0.87997   0.88434    0.000
 4967.00    0.86452   0.88635    0.000
 4968.00    0.85601   0.89019    0.000
 4969.00    0.85947   0.89507    0.000
 4970.00    0.86390   0.89998    0.000
 4971.00    0.85520   0.90382    0.000
 4972.00    0.84139   0.90570    0.000
 4973.00    0.84006   0.90500    0.000
 4974.00    0.85226   0.90155    0.000
 4975.00    0.86624   0.89556    0.000
 4976.00    0.86951   0.88745    0.000
 4977.00    0.85645   0.87782    0.000
 4978.00    0.83569   0.86737    0.000
 4979.00    0.81942   0.85709    0.000
 4980.00    0.80922   0.84877    0.000
 4981.00    0.80353   0.84455    0.000
 4982.00    0.80764   0.84556    0.000
 4983.00    0.82431   0.85114    0.000
 4984.00    0.84347   0.85933    0.000
 4985.00    0.85626   0.86759    0.000
 4986.00    0.86869   0.87379    0.000
 4987.00    0.88425   0.87713    0.000
 4988.00    0.88879   0.87820    0.000
 4989.00    0.87521   0.87826    0.000
 4990.00    0.86273   0.87845    0.000
 4991.00    0.86685   0.87914    0.000
 4992.00    0.87656   0.88020    0.000
 4993.00    0.87838   0.88105    0.000
 4994.00    0.87437   0.88054    0.000
 4995.00    0.87006   0.87775    0.000
 4996.00    0.86604   0.87248    0.000
 4997.00    0.86431   0.86540    0.000
 4998.00    0.87111   0.85799    0.000
 4999.00    0.88702   0.85165    0.000
 5000.00    0.90386   0.84698    0.000
 5001.00    0.92215   0.84371    0.000
 5002.00    0.95617   0.84138    0.000
 5003.00    1.00901   0.84020    0.000
 5004.00    1.06229   0.84096    0.000
 5005.00    1.09128   0.84391    0.000
 5006.00    1.07698   0.84778    0.000
 5007.00    1.02494   0.85033    0.000
 5008.00    0.96526   0.84970    0.000
 5009.00    0.91870   0.84527    0.000
 5010.00    0.88600   0.83798    0.000
 5011.00    0.86212   0.82988    0.000
 5012.00    0.84296   0.82318    0.000
 5013.00    0.82862   0.81947    0.000
 5014.00    0.82166   0.81910    0.000
 5015.00    0.81803   0.82143    0.000
 5016.00    0.80996   0.82565    0.000
 5017.00    0.80352   0.83099    0.000
 5018.00    0.81432   0.83660    0.000
 5019.00    0.84081   0.84189    0.000
 5020.00    0.86525   0.84681    0.000
 5021.00    0.87602   0.85138    0.000
 5022.00    0.87267   0.85526    0.000
 5023.00    0.86345   0.85806    0.000
 5024.00    0.85861   0.85987    0.000
 5025.00    0.85741   0.86146    0.000
 5026.00    0.85271   0.86393    0.000
 5027.00    0.84616   0.86768    0.000
 5028.00    0.84491   0.87226    0.000
 5029.00    0.84941   0.87661   28.847
 5030.00    0.85510   0.87928   29.313
 5031.00    0.85959   0.87890   29.792
 5032.00    0.86170   0.87488   29.682
 5033.00    0.85790   0.86786   29.380
 5034.00    0.84532   0.85916   29.582
 5035.00    0.82692   0.84963   30.042
 5036.00    0.80824   0.83986   30.179
 5037.00    0.79190   0.83107   30.262
 5038.00    0.78051   0.82548   30.735
 5039.00    0.78089   0.82551   31.095
 5040.00    0.79643   0.83188   30.736
 5041.00    0.81796   0.84267   30.223
 5042.00    0.83504   0.85441   30.228
 5043.00    0.84910   0.86346   30.388
 5044.00    0.86306   0.86742   30.129
 5045.00    0.86997   0.86617   29.627
 5046.00    0.86441   0.86173   29.279
 5047.00    0.85384   0.85686   29.173
 5048.00    0.84873   0.85372   29.272
 5049.00    0.85268   0.85344   29.582
 5050.00    0.86249   0.85597   29.894
 5051.00    0.86988   0.86033   29.655
 5052.00    0.86969   0.86527   28.977
 5053.00    0.86530   0.87009   29.038
 5054.00    0.86144   0.87474   30.145
 5055.00    0.85901   0.87931   30.593
 5056.00    0.85798   0.88353   29.515
 5057.00    0.85903   0.88688   28.745
 5058.00    0.86077   0.88851   29.225
 5059.00    0.85889   0.88742   29.760
 5060.00    0.85249   0.88312   29.502
 5061.00    0.84650   0.87615   29.309
 5062.00    0.84426   0.86825   29.664
 5063.00    0.84434   0.86146   29.847
 5064.00    0.84512   0.85691   29.444
 5065.00    0.84652   0.85475   28.983
 5066.00    0.84701   0.85451   28.878
 5067.00    0.84353   0.85525   29.045
 5068.00    0.83729   0.85596   29.150
 5069.00    0.83432   0.85621   28.852
 5070.00    0.83777   0.85623   28.355
 5071.00    0.84575   0.85611   28.260
 5072.00    0.85505   0.85561   28.487
 5073.00    0.86207   0.85428   28.346
 5074.00    0.86096   0.85150   28.053
 5075.00    0.84693   0.84677   28.588
 5076.00    0.82821   0.84048   29.762
 5077.00    0.82123   0.83426   30.134
 5078.00    0.82613   0.82996   29.537
 5079.00    0.82880   0.82869   29.171
 5080.00    0.82588   0.83061   29.194
 5081.00    0.82485   0.83507   28.881
 5082.00    0.82708   0.84091   28.296
 5083.00    0.82819   0.84693   28.106
 5084.00    0.82878   0.85237   28.429
 5085.00    0.83351   0.85698   28.834
 5086.00    0.84400   0.86086   28.791
 5087.00    0.85768   0.86420   28.142
 5088.00    0.86907   0.86721   27.643
 5089.00    0.87343   0.86981   28.068
 5090.00    0.87288   0.87143   28.786
 5091.00    0.87222   0.87115   28.593
 5092.00    0.87020   0.86826   28.008
 5093.00    0.86263   0.86267   28.182
 5094.00    0.84977   0.85519   28.799
 5095.00    0.83683   0.84743   28.923
 5096.00    0.83247   0.84138   28.802
 5097.00    0.84042   0.83851   29.100
 5098.00    0.84931   0.83898   29.470
 5099.00    0.84614   0.84171   29.277
 5100.00    0.83454   0.84495   28.845
 5101.00    0.82554   0.84714   28.751
 5102.00    0.82404   0.84743   28.927
 5103.00    0.82888   0.84584   29.030
 5104.00    0.83508   0.84314   28.925
 5105.00    0.84000   0.84041   28.753
 5106.00    0.84847   0.83864   28.876
 5107.00    0.86279   0.83856   29.340
 5108.00    0.87402   0.84046   29.430
 5109.00    0.87270   0.84404   28.786
 5110.00    0.85886   0.84879   28.265
 5111.00    0.84039   0.85408   28.453
 5112.00    0.82963   0.85935   28.783
 5113.00    0.83120   0.86407   28.741
 5114.00    0.83535   0.86762   28.775
 5115.00    0.83517   0.86921   29.302
 5116.00    0.83683   0.86818   30.029
 5117.00    0.84437   0.86423   30.417
 5118.00    0.85088   0.85761   30.170
 5119.00    0.84868   0.84916   29.655
 5120.00    0.83623   0.84024   29.774
 5121.00    0.81954   0.83226   30.682
 5122.00    0.81024   0.82618   31.310
 5123.00    0.81212   0.82234   31.023
 5124.00    0.81679   0.82059   30.542
 5125.00    0.81669   0.82057   30.544
 5126.00    0.81121   0.82198   31.066
 5127.00    0.80479   0.82466   31.657
 5128.00    0.80434   0.82835   31.582
 5129.00    0.81293   0.83271   30.826
 5130.00    0.82748   0.83720   30.173
 5131.00    0.84045   0.84113   30.044
 5132.00    0.84312   0.84365   30.329
 5133.00    0.83420   0.84417   30.831
 5134.00    0.82090   0.84255   31.342
 5135.00    0.81212   0.83934   31.473
 5136.00    0.81376   0.83559   30.874
 5137.00    0.82227   0.83220   29.991
 5138.00    0.82808   0.82960   29.619
 5139.00    0.83050   0.82785   29.633
 5140.00    0.83583   0.82667   29.323
 5141.00    0.84136   0.82572   28.886
 5142.00    0.83793   0.82487   29.086
 5143.00    0.82590   0.82414   29.743
 5144.00    0.81378   0.82361   29.982
 5145.00    0.80636   0.82329   29.779
 5146.00    0.80436   0.82302   29.783
 5147.00    0.80934   0.82255   30.033
 5148.00    0.82180   0.82171   30.079
 5149.00    0.83597   0.82073   29.743
 5150.00    0.84312   0.82035   29.166
 5151.00    0.83950   0.82155   28.577
 5152.00    0.82829   0.82504   28.203
 5153.00    0.82000   0.83079   28.227
 5154.00    0.82397   0.83791   28.641
 5155.00    0.83563   0.84498   28.987
 5156.00    0.84396   0.85050   28.838
 5157.00    0.84465   0.85331   28.613
 5158.00    0.83987   0.85277   28.885
 5159.00    0.83495   0.84853   29.434
 5160.00    0.83217   0.84027   29.751
 5161.00    0.82432   0.82777   29.872
 5162.00    0.80512   0.81140   30.015
 5163.00    0.78105   0.79269   30.020
 5164.00    0.76153   0.77425   29.797
 5165.00    0.74768   0.75896   29.798
 5166.00    0.73788   0.74858   30.274
 5167.00    0.73382   0.74329   30.590
 5168.00    0.73521   0.74215   30.283
 5169.00    0.73554   0.74437   30.049
 5170.00    0.73279   0.75002   30.347
 5171.00    0.73697   0.75960   30.401
 5172.00    0.75451   0.77282   29.770
 5173.00    0.77730   0.78779   29.420
 5174.00    0.79689   0.80150   29.866
 5175.00    0.81398   0.81106   30.182
 5176.00    0.82735   0.81448   29.768
 5177.00    0.82794   0.81110   29.480
 5178.00    0.81234   0.80187   29.889
 5179.00    0.78952   0.78935   30.465
 5180.00    0.76851   0.77743   30.800
 5181.00    0.75204   0.77029   31.271
 5182.00    0.74350   0.77068   31.936
 5183.00    0.74906   0.77863   32.044
 5184.00    0.76906   0.79137   31.428
 5185.00    0.79512   0.80470   30.922
 5186.00    0.81736   0.81494   30.833
 5187.00    0.82889   0.82020   30.661
 5188.00    0.82967   0.82063   30.426
 5189.00    0.82583   0.81799   30.735
 5190.00    0.82110   0.81473    0.000
 5191.00    0.81540   0.81296    0.000
 5192.00    0.81298   0.81384    0.000
 5193.00    0.82200   0.81739    0.000
 5194.00    0.84271   0.82283    0.000
 5195.00    0.86594   0.82896    0.000
 5196.00    0.88105   0.83449    0.000
 5197.00    0.88091   0.83811    0.000
 5198.00    0.86827   0.83870    0.000
 5199.00    0.85322   0.83555    0.000
 5200.00    0.84157   0.82859    0.000
 5201.00    0.83321   0.81861    0.000
 5202.00    0.82654   0.80716    0.000
 5203.00    0.82035   0.79633    0.000
 5204.00    0.81547   0.78820    0.000
 5205.00    0.81336   0.78440    0.000
 5206.00    0.81220   0.78572    0.000
 5207.00    0.80952   0.79199    0.000
 5208.00    0.80874   0.80202    0.000
 5209.00    0.81569   0.81380    0.000
 5210.00    0.82993   0.82494    0.000
 5211.00    0.84572   0.83358   28.091
 5212.00    0.85649   0.83910   29.646
 5213.00    0.85834   0.84234   30.627
 5214.00    0.85411   0.84495   30.047
 5215.00    0.84972   0.84832   30.066
 5216.00    0.84802   0.85270   30.390
 5217.00    0.85001   0.85704   29.736
 5218.00    0.85742   0.85947   28.825
 5219.00    0.86628   0.85816   28.704
 5220.00    0.85972   0.85216   28.734
 5221.00    0.82699   0.84193   28.059
 5222.00    0.78511   0.82955   27.387
 5223.00    0.75628   0.81819   27.514
 5224.00    0.74161   0.81110   27.959
 5225.00    0.73715   0.81016   28.030
 5226.00    0.75096   0.81493   28.045
 5227.00    0.78364   0.82286   28.493
 5228.00    0.81130   0.83063   29.132
 5229.00    0.81605   0.83590   29.419
 5230.00    0.81124   0.83835   29.095
 5231.00    0.81546   0.83947   28.450
 5232.00    0.83055   0.84133   28.237
 5233.00    0.85024   0.84523   28.718
 5234.00    0.86825   0.85108   29.169
 5235.00    0.88034   0.85769   28.986
 5236.00    0.88493   0.86368   28.548
 5237.00    0.88066   0.86816   28.338
 5238.00    0.86576   0.87096   28.412
 5239.00    0.84460   0.87226   28.738
 5240.00    0.82939   0.87223   29.349
 5241.00    0.82694   0.87074   30.007
 5242.00    0.83267   0.86748   30.118
 5243.00    0.83895   0.86235   29.701
 5244.00    0.84022   0.85587   29.598
 5245.00    0.83509   0.84911   30.038
 5246.00    0.82688   0.84330   30.303
 5247.00    0.82167   0.83936   30.191
 5248.00    0.82523   0.83763   30.381
 5249.00    0.83439   0.83791   30.810
 5250.00    0.83756   0.83977   30.469
 5251.00    0.83074   0.84288   29.474
 5252.00    0.82071   0.84708   29.106
 5253.00    0.81422   0.85219   29.693
 5254.00    0.81402   0.85761   30.428
 5255.00    0.81940   0.86192   30.461
 5256.00    0.82686   0.86326   29.558
 5257.00    0.83169   0.85993   28.357
 5258.00    0.83001   0.85133   27.721
 5259.00    0.82310   0.83823   27.677
 5260.00    0.81580   0.82265   27.677
 5261.00    0.80929   0.80713   27.519
 5262.00    0.80049   0.79392   27.374
 5263.00    0.78529   0.78421   27.254
 5264.00    0.76265   0.77797   27.078
 5265.00    0.74136   0.77455   27.066
 5266.00    0.73457   0.77346   27.475
 5267.00    0.74543   0.77492   27.887
 5268.00    0.76667   0.77948   27.622
 5269.00    0.78584   0.78716   26.994
 5270.00    0.79381   0.79707   26.757
 5271.00    0.79709   0.80780   26.899
 5272.00    0.80835   0.81831   26.970
 5273.00    0.82728   0.82825   26.841
 5274.00    0.84419   0.83747   26.701
 5275.00    0.85058   0.84540   26.816
 5276.00    0.84418   0.85097   27.284
 5277.00    0.83331   0.85326   27.716
 5278.00    0.82942   0.85239   27.666
 5279.00    0.83637   0.84980   27.364
 5280.00    0.84993   0.84776   27.280
 5281.00    0.85961   0.84839   27.503
 5282.00    0.86026   0.85266   27.833
 5283.00    0.86335   0.86002   27.941
 5284.00    0.87761   0.86872   27.687
 5285.00    0.88938   0.87681   27.397
 5286.00    0.88629   0.88287   27.322
 5287.00    0.88037   0.88638   27.193
 5288.00    0.88438   0.88736   26.808
 5289.00    0.89028   0.88602   26.502
 5290.00    0.88889   0.88239   26.598
 5291.00    0.88622   0.87646   27.001
 5292.00    0.88698   0.86837   27.420
 5293.00    0.88284   0.85884   27.588
 5294.00    0.86989   0.84926   27.513
 5295.00    0.85972   0.84149   27.560
 5296.00    0.86121   0.83714   27.844
 5297.00    0.86943   0.83697   27.943
 5298.00    0.87728   0.84066   27.762
 5299.00    0.88296   0.84715   27.929
 5300.00    0.88719   0.85512   28.590
 5301.00    0.89068   0.86329   28.909
 5302.00    0.89069   0.87059   28.590
 5303.00    0.88171   0.87633   28.526
 5304.00    0.86822   0.88034   29.057
 5305.00    0.86605   0.88296   29.425
 5306.00    0.87925   0.88465   29.245
 5307.00    0.89395   0.88564   29.075
 5308.00    0.90000   0.88579   29.205
 5309.00    0.89819   0.88477   29.353
 5310.00    0.89057   0.88238   29.499
 5311.00    0.87787   0.87878   30.011
 5312.00    0.86514   0.87454   30.774
 5313.00    0.86110   0.87046   31.050
 5314.00    0.86891   0.86728   30.576
 5315.00    0.88428   0.86538   29.840
 5316.00    0.90021   0.86455   29.333
 5317.00    0.90930   0.86397   29.298
 5318.00    0.90601   0.86259   29.695
 5319.00    0.88788   0.85945   30.252
 5320.00    0.85680   0.85407   30.655
 5321.00    0.81958   0.84640   30.693
 5322.00    0.78841   0.83682   30.453
 5323.00    0.77476   0.82616   30.206
 5324.00    0.77562   0.81582   30.027
 5325.00    0.77886   0.80785   29.785
 5326.00    0.78163   0.80441   29.286
 5327.00    0.78947   0.80678   28.469
 5328.00    0.80641   0.81457   27.638
 5329.00    0.83104   0.82576   27.191
 5330.00    0.85341   0.83764   27.243
 5331.00    0.86289   0.84790   27.658
 5332.00    0.86217   0.85512   28.112
 5333.00    0.86059   0.85878   28.282
 5334.00    0.85998   0.85896   28.237
 5335.00    0.85854   0.85629   28.243
 5336.00    0.85962   0.85192   28.372
 5337.00    0.86551   0.84744   28.565
 5338.00    0.86809   0.84436   28.795
 5339.00    0.86184   0.84356   28.973
 5340.00    0.86044   0.84487   28.815
 5341.00    0.87482   0.84720   28.301
 5342.00    0.88722   0.84928   28.092
 5343.00    0.88080   0.85035   28.603
 5344.00    0.87278   0.85051   29.127
 5345.00    0.88212   0.85058   28.865
 5346.00    0.89540   0.85161   28.278
 5347.00    0.89387   0.85440   28.078
 5348.00    0.88112   0.85923   28.311
 5349.00    0.87016   0.86572   28.748
 5350.00    0.86940   0.87310   29.223
 5351.00    0.87920   0.88049   29.498
 5352.00    0.89094   0.88712   29.220
 5353.00    0.89522   0.89241   28.526
 5354.00    0.88860   0.89595   28.232
 5355.00    0.87625   0.89738   28.702
 5356.00    0.87102   0.89652   29.322
 5357.00    0.87674   0.89337   29.491
 5358.00    0.88067   0.88827   29.374
 5359.00    0.87475   0.88188   29.286
 5360.00    0.86612   0.87507   29.276
 5361.00    0.86055   0.86857   29.322
 5362.00    0.85458   0.86273   29.430
 5363.00    0.84544   0.85739   29.495
 5364.00    0.83529   0.85203   -2.000
 5365.00    0.82522   0.84620   -2.000
 5366.00    0.81265   0.84000   -2.000
 5367.00    0.79346   0.83446   -2.000
 5368.00    0.76580   0.83127   -2.000
 5369.00    0.74056   0.83201   -2.000
 5370.00    0.73873   0.83721   -2.000
 5371.00    0.76446   0.84586   -2.000
 5372.00    0.80146   0.85583   -2.000
 5373.00    0.83774   0.86484   -2.000
 5374.00    0.87128   0.87137   -2.000
 5375.00    0.89837   0.87493   -2.000
 5376.00    0.91159   0.87585   -2.000
 5377.00    0.90574   0.87485   -2.000
 5378.00    0.88201   0.87275   -2.000
 5379.00    0.85366   0.87038   27.566
 5380.00    0.83936   0.86843   28.085
 5381.00    0.84196   0.86733   28.656
 5382.00    0.85059   0.86702   28.719
 5383.00    0.85934   0.86694   28.526
 5384.00    0.86757   0.86630   28.833
 5385.00    0.87009   0.86445   29.552
 5386.00    0.86162   0.86120   29.919
 5387.00    0.85020   0.85687   29.657
 5388.00    0.84884   0.85205   29.117
 5389.00    0.85462   0.84726   28.763
 5390.00    0.85634   0.84270   28.820
 5391.00    0.85514   0.83832   28.914
 5392.00    0.85863   0.83411   28.575
 5393.00    0.86529   0.83040   28.179
 5394.00    0.86675   0.82791   28.342
 5395.00    0.85586   0.82729   28.936
 5396.00    0.83347   0.82860   29.413
 5397.00    0.81537   0.83094   29.514
 5398.00    0.81686   0.83273   29.363
 5399.00    0.83173   0.83243   29.332
 5400.00    0.84374   0.82929   29.663
 5401.00    0.84434   0.82378   30.091
 5402.00    0.83580   0.81746   30.208
 5403.00    0.83127   0.81222   30.011
 5404.00    0.84058   0.80952   29.690
 5405.00    0.85614   0.80985   29.324
 5406.00    0.86411   0.81292   28.990
 5407.00    0.85718   0.81805   28.882
 5408.00    0.83749   0.82465   29.183
 5409.00    0.81726   0.83217   29.922
 5410.00    0.80975   0.84006   30.735
 5411.00    0.82078   0.84766   30.723
 5412.00    0.84388   0.85440   29.866
 5413.00    0.85975   0.85986   29.691
 5414.00    0.85848   0.86379   30.833
 5415.00    0.85263   0.86605   31.722
 5416.00    0.85334   0.86662   31.236
 5417.00    0.85578   0.86573   30.831
 5418.00    0.85547   0.86383   31.401
 5419.00    0.85736   0.86147   31.812
 5420.00    0.86391   0.85921   31.294
 5421.00    0.86967   0.85740   30.765
 5422.00    0.87148   0.85607   30.809
 5423.00    0.87214   0.85485   30.940
 5424.00    0.86952   0.85298   30.774
 5425.00    0.85507   0.84976   30.526
 5426.00    0.83351   0.84508   30.395
 5427.00    0.82469   0.83958   30.322
 5428.00    0.83182   0.83425   30.245
 5429.00    0.83545   0.83000   30.188
 5430.00    0.82623   0.82733   30.207
 5431.00    0.81340   0.82655   30.352
 5432.00    0.80610   0.82808   30.626
 5433.00    0.80772   0.83230   30.929
 5434.00    0.82119   0.83924   30.942
 5435.00    0.84765   0.84821   30.333
 5436.00    0.87634   0.85779   29.437
 5437.00    0.88993   0.86626   28.959
 5438.00    0.88955   0.87204   28.972
 5439.00    0.89189   0.87401   29.033
 5440.00    0.90147   0.87177   28.980
 5441.00    0.90813   0.86573   28.989
 5442.00    0.90061   0.85725   29.163
 5443.00    0.87476   0.84846   29.499
 5444.00    0.84359   0.84169   30.033
 5445.00    0.82858   0.83855   30.695
 5446.00    0.83604   0.83918   30.868
 5447.00    0.85590   0.84214   30.026
 5448.00    0.87018   0.84516   29.107
 5449.00    0.86447   0.84627   29.291
 5450.00    0.84515   0.84466   30.135
 5451.00    0.82963   0.84105   30.349
 5452.00    0.82408   0.83724   29.969
 5453.00    0.82652   0.83515   29.815
 5454.00    0.83762   0.83583   29.832
 5455.00    0.85680   0.83894   29.595
 5456.00    0.87438   0.84297   29.346
 5457.00    0.87963   0.84612   29.497
 5458.00    0.87308   0.84731   29.832
 5459.00    0.86156   0.84663   29.985
 5460.00    0.84984   0.84512   30.197
 5461.00    0.84246   0.84406   30.715
 5462.00    0.84648   0.84421   30.966
 5463.00    0.86221   0.84560   30.477
 5464.00    0.87437   0.84757   29.980
 5465.00    0.87118   0.84927   30.147
 5466.00    0.86306   0.84994   30.479
 5467.00    0.86196   0.84917   30.311
 5468.00    0.86185   0.84685   29.873
 5469.00    0.85734   0.84313   29.573
 5470.00    0.85955   0.83831   29.286
 5471.00    0.87669   0.83285   28.285
 5472.00    0.89887   0.82744   25.829
 5473.00    0.91421   0.82293   23.608
 5474.00    0.92103   0.82014   -2.000
 5475.00    0.91990   0.81953   -2.000
 5476.00    0.90979   0.82094   -2.000
 5477.00    0.90310   0.82372   -2.000
 5478.00    0.92704   0.82720   -2.000
 5479.00    0.96871   0.83097   -2.000
 5480.00    0.95137   0.83492   -2.000
 5481.00    0.79384   0.83886   -2.000
 5482.00    0.46801   0.84232   -2.000
 5483.00    0.11348   0.84473   -2.000
 5484.00    0.01896   0.84584   -2.000
 5485.00    0.24645   0.84592   -2.000
 5486.00    0.53460   0.84567   -2.000
 5487.00    0.70114   0.84569   -2.000
 5488.00    0.78305   0.84619   -2.000
 5489.00    0.83722   0.84695   -2.000
 5490.00    0.86705   0.84758   -2.000
 5491.00    0.87870   0.84779   -2.000
 5492.00    0.89369   0.84756   -2.000
 5493.00    0.91134   0.84705   -2.000
 5494.00    0.90953   0.84649   -2.000
 5495.00    0.89195   0.84598   -2.000
 5496.00    0.88704   0.84539   -2.000
 5497.00    0.89627   0.84443   -2.000
 5498.00    0.89476   0.84286   10.748
 5499.00    0.87855   0.84066   10.772
 5500.00    0.86616   0.83809   13.741
 5501.00    0.86666   0.83558   23.393
 5502.00    0.87574   0.83350   35.267
 5503.00    0.88747   0.83210   31.231
 5504.00    0.89631   0.83143   27.240
 5505.00    0.89495   0.83131   27.830
 5506.00    0.87911   0.83130   29.159
 5507.00    0.85793   0.83085   29.232
 5508.00    0.84628   0.82966   28.812
 5509.00    0.84584   0.82794   28.793
 5510.00    0.84890   0.82648   29.453
 5511.00    0.85184   0.82626   30.261
 5512.00    0.85485   0.82802   30.403
 5513.00    0.85764   0.83191   30.080
 5514.00    0.86018   0.83744   30.003
 5515.00    0.86480   0.84364   30.221
 5516.00    0.87335   0.84945   30.395
 5517.00    0.88284   0.85396   30.419
 5518.00    0.88831   0.85667   30.367
 5519.00    0.88751   0.85739   30.296
 5520.00    0.88147   0.85620   30.224
 5521.00    0.87429   0.85330   30.133
 5522.00    0.86952   0.84902   30.106
 5523.00    0.86630   0.84394   30.422
 5524.00    0.86300   0.83897   31.054
 5525.00    0.86105   0.83515   31.128
 5526.00    0.86062   0.83333   30.196
 5527.00    0.85655   0.83365   29.375
 5528.00    0.84570   0.83555   29.436
 5529.00    0.83345   0.83797   29.631
 5530.00    0.82907   0.83999   29.359
 5531.00    0.84000   0.84125   29.439
 5532.00    0.86269   0.84205   29.982
 5533.00    0.87845   0.84297   29.158
 5534.00    0.87520   0.84452   27.859
 5535.00    0.86181   0.84681   30.893
 5536.00    0.85281   0.84949   36.707
 5537.00    0.85627   0.85195   25.951
 5538.00    0.86861   0.85357   14.592
 5539.00    0.87505   0.85405   10.999
 5540.00    0.86955   0.85352   10.964
 5541.00    0.86316   0.85255   11.728
 5542.00    0.86419   0.85191   11.672
 5543.00    0.86882   0.85223   11.538
 5544.00    0.87110   0.85374   11.704
 5545.00    0.86861   0.85616   11.250
 5546.00    0.86405   0.85884   10.810
 5547.00    0.86381   0.86099   12.806
 5548.00    0.86947   0.86199   20.993
 5549.00    0.87596   0.86160   35.751
 5550.00    0.87942   0.86004   34.543
 5551.00    0.87998   0.85782   28.880
 5552.00    0.87985   0.85553   28.774
 5553.00    0.88132   0.85359   30.396
 5554.00    0.88269   0.85217   30.891
 5555.00    0.87874   0.85111   30.876
 5556.00    0.86673   0.85013   31.110
 5557.00    0.84908   0.84890   31.395
 5558.00    0.83527   0.84722   31.522
 5559.00    0.83570   0.84503   31.517
 5560.00    0.84400   0.84246   31.449
 5561.00    0.84379   0.83976   31.358
 5562.00    0.83739   0.83722   31.241
 5563.00    0.84074   0.83509   31.060
 5564.00    0.85428   0.83353   30.779
 5565.00    0.86632   0.83263   30.427
 5566.00    0.87505   0.83234   30.197
 5567.00    0.88453   0.83258   30.291
 5568.00    0.88730   0.83319   30.597
 5569.00    0.87424   0.83411   30.714
 5570.00    0.85852   0.83533   30.172
 5571.00    0.86059   0.83686   29.001
 5572.00    0.87516   0.83871   28.251
 5573.00    0.88470   0.84075   28.703
 5574.00    0.88975   0.84276   29.306
 5575.00    0.89899   0.84446   28.605
 5576.00    0.90795   0.84563   27.672
 5577.00    0.90767   0.84605   27.942
 5578.00    0.90036   0.84544   28.560
 5579.00    0.89230   0.84354   28.174
 5580.00    0.88224   0.84008   27.803
 5581.00    0.86655   0.83492   28.689
 5582.00    0.84692   0.82821   29.686
 5583.00    0.82968   0.82057   29.133
 5584.00    0.82298   0.81303   28.013
 5585.00    0.82741   0.80689   27.699
 5586.00    0.82846   0.80322   27.899
 5587.00    0.81825   0.80249   27.861
 5588.00    0.81374   0.80443   27.485
 5589.00    0.82631   0.80825   27.060
 5590.00    0.83671   0.81295   26.863
 5591.00    0.82783   0.81765   26.873
 5592.00    0.81069   0.82168   26.644
 5593.00    0.80133   0.82447   25.985
 5594.00    0.80251   0.82563   25.365
 5595.00    0.81165   0.82502   25.201
 5596.00    0.82708   0.82298   25.507
 5597.00    0.84525   0.82037   26.035
 5598.00    0.85967   0.81838   26.383
 5599.00    0.86659   0.81817   26.535
 5600.00    0.86806   0.82049   27.071
 5601.00    0.86823   0.82545   28.111
 5602.00    0.87049   0.83239   28.776
 5603.00    0.87383   0.84012   28.638
 5604.00    0.87281   0.84735   28.486
 5605.00    0.86616   0.85304   28.832
 5606.00    0.85977   0.85664   29.347
 5607.00    0.86077   0.85793   29.569
 5608.00    0.87258   0.85689   29.313
 5609.00    0.88613   0.85356   28.765
 5610.00    0.88312   0.84816   28.364
 5611.00    0.86208   0.84130   28.445
 5612.00    0.84174   0.83410   29.083
 5613.00    0.83580   0.82801   29.763
 5614.00    0.84467   0.82417   29.573
 5615.00    0.85926   0.82301   28.766
 5616.00    0.86665   0.82400   28.509
 5617.00    0.86318   0.82599   28.944
 5618.00    0.85539   0.82777   29.240
 5619.00    0.85130   0.82848   29.048
 5620.00    0.85622   0.82793   28.730
 5621.00    0.86879   0.82661   28.576
 5622.00    0.88102   0.82552   28.636
 5623.00    0.88125   0.82568   28.840
 5624.00    0.86234   0.82765   29.048
 5625.00    0.83773   0.83131   29.141
 5626.00    0.82973   0.83593   29.084
 5627.00    0.83806   0.84052   29.023
 5628.00    0.84657   0.84408   29.156
 5629.00    0.84904   0.84596   29.483
 5630.00    0.84839   0.84597   29.841
 5631.00    0.84604   0.84433   30.063
 5632.00    0.84112   0.84150   30.131
 5633.00    0.83253   0.83808   30.354
 5634.00    0.82022   0.83466   30.986
 5635.00    0.80672   0.83170   31.568
 5636.00    0.79738   0.82946   31.474
 5637.00    0.80002   0.82803   31.032
 5638.00    0.81797   0.82739   30.869
 5639.00    0.84156   0.82748   30.913
 5640.00    0.85673   0.82822   30.812
 5641.00    0.85713   0.82947   30.549
 5642.00    0.84612   0.83104   30.313
 5643.00    0.83627   0.83272   30.252
 5644.00    0.83673   0.83436   30.336
 5645.00    0.84084   0.83588   30.276
 5646.00    0.83937   0.83726   30.015
 5647.00    0.83427   0.83849   30.105
 5648.00    0.83259   0.83946   30.720
 5649.00    0.83894   0.83984   30.829
 5650.00    0.84993   0.83920   29.930
 5651.00    0.85199   0.83717   29.372
 5652.00    0.83952   0.83360   29.938
 5653.00    0.82677   0.82877   30.521
 5654.00    0.82550   0.82332   30.136
 5655.00    0.82966   0.81812   29.567
 5656.00    0.83026   0.81411   29.494
 5657.00    0.82572   0.81192   29.472
 5658.00    0.81866   0.81174   29.207
 5659.00    0.81311   0.81328   29.187
 5660.00    0.81262   0.81596   29.585
 5661.00    0.81887   0.81921   29.779
 5662.00    0.82930   0.82243   29.464
 5663.00    0.83722   0.82513   29.150
 5664.00    0.83803   0.82723   29.185
 5665.00    0.83256   0.82893   29.393
 5666.00    0.82720   0.83060   29.558
 5667.00    0.83114   0.83262   29.605
 5668.00    0.84485   0.83521   29.403
 5669.00    0.85848   0.83831   28.771
 5670.00    0.86584   0.84154   27.832
 5671.00    0.86799   0.84439   26.962
 5672.00    0.86491   0.84642   26.367
 5673.00    0.85490   0.84735   26.032
 5674.00    0.84345   0.84716   25.862
 5675.00    0.84080   0.84588   25.783
 5676.00    0.84437   0.84366   25.956
 5677.00    0.84133   0.84074   26.666
 5678.00    0.83274   0.83747   27.734
 5679.00    0.83151   0.83418   28.510
 5680.00    0.83721   0.83119   28.823
 5681.00    0.83671   0.82876   29.106
 5682.00    0.82375   0.82699   29.560
 5683.00    0.80316   0.82592   30.007
 5684.00    0.78830   0.82562   30.141
 5685.00    0.79215   0.82630   29.801
 5686.00    0.81004   0.82811   29.364
 5687.00    0.82709   0.83097   29.310
 5688.00    0.84072   0.83452   29.394
 5689.00    0.85580   0.83810   29.009
 5690.00    0.86754   0.84097   28.179
 5691.00    0.86820   0.84253   27.267
 5692.00    0.86389   0.84247   26.257
 5693.00    0.86495   0.84086   25.104
 5694.00    0.86643   0.83801   24.226
 5695.00    0.85679   0.83436   24.075
 5696.00    0.83558   0.83038   24.725
 5697.00    0.81226   0.82653   25.906
 5698.00    0.80017   0.82320   26.919
 5699.00    0.80634   0.82055   27.191
 5700.00    0.82030   0.81849   27.338
 5701.00    0.82799   0.81666   28.120
 5702.00    0.82923   0.81455   28.985
 5703.00    0.82892   0.81177   29.043
 5704.00    0.82550   0.80838   28.702
 5705.00    0.81812   0.80490   28.708
 5706.00    0.81415   0.80212   29.003
 5707.00    0.81777   0.80094   29.300
 5708.00    0.81991   0.80197   29.675
 5709.00    0.81462   0.80534   30.196
 5710.00    0.81232   0.81059   30.530
 5711.00    0.82117   0.81697   30.378
 5712.00    0.83261   0.82362   29.904
 5713.00    0.83785   0.82977   29.450
 5714.00    0.84018   0.83504   29.258
 5715.00    0.84499   0.83943   29.381
 5716.00    0.85246   0.84303   29.640
 5717.00    0.86164   0.84603   29.813
 5718.00    0.87322   0.84853   29.760
 5719.00    0.88846   0.85036   29.432
 5720.00    0.90698   0.85130   28.904
 5721.00    0.91877   0.85117   28.548
 5722.00    0.90573   0.84996   28.924
 5723.00    0.87365   0.84795   29.810
 5724.00    0.85798   0.84559   29.885
 5725.00    0.86896   0.84338   28.891
 5726.00    0.87645   0.84170   28.212
 5727.00    0.86630   0.84074   28.363
 5728.00    0.85719   0.84053   28.579
 5729.00    0.86071   0.84099   28.304
 5730.00    0.86950   0.84199   27.778
 5731.00    0.87899   0.84327   27.527
 5732.00    0.89238   0.84445   27.945
 5733.00    0.90682   0.84526   28.578
 5734.00    0.91245   0.84554   28.276
 5735.00    0.90609   0.84525   27.245
 5736.00    0.89363   0.84456   26.805
 5737.00    0.88249   0.84382   27.175
 5738.00    0.87685   0.84333   27.589
 5739.00    0.87126   0.84324   27.845
 5740.00    0.85654   0.84352    0.000
 5741.00    0.83950   0.84396    0.000
 5742.00    0.83655   0.84428    0.000
 5743.00    0.84565   0.84424    0.000
 5744.00    0.85231   0.84369    0.000
 5745.00    0.85838   0.84263    0.000
 5746.00    0.87503   0.84116    0.000
 5747.00    0.89443   0.83938    0.000
 5748.00    0.89841   0.83740    0.000
 5749.00    0.88662   0.83547    0.000
 5750.00    0.87216   0.83399    0.000
 5751.00    0.86353   0.83342    0.000
 5752.00    0.86291   0.83400    0.000
 5753.00    0.86890   0.83560    0.000
 5754.00    0.87792   0.83760    0.000
 5755.00    0.88566   0.83910    0.000
 5756.00    0.88789   0.83935    0.000
 5757.00    0.88144   0.83818    0.000
 5758.00    0.86693   0.83617    0.000
 5759.00    0.85184   0.83440    0.000
 5760.00    0.84378   0.83396    0.000
 5761.00    0.84206   0.83535    0.000
 5762.00    0.84391   0.83838    0.000
 5763.00    0.85212   0.84223    0.000
 5764.00    0.86751   0.84591    0.000
 5765.00    0.88079   0.84858    0.000
 5766.00    0.88244   0.84984    0.000
 5767.00    0.87343   0.84969    0.000
 5768.00    0.86362   0.84853    0.000
 5769.00    0.86758   0.84686    0.000
 5770.00    0.88752   0.84506    0.000
 5771.00    0.90217   0.84335    0.000
 5772.00    0.89575   0.84173    0.000
 5773.00    0.87905   0.83993    0.000
 5774.00    0.86615   0.83751    0.000
 5775.00    0.85701   0.83405    0.000
 5776.00    0.84606   0.82932    0.000
 5777.00    0.82958   0.82355    0.000
 5778.00    0.81066   0.81737    0.000
 5779.00    0.79989   0.81167    0.000
 5780.00    0.80248   0.80740    0.000
 5781.00    0.81244   0.80522    0.000
 5782.00    0.82315   0.80533    0.000
 5783.00    0.83299   0.80752    0.000
 5784.00    0.84259   0.81117    0.000
 5785.00    0.85235   0.81548    0.000
 5786.00    0.85810   0.81980    0.000
 5787.00    0.85110   0.82377   -2.000
 5788.00    0.82668   0.82728   -2.000
 5789.00    0.78879   0.83034   -2.000
 5790.00    0.75186   0.83303   -2.000
 5791.00    0.73713   0.83540   -2.000
 5792.00    0.75599   0.83737   -2.000
 5793.00    0.80153   0.83893   -2.000
 5794.00    0.84188   0.84021   -2.000
 5795.00    0.83712   0.84146   -2.000
 5796.00    0.79852   0.84296   -2.000
 5797.00    0.77915   0.84476   -2.000
 5798.00    0.79005   0.84650   -2.000
 5799.00    0.79962   0.84768   -2.000
 5800.00    0.80166   0.84790   -2.000
 5801.00    0.81559   0.84705   -2.000
 5802.00    0.83832   0.84547   -2.000
 5803.00    0.84809   0.84387   -2.000
 5804.00    0.84293   0.84286   -2.000
 5805.00    0.83843   0.84270   -2.000
 5806.00    0.84266   0.84328   -2.000
 5807.00    0.85278   0.84417    0.000
 5808.00    0.86006   0.84485    0.000
 5809.00    0.85673   0.84491    0.000
 5810.00    0.84664   0.84426    0.000
 5811.00    0.83929   0.84315    0.000
 5812.00    0.83621   0.84206    0.000
 5813.00    0.83481   0.84152    0.000
 5814.00    0.83796   0.84192    0.000
 5815.00    0.84852   0.84336    0.000
 5816.00    0.85932   0.84551    0.000
 5817.00    0.86169   0.84784    0.000
 5818.00    0.85892   0.84980    0.000
 5819.00    0.86005   0.85104    0.000
 5820.00    0.86936   0.85151    0.000
 5821.00    0.88349   0.85146    0.000
 5822.00    0.89066   0.85126    0.000
 5823.00    0.88265   0.85117    0.000
 5824.00    0.86733   0.85126    0.000
 5825.00    0.85758   0.85145    0.000
 5826.00    0.85830   0.85156    0.000
 5827.00    0.86519   0.85140    0.000
 5828.00    0.86628   0.85087    0.000
 5829.00    0.85591   0.84996    0.000
 5830.00    0.84527   0.84880    0.000
 5831.00    0.84437   0.84755    0.000
 5832.00    0.84802   0.84646    0.000
 5833.00    0.84874   0.84575    0.000
 5834.00    0.84708   0.84558    0.000
 5835.00    0.84657   0.84601    0.000
 5836.00    0.84902   0.84696    0.000
 5837.00    0.85068   0.84824    0.000
 5838.00    0.84247   0.84949    0.000
 5839.00    0.82628   0.85028    0.000
 5840.00    0.82045   0.85035    0.000
 5841.00    0.83305   0.84953    0.000
 5842.00    0.85032   0.84782    0.000
 5843.00    0.85938   0.84546    0.000
 5844.00    0.85928   0.84277    0.000
 5845.00    0.85370   0.84005    0.000
 5846.00    0.84664   0.83735    0.000
 5847.00    0.84089   0.83459    0.000
 5848.00    0.83709   0.83161    0.000
 5849.00    0.83284   0.82831    0.000
 5850.00    0.82449   0.82474    0.000
 5851.00    0.81520   0.82104    0.000
 5852.00    0.81367   0.81751    0.000
 5853.00    0.81798   0.81450    0.000
 5854.00    0.81594   0.81239    0.000
 5855.00    0.80573   0.81149    0.000
 5856.00    0.79835   0.81188    0.000
 5857.00    0.80298   0.81340    0.000
 5858.00    0.82170   0.81572    0.000
 5859.00    0.84812   0.81844    0.000
 5860.00    0.87049   0.82104    0.000
 5861.00    0.88078   0.82312    0.000
 5862.00    0.87771   0.82461    0.000
 5863.00    0.86780   0.82579    0.000
 5864.00    0.86061   0.82699    0.000
 5865.00    0.85782   0.82837    0.000
 5866.00    0.85583   0.82971    0.000
 5867.00    0.85651   0.83063    0.000
 5868.00    0.86497   0.83072    0.000
 5869.00    0.88076   0.82970    0.000
 5870.00    0.89920   0.82747    0.000
 5871.00    0.91667   0.82431    0.000
 5872.00    0.92963   0.82083    0.000
 5873.00    0.93165   0.81768    0.000
 5874.00    0.91817   0.81530    0.000
 5875.00    0.89449   0.81378    0.000
 5876.00    0.86986   0.81298    0.000
 5877.00    0.84741   0.81255    0.000
 5878.00    0.82850   0.81204    0.000
 5879.00    0.81981   0.81088    0.000
 5880.00    0.82521   0.80829    0.000
 5881.00    0.83511   0.80341    0.000
 5882.00    0.83694   0.79539    0.000
 5883.00    0.82827   0.78361    0.000
 5884.00    0.81331   0.76822    0.000
 5885.00    0.79688   0.75055    0.000
 5886.00    0.77894   0.73288    0.000
 5887.00    0.75131   0.71760    0.000
 5888.00    0.71490   0.70656    0.000
 5889.00    0.69292   0.70049    0.000
 5890.00    0.70145   0.69899    0.000
 5891.00    0.72589   0.70101    0.000
 5892.00    0.74539   0.70553    0.000
 5893.00    0.75363   0.71179    0.000
 5894.00    0.75510   0.71984    0.000
 5895.00    0.75951   0.73028    0.000
 5896.00    0.76976   0.74310    0.000
 5897.00    0.77664   0.75745    0.000
 5898.00    0.77812   0.77188    0.000
 5899.00    0.78799   0.78461    0.000
 5900.00    0.81212   0.79460    0.000
 5901.00    0.83723   0.80197   27.675
 5902.00    0.85017   0.80731   27.357
 5903.00    0.84873   0.81119   27.558
 5904.00    0.84010   0.81408   27.964
 5905.00    0.83695   0.81628   27.824
 5906.00    0.84407   0.81778   27.238
 5907.00    0.85483   0.81847   27.259
 5908.00    0.86337   0.81821   28.024
 5909.00    0.86846   0.81698   28.391
 5910.00    0.86644   0.81501   27.980
 5911.00    0.85180   0.81280   27.739
 5912.00    0.82998   0.81100   28.146
 5913.00    0.81656   0.81004   28.832
 5914.00    0.81744   0.81014   29.314
 5915.00    0.82597   0.81127   29.342
 5916.00    0.83637   0.81310   29.076
 5917.00    0.84621   0.81513   28.925
 5918.00    0.85047   0.81694   29.021
 5919.00    0.84425   0.81834   29.194
 5920.00    0.83485   0.81934   29.282
 5921.00    0.83606   0.82000   29.255
 5922.00    0.84569   0.82029   29.311
 5923.00    0.85066   0.82020   29.660
 5924.00    0.85271   0.81977   29.985
 5925.00    0.86178   0.81903   29.752
 5926.00    0.86849   0.81809   29.285
 5927.00    0.85518   0.81717   29.277
 5928.00    0.82978   0.81650   29.524
 5929.00    0.81570   0.81618   29.343
 5930.00    0.81973   0.81624   28.816
 5931.00    0.83358   0.81667   28.455
 5932.00    0.84719   0.81734   28.286
 5933.00    0.85265   0.81804   28.151
 5934.00    0.84669   0.81858   28.338
 5935.00    0.83371   0.81888   29.058
 5936.00    0.82882   0.81893   29.488
 5937.00    0.84258   0.81872   28.758
 5938.00    0.86055   0.81829   27.733
 5939.00    0.86392   0.81790   27.494
 5940.00    0.85874   0.81782   27.751
 5941.00    0.85833   0.81809   27.823
 5942.00    0.85890   0.81858   27.849
 5943.00    0.85241   0.81902   28.231
 5944.00    0.84333   0.81900   28.856
 5945.00    0.83832   0.81832   29.349
 5946.00    0.83438   0.81710   29.493
 5947.00    0.82742   0.81567   29.392
 5948.00    0.82090   0.81427   29.475
 5949.00    0.81934   0.81309   29.930
 5950.00    0.82211   0.81224   30.274
 5951.00    0.82575   0.81173   30.196
 5952.00    0.82666   0.81146   30.269
 5953.00    0.82259   0.81152   30.880
 5954.00    0.81413   0.81219   31.462
 5955.00    0.80719   0.81365   31.343
 5956.00    0.81248   0.81574   30.580
 5957.00    0.83035   0.81819   29.709
 5958.00    0.84439   0.82073   29.314
 5959.00    0.84617   0.82303   29.435
 5960.00    0.84645   0.82474   29.456
 5961.00    0.84990   0.82573   29.204
 5962.00    0.84451   0.82617   29.335
 5963.00    0.82616   0.82646   29.912
 5964.00    0.80807   0.82693   29.920
 5965.00    0.80021   0.82776   29.038
 5966.00    0.80064   0.82885   28.220
 5967.00    0.80388   0.82993   28.029
 5968.00    0.80604   0.83060   28.282
 5969.00    0.80868   0.83037   28.691
 5970.00    0.81754   0.82901   29.084
 5971.00    0.83102   0.82660   29.380
 5972.00    0.83979   0.82347   29.563
 5973.00    0.84142   0.82014   29.578
 5974.00    0.84212   0.81714   29.371
 5975.00    0.84440   0.81482   29.122
 5976.00    0.84447   0.81322   29.159
 5977.00    0.83782   0.81217   29.531
 5978.00    0.82250   0.81138   29.994
 5979.00    0.80340   0.81057   30.321
 5980.00    0.78977   0.80962   30.418
 5981.00    0.78580   0.80871   30.313
 5982.00    0.78908   0.80818   30.178
 5983.00    0.79338   0.80834   30.378
 5984.00    0.79343   0.80930   31.131
 5985.00    0.79370   0.81100   31.624
 5986.00    0.80185   0.81322   30.799
 5987.00    0.81120   0.81550   29.736
 5988.00    0.80902   0.81746   30.029
 5989.00    0.79975   0.81901   30.917
 5990.00    0.79684   0.82011   30.485
 5991.00    0.80004   0.82063   29.352
 5992.00    0.80121   0.82049   29.165
 5993.00    0.80076   0.81978   29.579
 5994.00    0.80316   0.81863   29.382
 5995.00    0.80577   0.81710   28.759
 5996.00    0.80376   0.81546   28.526
 5997.00    0.79945   0.81406   28.634
 5998.00    0.79849   0.81301   28.668
 5999.00    0.80300   0.81217   28.678
 6000.00    0.81273   0.81125   28.833
 6001.00    0.82742   0.81005   28.873
 6002.00    0.84256   0.80864   28.567
 6003.00    0.84534   0.80729   28.272
 6004.00    0.82932   0.80630   28.402
 6005.00    0.80899   0.80584   28.879
 6006.00    0.80045   0.80579   29.299
 6007.00    0.80169   0.80608   29.196
 6008.00    0.80471   0.80656   28.535
 6009.00    0.80816   0.80696   27.966
 6010.00    0.81290   0.80706   27.921
 6011.00    0.81733   0.80670   28.094
 6012.00    0.81785   0.80577   28.170
 6013.00    0.81028   0.80457   28.373
 6014.00    0.79485   0.80347   28.864
 6015.00    0.77924   0.80268   29.296
 6016.00    0.77339   0.80211   29.313
 6017.00    0.78457   0.80177   28.978
 6018.00    0.81010   0.80195   28.574
 6019.00    0.83506   0.80280   28.374
 6020.00    0.84582   0.80421   28.442
 6021.00    0.83830   0.80622   28.600
 6022.00    0.81727   0.80882   28.821
 6023.00    0.79428   0.81174   29.338
 6024.00    0.77985   0.81467   29.988
 6025.00    0.77921   0.81750   30.027
 6026.00    0.79112   0.82015   29.435
 6027.00    0.80900   0.82247   29.149
 6028.00    0.82791   0.82441   29.358
 6029.00    0.84673   0.82608   29.244
 6030.00    0.86438   0.82745   28.601
 6031.00    0.87777   0.82844   28.130
 6032.00    0.88045   0.82902   28.105
 6033.00    0.86612   0.82921   28.203
 6034.00    0.84210   0.82898   28.268
 6035.00    0.82699   0.82833   28.422
 6036.00    0.82804   0.82754   28.529
 6037.00    0.83813   0.82688   28.258
 6038.00    0.84938   0.82655   27.824
 6039.00    0.85759   0.82671   27.798
 6040.00    0.86270   0.82738   28.191
 6041.00    0.86660   0.82847   28.533
 6042.00    0.86753   0.82975   28.700
 6043.00    0.86211   0.83098   28.933
 6044.00    0.85339   0.83193   29.242
 6045.00    0.84763   0.83238   29.403
 6046.00    0.84345   0.83222   29.337
 6047.00    0.83722   0.83149   29.139
 6048.00    0.83841   0.83022   28.931
 6049.00    0.85781   0.82842   28.798
 6050.00    0.88034   0.82625   28.724
 6051.00    0.88140   0.82402   28.640
 6052.00    0.86374   0.82200   28.517
 6053.00    0.84608   0.82046   28.371
 6054.00    0.83452   0.81962   28.259
 6055.00    0.82612   0.81942   28.258
 6056.00    0.82147   0.81955   28.448
 6057.00    0.82323   0.81952   28.780
 6058.00    0.83148   0.81897   28.903
 6059.00    0.84079   0.81780   28.537
 6060.00    0.83849   0.81635   27.990
 6061.00    0.82030   0.81508   27.703
 6062.00    0.80737   0.81454   27.750
 6063.00    0.81912   0.81522   28.009
 6064.00    0.84260   0.81731   28.350
 6065.00    0.85712   0.82060   28.619
 6066.00    0.86207   0.82457   28.616
 6067.00    0.86237   0.82863   28.350
 6068.00    0.85319   0.83204   28.204
 6069.00    0.83315   0.83418   28.459
 6070.00    0.81558   0.83495   28.928
 6071.00    0.81033   0.83444   29.312
 6072.00    0.80999   0.83278   29.547
 6073.00    0.80761   0.83022   29.711
 6074.00    0.80937   0.82695   29.895
 6075.00    0.81863   0.82323   30.091
 6076.00    0.82606   0.81944   30.147
 6077.00    0.82592   0.81602   30.047
 6078.00    0.82498   0.81321   30.039
 6079.00    0.82701   0.81111   30.219
 6080.00    0.82499   0.80987   30.351
 6081.00    0.81419   0.80940   30.320
 6082.00    0.79920   0.80932   30.319
 6083.00    0.78887   0.80938   30.311
 6084.00    0.79166   0.80945   29.892
 6085.00    0.80724   0.80930   29.065
 6086.00    0.82484   0.80883   28.376
 6087.00    0.83471   0.80832   28.146
 6088.00    0.83375   0.80814   28.286
 6089.00    0.82630   0.80842   28.502
 6090.00    0.82152   0.80914   28.457
 6091.00    0.82263   0.81033   28.155
 6092.00    0.82504   0.81191   27.952
 6093.00    0.82545   0.81341   28.030
 6094.00    0.82445   0.81420   28.295
 6095.00    0.82349   0.81370   28.576
 6096.00    0.82215   0.81152   28.745
 6097.00    0.81319   0.80802   28.871
 6098.00    0.78816   0.80415   29.150
 6099.00    0.75749   0.80074   29.521
 6100.00    0.74428   0.79831   29.694
 6101.00    0.75262   0.79727   29.611
 6102.00    0.76779   0.79784   29.476
 6103.00    0.77822   0.80001   29.471
 6104.00    0.78237   0.80341   29.656
 6105.00    0.79088   0.80716   29.900
 6106.00    0.81415   0.81027   29.979
 6107.00    0.83616   0.81252   29.855
 6108.00    0.83202   0.81417   29.644
 6109.00    0.81240   0.81538   29.410
 6110.00    0.80554   0.81614   29.200
 6111.00    0.80955   0.81635   29.152
 6112.00    0.80617   0.81588   29.338
 6113.00    0.79822   0.81463   29.476
 6114.00    0.79882   0.81232   29.282
 6115.00    0.80517   0.80867   29.096
 6116.00    0.80714   0.80394   29.289
 6117.00    0.80529   0.79910   29.355
 6118.00    0.80513   0.79506   28.722
 6119.00    0.80610   0.79215   27.976
 6120.00    0.80595   0.79055   27.901
 6121.00    0.80757   0.79046   28.450
 6122.00    0.81266   0.79178   29.171
 6123.00    0.81418   0.79419   29.738
 6124.00    0.80686   0.79739   30.012
 6125.00    0.79845   0.80063   30.039
 6126.00    0.79867   0.80329   29.967
 6127.00    0.80721   0.80524   29.905
 6128.00    0.81817   0.80612   29.720
 6129.00    0.82554   0.80520   28.956
 6130.00    0.82625   0.80197   27.641
 6131.00    0.82181   0.79665   26.597
 6132.00    0.81367   0.79038   26.249
 6133.00    0.80029   0.78461   26.167
 6134.00    0.78550   0.78033   26.018
 6135.00    0.78247   0.77808   26.120
 6136.00    0.79692   0.77838   26.633
 6137.00    0.81695   0.78138   27.086
 6138.00    0.82538   0.78646   27.294
 6139.00    0.81067   0.79251   27.888
 6140.00    0.78107   0.79810   28.967
 6141.00    0.76576   0.80217   29.372
 6142.00    0.77552   0.80465   28.802
 6143.00    0.78844   0.80598   28.693
 6144.00    0.79091   0.80633   29.439
 6145.00    0.79346   0.80567   29.603
 6146.00    0.80198   0.80440   28.830
 6147.00    0.80777   0.80310   28.677
 6148.00    0.80666   0.80200   29.488
 6149.00    0.80447   0.80113   29.776
 6150.00    0.80302   0.80046   28.980
 6151.00    0.79780   0.79967   28.229
 6152.00    0.79109   0.79834   27.897
 6153.00    0.79185   0.79600   27.386
 6154.00    0.79777   0.79202   26.677
 6155.00    0.79582   0.78597   26.395
 6156.00    0.78413   0.77833   26.706
 6157.00    0.77292   0.77017   27.287
 6158.00    0.76529   0.76248   28.031
 6159.00    0.75712   0.75623   29.035
 6160.00    0.75329   0.75220   29.786
 6161.00    0.76341   0.75074   29.449
 6162.00    0.77954   0.75151   28.638
 6163.00    0.78267   0.75369   28.700
 6164.00    0.77147   0.75662   29.617
 6165.00    0.76045   0.75970   30.280
 6166.00    0.76034   0.76239   30.134
 6167.00    0.77123   0.76463   29.579
 6168.00    0.77838   0.76702   29.384
 6169.00    0.76645   0.76985   30.029
 6170.00    0.74679   0.77308   30.831
 6171.00    0.74041   0.77687   30.553
 6172.00    0.73996   0.78095   29.374
 6173.00    0.72799   0.78444   28.377
 6174.00    0.71636   0.78707   28.181
 6175.00    0.72587   0.78939   28.862
 6176.00    0.74705   0.79158   29.825
 6177.00    0.75792   0.79341   30.217
 6178.00    0.75677   0.79485   29.965
 6179.00    0.75411   0.79576   29.494
 6180.00    0.75620   0.79561   28.972
 6181.00    0.76441   0.79427   28.365
 6182.00    0.77681   0.79196   27.627
 6183.00    0.78713   0.78872   26.938
 6184.00    0.78454   0.78450   26.818
 6185.00    0.76804   0.77951   27.511
 6186.00    0.75878   0.77471   28.381
 6187.00    0.77090   0.77115   28.688
 6188.00    0.78489   0.76937   28.686
 6189.00    0.77802   0.76948   28.894
 6190.00    0.75272   0.77134   29.228
 6191.00    0.72493   0.77445   -2.000
 6192.00    0.71072   0.77801   -2.000
 6193.00    0.71473   0.78133   -2.000
 6194.00    0.72443   0.78375   -2.000
 6195.00    0.73053   0.78498   -2.000
 6196.00    0.73885   0.78549   -2.000
 6197.00    0.74822   0.78591   -2.000
 6198.00    0.74046   0.78657   -2.000
 6199.00    0.71528   0.78766   -2.000
 6200.00    0.70454   0.78933   -2.000
 6201.00    0.72433   0.79151   -2.000
 6202.00    0.75344   0.79369   -2.000
 6203.00    0.77041   0.79508   24.431
 6204.00    0.77300   0.79523   24.824
 6205.00    0.77156   0.79408   25.203
 6206.00    0.78085   0.79171   26.385
 6207.00    0.80106   0.78795   27.945
 6208.00    0.81492   0.78287   27.820
 6209.00    0.81241   0.77701   27.382
 6210.00    0.79862   0.77112   31.026
 6211.00    0.78156   0.76593   34.634
 6212.00    0.76707   0.76193   24.176
 6213.00    0.75877   0.75906   15.155
 6214.00    0.75781   0.75724   12.424
 6215.00    0.76185   0.75666   12.683
 6216.00    0.76617   0.75723   13.361
 6217.00    0.76798   0.75843   13.202
 6218.00    0.76694   0.75979   12.873
 6219.00    0.76278   0.76107   12.975
 6220.00    0.75638   0.76230   13.457
 6221.00    0.75459   0.76353   13.508
 6222.00    0.76522   0.76443   12.523
 6223.00    0.78199   0.76435   12.202
 6224.00    0.79011   0.76273   15.086
 6225.00    0.78738   0.75988   23.643
 6226.00    0.78091   0.75683   30.872
 6227.00    0.76979   0.75431   27.386
 6228.00    0.74989   0.75295   25.772
 6229.00    0.73014   0.75326   28.093
 6230.00    0.72535   0.75504   30.184
 6231.00    0.73740   0.75776   30.218
 6232.00    0.75735   0.76078   30.033
 6233.00    0.77526   0.76305   29.999
 6234.00    0.78332   0.76361   29.492
 6235.00    0.77841   0.76258   29.133
 6236.00    0.76502   0.76019   29.764
 6237.00    0.75797   0.75669   30.750
 6238.00    0.76631   0.75304   30.877
 6239.00    0.77268   0.75017   30.393
 6240.00    0.75879   0.74837   30.162
 6241.00    0.73906   0.74790   30.180
 6242.00    0.73557   0.74886   30.093
 6243.00    0.74527   0.75071   29.917
 6244.00    0.75394   0.75294   29.826
 6245.00    0.75535   0.75518   29.841
 6246.00    0.75028   0.75646   29.893
 6247.00    0.74327   0.75622   29.896
 6248.00    0.73988   0.75480   29.714
 6249.00    0.74392   0.75230   29.158
 6250.00    0.75356   0.74879   28.336
 6251.00    0.75942   0.74468   27.776
 6252.00    0.75580   0.74059   27.763
 6253.00    0.74882   0.73739   27.977
 6254.00    0.74693   0.73600   27.838
 6255.00    0.75274   0.73648   26.903
 6256.00    0.75869   0.73850   25.354
 6257.00    0.74854   0.74201   23.919
 6258.00    0.72430   0.74659   23.030
 6259.00    0.71637   0.75145   22.692
 6260.00    0.73811   0.75604   22.929
 6261.00    0.76521   0.76001   23.921
 6262.00    0.77667   0.76287   25.612
 6263.00    0.77523   0.76468   27.353
 6264.00    0.76912   0.76574   28.588
 6265.00    0.76253   0.76634   29.540
 6266.00    0.75856   0.76702   30.359
 6267.00    0.75965   0.76818   30.651
 6268.00    0.76230   0.76950   30.396
 6269.00    0.75796   0.77059   30.211
 6270.00    0.74607   0.77156   30.462
 6271.00    0.73679   0.77242   30.970
 6272.00    0.74020   0.77291   31.108
 6273.00    0.75853   0.77282   30.258
 6274.00    0.77449   0.77203   29.179
 6275.00    0.76218   0.77071   29.282
 6276.00    0.73467   0.76944   30.288
 6277.00    0.73514   0.76862   30.342
 6278.00    0.76424   0.76847   29.200
 6279.00    0.78143   0.76906   28.355
 6280.00    0.77080   0.77035    0.000
 6281.00    0.74861   0.77243    0.000
 6282.00    0.73355   0.77530    0.000
 6283.00    0.73615   0.77837    0.000
 6284.00    0.75282   0.78093    0.000
 6285.00    0.77048   0.78246    0.000
 6286.00    0.77962   0.78286    0.000
 6287.00    0.77855   0.78236    0.000
 6288.00    0.77551   0.78113    0.000
 6289.00    0.78021   0.77925    0.000
 6290.00    0.78760   0.77669    0.000
 6291.00    0.78692   0.77357    0.000
 6292.00    0.78252   0.77052    0.000
 6293.00    0.78601   0.76807    0.000
 6294.00    0.79766   0.76621    0.000
 6295.00    0.81211   0.76466    0.000
 6296.00    0.83102   0.76323    0.000
 6297.00    0.85584   0.76230    0.000
 6298.00    0.87557   0.76243    0.000
 6299.00    0.87761   0.76351    0.000
 6300.00    0.86356   0.76507    0.000
 6301.00    0.84188   0.76709    0.000
 6302.00    0.81684   0.76980    0.000
 6303.00    0.79288   0.77294    0.000
 6304.00    0.78008   0.77585    0.000
 6305.00    0.78202   0.77785    0.000
 6306.00    0.78469   0.77866    0.000
 6307.00    0.77878   0.77858    0.000
 6308.00    0.77968   0.77765    0.000
 6309.00    0.79724   0.77553    0.000
 6310.00    0.81048   0.77256    0.000
 6311.00    0.80201   0.76956    0.000
 6312.00    0.78531   0.76671    0.000
 6313.00    0.77505   0.76418    0.000
 6314.00    0.76494   0.76261    0.000
 6315.00    0.74882   0.76224    0.000
 6316.00    0.73487   0.76302    0.000
 6317.00    0.72963   0.76492    0.000
 6318.00    0.72861   0.76765    0.000
 6319.00    0.73000   0.77096    0.000
 6320.00    0.74080   0.77464    0.000
 6321.00    0.76019   0.77806   30.359
 6322.00    0.77333   0.78072   29.673
 6323.00    0.77143   0.78278   29.852
 6324.00    0.76102   0.78438   30.278
 6325.00    0.75387   0.78525   30.358
 6326.00    0.75968   0.78554   30.118
 6327.00    0.77708   0.78554   29.794
 6328.00    0.79342   0.78507   29.574
 6329.00    0.80073   0.78369   29.532
 6330.00    0.80035   0.78113   29.642
 6331.00    0.79300   0.77800   29.866
 6332.00    0.77738   0.77536   30.164
 6333.00    0.75941   0.77339   30.363
 6334.00    0.75033   0.77195   30.271
 6335.00    0.74913   0.77131   30.208
 6336.00    0.74462   0.77151   30.787
 6337.00    0.74080   0.77219   31.712
 6338.00    0.75267   0.77267   31.832
 6339.00    0.77110   0.77250   31.086
 6340.00    0.76994   0.77195   30.518
 6341.00    0.75203   0.77134   30.549
 6342.00    0.74387   0.77092   30.895
 6343.00    0.75117   0.77114   31.059
 6344.00    0.76053   0.77235   30.651
 6345.00    0.76887   0.77441   29.861
 6346.00    0.77983   0.77691   29.209
 6347.00    0.78169   0.77910   28.939
 6348.00    0.76090   0.78036   28.988
 6349.00    0.73700   0.78034   29.035
 6350.00    0.74028   0.77907   28.787
 6351.00    0.75938   0.77682   28.504
 6352.00    0.76283   0.77365   28.612
 6353.00    0.75094   0.76950   28.994
 6354.00    0.74240   0.76487   29.244
 6355.00    0.73959   0.76050   29.286
 6356.00    0.73683   0.75663   29.205
 6357.00    0.73981   0.75340   28.830
 6358.00    0.75613   0.75113   28.068
 6359.00    0.77911   0.75030   27.335
 6360.00    0.79547   0.75121   27.099
 6361.00    0.79795   0.75369   27.423
 6362.00    0.78852   0.75730   28.050
 6363.00    0.77922   0.76166   28.451
 6364.00    0.77766   0.76620   28.356
 6365.00    0.77300   0.77027   28.333
 6366.00    0.75645   0.77383   28.783
 6367.00    0.74159   0.77714   28.992
 6368.00    0.74245   0.78014   28.480
 6369.00    0.75264   0.78248   28.259
 6370.00    0.75969   0.78411   28.974
 6371.00    0.75918   0.78532   29.557
 6372.00    0.75437   0.78609   29.111
 6373.00    0.75373   0.78602   28.658
 6374.00    0.76079   0.78503   28.976
 6375.00    0.76805   0.78347   29.319
 6376.00    0.76752   0.78181   29.104
 6377.00    0.75825   0.78051   29.034
 6378.00    0.74540   0.77955   29.536
 6379.00    0.73794   0.77892   29.920
 6380.00    0.74040   0.77892   29.765
 6381.00    0.74899   0.77965   29.676
 6382.00    0.75784   0.78062   29.900
 6383.00    0.76309   0.78141   29.810
 6384.00    0.76504   0.78180   29.362
 6385.00    0.76770   0.78170   29.459
 6386.00    0.77209   0.78098   30.206
 6387.00    0.77366   0.77924   30.413
 6388.00    0.76583   0.77645   29.552
 6389.00    0.74459   0.77376   28.424
 6390.00    0.72029   0.77210   27.439
 6391.00    0.71456   0.77132   26.413
 6392.00    0.73051   0.77110   25.631
 6393.00    0.74905   0.77106   25.737
 6394.00    0.75660   0.77072   26.658
 6395.00    0.75384   0.77037   27.487
 6396.00    0.75061   0.77088   27.630
 6397.00    0.75797   0.77205   27.295
 6398.00    0.77050   0.77335   26.908
 6399.00    0.77112   0.77478   26.818
 6400.00    0.75956   0.77636   27.232
 6401.00    0.75062   0.77801   28.137
 6402.00    0.74899   0.77933   28.986
 6403.00    0.74831   0.77964   28.993
 6404.00    0.74475   0.77919   28.479
 6405.00    0.73882   0.77821   28.460
 6406.00    0.73148   0.77653   29.149
 6407.00    0.72469   0.77489   30.027
 6408.00    0.72393   0.77399   30.470
 6409.00    0.73181   0.77379   30.235
 6410.00    0.73577   0.77413   30.004
 6411.00    0.72337   0.77448   30.517
 6412.00    0.71208   0.77464   31.090
 6413.00    0.72595   0.77477   30.501
 6414.00    0.75015   0.77453   29.265
 6415.00    0.75527   0.77363   28.584
 6416.00    0.74451   0.77270   28.696
 6417.00    0.73758   0.77270   29.227
 6418.00    0.73834   0.77388   29.622
 6419.00    0.74048   0.77574   29.489
 6420.00    0.74093   0.77797   29.072
 6421.00    0.74025   0.78061   28.681
 6422.00    0.74084   0.78339   28.043
 6423.00    0.74348   0.78549   26.974
 6424.00    0.74452   0.78586   25.989
 6425.00    0.74439   0.78412   25.471
 6426.00    0.75490   0.78131   25.143
 6427.00    0.77773   0.77887   24.881
 6428.00    0.78660   0.77718   25.342
 6429.00    0.76636   0.77608   26.987
 6430.00    0.74520   0.77558   29.014
 6431.00    0.74959   0.77581   29.967
 6432.00    0.76750   0.77652   29.414
 6433.00    0.77946   0.77688   28.245
 6434.00    0.78360   0.77659   27.784
 6435.00    0.78253   0.77661   28.488
 6436.00    0.77365   0.77754   29.491
 6437.00    0.75733   0.77909   29.837
 6438.00    0.74159   0.78102   29.610
 6439.00    0.73420   0.78325   29.271
 6440.00    0.73740   0.78573   29.022
 6441.00    0.74811   0.78788   28.626
 6442.00    0.75941   0.78849   27.567
 6443.00    0.76638   0.78671   26.084
 6444.00    0.76875   0.78248   25.094
 6445.00    0.76785   0.77699   24.832
 6446.00    0.76488   0.77219   24.791
 6447.00    0.76026   0.76893   24.870
 6448.00    0.75382   0.76708   25.597
 6449.00    0.74651   0.76640   26.937
 6450.00    0.74009   0.76673   27.836
 6451.00    0.73305   0.76841   27.769
 6452.00    0.72231   0.77139   27.428
 6453.00    0.71503   0.77460   27.281
 6454.00    0.72490   0.77714   27.221
 6455.00    0.74563   0.77861   27.208
 6456.00    0.75373   0.77875   27.382
 6457.00    0.74592   0.77756   27.711
 6458.00    0.73972   0.77584   28.020
 6459.00    0.74027   0.77455   28.393
 6460.00    0.73965   0.77386   29.082
 6461.00    0.74129   0.77371   29.788
 6462.00    0.75648   0.77429   29.808
 6463.00    0.77907   0.77576   29.249
 6464.00    0.79059   0.77791   28.777
 6465.00    0.78662   0.77995   28.377
 6466.00    0.77664   0.78100   27.577
 6467.00    0.77019   0.78125   26.340
 6468.00    0.77155   0.78132   25.077
 6469.00    0.77566   0.78118   24.345
 6470.00    0.77403   0.78076   24.516
 6471.00    0.76690   0.78055   25.374
 6472.00    0.76041   0.78081   26.306
 6473.00    0.75810   0.78119   26.869
 6474.00    0.76033   0.78121   26.983
 6475.00    0.76586   0.78048   26.911
 6476.00    0.77088   0.77891   27.012
 6477.00    0.76779   0.77670   27.435
 6478.00    0.75276   0.77449   28.095
 6479.00    0.73553   0.77289   28.669
 6480.00    0.72863   0.77214   28.910
 6481.00    0.73263   0.77200   29.097
 6482.00    0.74146   0.77230   29.547
 6483.00    0.75081   0.77295   29.949
 6484.00    0.75630   0.77330   29.905
 6485.00    0.75135   0.77227   29.665
 6486.00    0.73610   0.76928   29.572
 6487.00    0.72497   0.76433   29.482
 6488.00    0.72827   0.75735   29.192
 6489.00    0.73590   0.74835   28.842
 6490.00    0.73423   0.73859   28.545
 6491.00    0.72217   0.73000   28.108
 6492.00    0.71008   0.72380   27.391
 6493.00    0.71487   0.72046   26.552
 6494.00    0.73679   0.71993   25.856
 6495.00    0.74793   0.72247   25.518
 6496.00    0.73536   0.72810   25.610
 6497.00    0.72519   0.73564   26.017
 6498.00    0.73551   0.74366   26.557
 6499.00    0.75020   0.75127   27.065
 6500.00    0.75531   0.75799   27.481
 6501.00    0.75812   0.76369   27.890
 6502.00    0.76398   0.76805   28.291
 6503.00    0.76531   0.77090   28.508
 6504.00    0.75551   0.77266   28.569
 6505.00    0.73705   0.77388   28.809
 6506.00    0.72296   0.77472   29.334
 6507.00    0.73073   0.77508   29.831
 6508.00    0.75335   0.77492   30.050
 6509.00    0.75875   0.77437   30.030
 6510.00    0.74062   0.77341   29.887
 6511.00    0.72704   0.77199   29.692
 6512.00    0.73181   0.77028   29.452
 6513.00    0.74283   0.76855   29.137
 6514.00    0.74924   0.76723   28.773
 6515.00    0.74969   0.76678   28.461
 6516.00    0.74638   0.76729   28.320
 6517.00    0.74253   0.76845   28.371
 6518.00    0.74122   0.76985   28.216
 6519.00    0.74428   0.77129   27.378
 6520.00    0.75054   0.77260   26.399
 6521.00    0.75703   0.77324   26.222
 6522.00    0.76334   0.77287   26.695
 6523.00    0.77056   0.77194   26.862
 6524.00    0.77601   0.77104   26.479
 6525.00    0.77453   0.77021   26.134
 6526.00    0.76444   0.76915   26.453
 6527.00    0.75000   0.76785   27.736
 6528.00    0.74354   0.76676    0.000
 6529.00    0.75546   0.76628    0.000
 6530.00    0.77517   0.76635    0.000
 6531.00    0.78302   0.76660    0.000
 6532.00    0.77746   0.76674    0.000
 6533.00    0.77031   0.76691    0.000
 6534.00    0.77087   0.76735    0.000
 6535.00    0.78174   0.76778    0.000
 6536.00    0.79678   0.76742    0.000
 6537.00    0.80594   0.76581    0.000
 6538.00    0.80269   0.76321    0.000
 6539.00    0.78888   0.76001    0.000
 6540.00    0.77892   0.75616    0.000
 6541.00    0.79071   0.75149    0.000
 6542.00    0.83342   0.74663    0.000
 6543.00    0.90288   0.74254    0.000
 6544.00    0.97851   0.73927    0.000
 6545.00    1.03112   0.73619    0.000
 6546.00    1.03353   0.73280    0.000
 6547.00    0.98194   0.72914    0.000
 6548.00    0.91179   0.72520    0.000
 6549.00    0.85727   0.72028    0.000
 6550.00    0.81575   0.71389    0.000
 6551.00    0.77434   0.70626    0.000
 6552.00    0.73544   0.69762    0.000
 6553.00    0.72067   0.68767    0.000
 6554.00    0.77039   0.67591    0.000
 6555.00    0.92889   0.66236    0.000
 6556.00    1.22918   0.64708    0.000
 6557.00    1.66505   0.63001    0.000
 6558.00    2.17214   0.61322    0.000
 6559.00    2.62690   0.60166    0.000
 6560.00    2.86532   0.59838    0.000
 6561.00    2.79168   0.60208    0.000
 6562.00    2.43796   0.61076    0.000
 6563.00    1.93744   0.62394    0.000
 6564.00    1.48060   0.64071    0.000
 6565.00    1.17845   0.65826    0.000
 6566.00    1.01204   0.67338    0.000
 6567.00    0.91999   0.68482    0.000
 6568.00    0.84873   0.69307    0.000
 6569.00    0.78296   0.69904    0.000
 6570.00    0.74475   0.70398    0.000
 6571.00    0.74052   0.70892    0.000
 6572.00    0.74892   0.71409    0.000
 6573.00    0.75596   0.71925    0.000
 6574.00    0.76737   0.72428    0.000
 6575.00    0.80446   0.72903    0.000
 6576.00    0.89387   0.73325    0.000
 6577.00    1.04145   0.73683    0.000
 6578.00    1.22603   0.73996    0.000
 6579.00    1.40666   0.74270    0.000
 6580.00    1.53459   0.74502    0.000
 6581.00    1.57871   0.74703    0.000
 6582.00    1.53090   0.74893    0.000
 6583.00    1.40111   0.75090    0.000
 6584.00    1.21828   0.75240    0.000
 6585.00    1.03448   0.75293    0.000
 6586.00    0.90376   0.75242    0.000
 6587.00    0.83598   0.75068    0.000
 6588.00    0.80527   0.74781    0.000
 6589.00    0.78716   0.74476    0.000
 6590.00    0.76775   0.74283    0.000
 6591.00    0.74635   0.74225    0.000
 6592.00    0.73230   0.74243    0.000
 6593.00    0.73804   0.74333    0.000
 6594.00    0.76563   0.74538    0.000
 6595.00    0.78878   0.74864    0.000
 6596.00    0.77967   0.75224    0.000
 6597.00    0.75093   0.75515    0.000
 6598.00    0.73155   0.75700    0.000
 6599.00    0.72639   0.75788    0.000
 6600.00    0.72593   0.75786    0.000
 6601.00    0.72596   0.75705    0.000
 6602.00    0.72971   0.75559    0.000
 6603.00    0.74634   0.75365    0.000
 6604.00    0.77422   0.75160    0.000
 6605.00    0.78620   0.75023    0.000
 6606.00    0.76706   0.75040    0.000
 6607.00    0.74852   0.75185    0.000
 6608.00    0.75867   0.75361    0.000
 6609.00    0.77536   0.75546   25.542
 6610.00    0.77086   0.75789   25.764
 6611.00    0.75227   0.76088   26.238
 6612.00    0.73896   0.76336   26.011
 6613.00    0.74095   0.76485   25.562
 6614.00    0.75599   0.76584   25.526
 6615.00    0.77057   0.76667   25.795
 6616.00    0.77544   0.76706   26.073
 6617.00    0.77471   0.76662   26.255
 6618.00    0.77349   0.76539   26.335
 6619.00    0.77043   0.76351   26.339
 6620.00    0.76428   0.76125   26.501
 6621.00    0.75766   0.75921   27.238
 6622.00    0.75334   0.75773   28.286
 6623.00    0.75252   0.75644   28.326
 6624.00    0.75681   0.75511   27.257
 6625.00    0.76799   0.75391   26.732
 6626.00    0.78108   0.75293   27.237
 6627.00    0.78489   0.75192   27.582
 6628.00    0.77919   0.75050   27.130
 6629.00    0.77656   0.74889   26.608
 6630.00    0.77801   0.74787   26.347
 6631.00    0.77027   0.74796   25.960
 6632.00    0.75478   0.74889   25.475
 6633.00    0.74943   0.75015   25.401
 6634.00    0.75468   0.75140   25.734
 6635.00    0.75233   0.75259   25.915
 6636.00    0.74171   0.75375   25.822
 6637.00    0.74028   0.75457   25.870
 6638.00    0.74877   0.75444   26.135
 6639.00    0.75166   0.75343   26.312
 6640.00    0.74869   0.75271   26.360
 6641.00    0.75254   0.75287   26.519
 6642.00    0.75964   0.75323   26.810
 6643.00    0.75447   0.75336   27.034
 6644.00    0.73859   0.75377   27.153
 6645.00    0.72747   0.75481   27.293
 6646.00    0.72766   0.75585   27.522
 6647.00    0.73618   0.75634   27.744
 6648.00    0.75018   0.75650   27.617
 6649.00    0.76500   0.75663   26.960
 6650.00    0.76724   0.75665   26.440
 6651.00    0.74915   0.75644   26.740
 6652.00    0.73497   0.75595   27.252
 6653.00    0.75156   0.75530   26.922
 6654.00    0.77451   0.75447   26.284
 6655.00    0.76499   0.75324   26.354
 6656.00    0.73745   0.75157   26.777
 6657.00    0.72701   0.74952   26.724
 6658.00    0.72986   0.74713   26.551
 6659.00    0.72586   0.74462   26.879
 6660.00    0.71827   0.74280   27.140
 6661.00    0.71838   0.74191   26.673
 6662.00    0.72151   0.74159   26.291
 6663.00    0.72065   0.74191   26.796
 6664.00    0.72377   0.74325   27.447
 6665.00    0.73606   0.74562   27.279
 6666.00    0.74147   0.74822   26.916
 6667.00    0.72883   0.75033   27.141
 6668.00    0.71656   0.75158   27.503
 6669.00    0.72415   0.75187   27.395
 6670.00    0.74574   0.75112   27.137
 6671.00    0.76728   0.74924   27.061
 6672.00    0.78254   0.74590   26.779
 6673.00    0.78852   0.74124   26.175
 6674.00    0.78169   0.73697   25.960
 6675.00    0.76453   0.73486   26.466
 6676.00    0.74864   0.73471   26.984
 6677.00    0.74145   0.73538   26.940
 6678.00    0.73881   0.73698   26.762
 6679.00    0.73694   0.74007   26.807
 6680.00    0.73866   0.74394   26.779
 6681.00    0.74332   0.74729   26.595
 6682.00    0.74335   0.74959   26.705
 6683.00    0.73907   0.75112   27.088
 6684.00    0.74262   0.75220   26.942
 6685.00    0.75686   0.75295   26.190
 6686.00    0.76817   0.75329   25.833
 6687.00    0.76392   0.75317   26.313
 6688.00    0.74262   0.75268   27.130
 6689.00    0.72035   0.75197   27.560
 6690.00    0.72383   0.75100   27.187
 6691.00    0.75285   0.74955   26.425
 6692.00    0.77706   0.74783   26.162
 6693.00    0.77979   0.74650   26.526
 6694.00    0.76844   0.74581   26.886
 6695.00    0.75271   0.74561   26.971
 6696.00    0.73787   0.74583    0.000
 6697.00    0.72846   0.74632    0.000
 6698.00    0.72824   0.74686    0.000
 6699.00    0.73672   0.74715    0.000
 6700.00    0.74904   0.74721    0.000
 6701.00    0.75854   0.74729    0.000
 6702.00    0.76069   0.74734    0.000
 6703.00    0.76060   0.74720    0.000
 6704.00    0.76725   0.74692    0.000
 6705.00    0.77585   0.74651    0.000
 6706.00    0.77615   0.74584    0.000
 6707.00    0.77836   0.74485    0.000
 6708.00    0.80432   0.74336    0.000
 6709.00    0.85891   0.74119    0.000
 6710.00    0.93422   0.73868    0.000
 6711.00    1.02763   0.73607    0.000
 6712.00    1.13157   0.73346    0.000
 6713.00    1.21147   0.73110    0.000
 6714.00    1.22586   0.72985    0.000
 6715.00    1.16455   0.73020    0.000
 6716.00    1.05274   0.73127    0.000
 6717.00    0.94556   0.73254    0.000
 6718.00    0.88549   0.73434    0.000
 6719.00    0.84859   0.73683    0.000
 6720.00    0.79598   0.73916    0.000
 6721.00    0.74571   0.74057    0.000
 6722.00    0.73557   0.74141    0.000
 6723.00    0.76968   0.74238    0.000
 6724.00    0.83385   0.74343    0.000
 6725.00    0.91838   0.74420    0.000
 6726.00    1.00907   0.74476    0.000
 6727.00    1.07773   0.74526    0.000
 6728.00    1.10476   0.74560    0.000
 6729.00    1.09893   0.74557    0.000
 6730.00    1.07126   0.74524    0.000
 6731.00    1.01378   0.74478    0.000
 6732.00    0.92880   0.74416    0.000
 6733.00    0.84953   0.74310    0.000
 6734.00    0.80089   0.74163    0.000
 6735.00    0.77263   0.74018    0.000
 6736.00    0.75156   0.73916    0.000
 6737.00    0.74262   0.73834    0.000
 6738.00    0.74667   0.73713    0.000
 6739.00    0.74865   0.73587    0.000
 6740.00    0.74005   0.73527    0.000
 6741.00    0.73034   0.73499    0.000
 6742.00    0.73024   0.73437    0.000
 6743.00    0.74145   0.73356    0.000
 6744.00    0.75525   0.73286    0.000
 6745.00    0.75573   0.73226    0.000
 6746.00    0.73795   0.73169    0.000
 6747.00    0.71345   0.73150    0.000
 6748.00    0.69466   0.73155    0.000
 6749.00    0.68805   0.73184    0.000
 6750.00    0.69592   0.73308    0.000
 6751.00    0.71539   0.73504    0.000
 6752.00    0.73163   0.73725    0.000
 6753.00    0.72556   0.73959   19.340
 6754.00    0.70926   0.74207   20.235
 6755.00    0.71990   0.74445   20.365
 6756.00    0.75822   0.74626   19.546
 6757.00    0.78815   0.74722   18.695
 6758.00    0.79815   0.74733   18.305
 6759.00    0.80476   0.74687   18.394
 6760.00    0.80865   0.74592   19.004
 6761.00    0.79590   0.74437   20.204
 6762.00    0.77407   0.74216   21.664
 6763.00    0.76526   0.73981   22.599
 6764.00    0.76665   0.73814   22.822
 6765.00    0.75818   0.73728   22.910
 6766.00    0.74093   0.73675   23.229
 6767.00    0.73179   0.73660   23.749
 6768.00    0.73414   0.73755   24.213
 6769.00    0.73959   0.73957   24.331
 6770.00    0.74323   0.74194   24.173
 6771.00    0.74519   0.74423   23.960
 6772.00    0.74790   0.74638   23.558
 6773.00    0.75275   0.74813   22.759
 6774.00    0.75570   0.74921   21.787
 6775.00    0.75171   0.74946   21.040
 6776.00    0.74253   0.74865   20.749
 6777.00    0.73480   0.74679   20.923
 6778.00    0.73529   0.74409   21.242
 6779.00    0.74534   0.74092   21.415
 6780.00    0.75504   0.73783   21.739
 6781.00    0.75266   0.73540   22.591
 6782.00    0.73734   0.73381   23.612
 6783.00    0.71992   0.73323   24.057
 6784.00    0.72028   0.73349   23.717
 6785.00    0.74409   0.73416   22.998
 6786.00    0.76215   0.73504   22.533
 6787.00    0.75130   0.73601   22.684
 6788.00    0.73273   0.73672   23.298
 6789.00    0.73033   0.73679   24.004
 6790.00    0.73269   0.73659   24.509
 6791.00    0.72644   0.73659   24.720
 6792.00    0.72444   0.73679   24.790
 6793.00    0.73988   0.73713   24.699
 6794.00    0.76523   0.73760   24.034
 6795.00    0.78348   0.73831   22.899
 6796.00    0.78001   0.73923   22.121
 6797.00    0.76022   0.74013   21.900
 6798.00    0.75426   0.74081   21.464
 6799.00    0.77265   0.74110   20.663
 6800.00    0.78664   0.74113   20.454
 6801.00    0.78186   0.74109   21.246
 6802.00    0.78118   0.74075   22.309
 6803.00    0.79163   0.74013   22.927
 6804.00    0.78519   0.73965   23.266
 6805.00    0.75284   0.73920   23.505
 6806.00    0.72324   0.73856   23.333
 6807.00    0.71830   0.73801   22.613
 6808.00    0.73518   0.73777   21.662
 6809.00    0.76254   0.73765   20.973
 6810.00    0.78800   0.73730   20.986
 6811.00    0.79810   0.73697   21.756
 6812.00    0.78257   0.73725   22.912
 6813.00    0.74989   0.73796   24.039
 6814.00    0.72501   0.73852   24.858
 6815.00    0.72186   0.73887   25.121
 6816.00    0.73589   0.73939   24.733
 6817.00    0.75179   0.74036   24.107
 6818.00    0.75447   0.74143   23.820
 6819.00    0.75260   0.74211   23.739
 6820.00    0.76785   0.74241   23.287
 6821.00    0.78778   0.74257   22.650
 6822.00    0.77805   0.74259   22.485
 6823.00    0.74508   0.74207   22.780
 6824.00    0.72721   0.74098   22.958
 6825.00    0.73706   0.74003   22.641
 6826.00    0.75876   0.73965   21.997
 6827.00    0.77202   0.73953   21.789
 6828.00    0.76519   0.73925   22.689
 6829.00    0.74942   0.73904   24.048
 6830.00    0.74446   0.73923   24.249
 6831.00    0.74776   0.73929   23.336
 6832.00    0.74367   0.73852   22.498
 6833.00    0.72908   0.73690   21.900
 6834.00    0.71372   0.73486   21.255
 6835.00    0.71266   0.73254   20.797
 6836.00    0.73137   0.73001   20.914
 6837.00    0.74693   0.72758   21.620
 6838.00    0.73525   0.72586   22.608
 6839.00    0.71036   0.72536   23.345
 6840.00    0.69958   0.72606   23.444
 6841.00    0.70575   0.72753   23.242
 6842.00    0.72053   0.72934   23.181
 6843.00    0.74466   0.73138   23.046
 6844.00    0.77627   0.73347   22.609
 6845.00    0.79708   0.73508   22.325
 6846.00    0.79130   0.73582   22.647
 6847.00    0.76574   0.73578   23.426
 6848.00    0.74049   0.73538   24.239
 6849.00    0.73601   0.73459   24.781
 6850.00    0.75159   0.73304   24.946
 6851.00    0.75283   0.73100   24.854
 6852.00    0.72022   0.72927   24.741
 6853.00    0.68405   0.72794   24.825
 6854.00    0.67442   0.72675   25.005
 6855.00    0.68467   0.72597   24.748
 6856.00    0.70019   0.72570   23.988
 6857.00    0.71840   0.72564   23.487
 6858.00    0.73209   0.72595   23.574
 6859.00    0.72350   0.72691   23.655
 6860.00    0.70016   0.72809   23.076
 6861.00    0.70508   0.72884   21.812
 6862.00    0.74785   0.72914   20.540
 6863.00    0.78030   0.72912   20.123
 6864.00    0.77845   0.72879   20.647
 6865.00    0.77288   0.72846   21.315
 6866.00    0.78039   0.72824   21.702
 6867.00    0.78000   0.72777   22.359
 6868.00    0.76067   0.72724   23.481
 6869.00    0.73756   0.72746   24.332
 6870.00    0.72657   0.72841   24.634
 6871.00    0.73300   0.72933   25.098
 6872.00    0.75142   0.73014   25.741
 6873.00    0.76923   0.73121   25.589
 6874.00    0.77883   0.73230   24.758
 6875.00    0.77991   0.73286   24.466
 6876.00    0.77256   0.73288   24.970
 6877.00    0.75696   0.73247   25.491
 6878.00    0.73983   0.73164   25.456
 6879.00    0.73181   0.73095   24.956
 6880.00    0.73476   0.73097   24.443
 6881.00    0.74171   0.73154   24.344
 6882.00    0.74630   0.73233   24.587
 6883.00    0.74752   0.73378   24.674
 6884.00    0.75428   0.73596   24.147
 6885.00    0.77405   0.73815   23.055
 6886.00    0.78605   0.73994   22.317
 6887.00    0.76338   0.74136   22.790
 6888.00    0.73003   0.74232   23.932
 6889.00    0.73088   0.74274   24.266
 6890.00    0.75258   0.74279   23.776
 6891.00    0.75066   0.74245   23.534
 6892.00    0.72472   0.74176   23.680
 6893.00    0.70542   0.74124   23.755
 6894.00    0.71011   0.74114   23.658
 6895.00    0.73547   0.74103   23.553
 6896.00    0.75896   0.74073   23.450
 6897.00    0.75959   0.74082   23.359
 6898.00    0.74606   0.74149   23.540
 6899.00    0.73976   0.74216   24.122
 6900.00    0.74702   0.74252   24.512
 6901.00    0.76244   0.74295   24.115
 6902.00    0.77754   0.74365   23.461
 6903.00    0.78360   0.74428   23.282
 6904.00    0.77413   0.74449   23.575
 6905.00    0.75212   0.74428   24.006
 6906.00    0.73559   0.74370   24.332
 6907.00    0.73933   0.74276   24.509
 6908.00    0.75706   0.74145   24.729
 6909.00    0.77063   0.73984   25.102
 6910.00    0.76216   0.73818   25.358
 6911.00    0.73274   0.73704   25.247
 6912.00    0.71304   0.73656   24.918
 6913.00    0.72399   0.73647   24.601
 6914.00    0.74869   0.73684   24.352
 6915.00    0.76288   0.73776   24.200
 6916.00    0.75813   0.73876   24.246
 6917.00    0.73504   0.73937   24.599
 6918.00    0.69898   0.73958   25.282
 6919.00    0.66973   0.73942   25.901
 6920.00    0.67961   0.73868   25.578
 6921.00    0.72657   0.73759   24.441
 6922.00    0.76001   0.73682   23.812
 6923.00    0.75679   0.73666   24.032
 6924.00    0.74993   0.73683   24.071
 6925.00    0.75820   0.73711   23.475
 6926.00    0.76077   0.73772   23.043
 6927.00    0.75118   0.73863   23.155
 6928.00    0.75243   0.73930   23.352
 6929.00    0.76845   0.73950   23.234
 6930.00    0.77412   0.73976   22.835
 6931.00    0.76237   0.74042   22.334
 6932.00    0.75300   0.74106   21.898
 6933.00    0.75288   0.74148   21.675
 6934.00    0.74851   0.74199   21.776
 6935.00    0.73316   0.74264   22.208
 6936.00    0.71415   0.74297   22.816
 6937.00    0.70496   0.74271   23.192
 6938.00    0.71634   0.74201   22.981
 6939.00    0.73885   0.74103   22.883
 6940.00    0.74982   0.73980   23.661
 6941.00    0.74597   0.73848   22.812
 6942.00    0.74228   0.73763   18.145
 6943.00    0.74611   0.73736   14.119
 6944.00    0.75320   0.73735   12.764
 6945.00    0.75451   0.73745   13.082
 6946.00    0.74416   0.73759   13.632
 6947.00    0.73233   0.73757   13.714
 6948.00    0.73340   0.73746   13.564
 6949.00    0.73734   0.73742   13.544
 6950.00    0.72484   0.73737   13.823
 6951.00    0.70511   0.73753   14.188
 6952.00    0.69847   0.73826   14.307
 6953.00    0.69535   0.73945   14.379
 6954.00    0.67907   0.74061   14.730
 6955.00    0.67181   0.74169   14.886
 6956.00    0.70132   0.74284   14.257
 6957.00    0.74313   0.74385   13.456
 6958.00    0.75755   0.74448   13.201
 6959.00    0.75071   0.74490   13.321
 6960.00    0.74810   0.74536   13.367
 6961.00    0.75101   0.74573   13.315
 6962.00    0.75017   0.74581   13.330
 6963.00    0.74774   0.74588   13.374
 6964.00    0.74865   0.74621   13.357
 6965.00    0.74898   0.74644   13.351
 6966.00    0.74439   0.74606   13.434
 6967.00    0.73936   0.74509   13.525
 6968.00    0.73902   0.74393   13.531
 6969.00    0.74115   0.74240   13.492
 6970.00    0.74271   0.73978   13.464
 6971.00    0.74553   0.73607   13.413
 6972.00    0.74964   0.73237   13.340
 6973.00    0.74844   0.72908   13.361
 6974.00    0.73695   0.72581   13.569
 6975.00    0.71835   0.72330   13.921
 6976.00    0.70206   0.72299   14.244
 6977.00    0.70003   0.72470   14.285
 6978.00    0.71340   0.72728   14.017
 6979.00    0.72736   0.73050   13.748
 6980.00    0.73391   0.73435   13.626
 6981.00    0.74183   0.73791   13.480
 6982.00    0.75227   0.74045   13.293
 6983.00    0.75008   0.74211   13.332
 6984.00    0.73386   0.74309   13.627
 6985.00    0.72478   0.74333   13.797
 6986.00    0.72965   0.74317   13.705
 6987.00    0.73076   0.74314   13.684
 6988.00    0.72306   0.74335   13.830
 6989.00    0.72358   0.74347   13.820
 6990.00    0.73765   0.74333   13.557
 6991.00    0.75025   0.74303   13.329
 6992.00    0.74848   0.74264   13.360
 6993.00    0.73190   0.74200   13.663
 6994.00    0.71637   0.74104   13.959
 6995.00    0.72271   0.73974   13.837
 6996.00    0.73638   0.73825   13.580
 6997.00    0.71937   0.73706   13.901
 6998.00    0.68649   0.73645   14.567
 6999.00    0.69341   0.73596   14.422
 7000.00    0.73636   0.73526   13.580
 7001.00    0.75857   0.73490   -2.000
 7002.00    0.74276   0.73522   -2.000
 7003.00    0.71710   0.73564   -2.000
 7004.00    0.70810   0.73590   -2.000
 7005.00    0.72434   0.73636   -2.000
 7006.00    0.74769   0.73694   -2.000
 7007.00    0.75047   0.73695   -2.000
 7008.00    0.73422   0.73624   -2.000
 7009.00    0.71970   0.73533   -2.000
 7010.00    0.71197   0.73440   -2.000
 7011.00    0.70285   0.73300   -2.000
 7012.00    0.68812   0.73124   -2.000
 7013.00    0.67423   0.73027   -2.000
 7014.00    0.68265   0.73079   -2.000
 7015.00    0.71959   0.73179   -2.000
 7016.00    0.73235   0.73246   -2.000
 7017.00    0.67758   0.73327   -2.000
 7018.00    0.62270   0.73434   -2.000
 7019.00    0.65081   0.73474   -2.000
 7020.00    0.72091   0.73428   -2.000
 7021.00    0.75032   0.73396   -2.000
 7022.00    0.73617   0.73427   -2.000
 7023.00    0.71520   0.73484   -2.000
 7024.00    0.70152   0.73556   -2.000
 7025.00    0.69496   0.73677   -2.000
 7026.00    0.69690   0.73836   -2.000
 7027.00    0.70495   0.73983   -2.000
 7028.00    0.70781   0.74092   -2.000
 7029.00    0.70181   0.74170   -2.000
 7030.00    0.70361   0.74204   -2.000
 7031.00    0.72213   0.74202   -2.000
 7032.00    0.73696   0.74226   -2.000
 7033.00    0.72877   0.74280   -2.000
 7034.00    0.70343   0.74314   -2.000
 7035.00    0.68013   0.74387   -2.000
 7036.00    0.67875   0.74601   -2.000
 7037.00    0.70299   0.74890   -2.000
 7038.00    0.73295   0.75142   -2.000
 7039.00    0.74934   0.75383   -2.000
 7040.00    0.74910   0.75631   -2.000
 7041.00    0.74248   0.75813   -2.000
 7042.00    0.74659   0.75912   -2.000
 7043.00    0.76289   0.75971   -2.000
 7044.00    0.77218   0.75966   -2.000
 7045.00    0.77169   0.75854   -2.000
 7046.00    0.78459   0.75653   -2.000
 7047.00    0.81410   0.75390   -2.000
 7048.00    0.83175   0.75049   -2.000
 7049.00    0.82228   0.74645   -2.000
 7050.00    0.79848   0.74253   -2.000
 7051.00    0.77854   0.73922   -2.000
 7052.00    0.77399   0.73647   -2.000
 7053.00    0.78094   0.73437   -2.000
 7054.00    0.78372   0.73296   -2.000
 7055.00    0.77805   0.73183   -2.000
 7056.00    0.77274   0.73069   -2.000
 7057.00    0.76912   0.72984   -2.000
 7058.00    0.76180   0.72922   -2.000
 7059.00    0.76048   0.72840   -2.000
 7060.00    0.78026   0.72745   -2.000
 7061.00    0.79876   0.72668   -2.000
 7062.00    0.77473   0.72598   -2.000
 7063.00    0.72404   0.72530   -2.000
 7064.00    0.70247   0.72489   -2.000
 7065.00    0.72039   0.72506   -2.000
 7066.00    0.74745   0.72615   -2.000
 7067.00    0.76719   0.72809   -2.000
 7068.00    0.77991   0.73023   -2.000
 7069.00    0.78370   0.73243   -2.000
 7070.00    0.77717   0.73486   -2.000
 7071.00    0.77117   0.73701   -2.000
 7072.00    0.77737   0.73836   -2.000
 7073.00    0.78544   0.73912   -2.000
 7074.00    0.77713   0.73948   -2.000
 7075.00    0.75496   0.73912   -2.000
 7076.00    0.73914   0.73773   -2.000
 7077.00    0.75451   0.73549   -2.000
 7078.00    0.80138   0.73258   -2.000
 7079.00    0.82252   0.72886   -2.000
 7080.00    0.77151   0.72421   -2.000
 7081.00    0.70050   0.71931   -2.000
 7082.00    0.68089   0.71509   -2.000
 7083.00    0.69963   0.71149   -2.000
 7084.00    0.71323   0.70817   -2.000
 7085.00    0.71878   0.70560   -2.000
 7086.00    0.72693   0.70407   -2.000
 7087.00    0.72831   0.70320   -2.000
 7088.00    0.71497   0.70278   -2.000
 7089.00    0.70169   0.70279   -2.000
 7090.00    0.70225   0.70312   -2.000
 7091.00    0.70856   0.70390   -2.000
 7092.00    0.70847   0.70511   -2.000
 7093.00    0.70131   0.70645   -2.000
 7094.00    0.69201   0.70782   -2.000
 7095.00    0.68547   0.70933   -2.000
 7096.00    0.68487   0.71094   -2.000
 7097.00    0.69094   0.71227   -2.000
 7098.00    0.70337   0.71321   -2.000
 7099.00    0.72026   0.71377   -2.000
 7100.00    0.72898   0.71416   -2.000
 7101.00    0.70640   0.71457   -2.000
 7102.00    0.65203   0.71463   -2.000
 7103.00    0.60014   0.71397   -2.000
 7104.00    0.58227   0.71308   -2.000
 7105.00    0.60545   0.71254   -2.000
 7106.00    0.64723   0.71193   -2.000
 7107.00    0.66621   0.71092   -2.000
 7108.00    0.65789   0.71022   -2.000
 7109.00    0.66218   0.71044   -2.000
 7110.00    0.68802   0.71114   -2.000
 7111.00    0.69952   0.71179   -2.000
 7112.00    0.68714   0.71259   -2.000
 7113.00    0.68096   0.71364   -2.000
 7114.00    0.69569   0.71437   -2.000
 7115.00    0.71903   0.71449   -2.000
 7116.00    0.74105   0.71441   -2.000
 7117.00    0.75954   0.71413   -2.000
 7118.00    0.76519   0.71317   -2.000
 7119.00    0.74553   0.71173   -2.000
 7120.00    0.70882   0.71050   -2.000
 7121.00    0.68013   0.70914   -2.000
 7122.00    0.67258   0.70695   -2.000
 7123.00    0.68128   0.70451   -2.000
 7124.00    0.68803   0.70266   -2.000
 7125.00    0.67651   0.70121   -2.000
 7126.00    0.66233   0.69969   -2.000
 7127.00    0.67447   0.69861   -2.000
 7128.00    0.70327   0.69870   -2.000
 7129.00    0.71606   0.69983   -2.000
 7130.00    0.70861   0.70142   -2.000
 7131.00    0.69840   0.70313   -2.000
 7132.00    0.69439   0.70488   -2.000
 7133.00    0.69599   0.70677   -2.000
 7134.00    0.70079   0.70851   -2.000
 7135.00    0.70753   0.70941   -2.000
 7136.00    0.71828   0.70976   -2.000
 7137.00    0.73371   0.71030   -2.000
 7138.00    0.74615   0.71075   -2.000
 7139.00    0.74805   0.71050   -2.000
 7140.00    0.74384   0.70976   -2.000
 7141.00    0.74110   0.70882   -2.000
 7142.00    0.73810   0.70785   -2.000
 7143.00    0.73012   0.70679   -2.000
 7144.00    0.71808   0.70544   -2.000
 7145.00    0.70458   0.70459   -2.000
 7146.00    0.68899   0.70513   -2.000
 7147.00    0.67289   0.70634   -2.000
 7148.00    0.66534   0.70764   -2.000
 7149.00    0.67557   0.70982   -2.000
 7150.00    0.70493   0.71265   -2.000
 7151.00    0.73920   0.71472   -2.000
 7152.00    0.74674   0.71601   -2.000
 7153.00    0.71472   0.71733   -2.000
 7154.00    0.67296   0.71831   -2.000
 7155.00    0.65281   0.71821   -2.000
 7156.00    0.65760   0.71728   -2.000
 7157.00    0.68061   0.71608   -2.000
 7158.00    0.71803   0.71485   -2.000
 7159.00    0.76232   0.71366   -2.000
 7160.00    0.79892   0.71243   -2.000
 7161.00    0.81431   0.71141   -2.000
 7162.00    0.80158   0.71140   -2.000
 7163.00    0.76361   0.71264   -2.000
 7164.00    0.71339   0.71454   -2.000
 7165.00    0.66710   0.71669   -2.000
 7166.00    0.63966   0.71908   -2.000
 7167.00    0.64091   0.72158   -2.000
 7168.00    0.67236   0.72372   -2.000
 7169.00    0.72118   0.72501   -2.000
 7170.00    0.76192   0.72563   -2.000
 7171.00    0.77369   0.72575   -2.000
 7172.00    0.75008   0.72502   -2.000
 7173.00    0.70880   0.72347   -2.000
 7174.00    0.68306   0.72197   -2.000
 7175.00    0.68077   0.72072   -2.000
 7176.00    0.68182   0.71919   -2.000
 7177.00    0.67556   0.71745   -2.000
 7178.00    0.66739   0.71633   -2.000
 7179.00    0.66158   0.71587   -2.000
 7180.00    0.65757   0.71519   -2.000
 7181.00    0.65451   0.71398   -2.000
 7182.00    0.65332   0.71275   -2.000
 7183.00    0.65844   0.71150   -2.000
 7184.00    0.67363   0.71001   -2.000
 7185.00    0.69175   0.70862   -2.000
 7186.00    0.70128   0.70787   -2.000
 7187.00    0.70552   0.70800   -2.000
 7188.00    0.71570   0.70901   -2.000
 7189.00    0.72907   0.71011   -2.000
 7190.00    0.73589   0.71123   -2.000
 7191.00    0.74030   0.71294   -2.000
 7192.00    0.74549   0.71475   -2.000
 7193.00    0.72326   0.71567   -2.000
 7194.00    0.65389   0.71608   -2.000
 7195.00    0.59491   0.71681   -2.000
 7196.00    0.61417   0.71752   -2.000
 7197.00    0.67735   0.71768   -2.000
 7198.00    0.71170   0.71742   -2.000
 7199.00    0.71512   0.71690   -2.000
 7200.00    0.71963   0.71610   -2.000
 7201.00    0.72627   0.71518   -2.000
 7202.00    0.72335   0.71392   -2.000
 7203.00    0.71675   0.71231   -2.000
 7204.00    0.71224   0.71109   -2.000
 7205.00    0.69424   0.71080   -2.000
 7206.00    0.65322   0.71102   -2.000
 7207.00    0.61329   0.71179   -2.000
 7208.00    0.59834   0.71331   -2.000
 7209.00    0.59961   0.71486   -2.000
 7210.00    0.60378   0.71635   -2.000
 7211.00    0.61838   0.71806   -2.000
 7212.00    0.65135   0.71952   -2.000
 7213.00    0.69312   0.72056   -2.000
 7214.00    0.72411   0.72177   -2.000
 7215.00    0.72418   0.72304   -2.000
 7216.00    0.69157   0.72372   -2.000
 7217.00    0.65119   0.72425   -2.000
 7218.00    0.62105   0.72514   -2.000
