###################################################################
## OUTPUT of StarlightChains_v04.for    [Cid@UFSC - 01/Apr/2007] ##
###################################################################

## Some input info
ASASSN14-iu.txt                          [arq_obs]
Base.CB07.vall.4m                        [arq_base]
Masks.EmLines.NEW.gm                     [arq_masks]
StCv04.C11.config                        [arq_config]
   66                                    [N_base]
    0                                    [N_YAV_components = # of components with extra extinction!]
    0                                    [i_FitPowerLaw (1/0 = Yes/No)]
-9.99                                    [alpha_PowerLaw]
CCM                                      [red_law_option]
 1.458241                                [q_norm = A(l_norm)/A(V)]

## (Re)Sampling Parameters
 3741.00                                 [l_ini (A)]
 7218.00                                 [l_fin (A)]
    1.00                                 [dl    (A)]     (OBS: dl_cushion =    50.00 A)

## Normalization info
 4020.00                                 [l_norm (A) - for base]
 4010.00                                 [llow_norm (A) - window for f_obs]
 4060.00                                 [lupp_norm (A) - window for f_obs]
4.577950E-16                             [fobs_norm (in input units)]

## S/N
 3691.00                                 [llow_SN (A) - window for S/N]
 7268.00                                 [lupp_SN (A) - window for S/N]
   4.294                                 [S/N in S/N window]
   3.071                                 [S/N in norm. window]
  33.370                                 [S/N_err in S/N window]
  23.865                                 [S/N_err in norm. window]
  1.0000                                 [fscale_chi2]

## etc...
    -2007446                             [idum_orig]
  2383                                   [NOl_eff]
  2367                                   [Nl_eff]
    16    NSIGMA                         [Ntot_cliped & clip_method]
   766150                                [Nglobal_steps]
   7                                     [N_chains]
  10                                     [NEX0s_base = N_base in EX0s-fits]
 0   0   1        7   2.0   4.398E+01    [Clip-Bug, RC-Crash & Burn-In warning-flags, n_censored_weights, wei_nsig_threshold & wei_limit]
    11     11.651     11.157      0.494  [idt_all, wdt_TotTime, wdt_UsrTime & wdt_SysTime (sec)]

## Synthesis Results - Best model ##

 4.68668E-01                             [chi2/Nl_eff]
     1.76555                             [adev (%)]

   109.78516                             [sum-of-x (%)]
 5.31146E-16                             [Flux_tot (units of input spectrum!)]
 2.79543E-11                             [Mini_tot (???)]
 1.45601E-11                             [Mcor_tot (???)]

  83.97                                  [v0_min  (km/s)]
 193.11                                  [vd_min  (km/s)]
 0.0411                                  [AV_min  (mag)]
 0.0000                                  [YAV_min (mag)]

# j     x_j(%)      Mini_j(%)     Mcor_j(%)     age_j(yr)     Z_j      (L/M)_j    YAV?  Mstars   component_j        a/Fe...       SSP_chi2r SSP_adev(%)   SSP_AV   SSP_x(%)
  1      0.0000     0.0000E+00    0.0000E+00    1.000000E+06  0.00400  1.094E-02    0   1.0000   age020_m42            0.0000     8.0170E+00    10.4085   3.7835   100.0421
  2      0.0000     0.0000E+00    0.0000E+00    3.160000E+06  0.00400  4.007E-02    0   0.9999   age045_m42            0.0000     7.6758E+00     9.8296   3.0462   107.5963
  3      0.0000     0.0000E+00    0.0000E+00    5.010000E+06  0.00400  2.539E-02    0   0.9488   age055_m42            0.0000     7.7810E+00    10.1147   3.3673   104.8549
  4      0.0000     0.0000E+00    0.0000E+00    6.610000E+06  0.00400  2.620E-02    0   0.9220   age061_m42            0.0000     7.6895E+00     9.9126   2.9608   108.4463
  5      0.0000     0.0000E+00    0.0000E+00    1.000000E+07  0.00400  1.322E-02    0   0.8862   age070_m42            0.0000     8.9717E+00    11.6722   2.5949   115.1754
  6      0.0000     0.0000E+00    0.0000E+00    1.445000E+07  0.00400  7.883E-03    0   0.8571   age078_m42            0.0000     8.9968E+00    11.6368   2.9343   111.5832
  7      0.0000     0.0000E+00    0.0000E+00    2.512000E+07  0.00400  5.251E-03    0   0.8174   age090_m42            0.0000     9.3813E+00    12.0009   2.4487   116.7172
  8      0.0000     0.0000E+00    0.0000E+00    4.000000E+07  0.00400  3.649E-03    0   0.7851   age104_m42            0.0000     8.9155E+00    11.6192   2.2277   117.3729
  9      0.0000     0.0000E+00    0.0000E+00    5.500000E+07  0.00400  3.098E-03    0   0.7629   age110_m42            0.0000     8.2421E+00    10.7024   2.4154   115.5402
 10      0.0000     0.0000E+00    0.0000E+00    1.015200E+08  0.00400  2.228E-03    0   0.7207   age116_m42            0.0000     7.8049E+00    10.0867   2.4583   114.5653
 11      0.0000     0.0000E+00    0.0000E+00    2.861200E+08  0.00400  1.093E-03    0   0.6648   age125_m42            0.0000     8.8360E+00    10.7114   1.8499   120.2973
 12      0.0000     0.0000E+00    0.0000E+00    5.088000E+08  0.00400  6.597E-04    0   0.6365   age130_m42            0.0000     7.4234E+00     9.5351   1.8773   119.2369
 13      0.0000     0.0000E+00    0.0000E+00    1.434000E+09  0.00400  2.132E-04    0   0.5798   age139_m42            0.0000     4.5730E+00     7.7144   0.9231   120.7490
 14      0.0000     0.0000E+00    0.0000E+00    4.250000E+09  0.00400  5.895E-05    0   0.5377   age158_m42            0.0000     2.7004E+00     5.9540   0.5434   112.9360
 15      0.0000     0.0000E+00    0.0000E+00    7.500000E+09  0.00400  3.510E-05    0   0.5212   age171_m42            0.0000     2.1494E+00     5.1846   0.3768   111.1458
 16      0.0000     0.0000E+00    0.0000E+00    1.300000E+10  0.00400  2.005E-05    0   0.5034   age193_m42            0.0000     1.8116E+00     4.6033   0.2313   109.6109
 17      0.0000     0.0000E+00    0.0000E+00    1.800000E+10  0.00400  1.525E-05    0   0.4967   age213_m42            0.0000     1.8502E+00     4.7169   0.2039   109.3397
 18      0.0000     0.0000E+00    0.0000E+00    1.000000E+06  0.00800  1.238E-02    0   1.0000   age020_m52            0.0000     7.9749E+00    10.3944   3.7798   100.2374
 19      0.0000     0.0000E+00    0.0000E+00    3.160000E+06  0.00800  3.074E-02    0   0.9966   age045_m52            0.0000     7.8203E+00    10.2556   3.7058   101.0069
 20      0.0000     0.0000E+00    0.0000E+00    5.010000E+06  0.00800  2.668E-02    0   0.9443   age055_m52            0.0000     7.6484E+00    10.1918   3.4464   104.0705
 21      0.0000     0.0000E+00    0.0000E+00    6.610000E+06  0.00800  2.136E-02    0   0.9177   age061_m52            0.0000     7.3465E+00    10.9674   2.1048   115.9732
 22      0.0000     0.0000E+00    0.0000E+00    1.000000E+07  0.00800  1.215E-02    0   0.8827   age070_m52            0.0000     9.6420E+00    12.3161   2.7516   116.1336
 23      0.0000     0.0000E+00    0.0000E+00    1.445000E+07  0.00800  8.717E-03    0   0.8552   age078_m52            0.0000     8.7453E+00    11.5646   2.8950   113.3872
 24      0.0000     0.0000E+00    0.0000E+00    2.512000E+07  0.00800  5.592E-03    0   0.8162   age090_m52            0.0000     9.3187E+00    12.0163   2.5049   118.5446
 25      0.0000     0.0000E+00    0.0000E+00    4.000000E+07  0.00800  3.896E-03    0   0.7841   age104_m52            0.0000     8.9759E+00    11.5317   2.4301   118.7910
 26      0.0000     0.0000E+00    0.0000E+00    1.015200E+08  0.00800  2.148E-03    0   0.7226   age116_m52            0.0000     7.9899E+00    10.4620   2.4049   116.6275
 27      0.0000     0.0000E+00    0.0000E+00    2.861200E+08  0.00800  9.925E-04    0   0.6683   age125_m52            0.0000     7.1509E+00     9.4591   1.9372   120.6082
 28      0.0000     0.0000E+00    0.0000E+00    9.047900E+08  0.00800  3.141E-04    0   0.6138   age135_m52            0.0000     4.6914E+00     7.2088   1.1817   123.3226
 29      0.0000     0.0000E+00    0.0000E+00    1.434000E+09  0.00800  1.719E-04    0   0.5853   age139_m52            0.0000     3.4967E+00     6.4989   0.6106   120.3866
 30      0.0000     0.0000E+00    0.0000E+00    2.500000E+09  0.00800  7.872E-05    0   0.5600   age150_m52            0.0000     1.8031E+00     4.6131   0.4049   113.8648
 31      0.0000     0.0000E+00    0.0000E+00    4.250000E+09  0.00800  4.336E-05    0   0.5426   age158_m52            0.0000     1.7952E+00     4.5682   0.3939   112.5895
 32      0.0000     0.0000E+00    0.0000E+00    6.250000E+09  0.00800  3.159E-05    0   0.5319   age166_m52            0.0000     1.2577E+00     3.5302   0.2222   111.0927
 33      0.0000     0.0000E+00    0.0000E+00    1.300000E+10  0.00800  1.361E-05    0   0.5073   age193_m52            0.0000     6.8060E-01     2.2964  -0.2077   108.5347
 34      0.0000     0.0000E+00    0.0000E+00    1.800000E+10  0.00800  9.886E-06    0   0.4990   age213_m52            0.0000     5.8079E-01     2.0619  -0.2811   106.3741
 35      0.0000     0.0000E+00    0.0000E+00    1.000000E+06  0.02000  1.544E-02    0   1.0000   age020_m62            0.0000     7.9761E+00    10.3949   3.7775   100.3887
 36      0.0000     0.0000E+00    0.0000E+00    3.160000E+06  0.02000  3.762E-02    0   0.9858   age045_m62            0.0000     7.9148E+00    10.3435   3.7191   101.1539
 37      0.0000     0.0000E+00    0.0000E+00    5.010000E+06  0.02000  3.296E-02    0   0.9342   age055_m62            0.0000     7.4086E+00     9.7575   3.3340   105.8434
 38      0.0000     0.0000E+00    0.0000E+00    8.710000E+06  0.02000  1.154E-02    0   0.8861   age067_m62            0.0000     1.6469E+01    17.0121   2.0532   128.1355
 39      0.0000     0.0000E+00    0.0000E+00    1.445000E+07  0.02000  7.663E-03    0   0.8472   age078_m62            0.0000     1.1297E+01    13.6221   2.3460   121.7906
 40      0.0000     0.0000E+00    0.0000E+00    2.512000E+07  0.02000  4.532E-03    0   0.8099   age090_m62            0.0000     1.2025E+01    13.9241   2.3282   122.0582
 41      0.0000     0.0000E+00    0.0000E+00    5.500000E+07  0.02000  2.733E-03    0   0.7595   age110_m62            0.0000     8.6180E+00    11.4394   2.4140   117.8721
 42      0.0000     0.0000E+00    0.0000E+00    1.609000E+08  0.02000  1.369E-03    0   0.6985   age120_m62            0.0000     7.6397E+00    10.1236   2.2898   119.1016
 43      0.0000     0.0000E+00    0.0000E+00    2.861200E+08  0.02000  9.013E-04    0   0.6714   age125_m62            0.0000     6.8302E+00     9.3383   2.0554   121.6482
 44      0.0000     0.0000E+00    0.0000E+00    5.088000E+08  0.02000  5.028E-04    0   0.6449   age130_m62            0.0000     5.2323E+00     7.6928   1.7288   122.0773
 45      0.0000     0.0000E+00    0.0000E+00    9.047900E+08  0.02000  2.428E-04    0   0.6179   age135_m62            0.0000     3.2259E+00     5.9930   1.1698   119.9705
 46      0.0430     5.8932E-03    6.6846E-03    1.434000E+09  0.02000  1.263E-04    0   0.5908   age139_m62            0.0000     2.1228E+00     4.9771   0.7427   117.3464
 47      0.0000     0.0000E+00    0.0000E+00    2.500000E+09  0.02000  5.985E-05    0   0.5673   age150_m62            0.0000     1.2170E+00     3.5307   0.4246   113.2990
 48      0.0299     1.5844E-02    1.6633E-02    4.250000E+09  0.02000  3.271E-05    0   0.5468   age158_m62            0.0000     6.3209E-01     2.1890   0.1685   109.9320
 49      5.5037     7.0039E+00    6.9481E+00    1.000000E+10  0.02000  1.360E-05    0   0.5167   age181_m62            0.0000     4.9223E-01     2.0674  -0.1306   107.1877
 50      2.7750     6.7416E+00    6.4885E+00    1.800000E+10  0.02000  7.124E-06    0   0.5013   age213_m62            0.0000     7.0450E-01     2.9513  -0.2970   104.3449
 51      0.0000     0.0000E+00    0.0000E+00    1.000000E+06  0.05000  2.592E-02    0   0.9998   age020_m72            0.0000     8.0401E+00    10.4870   3.7657   100.5655
 52      0.0000     0.0000E+00    0.0000E+00    3.160000E+06  0.05000  4.845E-02    0   0.9577   age045_m72            0.0000     7.6523E+00     9.9999   3.6067   102.3139
 53      0.0000     0.0000E+00    0.0000E+00    5.010000E+06  0.05000  3.072E-02    0   0.9147   age055_m72            0.0000     1.0449E+01    12.4720   2.9954   113.7739
 54      0.0000     0.0000E+00    0.0000E+00    6.610000E+06  0.05000  1.455E-02    0   0.8877   age061_m72            0.0000     2.9184E+01    20.6234   2.0363   133.6199
 55      0.0000     0.0000E+00    0.0000E+00    1.000000E+07  0.05000  9.074E-03    0   0.8524   age070_m72            0.0000     1.3991E+01    13.2453   3.1752   113.8297
 56      0.0000     0.0000E+00    0.0000E+00    2.512000E+07  0.05000  4.250E-03    0   0.7902   age090_m72            0.0000     1.2003E+01    12.7529   2.8640   116.4684
 57      0.0000     0.0000E+00    0.0000E+00    4.000000E+07  0.05000  3.087E-03    0   0.7618   age104_m72            0.0000     1.2496E+01    13.0407   2.6178   119.4461
 58      0.0000     0.0000E+00    0.0000E+00    1.015200E+08  0.05000  1.700E-03    0   0.7096   age116_m72            0.0000     8.7493E+00    10.8762   2.4072   119.9977
 59      0.0000     0.0000E+00    0.0000E+00    2.861200E+08  0.05000  7.384E-04    0   0.6633   age125_m72            0.0000     5.7893E+00     8.4231   1.9476   122.0028
 60      0.0000     0.0000E+00    0.0000E+00    5.088000E+08  0.05000  3.819E-04    0   0.6372   age130_m72            0.0000     3.5758E+00     6.4279   1.5046   121.2765
 61      7.9703     8.2304E-01    9.6549E-01    9.047900E+08  0.05000  1.676E-04    0   0.6110   age135_m72            0.0000     1.5769E+00     3.9595   0.8802   115.4567
 62      2.9073     5.6939E-01    6.4214E-01    1.434000E+09  0.05000  8.837E-05    0   0.5874   age139_m72            0.0000     1.0099E+00     3.2157   0.4276   114.7901
 63     68.0131     2.7808E+01    2.9887E+01    2.500000E+09  0.05000  4.233E-05    0   0.5598   age150_m72            0.0000     5.4052E-01     1.9335   0.1826   110.1625
 64      7.7558     9.3540E+00    9.4267E+00    6.250000E+09  0.05000  1.435E-05    0   0.5249   age166_m72            0.0000     5.3020E-01     2.2447  -0.2106   105.9535
 65      7.5941     2.0180E+01    1.9511E+01    1.300000E+10  0.05000  6.513E-06    0   0.5036   age193_m72            0.0000     9.8073E-01     3.6366  -0.4356   104.4209
 66      7.1929     2.7499E+01    2.6107E+01    1.800000E+10  0.05000  4.527E-06    0   0.4945   age213_m72            0.0000     1.4544E+00     4.5795  -0.5616   102.6228


## Synthesis Results - Average & Chains ##

# j      x_j: min, <> & last-chain-values for 1 ...  7 chains
  1      0.0000      0.0133      0.0000      0.0000      0.0000      0.0000      0.0000      0.0000      0.0000
  2      0.0000      0.0098      0.0000      0.0000      0.0000      0.0000      0.2822      0.0000      0.0000
  3      0.0000      0.0100      0.0000      0.0000      0.0000      0.0000      0.1262      0.0000      0.0000
  4      0.0000      0.0115      0.0000      0.0000      0.0000      0.0000      0.0000      0.0000      0.0000
  5      0.0000      0.0441      0.0000      0.0000      0.3000      0.0408      0.0000      0.0000      0.0000
  6      0.0000      0.0160      0.0000      0.0000      0.0186      0.0000      0.0000      0.0000      0.1409
  7      0.0000      0.0275      0.0000      0.0000      0.0000      0.0000      0.0000      0.0000      0.0000
  8      0.0000      0.0144      0.0000      0.0000      0.0000      0.0000      0.0000      0.0000      0.0167
  9      0.0000      0.0301      0.0000      0.0000      0.0009      0.0000      0.0000      0.0000      0.1765
 10      0.0000      0.0172      0.0000      0.0000      0.0000      0.0000      0.0000      0.0190      0.0000
 11      0.0000      0.0196      0.0565      0.0000      0.0000      0.0000      0.0000      0.0000      0.0000
 12      0.0000      0.0166      0.0000      0.0000      0.0000      0.0000      0.0000      0.0000      0.0000
 13      0.0000      0.0650      0.0000      0.0000      0.0000      0.0000      0.0000      0.0000      0.1063
 14      0.0000      0.0571      0.0000      0.0000      0.0000      0.0000      0.0000      0.0000      0.0000
 15      0.0000      0.0763      0.0000      0.0000      0.0000      0.0000      0.0000      0.0000      0.0000
 16      0.0000      0.0581      0.0000      0.0000      0.0000      0.0182      0.0000      0.0000      0.0000
 17      0.0000      0.0457      0.1211      0.0000      0.0000      0.0000      0.0198      0.0000      0.0000
 18      0.0000      0.0126      0.0000      0.0000      0.0000      0.0000      0.0000      0.0000      0.0000
 19      0.0000      0.0106      0.0000      0.0000      0.0391      0.0000      0.0000      0.0220      0.0000
 20      0.0000      0.0084      0.0493      0.0000      0.0000      0.0000      0.0000      0.0000      0.0000
 21      0.0000      0.0388      0.1366      0.0000      0.0000      0.0000      0.0000      0.0000      0.0000
 22      0.0000      0.0293      0.0000      0.0000      0.0000      0.0000      0.0000      0.0000      0.0000
 23      0.0000      0.0186      0.0000      0.0000      0.4061      0.0000      0.0000      0.0000      0.0000
 24      0.0000      0.0102      0.0000      0.0000      0.0000      0.0000      0.0000      0.0000      0.0000
 25      0.0000      0.0154      0.0000      0.0000      0.0000      0.0000      0.0000      0.0000      0.0000
 26      0.0000      0.0196      0.0000      0.0000      0.0000      0.0371      0.0000      0.0021      0.0059
 27      0.0000      0.0267      0.0000      0.0000      0.0000      0.0000      0.0000      0.0000      0.0000
 28      0.0000      0.0404      0.0000      0.0000      0.0000      0.0000      0.0000      0.0000      0.0000
 29      0.0000      0.0794      0.0000      0.0000      0.1716      0.0000      0.0000      0.0000      0.0000
 30      0.0000      0.1082      0.0000      0.0000      0.0000      0.0000      0.0000      0.0753      0.0799
 31      0.0000      0.0526      0.0000      0.0000      0.0000      0.1004      0.0000      0.0249      0.0000
 32      0.0000      0.0856      0.0000      0.0000      0.0000      0.0000      0.0000      0.0000      0.0802
 33      0.0000      0.0461      0.0000      0.0000      0.4026      0.0000      0.0000      0.0000      0.0000
 34      0.0000      0.0722      0.0000      0.0000      0.0657      0.0000      0.0239      0.4840      0.0000
 35      0.0000      0.0190      0.0000      0.0000      0.0000      0.0000      0.0125      0.0000      0.0000
 36      0.0000      0.0177      0.0000      0.0000      0.0000      0.0000      0.2163      0.0000      0.0000
 37      0.0000      0.0055      0.0000      0.1410      0.0000      0.0267      0.0000      0.0000      0.0000
 38      0.0000      0.0092      0.0000      0.0000      0.0000      0.0000      0.0000      0.0000      0.0000
 39      0.0000      0.0210      0.1020      0.1021      0.0501      0.0000      0.0000      0.0000      0.0000
 40      0.0000      0.0119      0.0000      0.0000      0.0000      0.0000      0.0000      0.0000      0.0000
 41      0.0000      0.0114      0.0458      0.0000      0.0000      0.0000      0.0000      0.0000      0.0000
 42      0.0000      0.0227      0.0000      0.0000      0.0000      0.0000      0.1235      0.2698      0.0189
 43      0.0000      0.0511      0.1167      0.5782      0.1349      0.0000      0.1362      0.0000      0.1961
 44      0.0000      0.0403      0.0000      0.1865      0.0000      0.0000      0.0000      0.2578      0.0934
 45      0.0000      0.0638      0.0000      0.0000      0.0000      0.0000      0.0000      0.0000      0.0000
 46      0.0430      0.0888      0.0000      0.9397      0.0756      0.0000      0.0000      0.6212      0.0000
 47      0.0000      0.1700      0.0000      0.0000      0.0000      0.0000      0.0000      0.0000      0.0796
 48      0.0299      6.0719      6.7057      6.3747      3.3034      5.2712      0.0000      5.6425      1.2690
 49      5.5037      3.5171      3.3243      3.2346      4.9326      4.8662      3.1137      3.8793      3.2287
 50      2.7750      1.4336      2.1949      1.8955      1.4006      0.0000      1.4277      2.8452      1.3947
 51      0.0000      0.0105      0.0000      0.0000      0.0000      0.0000      0.0000      0.0000      0.0000
 52      0.0000      0.0117      0.0000      0.0000      0.0000      0.0000      0.0000      0.0000      0.0000
 53      0.0000      0.0119      0.0000      0.0000      0.0000      0.0000      0.0000      0.0000      0.0000
 54      0.0000      0.0106      0.0000      0.0000      0.0460      0.0000      0.0000      0.0000      0.0000
 55      0.0000      0.0098      0.0000      0.0000      0.0000      0.0000      0.0000      0.0000      0.0000
 56      0.0000      0.0122      0.0000      0.0000      0.0000      0.0000      0.0000      0.0000      0.0000
 57      0.0000      0.0127      0.0000      0.0000      0.0000      0.0000      0.0258      0.0000      0.0000
 58      0.0000      0.0403      0.0115      0.0000      0.0000      0.0000      0.1993      0.4528      0.0000
 59      0.0000      0.0344      0.0000      0.0000      0.0000      0.0000      0.0000      0.0000      0.0000
 60      0.0000      0.0460      0.0000      0.0000      0.0000      0.0000      0.0753      0.1053      0.0000
 61      7.9703      9.5032      9.9773      9.8096      9.1317      8.8247     10.4495      8.6301      8.4727
 62      2.9073     10.8915      9.8031      9.4909      8.6906     11.3027      8.2449      9.2613     13.0892
 63     68.0131     71.5211     71.9422     71.8004     75.2334     73.7441     79.9114     71.0255     73.9371
 64      7.7558      3.1850      2.6773      3.4660      3.7269      3.8721      3.3797      3.2222      4.3195
 65      7.5941      2.0428      2.4826      2.2249      2.2597      1.6985      2.2257      2.1005      3.1364
 66      7.1929      0.6574      0.6462      0.6093      0.5662      1.0015      0.7956      1.8459      0.6782

# j      m_j: min, <> & last-chain-values for 1 ...  7 chains
  1  0.0000E+00  6.9430E-05  0.0000E+00  0.0000E+00  0.0000E+00  0.0000E+00  0.0000E+00  0.0000E+00  0.0000E+00
  2  0.0000E+00  1.3897E-05  0.0000E+00  0.0000E+00  0.0000E+00  0.0000E+00  4.0170E-04  0.0000E+00  0.0000E+00
  3  0.0000E+00  2.1372E-05  0.0000E+00  0.0000E+00  0.0000E+00  0.0000E+00  2.6902E-04  0.0000E+00  0.0000E+00
  4  0.0000E+00  2.3174E-05  0.0000E+00  0.0000E+00  0.0000E+00  0.0000E+00  0.0000E+00  0.0000E+00  0.0000E+00
  5  0.0000E+00  1.6874E-04  0.0000E+00  0.0000E+00  1.1053E-03  1.5734E-04  0.0000E+00  0.0000E+00  0.0000E+00
  6  0.0000E+00  9.9188E-05  0.0000E+00  0.0000E+00  1.1089E-04  0.0000E+00  0.0000E+00  0.0000E+00  8.4378E-04
  7  0.0000E+00  2.4447E-04  0.0000E+00  0.0000E+00  0.0000E+00  0.0000E+00  0.0000E+00  0.0000E+00  0.0000E+00
  8  0.0000E+00  1.7743E-04  0.0000E+00  0.0000E+00  0.0000E+00  0.0000E+00  0.0000E+00  0.0000E+00  1.9745E-04
  9  0.0000E+00  4.2393E-04  0.0000E+00  0.0000E+00  1.1758E-05  0.0000E+00  0.0000E+00  0.0000E+00  2.3940E-03
 10  0.0000E+00  3.1826E-04  0.0000E+00  0.0000E+00  0.0000E+00  0.0000E+00  0.0000E+00  3.0946E-04  0.0000E+00
 11  0.0000E+00  6.8133E-04  1.8983E-03  0.0000E+00  0.0000E+00  0.0000E+00  0.0000E+00  0.0000E+00  0.0000E+00
 12  0.0000E+00  9.1328E-04  0.0000E+00  0.0000E+00  0.0000E+00  0.0000E+00  0.0000E+00  0.0000E+00  0.0000E+00
 13  0.0000E+00  1.0092E-02  0.0000E+00  0.0000E+00  0.0000E+00  0.0000E+00  0.0000E+00  0.0000E+00  1.5916E-02
 14  0.0000E+00  2.9759E-02  0.0000E+00  0.0000E+00  0.0000E+00  0.0000E+00  0.0000E+00  0.0000E+00  0.0000E+00
 15  0.0000E+00  6.4687E-02  0.0000E+00  0.0000E+00  0.0000E+00  0.0000E+00  0.0000E+00  0.0000E+00  0.0000E+00
 16  0.0000E+00  8.3277E-02  0.0000E+00  0.0000E+00  0.0000E+00  2.6261E-02  0.0000E+00  0.0000E+00  0.0000E+00
 17  0.0000E+00  8.4945E-02  2.1788E-01  0.0000E+00  0.0000E+00  0.0000E+00  3.6834E-02  0.0000E+00  0.0000E+00
 18  0.0000E+00  5.7995E-05  0.0000E+00  0.0000E+00  0.0000E+00  0.0000E+00  0.0000E+00  0.0000E+00  0.0000E+00
 19  0.0000E+00  1.9564E-05  0.0000E+00  0.0000E+00  6.9677E-05  0.0000E+00  0.0000E+00  3.5974E-05  0.0000E+00
 20  0.0000E+00  1.7029E-05  9.6404E-05  0.0000E+00  0.0000E+00  0.0000E+00  0.0000E+00  0.0000E+00  0.0000E+00
 21  0.0000E+00  9.5200E-05  3.2428E-04  0.0000E+00  0.0000E+00  0.0000E+00  0.0000E+00  0.0000E+00  0.0000E+00
 22  0.0000E+00  1.2165E-04  0.0000E+00  0.0000E+00  0.0000E+00  0.0000E+00  0.0000E+00  0.0000E+00  0.0000E+00
 23  0.0000E+00  1.0428E-04  0.0000E+00  0.0000E+00  2.1898E-03  0.0000E+00  0.0000E+00  0.0000E+00  0.0000E+00
 24  0.0000E+00  8.5144E-05  0.0000E+00  0.0000E+00  0.0000E+00  0.0000E+00  0.0000E+00  0.0000E+00  0.0000E+00
 25  0.0000E+00  1.7667E-04  0.0000E+00  0.0000E+00  0.0000E+00  0.0000E+00  0.0000E+00  0.0000E+00  0.0000E+00
 26  0.0000E+00  3.7664E-04  0.0000E+00  0.0000E+00  0.0000E+00  7.1688E-04  0.0000E+00  3.6420E-05  1.0900E-04
 27  0.0000E+00  1.0250E-03  0.0000E+00  0.0000E+00  0.0000E+00  0.0000E+00  0.0000E+00  0.0000E+00  0.0000E+00
 28  0.0000E+00  4.5032E-03  0.0000E+00  0.0000E+00  0.0000E+00  0.0000E+00  0.0000E+00  0.0000E+00  0.0000E+00
 29  0.0000E+00  1.5444E-02  0.0000E+00  0.0000E+00  3.2117E-02  0.0000E+00  0.0000E+00  0.0000E+00  0.0000E+00
 30  0.0000E+00  4.3942E-02  0.0000E+00  0.0000E+00  0.0000E+00  0.0000E+00  0.0000E+00  2.6976E-02  3.1296E-02
 31  0.0000E+00  3.7587E-02  0.0000E+00  0.0000E+00  0.0000E+00  7.2195E-02  0.0000E+00  1.5701E-02  0.0000E+00
 32  0.0000E+00  8.2318E-02  0.0000E+00  0.0000E+00  0.0000E+00  0.0000E+00  0.0000E+00  0.0000E+00  7.4331E-02
 33  0.0000E+00  9.8224E-02  0.0000E+00  0.0000E+00  8.2470E-01  0.0000E+00  0.0000E+00  0.0000E+00  0.0000E+00
 34  0.0000E+00  2.0813E-01  0.0000E+00  0.0000E+00  1.8216E-01  0.0000E+00  6.8829E-02  1.2306E+00  0.0000E+00
 35  0.0000E+00  7.0456E-05  0.0000E+00  0.0000E+00  0.0000E+00  0.0000E+00  4.6014E-05  0.0000E+00  0.0000E+00
 36  0.0000E+00  2.6456E-05  0.0000E+00  0.0000E+00  0.0000E+00  0.0000E+00  3.2325E-04  0.0000E+00  0.0000E+00
 37  0.0000E+00  8.8732E-06  0.0000E+00  2.2433E-04  0.0000E+00  4.3518E-05  0.0000E+00  0.0000E+00  0.0000E+00
 38  0.0000E+00  4.0554E-05  0.0000E+00  0.0000E+00  0.0000E+00  0.0000E+00  0.0000E+00  0.0000E+00  0.0000E+00
 39  0.0000E+00  1.3234E-04  6.2321E-04  6.3349E-04  3.0432E-04  0.0000E+00  0.0000E+00  0.0000E+00  0.0000E+00
 40  0.0000E+00  1.2136E-04  0.0000E+00  0.0000E+00  0.0000E+00  0.0000E+00  0.0000E+00  0.0000E+00  0.0000E+00
 41  0.0000E+00  1.8048E-04  7.0361E-04  0.0000E+00  0.0000E+00  0.0000E+00  0.0000E+00  0.0000E+00  0.0000E+00
 42  0.0000E+00  6.6227E-04  0.0000E+00  0.0000E+00  0.0000E+00  0.0000E+00  3.5949E-03  6.9334E-03  5.3024E-04
 43  0.0000E+00  2.1747E-03  4.8015E-03  2.4175E-02  5.5246E-03  0.0000E+00  5.7882E-03  0.0000E+00  8.0444E-03
 44  0.0000E+00  2.9523E-03  0.0000E+00  1.3429E-02  0.0000E+00  0.0000E+00  0.0000E+00  1.6656E-02  6.5965E-03
 45  0.0000E+00  9.2728E-03  0.0000E+00  0.0000E+00  0.0000E+00  0.0000E+00  0.0000E+00  0.0000E+00  0.0000E+00
 46  6.6846E-03  2.3726E-02  0.0000E+00  2.4672E-01  1.9434E-02  0.0000E+00  0.0000E+00  1.4637E-01  0.0000E+00
 47  0.0000E+00  9.2023E-02  0.0000E+00  0.0000E+00  0.0000E+00  0.0000E+00  0.0000E+00  0.0000E+00  4.1560E-02
 48  1.6633E-02  5.7967E+00  6.1919E+00  5.9811E+00  3.0350E+00  5.0652E+00  0.0000E+00  4.7514E+00  1.1684E+00
 49  6.9481E+00  7.6312E+00  6.9765E+00  6.8975E+00  1.0300E+01  1.0628E+01  6.7469E+00  7.4243E+00  6.7561E+00
 50  6.4885E+00  5.7610E+00  8.5312E+00  7.4865E+00  5.4165E+00  0.0000E+00  5.7299E+00  1.0085E+01  5.4055E+00
 51  0.0000E+00  2.3171E-05  0.0000E+00  0.0000E+00  0.0000E+00  0.0000E+00  0.0000E+00  0.0000E+00  0.0000E+00
 52  0.0000E+00  1.3191E-05  0.0000E+00  0.0000E+00  0.0000E+00  0.0000E+00  0.0000E+00  0.0000E+00  0.0000E+00
 53  0.0000E+00  2.0299E-05  0.0000E+00  0.0000E+00  0.0000E+00  0.0000E+00  0.0000E+00  0.0000E+00  0.0000E+00
 54  0.0000E+00  3.7036E-05  0.0000E+00  0.0000E+00  1.5414E-04  0.0000E+00  0.0000E+00  0.0000E+00  0.0000E+00
 55  0.0000E+00  5.2688E-05  0.0000E+00  0.0000E+00  0.0000E+00  0.0000E+00  0.0000E+00  0.0000E+00  0.0000E+00
 56  0.0000E+00  1.2962E-04  0.0000E+00  0.0000E+00  0.0000E+00  0.0000E+00  0.0000E+00  0.0000E+00  0.0000E+00
 57  0.0000E+00  1.7954E-04  0.0000E+00  0.0000E+00  0.0000E+00  0.0000E+00  3.6320E-04  0.0000E+00  0.0000E+00
 58  0.0000E+00  9.5976E-04  2.6579E-04  0.0000E+00  0.0000E+00  0.0000E+00  4.7450E-03  9.5217E-03  0.0000E+00
 59  0.0000E+00  1.7623E-03  0.0000E+00  0.0000E+00  0.0000E+00  0.0000E+00  0.0000E+00  0.0000E+00  0.0000E+00
 60  0.0000E+00  4.3795E-03  0.0000E+00  0.0000E+00  0.0000E+00  0.0000E+00  7.1626E-03  8.8483E-03  0.0000E+00
 61  9.6549E-01  1.9785E+00  2.0092E+00  2.0072E+00  1.8296E+00  1.8493E+00  2.1727E+00  1.5848E+00  1.7012E+00
 62  6.4214E-01  4.1345E+00  3.5994E+00  3.5409E+00  3.1749E+00  4.3187E+00  3.1257E+00  3.1010E+00  4.7920E+00
 63  2.9887E+01  5.4016E+01  5.2553E+01  5.3295E+01  5.4682E+01  5.6060E+01  6.0274E+01  4.7315E+01  5.3855E+01
 64  9.4267E+00  6.6533E+00  5.4095E+00  7.1158E+00  7.4924E+00  8.1417E+00  7.0508E+00  5.9372E+00  8.7024E+00
 65  1.9511E+01  9.0204E+00  1.0603E+01  9.6558E+00  9.6030E+00  7.5492E+00  9.8152E+00  8.1815E+00  1.3357E+01
 66  2.6107E+01  4.1010E+00  3.8988E+00  3.7354E+00  3.3994E+00  6.2887E+00  4.9564E+00  1.0157E+01  4.0804E+00

# AV, chi2 & Mass for <> & i_chain = 1 ...  7 solutions
AV       0.0411      0.2100      0.2030      0.2056      0.1884      0.1945      0.2087      0.1770      0.1968
chi2 4.6867E-01  5.6909E-01  5.6193E-01  5.6390E-01  5.5225E-01  5.5403E-01  5.6021E-01  5.4454E-01  5.5474E-01
Mass 1.4560E-11  1.0628E-11  1.0886E-11  1.0751E-11  1.0728E-11  1.0342E-11  1.0624E-11  1.1526E-11  1.0826E-11
  83.97                                  [v0_min (km/s) before EX0s...]
 193.11                                  [vd_min (km/s) before EX0s...]


## Synthetic spectrum (Best Model) ##l_obs f_obs f_syn wei
 3478    [Nl_obs]
 3741.00    0.41403   0.50037    0.000
 3742.00    0.45069   0.51346    0.000
 3743.00    0.47464   0.50875    0.000
 3744.00    0.47852   0.48904    0.000
 3745.00    0.46555   0.46051    8.689
 3746.00    0.44674   0.43000    8.230
 3747.00    0.43472   0.40304    8.464
 3748.00    0.43847   0.38416    9.137
 3749.00    0.45840   0.37762    9.774
 3750.00    0.48448   0.38674   10.145
 3751.00    0.50616   0.41270   10.301
 3752.00    0.51900   0.45296   10.436
 3753.00    0.52420   0.50016   10.636
 3754.00    0.52725   0.54382   10.773
 3755.00    0.53261   0.57405   10.866
 3756.00    0.54009   0.58489   11.164
 3757.00    0.54149   0.57627   11.267
 3758.00    0.52350   0.55425   10.192
 3759.00    0.48883   0.52882    8.815
 3760.00    0.46015   0.50957    8.640
 3761.00    0.45136   0.50130    9.853
 3762.00    0.45716   0.50263   11.248
 3763.00    0.46425   0.50858   11.536
 3764.00    0.46012   0.51460   11.593
 3765.00    0.44738   0.51866   12.166
 3766.00    0.44168   0.52109   12.860
 3767.00    0.44591   0.52366   13.242
 3768.00    0.44958   0.52835   13.362
 3769.00    0.45661   0.53673   13.359
 3770.00    0.48393   0.54983   13.264
 3771.00    0.52966   0.56727   13.058
 3772.00    0.57360   0.58696   12.762
 3773.00    0.60608   0.60627   12.600
 3774.00    0.62991   0.62323   12.752
 3775.00    0.64447   0.63670   12.665
 3776.00    0.64518   0.64698   11.674
 3777.00    0.63225   0.65607   10.628
 3778.00    0.61349   0.66641   10.518
 3779.00    0.60518   0.67919   11.134
 3780.00    0.62201   0.69365   11.516
 3781.00    0.65694   0.70745   11.234
 3782.00    0.68892   0.71745   10.697
 3783.00    0.70535   0.72020   10.360
 3784.00    0.70456   0.71276   10.414
 3785.00    0.69224   0.69389   10.669
 3786.00    0.67475   0.66498   10.824
 3787.00    0.64980   0.63025   11.039
 3788.00    0.61502   0.59584   11.602
 3789.00    0.58223   0.56765   12.128
 3790.00    0.56259   0.54898   12.064
 3791.00    0.54436   0.53884   11.987
 3792.00    0.51231   0.53314   12.648
 3793.00    0.47575   0.52720   13.588
 3794.00    0.45235   0.51802   13.759
 3795.00    0.44490   0.50517   13.400
 3796.00    0.44747   0.49075   13.290
 3797.00    0.45565   0.47847   13.441
 3798.00    0.47128   0.47252   13.541
 3799.00    0.50431   0.47645   13.444
 3800.00    0.55425   0.49202   13.189
 3801.00    0.59511   0.51810   12.914
 3802.00    0.60549   0.55055   12.700
 3803.00    0.59426   0.58312   12.491
 3804.00    0.57850   0.60959   12.357
 3805.00    0.56422   0.62624   12.628
 3806.00    0.55370   0.63336   13.445
 3807.00    0.55159   0.63467   14.322
 3808.00    0.55883   0.63486   14.711
 3809.00    0.56913   0.63671   14.792
 3810.00    0.57628   0.63908   14.752
 3811.00    0.57901   0.63757   14.279
 3812.00    0.57952   0.62743   13.520
 3813.00    0.58098   0.60688   13.230
 3814.00    0.58015   0.57859   13.648
 3815.00    0.56615   0.54846   14.226
 3816.00    0.53635   0.52236   14.372
 3817.00    0.50205   0.50320   14.062
 3818.00    0.47450   0.49012   13.654
 3819.00    0.45805   0.48024   13.528
 3820.00    0.45170   0.47108   13.708
 3821.00    0.45075   0.46187   13.857
 3822.00    0.45018   0.45275   13.870
 3823.00    0.44610   0.44330   14.022
 3824.00    0.43582   0.43244   14.417
 3825.00    0.41870   0.41978   14.824
 3826.00    0.39948   0.40668   14.988
 3827.00    0.38701   0.39572   14.817
 3828.00    0.38630   0.38887   14.435
 3829.00    0.39543   0.38586   14.078
 3830.00    0.40446   0.38434   13.886
 3831.00    0.40181   0.38144   13.857
 3832.00    0.39232   0.37576   13.802
 3833.00    0.39230   0.36816   13.398
 3834.00    0.40324   0.36111   12.426
 3835.00    0.41321   0.35690   11.149
 3836.00    0.41697   0.35625   10.414
 3837.00    0.41733   0.35847   10.867
 3838.00    0.41694   0.36285   12.230
 3839.00    0.41736   0.37007   13.197
 3840.00    0.42086   0.38220   13.340
 3841.00    0.42935   0.40120   13.599
 3842.00    0.44177   0.42705   14.121
 3843.00    0.45714   0.45701   14.279
 3844.00    0.48045   0.48663   13.879
 3845.00    0.51410   0.51166   13.224
 3846.00    0.54290   0.52957   12.573
 3847.00    0.54762   0.53995    0.000
 3848.00    0.52904   0.54391    0.000
 3849.00    0.50262   0.54347    0.000
 3850.00    0.48519   0.54099    0.000
 3851.00    0.48526   0.53838    0.000
 3852.00    0.49354   0.53631    0.000
 3853.00    0.49523   0.53390    0.000
 3854.00    0.48636   0.52930    0.000
 3855.00    0.47159   0.52104    0.000
 3856.00    0.45935   0.50895    0.000
 3857.00    0.45770   0.49434    0.000
 3858.00    0.47042   0.47990    0.000
 3859.00    0.49441   0.46924    0.000
 3860.00    0.51837   0.46615    0.000
 3861.00    0.53206   0.47301    0.000
 3862.00    0.53439   0.48916    0.000
 3863.00    0.53010   0.51054    0.000
 3864.00    0.52593   0.53118    0.000
 3865.00    0.52667   0.54584    0.000
 3866.00    0.53228   0.55195    0.000
 3867.00    0.53759   0.54967    0.000
 3868.00    0.53360   0.54081    0.000
 3869.00    0.51634   0.52773    0.000
 3870.00    0.49173   0.51325    0.000
 3871.00    0.46783   0.50086    0.000
 3872.00    0.45029   0.49432    0.000
 3873.00    0.44557   0.49614    0.000
 3874.00    0.46111   0.50579    0.000
 3875.00    0.49569   0.51926    0.000
 3876.00    0.53579   0.53064    0.000
 3877.00    0.56378   0.53535    0.000
 3878.00    0.56540   0.53235    0.000
 3879.00    0.54414   0.52428    0.000
 3880.00    0.52141   0.51535    0.000
 3881.00    0.50990   0.50885   14.544
 3882.00    0.50618   0.50588   14.269
 3883.00    0.50683   0.50540   14.458
 3884.00    0.51261   0.50518   14.873
 3885.00    0.51980   0.50319   15.232
 3886.00    0.52154   0.49902   15.382
 3887.00    0.52280   0.49479   15.382
 3888.00    0.53734   0.49467   15.436
 3889.00    0.56306   0.50280   15.630
 3890.00    0.58247   0.52100   15.868
 3891.00    0.58647   0.54746   15.921
 3892.00    0.57994   0.57741   15.623
 3893.00    0.57799   0.60516   15.292
 3894.00    0.59549   0.62658   15.415
 3895.00    0.62516   0.64049   15.882
 3896.00    0.64443   0.64831   16.166
 3897.00    0.64303   0.65258   16.272
 3898.00    0.62708   0.65540   16.671
 3899.00    0.61371   0.65785   17.478
 3900.00    0.61893   0.65993   18.352
 3901.00    0.63715   0.66086   18.707
 3902.00    0.64987   0.65954   18.272
 3903.00    0.64824   0.65535   17.790
 3904.00    0.63553   0.64917   18.006
 3905.00    0.62374   0.64392   18.344
 3906.00    0.62530   0.64363   17.741
 3907.00    0.64125   0.65154   16.542
 3908.00    0.66482   0.66830   15.619
 3909.00    0.68927   0.69142   15.156
 3910.00    0.71114   0.71632   14.973
 3911.00    0.73261   0.73830   14.787
 3912.00    0.75547   0.75404   14.421
 3913.00    0.77370   0.76205   14.029
 3914.00    0.77850   0.76235   13.855
 3915.00    0.76541   0.75569   14.009
 3916.00    0.73753   0.74303   14.430
 3917.00    0.70733   0.72529   14.809
 3918.00    0.68707   0.70345   14.876
 3919.00    0.67928   0.67899   14.791
 3920.00    0.67723   0.65406   14.770
 3921.00    0.66759   0.63127   14.731
 3922.00    0.64361   0.61256   14.547
 3923.00    0.61407   0.59792   14.280
 3924.00    0.58636   0.58477   14.064
 3925.00    0.55456   0.56875   13.998
 3926.00    0.51569   0.54557   14.051
 3927.00    0.47972   0.51284   14.032
 3928.00    0.45190   0.47109   13.941
 3929.00    0.42256   0.42325   14.090
 3930.00    0.38269   0.37368   14.391
 3931.00    0.33452   0.32692   14.061
 3932.00    0.29363   0.28711   13.102
 3933.00    0.28381   0.25773   12.552
 3934.00    0.30527   0.24160   12.876
 3935.00    0.32717   0.24061   13.816
 3936.00    0.33669   0.25519   14.891
 3937.00    0.35424   0.28383   15.597
 3938.00    0.38737   0.32294   15.848
 3939.00    0.41731   0.36730   16.122
 3940.00    0.43554   0.41133   16.580
 3941.00    0.45391   0.45058   16.803
 3942.00    0.48067   0.48321   16.649
 3943.00    0.51199   0.51033   16.499
 3944.00    0.53780   0.53508   16.505
 3945.00    0.54871   0.56068   16.477
 3946.00    0.55096   0.58865   16.293
 3947.00    0.56357   0.61827   16.015
 3948.00    0.59340   0.64751   15.744
 3949.00    0.63256   0.67433   15.545
 3950.00    0.67402   0.69741   15.353
 3951.00    0.71376   0.71609   15.091
 3952.00    0.74414   0.73010   14.992
 3953.00    0.75662   0.73944   15.393
 3954.00    0.75292   0.74423   16.077
 3955.00    0.74265   0.74462   16.351
 3956.00    0.73139   0.74062   16.097
 3957.00    0.71832   0.73189   15.806
 3958.00    0.69726   0.71759   15.789
 3959.00    0.66304   0.69620   15.989
 3960.00    0.62296   0.66614    0.000
 3961.00    0.58867   0.62699    0.000
 3962.00    0.55787   0.58037    0.000
 3963.00    0.52187   0.52946    0.000
 3964.00    0.48365   0.47761    0.000
 3965.00    0.45066   0.42719    0.000
 3966.00    0.41950   0.37993    0.000
 3967.00    0.38420   0.33815    0.000
 3968.00    0.35126   0.30545    0.000
 3969.00    0.33158   0.28613    0.000
 3970.00    0.32722   0.28367    0.000
 3971.00    0.33748   0.29926    0.000
 3972.00    0.36798   0.33137    0.000
 3973.00    0.42106   0.37645    0.000
 3974.00    0.48439   0.43017    0.000
 3975.00    0.54267   0.48853    0.000
 3976.00    0.59142   0.54827    0.000
 3977.00    0.63466   0.60680    0.000
 3978.00    0.68046   0.66174    0.000
 3979.00    0.73318   0.71063    0.000
 3980.00    0.78706   0.75117    0.000
 3981.00    0.83116   0.78188   13.480
 3982.00    0.85522   0.80311   13.480
 3983.00    0.85957   0.81715   14.066
 3984.00    0.86027   0.82759   14.766
 3985.00    0.86992   0.83781   15.006
 3986.00    0.88493   0.84968   14.884
 3987.00    0.89905   0.86322   14.760
 3988.00    0.91229   0.87734   14.816
 3989.00    0.92402   0.89058   15.069
 3990.00    0.92960   0.90199   15.410
 3991.00    0.92890   0.91124   15.697
 3992.00    0.92947   0.91811   15.832
 3993.00    0.93621   0.92207   15.805
 3994.00    0.94634   0.92236   15.704
 3995.00    0.95453   0.91915   15.650
 3996.00    0.95671   0.91441   15.744
 3997.00    0.95464   0.91164   15.972
 3998.00    0.95611   0.91441   16.177
 3999.00    0.96608   0.92452   16.197
 4000.00    0.98338   0.94039   15.991
 4001.00    1.00320   0.95714   15.760
 4002.00    1.01838   0.96860   15.820
 4003.00    1.02022   0.97027   16.133
 4004.00    1.00274   0.96170   16.271
 4005.00    0.97553   0.94680   16.032
 4006.00    0.96029   0.93241   15.634
 4007.00    0.96604   0.92524   15.394
 4008.00    0.98510   0.92875   15.514
 4009.00    1.00533   0.94191   15.793
 4010.00    1.01675   0.96059   15.749
 4011.00    1.01895   0.98013   15.398
 4012.00    1.01895   0.99747   15.172
 4013.00    1.02080   1.01157   15.201
 4014.00    1.02576   1.02253   15.331
 4015.00    1.03857   1.03086   15.422
 4016.00    1.06331   1.03724   15.396
 4017.00    1.09146   1.04225   15.208
 4018.00    1.10857   1.04621   14.897
 4019.00    1.11226   1.04917   14.646
 4020.00    1.10893   1.05068   14.643
 4021.00    1.10114   1.04998   14.872
 4022.00    1.08842   1.04674   15.157
 4023.00    1.07263   1.04209   15.287
 4024.00    1.05725   1.03825   15.155
 4025.00    1.04478   1.03711   14.923
 4026.00    1.03693   1.03860   14.819
 4027.00    1.03532   1.03955   14.877
 4028.00    1.03874   1.03458   15.022
 4029.00    1.03981   1.01903   15.233
 4030.00    1.03138   0.99177   15.471
 4031.00    1.01485   0.95667   15.584
 4032.00    0.99563   0.92211   15.475
 4033.00    0.97687   0.89785   15.316
 4034.00    0.96081   0.89129   15.294
 4035.00    0.95086   0.90469   15.349
 4036.00    0.94810   0.93447   15.383
 4037.00    0.94804   0.97259   15.478
 4038.00    0.94616   1.00948   15.676
 4039.00    0.94310   1.03705   15.780
 4040.00    0.94227   1.05055   15.669
 4041.00    0.94703   1.04815   15.565
 4042.00    0.95820   1.03014   15.557
 4043.00    0.97243   0.99920   15.315
 4044.00    0.98421   0.96122   14.782
 4045.00    0.98825   0.92516   14.484
 4046.00    0.98492   0.90067   14.672
 4047.00    0.98236   0.89501   14.968
 4048.00    0.98539   0.90980   15.053
 4049.00    0.98985   0.93943   15.129
 4050.00    0.99208   0.97347   15.419
 4051.00    0.99390   1.00149   15.856
 4052.00    0.99695   1.01664   16.229
 4053.00    1.00000   1.01728   16.323
 4054.00    1.00187   1.00622   16.153
 4055.00    1.00273   0.98828   15.992
 4056.00    1.00236   0.96886   15.960
 4057.00    0.99986   0.95273   15.936
 4058.00    0.99565   0.94240   15.920
 4059.00    0.99095   0.93720   16.106
 4060.00    0.98205   0.93364   16.561
 4061.00    0.96147   0.92749   17.109
 4062.00    0.93089   0.91686   17.459
 4063.00    0.90276   0.90366   17.373
 4064.00    0.88886   0.89211   17.000
 4065.00    0.89507   0.88732   16.739
 4066.00    0.91839   0.89278   16.645
 4067.00    0.94897   0.90776   16.475
 4068.00    0.97850   0.92715   16.220
 4069.00    1.00203   0.94437   16.100
 4070.00    1.01544   0.95533   16.189
 4071.00    1.01620   0.95955   16.381
 4072.00    1.00683   0.95852   16.522
 4073.00    0.99379   0.95401   16.499
 4074.00    0.98263   0.94685   16.376
 4075.00    0.97663   0.93705   16.308
 4076.00    0.97629   0.92584   16.299
 4077.00    0.97842   0.91690   16.250
 4078.00    0.97474   0.91555   16.162
 4079.00    0.95955   0.92582   16.128
 4080.00    0.94392   0.94728   16.248
 4081.00    0.94627   0.97480   16.520
 4082.00    0.97186   1.00139   16.669
 4083.00    1.01259   1.02191   16.405
 4084.00    1.05326   1.03557   15.940
 4085.00    1.08025   1.04572   15.667
 4086.00    1.09274   1.05704   15.708
 4087.00    1.09824   1.07195   15.940
 4088.00    1.10398   1.08933   16.033
 4089.00    1.11452   1.10546   15.743
 4090.00    1.13003   1.11609   15.288
 4091.00    1.14588   1.11860   14.974
 4092.00    1.15291   1.11252    0.000
 4093.00    1.14243   1.09834    0.000
 4094.00    1.11194   1.07713    0.000
 4095.00    1.06550   1.05052    0.000
 4096.00    1.01313   1.02023    0.000
 4097.00    0.96544   0.98775    0.000
 4098.00    0.92874   0.95419    0.000
 4099.00    0.90518   0.92072    0.000
 4100.00    0.89329   0.88974    0.000
 4101.00    0.88869   0.86532    0.000
 4102.00    0.88541   0.85196    0.000
 4103.00    0.88292   0.85298    0.000
 4104.00    0.88994   0.86902    0.000
 4105.00    0.91316   0.89666    0.000
 4106.00    0.94924   0.92928    0.000
 4107.00    0.98558   0.95967    0.000
 4108.00    1.00432   0.98253    0.000
 4109.00    1.00180   0.99623    0.000
 4110.00    0.99606   1.00280    0.000
 4111.00    1.00330   1.00655    0.000
 4112.00    1.02475   1.01172    0.000
 4113.00    1.05039   1.02049   17.755
 4114.00    1.06457   1.03240   14.764
 4115.00    1.06207   1.04463   10.741
 4116.00    1.05248   1.05316    9.148
 4117.00    1.04503   1.05505    9.290
 4118.00    1.04229   1.05041    9.703
 4119.00    1.04344   1.04171    9.623
 4120.00    1.04624   1.03194    9.596
 4121.00    1.04904   1.02400    9.677
 4122.00    1.05183   1.02001    9.267
 4123.00    1.05739   1.02028    8.998
 4124.00    1.06930   1.02302   10.435
 4125.00    1.08449   1.02540   14.722
 4126.00    1.09373   1.02486   18.685
 4127.00    1.09017   1.01985   17.523
 4128.00    1.07143   1.01001   16.488
 4129.00    1.03780   0.99587   17.383
 4130.00    0.99340   0.97874   18.249
 4131.00    0.95034   0.96114   18.039
 4132.00    0.92423   0.94693   17.682
 4133.00    0.92119   0.94008   17.643
 4134.00    0.93729   0.94358   17.690
 4135.00    0.96441   0.95772   17.620
 4136.00    0.99318   0.97964   17.421
 4137.00    1.01611   1.00476   17.259
 4138.00    1.02882   1.02736   17.310
 4139.00    1.03086   1.04166   17.480
 4140.00    1.02458   1.04340   17.515
 4141.00    1.01272   1.03111   17.297
 4142.00    0.99791   1.00801   16.900
 4143.00    0.98240   0.98175   16.527
 4144.00    0.96724   0.96058   16.360
 4145.00    0.95127   0.94957   16.412
 4146.00    0.93540   0.94957   16.601
 4147.00    0.92829   0.95730   16.842
 4148.00    0.93855   0.96708   17.026
 4149.00    0.96354   0.97418   16.996
 4150.00    0.98866   0.97643   16.783
 4151.00    0.98994   0.97371   16.811
 4152.00    0.95774   0.96748   17.370
 4153.00    0.92006   0.95979   18.041
 4154.00    0.90963   0.95288   18.180
 4155.00    0.92840   0.94870   17.799
 4156.00    0.96044   0.94926   17.242
 4157.00    0.98883   0.95626   16.680
 4158.00    1.00592   0.96969   16.220
 4159.00    1.01931   0.98793   16.009
 4160.00    1.03453   1.00872   16.086
 4161.00    1.04259   1.02964   16.288
 4162.00    1.03967   1.04757   16.397
 4163.00    1.03996   1.05962   16.302
 4164.00    1.05305   1.06457   16.048
 4165.00    1.06933   1.06233   15.826
 4166.00    1.07539   1.05409   15.758
 4167.00    1.06536   1.04279   15.815
 4168.00    1.04258   1.03073   15.904
 4169.00    1.01807   1.01773   15.940
 4170.00    0.99786   1.00209   15.924
 4171.00    0.97780   0.98278   15.965
 4172.00    0.95458   0.96123   16.186
 4173.00    0.93061   0.94089   16.654
 4174.00    0.90883   0.92510   17.241
 4175.00    0.89089   0.91599   17.592
 4176.00    0.88132   0.91387   17.553
 4177.00    0.88696   0.91782   17.369
 4178.00    0.90678   0.92626   17.252
 4179.00    0.93029   0.93690   17.241
 4180.00    0.94781   0.94753   17.336
 4181.00    0.95549   0.95737   17.521
 4182.00    0.95807   0.96698   17.683
 4183.00    0.96596   0.97674   17.627
 4184.00    0.98278   0.98607   17.279
 4185.00    1.00268   0.99299   16.769
 4186.00    1.01517   0.99628   16.410
 4187.00    1.01226   0.99782   16.491
 4188.00    1.00323   1.00003   16.835
 4189.00    1.00687   1.00398   16.932
 4190.00    1.02089   1.01035   16.758
 4191.00    1.02625   1.01961   16.715
 4192.00    1.01686   1.02986   16.864
 4193.00    1.00000   1.03624   16.964
 4194.00    0.98088   1.03442   16.937
 4195.00    0.96029   1.02311   16.933
 4196.00    0.93722   1.00377   17.204
 4197.00    0.91265   0.97966   17.893
 4198.00    0.89528   0.95609   18.591
 4199.00    0.89535   0.93771   18.619
 4200.00    0.91215   0.92634   18.154
 4201.00    0.93737   0.92294   17.805
 4202.00    0.96455   0.92829   17.595
 4203.00    0.99128   0.94131   17.280
 4204.00    1.01992   0.96034   16.916
 4205.00    1.05282   0.98385   16.685
 4206.00    1.08576   1.00946   16.614
 4207.00    1.11213   1.03412   16.647
 4208.00    1.12970   1.05468   16.769
 4209.00    1.13890   1.06938   16.973
 4210.00    1.13979   1.07847   17.204
 4211.00    1.13273   1.08225   17.390
 4212.00    1.11949   1.08046   17.500
 4213.00    1.10241   1.07339   17.512
 4214.00    1.08348   1.06310   17.384
 4215.00    1.06673   1.05479   17.191
 4216.00    1.05979   1.05418   17.195
 4217.00    1.06734   1.06290   17.508
 4218.00    1.08533   1.07899   17.807
 4219.00    1.10402   1.09799   17.786
 4220.00    1.11187   1.11273   17.594
 4221.00    1.10165   1.11485   17.507
 4222.00    1.07427   1.09865   17.629
 4223.00    1.03185   1.06304   17.942
 4224.00    0.97412   1.01149   18.344
 4225.00    0.90916   0.95283   18.797
 4226.00    0.85824   0.90118   19.399
 4227.00    0.83979   0.87097   20.005
 4228.00    0.85861   0.86872   20.035
 4229.00    0.90348   0.89204   19.371
 4230.00    0.95024   0.93247   18.686
 4231.00    0.98367   0.97668   18.368
 4232.00    1.00662   1.01297   18.264
 4233.00    1.02656   1.03613   18.191
 4234.00    1.04745   1.04514   18.122
 4235.00    1.06518   1.04305   18.117
 4236.00    1.06935   1.03699   18.250
 4237.00    1.05937   1.03282   18.478
 4238.00    1.04804   1.03381   18.631
 4239.00    1.04851   1.04241   18.663
 4240.00    1.06782   1.05913   18.669
 4241.00    1.10303   1.08142   18.534
 4242.00    1.14257   1.10628   17.980
 4243.00    1.17519   1.13124   17.107
 4244.00    1.19344   1.15138   16.312
 4245.00    1.19502   1.16124   15.834
 4246.00    1.18237   1.15843   15.729
 4247.00    1.16067   1.14382   15.935
 4248.00    1.13568   1.12024   16.332
 4249.00    1.10983   1.09187   16.900
 4250.00    1.08309   1.06558   17.650
 4251.00    1.05756   1.04677   18.250
 4252.00    1.03802   1.03535   18.208
 4253.00    1.03033   1.02972   17.796
 4254.00    1.03790   1.02994   17.652
 4255.00    1.05512   1.03588   17.686
 4256.00    1.07001   1.04440   17.448
 4257.00    1.07191   1.05040   17.123
 4258.00    1.05776   1.05129   17.176
 4259.00    1.03990   1.04825   17.520
 4260.00    1.03487   1.04629   17.746
 4261.00    1.04325   1.05216   17.750
 4262.00    1.05752   1.06901   17.677
 4263.00    1.07902   1.09514   17.583
 4264.00    1.10896   1.12595   17.495
 4265.00    1.13278   1.15411   17.556
 4266.00    1.13400   1.17069   17.843
 4267.00    1.11479   1.16976   18.096
 4268.00    1.08537   1.14999   18.024
 4269.00    1.04823   1.11299   17.774
 4270.00    1.00473   1.06393   17.604
 4271.00    0.96429   1.01311   17.487
 4272.00    0.93759   0.97128   17.332
 4273.00    0.92844   0.94445   17.234
 4274.00    0.93571   0.93651   17.297
 4275.00    0.95605   0.94941   17.471
 4276.00    0.98447   0.97933   17.627
 4277.00    1.01510   1.01798   17.656
 4278.00    1.04507   1.05570   -2.000
 4279.00    1.07675   1.08490   -2.000
 4280.00    1.10895   1.10331   -2.000
 4281.00    1.13156   1.11161   -2.000
 4282.00    1.13923   1.11179   -2.000
 4283.00    1.13942   1.10633   -2.000
 4284.00    1.13664   1.09623   -2.000
 4285.00    1.12316   1.08257   -2.000
 4286.00    1.09154   1.06627   -2.000
 4287.00    1.04348   1.04644   -2.000
 4288.00    0.99262   1.02268   -2.000
 4289.00    0.96163   0.99883   -2.000
 4290.00    0.95917   0.98135   -2.000
 4291.00    0.97210   0.97440   -2.000
 4292.00    0.98888   0.97729   -2.000
 4293.00    1.00876   0.98541   -2.000
 4294.00    1.02771   0.99402   16.838
 4295.00    1.03399   0.99804   16.716
 4296.00    1.01855   0.99185   17.189
 4297.00    0.98050   0.97252   17.732
 4298.00    0.93041   0.94081   17.975
 4299.00    0.88603   0.90253   18.076
 4300.00    0.85300   0.86559   18.251
 4301.00    0.82349   0.83481   18.568
 4302.00    0.79598   0.81265   18.987
 4303.00    0.77746   0.79969   19.393
 4304.00    0.76895   0.79274   19.662
 4305.00    0.76423   0.78768   19.747
 4306.00    0.75961   0.78169   19.809
 4307.00    0.75641   0.77463   20.106
 4308.00    0.75935   0.77058   20.570
 4309.00    0.77318   0.77505   20.829
 4310.00    0.79575   0.79203   20.681
 4311.00    0.82200   0.82329   20.236
 4312.00    0.85692   0.86848   19.789
 4313.00    0.91054   0.92543   19.582
 4314.00    0.98137   0.99212   19.494
 4315.00    1.05891   1.06582   19.219
 4316.00    1.13550   1.13930   18.689
 4317.00    1.20465   1.20379   18.115
 4318.00    1.25408   1.25264   17.862
 4319.00    1.27151   1.28110   18.131
 4320.00    1.25629   1.28673   18.505
 4321.00    1.21660   1.27058   18.437
 4322.00    1.16188   1.23490   18.325
 4323.00    1.10262   1.18481   18.772
 4324.00    1.05177   1.13022   19.327
 4325.00    1.02347   1.08474   19.222
 4326.00    1.03058   1.06136   18.899
 4327.00    1.07490   1.06529   19.076
 4328.00    1.13688   1.09225   19.472
 4329.00    1.19315   1.13283   19.484
 4330.00    1.23776   1.17815    0.000
 4331.00    1.27511   1.22104    0.000
 4332.00    1.30921   1.25522    0.000
 4333.00    1.33669   1.27684    0.000
 4334.00    1.34259   1.28404    0.000
 4335.00    1.31677   1.27391    0.000
 4336.00    1.26841   1.24396    0.000
 4337.00    1.21469   1.19739    0.000
 4338.00    1.16933   1.14188    0.000
 4339.00    1.13832   1.08631    0.000
 4340.00    1.11808   1.04205    0.000
 4341.00    1.10318   1.01900    0.000
 4342.00    1.09265   1.01908    0.000
 4343.00    1.09296   1.03911    0.000
 4344.00    1.11686   1.07478    0.000
 4345.00    1.16489   1.11866    0.000
 4346.00    1.21683   1.16232    0.000
 4347.00    1.25157   1.20062    0.000
 4348.00    1.25967   1.22958    0.000
 4349.00    1.24464   1.24379    0.000
 4350.00    1.22094   1.24022    0.000
 4351.00    1.20187   1.22403   10.198
 4352.00    1.19355   1.20574    7.934
 4353.00    1.19608   1.19294    7.921
 4354.00    1.20557   1.18904    8.543
 4355.00    1.21965   1.19582    8.542
 4356.00    1.23818   1.21164    7.782
 4357.00    1.25669   1.23067    7.412
 4358.00    1.26750   1.24842    8.935
 4359.00    1.27365   1.26526   14.631
 4360.00    1.28820   1.28309   22.829
 4361.00    1.31412   1.30166   20.703
 4362.00    1.34174   1.31994   17.749
 4363.00    1.36293   1.33793   18.135
 4364.00    1.37478   1.35387   19.074
 4365.00    1.37667   1.36292   18.958
 4366.00    1.36928   1.36121   18.734
 4367.00    1.35470   1.34982   18.944
 4368.00    1.33617   1.33280   19.236
 4369.00    1.31763   1.31323   19.305
 4370.00    1.30128   1.29331   19.143
 4371.00    1.28275   1.27439   18.994
 4372.00    1.25536   1.25554   19.134
 4373.00    1.22152   1.23568   19.498
 4374.00    1.19061   1.21716   19.795
 4375.00    1.16977   1.20507   19.944
 4376.00    1.16214   1.20243   20.056
 4377.00    1.16702   1.20698   20.178
 4378.00    1.17924   1.21258   20.298
 4379.00    1.18830   1.21246   20.425
 4380.00    1.18307   1.20103   20.540
 4381.00    1.15934   1.17359   20.485
 4382.00    1.12031   1.12974   20.194
 4383.00    1.07522   1.07874   20.001
 4384.00    1.03650   1.03599   20.277
 4385.00    1.01581   1.01237   20.982
 4386.00    1.01963   1.00955   21.703
 4387.00    1.04450   1.02354   21.808
 4388.00    1.07949   1.04868   21.093
 4389.00    1.11045   1.07842   20.331
 4390.00    1.12843   1.10766   20.156
 4391.00    1.13761   1.13422   20.322
 4392.00    1.14756   1.15710   20.339
 4393.00    1.16441   1.17581   20.107
 4394.00    1.18954   1.19222   19.753
 4395.00    1.21912   1.21018   19.398
 4396.00    1.24546   1.23063   19.144
 4397.00    1.25897   1.24922   19.089
 4398.00    1.25561   1.26059   19.242
 4399.00    1.24177   1.26198   19.464
 4400.00    1.22593   1.25448   19.610
 4401.00    1.21189   1.24112   19.646
 4402.00    1.19756   1.22119   19.678
 4403.00    1.17598   1.19305   19.912
 4404.00    1.14599   1.16231   20.409
 4405.00    1.11790   1.13855   20.932
 4406.00    1.10533   1.12605   21.162
 4407.00    1.11831   1.12513   20.933
 4408.00    1.15310   1.13776   20.414
 4409.00    1.19095   1.16421   20.016
 4410.00    1.21935   1.19912   19.871
 4411.00    1.24016   1.23471   19.754
 4412.00    1.25496   1.26352   19.571
 4413.00    1.26014   1.27863   19.476
 4414.00    1.25734   1.27889   19.478
 4415.00    1.25554   1.27164   19.370
 4416.00    1.26008   1.26547   19.180
 4417.00    1.26996   1.26514   19.180
 4418.00    1.28496   1.27259   19.316
 4419.00    1.30674   1.28583   19.209
 4420.00    1.33294   1.29910   18.909
 4421.00    1.35623   1.30719   18.865
 4422.00    1.36780   1.30951   19.085
 4423.00    1.36132   1.30856   19.151
 4424.00    1.34081   1.30574   19.058
 4425.00    1.31866   1.30204   19.177
 4426.00    1.30400   1.29944   19.444
 4427.00    1.29961   1.29918   19.429
 4428.00    1.30257   1.29967   19.168
 4429.00    1.30618   1.29762   19.062
 4430.00    1.30385   1.29300   19.114
 4431.00    1.29305   1.28728   19.052
 4432.00    1.28148   1.27916   18.914
 4433.00    1.28010   1.26766   18.929
 4434.00    1.28687   1.25592   19.048
 4435.00    1.29244   1.25013   19.046
 4436.00    1.29663   1.25501   18.888
 4437.00    1.30455   1.27006   18.700
 4438.00    1.31490   1.29068   18.595
 4439.00    1.32332   1.30991   18.608
 4440.00    1.33075   1.32145   18.656
 4441.00    1.33925   1.32381   18.677
 4442.00    1.34416   1.32041   18.831
 4443.00    1.34239   1.31761   19.200
 4444.00    1.34439   1.32101   19.321
 4445.00    1.36017   1.33141   18.846
 4446.00    1.38041   1.34605   18.439
 4447.00    1.39265   1.36284   18.687
 4448.00    1.40188   1.37876   19.074
 4449.00    1.41556   1.38860   18.934
 4450.00    1.42538   1.38964   18.734
 4451.00    1.41892   1.38186   19.072
 4452.00    1.39337   1.36444   19.644
 4453.00    1.35398   1.33710   19.949
 4454.00    1.31089   1.30300   20.139
 4455.00    1.27366   1.26855   20.427
 4456.00    1.24674   1.23834   20.465
 4457.00    1.22944   1.21326   20.056
 4458.00    1.21690   1.19410   19.707
 4459.00    1.20431   1.18198   19.778
 4460.00    1.19058   1.17653   20.028
 4461.00    1.18102   1.17803    0.000
 4462.00    1.18728   1.18884    0.000
 4463.00    1.21529   1.20765    0.000
 4464.00    1.25800   1.22906    0.000
 4465.00    1.29924   1.24978    0.000
 4466.00    1.31993   1.26872    0.000
 4467.00    1.31757   1.28436    0.000
 4468.00    1.31164   1.29570    0.000
 4469.00    1.31484   1.30536    0.000
 4470.00    1.32217   1.31749    0.000
 4471.00    1.33215   1.33421    0.000
 4472.00    1.35319   1.35619    0.000
 4473.00    1.38457   1.38207    0.000
 4474.00    1.41244   1.40816    0.000
 4475.00    1.42896   1.43153    0.000
 4476.00    1.43736   1.45061    0.000
 4477.00    1.44024   1.46202    0.000
 4478.00    1.43667   1.46120    0.000
 4479.00    1.42856   1.44733    0.000
 4480.00    1.42123   1.42537    0.000
 4481.00    1.41796   1.40342    0.000
 4482.00    1.41861   1.38945   20.044
 4483.00    1.42131   1.38750   20.197
 4484.00    1.42431   1.39599   20.029
 4485.00    1.42948   1.41035   19.698
 4486.00    1.43834   1.42444   19.710
 4487.00    1.43984   1.43196   20.131
 4488.00    1.41936   1.42976   20.621
 4489.00    1.38693   1.41975   20.949
 4490.00    1.36723   1.40680   21.077
 4491.00    1.36320   1.39460   20.962
 4492.00    1.36127   1.38359   20.622
 4493.00    1.35857   1.37274   20.326
 4494.00    1.36132   1.36363   20.355
 4495.00    1.37125   1.35993   20.584
 4496.00    1.38517   1.36374   20.681
 4497.00    1.39906   1.37505   20.598
 4498.00    1.41231   1.39224   20.485
 4499.00    1.43270   1.41254   20.363
 4500.00    1.46648   1.43365   20.237
 4501.00    1.50304   1.45653   20.294
 4502.00    1.52646   1.48339   20.649
 4503.00    1.53454   1.51184   20.934
 4504.00    1.53479   1.53682   20.784
 4505.00    1.53540   1.55545   20.599
 4506.00    1.54102   1.56716   20.830
 4507.00    1.54929   1.57270   21.136
 4508.00    1.55399   1.57371   21.025
 4509.00    1.54954   1.57124   20.744
 4510.00    1.53680   1.56474   20.650
 4511.00    1.52704   1.55331   20.551
 4512.00    1.52594   1.53791   20.274
 4513.00    1.52004   1.52074   20.173
 4514.00    1.49865   1.50429   20.523
 4515.00    1.47257   1.49077   21.039
 4516.00    1.45722   1.48058   21.311
 4517.00    1.45731   1.47360   21.272
 4518.00    1.46743   1.47150   21.078
 4519.00    1.47523   1.47474   20.914
 4520.00    1.47522   1.48010   20.873
 4521.00    1.47591   1.48201   20.908
 4522.00    1.48191   1.47634   20.963
 4523.00    1.48360   1.46268   21.048
 4524.00    1.46897   1.44110   21.201
 4525.00    1.43259   1.41141   21.438
 4526.00    1.38222   1.37588   21.695
 4527.00    1.33846   1.33897   21.807
 4528.00    1.31497   1.30591   21.720
 4529.00    1.30956   1.28143   21.571
 4530.00    1.31310   1.26771   21.507
 4531.00    1.31566   1.26428   21.588
 4532.00    1.31288   1.26859   21.760
 4533.00    1.30775   1.27708   21.863
 4534.00    1.30618   1.28904   21.796
 4535.00    1.31350   1.30714   21.603
 4536.00    1.32877   1.33314   21.490
 4537.00    1.34604   1.36290   21.691
 4538.00    1.36654   1.38962   22.019
 4539.00    1.39676   1.40977   21.932
 4540.00    1.42838   1.42363   21.474
 4541.00    1.44222   1.43338   21.245
 4542.00    1.44018   1.43973   21.434
 4543.00    1.44226   1.44049   21.772
 4544.00    1.45044   1.43475   21.968
 4545.00    1.44989   1.42649   21.890
 4546.00    1.43890   1.41926   21.640
 4547.00    1.42838   1.41226   21.453
 4548.00    1.42132   1.40369   21.434
 4549.00    1.41310   1.39486   21.571
 4550.00    1.40344   1.38892    0.000
 4551.00    1.39765   1.38596    0.000
 4552.00    1.40330   1.38444    0.000
 4553.00    1.42374   1.38443    0.000
 4554.00    1.44785   1.38749    0.000
 4555.00    1.46200   1.39650    0.000
 4556.00    1.47387   1.41358    0.000
 4557.00    1.49980   1.43627    0.000
 4558.00    1.53755   1.45978    0.000
 4559.00    1.57209   1.48121    0.000
 4560.00    1.59150   1.49868    0.000
 4561.00    1.59181   1.51016    0.000
 4562.00    1.58011   1.51293    0.000
 4563.00    1.56758   1.50616    0.000
 4564.00    1.55993   1.49406    0.000
 4565.00    1.55682   1.48384    0.000
 4566.00    1.55315   1.48064    0.000
 4567.00    1.54599   1.48418    0.000
 4568.00    1.54144   1.49078    0.000
 4569.00    1.54596   1.49722    0.000
 4570.00    1.55684   1.50149    0.000
 4571.00    1.56612   1.50415    0.000
 4572.00    1.56610   1.50847    0.000
 4573.00    1.55670   1.51372    0.000
 4574.00    1.54985   1.51592    0.000
 4575.00    1.55297   1.51517    0.000
 4576.00    1.55662   1.51255    0.000
 4577.00    1.55001   1.50616    0.000
 4578.00    1.53309   1.49412    0.000
 4579.00    1.51091   1.47626    0.000
 4580.00    1.48881   1.45531    0.000
 4581.00    1.47261   1.43680    0.000
 4582.00    1.46816   1.42368    0.000
 4583.00    1.47710   1.41541    0.000
 4584.00    1.49460   1.41218    0.000
 4585.00    1.51192   1.41475    0.000
 4586.00    1.51972   1.42391    0.000
 4587.00    1.51723   1.43889    0.000
 4588.00    1.51438   1.45562    0.000
 4589.00    1.51819   1.46879    0.000
 4590.00    1.52656   1.47521    0.000
 4591.00    1.53162   1.47456    0.000
 4592.00    1.52413   1.46877    0.000
 4593.00    1.50486   1.45975    0.000
 4594.00    1.48543   1.44804    0.000
 4595.00    1.47250   1.43571    0.000
 4596.00    1.46440   1.42596    0.000
 4597.00    1.46142   1.42064    0.000
 4598.00    1.46630   1.41992    0.000
 4599.00    1.47310   1.42147    0.000
 4600.00    1.46973   1.42326    0.000
 4601.00    1.45717   1.42675    0.000
 4602.00    1.44771   1.43260    0.000
 4603.00    1.44322   1.43946    0.000
 4604.00    1.43732   1.44727    0.000
 4605.00    1.43738   1.45788    0.000
 4606.00    1.45913   1.47376    0.000
 4607.00    1.49947   1.49570    0.000
 4608.00    1.54029   1.52044    0.000
 4609.00    1.57237   1.54229    0.000
 4610.00    1.59513   1.55791    0.000
 4611.00    1.60486   1.56739    0.000
 4612.00    1.59956   1.57194    0.000
 4613.00    1.59256   1.57306    0.000
 4614.00    1.59964   1.57291    0.000
 4615.00    1.61200   1.57208    0.000
 4616.00    1.61033   1.57157    0.000
 4617.00    1.59563   1.57290    0.000
 4618.00    1.58099   1.57461    0.000
 4619.00    1.57135   1.57625    0.000
 4620.00    1.56626   1.57945    0.000
 4621.00    1.56812   1.58251    0.000
 4622.00    1.57759   1.58359    0.000
 4623.00    1.58660   1.58377    0.000
 4624.00    1.58672   1.58270    0.000
 4625.00    1.58017   1.58005    0.000
 4626.00    1.57358   1.57756    0.000
 4627.00    1.56969   1.57511    0.000
 4628.00    1.56903   1.57117    0.000
 4629.00    1.57272   1.56689    0.000
 4630.00    1.58129   1.56441    0.000
 4631.00    1.59324   1.56214    0.000
 4632.00    1.60454   1.55650    0.000
 4633.00    1.60872   1.54695    0.000
 4634.00    1.60145   1.53540    0.000
 4635.00    1.58422   1.52293    0.000
 4636.00    1.56226   1.50906    0.000
 4637.00    1.54208   1.49347    0.000
 4638.00    1.52711   1.47812    0.000
 4639.00    1.51532   1.46571    0.000
 4640.00    1.50374   1.45780    0.000
 4641.00    1.49153   1.45356    0.000
 4642.00    1.47826   1.44902    0.000
 4643.00    1.46325   1.44150    0.000
 4644.00    1.44859   1.43078    0.000
 4645.00    1.43963   1.41646    0.000
 4646.00    1.43822   1.40048    0.000
 4647.00    1.44031   1.38758    0.000
 4648.00    1.44237   1.38145    0.000
 4649.00    1.44426   1.38402    0.000
 4650.00    1.44709   1.39476    0.000
 4651.00    1.45197   1.41081    0.000
 4652.00    1.45896   1.42941    0.000
 4653.00    1.46756   1.44666    0.000
 4654.00    1.47989   1.45924    0.000
 4655.00    1.49970   1.46842    0.000
 4656.00    1.52422   1.47754    0.000
 4657.00    1.54412   1.48974    0.000
 4658.00    1.55316   1.50572    0.000
 4659.00    1.55116   1.52163    0.000
 4660.00    1.54204   1.53263    0.000
 4661.00    1.53112   1.53522    0.000
 4662.00    1.51930   1.52751    0.000
 4663.00    1.50352   1.51013    0.000
 4664.00    1.48246   1.48431    0.000
 4665.00    1.45710   1.45033    0.000
 4666.00    1.42796   1.41121    0.000
 4667.00    1.39620   1.37620    0.000
 4668.00    1.36741   1.35510    0.000
 4669.00    1.35031   1.35066    0.000
 4670.00    1.35201   1.35941    0.000
 4671.00    1.37389   1.37614    0.000
 4672.00    1.40596   1.39714    0.000
 4673.00    1.43389   1.42076    0.000
 4674.00    1.45371   1.44441    0.000
 4675.00    1.46893   1.46435    0.000
 4676.00    1.48132   1.47733    0.000
 4677.00    1.48909   1.48107    0.000
 4678.00    1.48711   1.47708    0.000
 4679.00    1.47288   1.46960    0.000
 4680.00    1.45481   1.46150    0.000
 4681.00    1.44417   1.45460    0.000
 4682.00    1.44310   1.45079    0.000
 4683.00    1.44876   1.45100    0.000
 4684.00    1.46006   1.45457    0.000
 4685.00    1.47431   1.46011    0.000
 4686.00    1.48284   1.46568    0.000
 4687.00    1.47933   1.46958    0.000
 4688.00    1.46864   1.47167    0.000
 4689.00    1.45961   1.47183    0.000
 4690.00    1.45686   1.46991    0.000
 4691.00    1.45953   1.46774    0.000
 4692.00    1.46158   1.46743    0.000
 4693.00    1.45970   1.46959    0.000
 4694.00    1.45889   1.47387    0.000
 4695.00    1.46311   1.47827    0.000
 4696.00    1.46792   1.47919    0.000
 4697.00    1.46490   1.47382    0.000
 4698.00    1.44675   1.46279    0.000
 4699.00    1.41725   1.44965    0.000
 4700.00    1.39446   1.43636    0.000
 4701.00    1.38841   1.42218    0.000
 4702.00    1.38975   1.40805    0.000
 4703.00    1.38928   1.39823    0.000
 4704.00    1.38846   1.39597    0.000
 4705.00    1.39157   1.39851    0.000
 4706.00    1.40022   1.40085    0.000
 4707.00    1.40958   1.40238    0.000
 4708.00    1.41013   1.40545    0.000
 4709.00    1.40356   1.41184    0.000
 4710.00    1.40495   1.42136    0.000
 4711.00    1.41916   1.43156    0.000
 4712.00    1.43528   1.44025    0.000
 4713.00    1.44588   1.44803    0.000
 4714.00    1.45372   1.45739    0.000
 4715.00    1.46639   1.47174    0.000
 4716.00    1.49028   1.49079    0.000
 4717.00    1.51806   1.51055    0.000
 4718.00    1.53275   1.53073    0.000
 4719.00    1.53365   1.55226    0.000
 4720.00    1.53647   1.57310    0.000
 4721.00    1.54938   1.58917    0.000
 4722.00    1.56826   1.59761    0.000
 4723.00    1.58382   1.59980    0.000
 4724.00    1.58698   1.59699    0.000
 4725.00    1.57714   1.58641    0.000
 4726.00    1.56062   1.56550    0.000
 4727.00    1.54255   1.53681    0.000
 4728.00    1.52486   1.50739    0.000
 4729.00    1.50648   1.48239    0.000
 4730.00    1.48674   1.46267    0.000
 4731.00    1.47171   1.44958    0.000
 4732.00    1.46915   1.44528    0.000
 4733.00    1.47720   1.45025    0.000
 4734.00    1.48811   1.46236    0.000
 4735.00    1.49818   1.47641    0.000
 4736.00    1.50806   1.48882    0.000
 4737.00    1.52036   1.50196    0.000
 4738.00    1.53739   1.51633    0.000
 4739.00    1.55853   1.52790    0.000
 4740.00    1.58085   1.53566    0.000
 4741.00    1.60076   1.54209    0.000
 4742.00    1.61580   1.55049    0.000
 4743.00    1.62652   1.56027    0.000
 4744.00    1.63339   1.56711    0.000
 4745.00    1.63353   1.57198    0.000
 4746.00    1.62674   1.57867    0.000
 4747.00    1.62159   1.58567    0.000
 4748.00    1.62462   1.58982    0.000
 4749.00    1.62980   1.59074    0.000
 4750.00    1.62775   1.58881    0.000
 4751.00    1.61543   1.58354    0.000
 4752.00    1.59585   1.57409    0.000
 4753.00    1.57667   1.56191    0.000
 4754.00    1.56585   1.55009    0.000
 4755.00    1.56778   1.54019    0.000
 4756.00    1.57978   1.53220    0.000
 4757.00    1.59106   1.52680    0.000
 4758.00    1.59131   1.52448    0.000
 4759.00    1.57712   1.52330    0.000
 4760.00    1.55324   1.51970    0.000
 4761.00    1.53111   1.51064   26.482
 4762.00    1.51719   1.49741   26.340
 4763.00    1.50773   1.48295   26.454
 4764.00    1.49905   1.46799   26.963
 4765.00    1.49262   1.45375   27.378
 4766.00    1.49007   1.44429   27.364
 4767.00    1.49116   1.44417   27.156
 4768.00    1.49670   1.45407   27.048
 4769.00    1.50893   1.47019   27.127
 4770.00    1.52688   1.48777   27.285
 4771.00    1.54558   1.50520   27.285
 4772.00    1.56098   1.52409   27.087
 4773.00    1.57168   1.54447   26.909
 4774.00    1.57736   1.56349   26.955
 4775.00    1.57861   1.57782   27.306
 4776.00    1.57851   1.58832   27.873
 4777.00    1.58107   1.59809   28.396
 4778.00    1.58507   1.60528   28.582
 4779.00    1.58463   1.60646   28.292
 4780.00    1.57730   1.60151   27.825
 4781.00    1.56552   1.59189   27.676
 4782.00    1.55405   1.57840   27.870
 4783.00    1.54729   1.56265   28.017
 4784.00    1.54463   1.54808   27.853
 4785.00    1.54218   1.53522   27.413
 4786.00    1.53937   1.52355   27.015
 4787.00    1.53895   1.51600   26.990
 4788.00    1.54325   1.51408   27.233
 4789.00    1.55246   1.51729   27.369
 4790.00    1.56306   1.52514   27.292
 4791.00    1.57115   1.53745   27.149
 4792.00    1.57916   1.55512   27.059
 4793.00    1.59266   1.57640   27.008
 4794.00    1.61268   1.59683   26.779
 4795.00    1.63505   1.61296   26.288
 4796.00    1.65183   1.62250   26.031
 4797.00    1.65712   1.62503   26.427
 4798.00    1.65488   1.62159   26.893
 4799.00    1.65207   1.61409   26.630
 4800.00    1.64799   1.60610   26.091
 4801.00    1.63849   1.60109   26.036
 4802.00    1.62331   1.59882   26.278
 4803.00    1.60588   1.59638   26.343
 4804.00    1.59172   1.59247   26.360
 4805.00    1.58484   1.58828   26.574
 4806.00    1.58404   1.58385   26.735
 4807.00    1.58495   1.57709   26.601
 4808.00    1.58307   1.56940   26.511
 4809.00    1.57856   1.56488   26.717
 4810.00    1.57950   1.56501   26.811
 4811.00    1.58989   1.56863   26.488
 4812.00    1.60048   1.57449   26.196
 4813.00    1.60219   1.58306   26.248
 4814.00    1.59714   1.59434   26.234
 4815.00    1.59316   1.60652   25.848
 4816.00    1.59825   1.61841   25.442
 4817.00    1.61542   1.62928   25.309
 4818.00    1.63973   1.63819   25.287
 4819.00    1.66168   1.64396   25.196
 4820.00    1.67069   1.64487   25.101
 4821.00    1.66196   1.63979   25.106
 4822.00    1.63981   1.62781   25.226
 4823.00    1.61326   1.61129   25.389
 4824.00    1.59213   1.59683   25.457
 4825.00    1.58075   1.58719   25.395
 4826.00    1.57600   1.57959   25.328
 4827.00    1.57355   1.57201   25.400
 4828.00    1.57111   1.56663   25.674
 4829.00    1.56882   1.56620   26.006
 4830.00    1.56809   1.56720   26.073
 4831.00    1.56691   1.56445   25.828
 4832.00    1.56042   1.56044   25.586
 4833.00    1.55091   1.56032   25.595
 4834.00    1.54797   1.56325   25.873
 4835.00    1.55597   1.56505   26.166
 4836.00    1.57053   1.56502   26.105
 4837.00    1.58230   1.56488   25.888
 4838.00    1.58176   1.56272   26.104
 4839.00    1.56926   1.55665   26.643
 4840.00    1.55402   1.54977   26.748
 4841.00    1.54265   1.54520   26.295
 4842.00    1.53645   1.54148   25.820
 4843.00    1.53326   1.53834   25.483
 4844.00    1.53108   1.53994   25.116
 4845.00    1.53514   1.54671   24.809
 4846.00    1.55216   1.55280   24.799
 4847.00    1.57435   1.55383   25.017
 4848.00    1.58683   1.55199    0.000
 4849.00    1.58952   1.55123    0.000
 4850.00    1.59126   1.54941    0.000
 4851.00    1.59033   1.54205    0.000
 4852.00    1.57859   1.52984    0.000
 4853.00    1.55491   1.51461    0.000
 4854.00    1.52413   1.49449    0.000
 4855.00    1.49127   1.46873    0.000
 4856.00    1.45918   1.44091    0.000
 4857.00    1.42666   1.41249    0.000
 4858.00    1.39241   1.37991    0.000
 4859.00    1.36063   1.34236    0.000
 4860.00    1.33789   1.30612    0.000
 4861.00    1.32790   1.27994    0.000
 4862.00    1.33040   1.26808    0.000
 4863.00    1.34090   1.26744    0.000
 4864.00    1.35504   1.27533    0.000
 4865.00    1.37303   1.29353    0.000
 4866.00    1.39569   1.32098    0.000
 4867.00    1.41976   1.35046    0.000
 4868.00    1.43877   1.37430    0.000
 4869.00    1.44509   1.38943    0.000
 4870.00    1.43707   1.39432    0.000
 4871.00    1.42419   1.39211    0.000
 4872.00    1.41607   1.39188    0.000
 4873.00    1.41381   1.39781    0.000
 4874.00    1.41613   1.40662    0.000
 4875.00    1.42434   1.41780   27.404
 4876.00    1.44099   1.43587   27.722
 4877.00    1.46778   1.46065   27.406
 4878.00    1.49969   1.48622   26.412
 4879.00    1.52333   1.50761   25.820
 4880.00    1.53048   1.52052   26.150
 4881.00    1.52484   1.52457   26.839
 4882.00    1.51280   1.52401   27.224
 4883.00    1.49807   1.51981   27.177
 4884.00    1.48267   1.50736   26.939
 4885.00    1.46786   1.48673   26.843
 4886.00    1.45563   1.46643   26.940
 4887.00    1.44869   1.45241   26.946
 4888.00    1.44735   1.44199   26.800
 4889.00    1.44906   1.43241   26.796
 4890.00    1.45259   1.42675   27.056
 4891.00    1.45934   1.43234   27.376
 4892.00    1.47198   1.45369   27.484
 4893.00    1.49320   1.48518   27.220
 4894.00    1.52338   1.51935   26.723
 4895.00    1.55932   1.55398   26.329
 4896.00    1.59304   1.58912   26.168
 4897.00    1.61454   1.61998   26.175
 4898.00    1.62130   1.63880   26.377
 4899.00    1.61927   1.64382   26.848
 4900.00    1.61736   1.64070   27.296
 4901.00    1.62247   1.63506   27.244
 4902.00    1.63148   1.62648   26.958
 4903.00    1.63446   1.61537   27.118
 4904.00    1.62723   1.60771   27.540
 4905.00    1.61254   1.60636   27.479
 4906.00    1.59541   1.60514   27.118
 4907.00    1.58083   1.59843   27.183
 4908.00    1.57128   1.58836   27.542
 4909.00    1.56665   1.57790   27.592
 4910.00    1.56514   1.56769   27.572
 4911.00    1.56478   1.55909   28.049
 4912.00    1.56566   1.55360   28.532
 4913.00    1.56828   1.55077   28.171
 4914.00    1.57035   1.54976   27.539
 4915.00    1.56787   1.54922   27.593
 4916.00    1.55779   1.54387   28.021
 4917.00    1.53825   1.52775   28.062
 4918.00    1.50856   1.50062   27.990
 4919.00    1.47218   1.46867   28.420
 4920.00    1.44001   1.43986   29.118
 4921.00    1.42296   1.42035   29.517
 4922.00    1.42255   1.41177   29.643
 4923.00    1.43367   1.41310   29.704
 4924.00    1.44936   1.42657   29.450
 4925.00    1.46614   1.45484   28.754
 4926.00    1.48833   1.49277   28.161
 4927.00    1.52076   1.52923   28.065
 4928.00    1.56146   1.56012   28.122
 4929.00    1.60390   1.58759   27.953
 4930.00    1.63973   1.60996   27.756
 4931.00    1.66062   1.62209   27.765
 4932.00    1.66014   1.62076   27.833
 4933.00    1.63838   1.60820   27.808
 4934.00    1.60450   1.59134   27.820
 4935.00    1.57004   1.57470   27.967
 4936.00    1.54362   1.55495   28.111
 4937.00    1.53012   1.53115   28.111
 4938.00    1.53027   1.51299   27.990
 4939.00    1.54080   1.50941   27.797
 4940.00    1.55537   1.51748    0.000
 4941.00    1.56984   1.53016    0.000
 4942.00    1.58454   1.54684    0.000
 4943.00    1.60057   1.57086    0.000
 4944.00    1.61755   1.59868    0.000
 4945.00    1.63319   1.62183    0.000
 4946.00    1.64395   1.63889    0.000
 4947.00    1.64872   1.65369    0.000
 4948.00    1.65010   1.66500    0.000
 4949.00    1.65236   1.67051    0.000
 4950.00    1.65903   1.67328    0.000
 4951.00    1.66714   1.67413    0.000
 4952.00    1.66769   1.66722    0.000
 4953.00    1.65538   1.65191    0.000
 4954.00    1.63167   1.63341    0.000
 4955.00    1.60279   1.61192    0.000
 4956.00    1.57733   1.58274    0.000
 4957.00    1.56123   1.55131    0.000
 4958.00    1.55683   1.53390    0.000
 4959.00    1.56463   1.53335    0.000
 4960.00    1.58215   1.53693    0.000
 4961.00    1.59970   1.54013    0.000
 4962.00    1.60471   1.55156    0.000
 4963.00    1.59451   1.56989    0.000
 4964.00    1.57619   1.57975    0.000
 4965.00    1.55880   1.57648    0.000
 4966.00    1.54923   1.56945    0.000
 4967.00    1.54744   1.56472    0.000
 4968.00    1.54892   1.56018    0.000
 4969.00    1.55117   1.55650    0.000
 4970.00    1.55376   1.55856    0.000
 4971.00    1.55609   1.56796    0.000
 4972.00    1.55849   1.58065    0.000
 4973.00    1.56438   1.59277    0.000
 4974.00    1.57606   1.60217    0.000
 4975.00    1.58791   1.60705    0.000
 4976.00    1.59026   1.60532    0.000
 4977.00    1.57658   1.59405    0.000
 4978.00    1.54665   1.57375    0.000
 4979.00    1.50886   1.54835    0.000
 4980.00    1.47359   1.52006    0.000
 4981.00    1.44496   1.48829    0.000
 4982.00    1.42374   1.45596    0.000
 4983.00    1.41161   1.43253    0.000
 4984.00    1.40981   1.42216    0.000
 4985.00    1.41736   1.42057    0.000
 4986.00    1.43273   1.42697    0.000
 4987.00    1.45539   1.44412    0.000
 4988.00    1.48274   1.46756    0.000
 4989.00    1.50785   1.48936    0.000
 4990.00    1.52538   1.50764    0.000
 4991.00    1.53631   1.52385    0.000
 4992.00    1.54438   1.53596    0.000
 4993.00    1.55262   1.54132    0.000
 4994.00    1.56039   1.54255    0.000
 4995.00    1.56244   1.54358    0.000
 4996.00    1.55549   1.54340    0.000
 4997.00    1.54205   1.53782    0.000
 4998.00    1.52568   1.52653    0.000
 4999.00    1.50786   1.51218    0.000
 5000.00    1.48887   1.49476    0.000
 5001.00    1.46886   1.47504    0.000
 5002.00    1.45028   1.45542    0.000
 5003.00    1.43855   1.43740    0.000
 5004.00    1.43850   1.42179    0.000
 5005.00    1.45202   1.40877    0.000
 5006.00    1.47527   1.40101    0.000
 5007.00    1.49900   1.40192    0.000
 5008.00    1.51484   1.40726    0.000
 5009.00    1.51798   1.40954    0.000
 5010.00    1.50656   1.40929    0.000
 5011.00    1.48151   1.40951    0.000
 5012.00    1.44685   1.40610    0.000
 5013.00    1.40933   1.39550    0.000
 5014.00    1.37696   1.38281    0.000
 5015.00    1.35688   1.37445    0.000
 5016.00    1.35072   1.36878    0.000
 5017.00    1.35441   1.36421    0.000
 5018.00    1.36211   1.36493    0.000
 5019.00    1.36876   1.37452    0.000
 5020.00    1.37386   1.38715    0.000
 5021.00    1.38076   1.39563    0.000
 5022.00    1.39260   1.40333    0.000
 5023.00    1.40999   1.41649    0.000
 5024.00    1.42838   1.43176    0.000
 5025.00    1.44093   1.44329    0.000
 5026.00    1.44591   1.45157    0.000
 5027.00    1.44751   1.46130    0.000
 5028.00    1.45392   1.47564    0.000
 5029.00    1.47169   1.49196   30.079
 5030.00    1.49633   1.50577   29.721
 5031.00    1.51759   1.51689   29.329
 5032.00    1.53078   1.53024   28.958
 5033.00    1.53555   1.54313   28.569
 5034.00    1.53099   1.54432   28.401
 5035.00    1.51752   1.53188   28.655
 5036.00    1.50030   1.51417   29.011
 5037.00    1.48445   1.49509   29.025
 5038.00    1.46812   1.46992   28.819
 5039.00    1.44714   1.43872   28.781
 5040.00    1.42194   1.41201   29.065
 5041.00    1.39730   1.40042   29.581
 5042.00    1.38095   1.40412   30.031
 5043.00    1.38137   1.41656   30.134
 5044.00    1.40482   1.43419   29.922
 5045.00    1.44777   1.45849   29.490
 5046.00    1.49114   1.48739   28.766
 5047.00    1.51606   1.50825   27.927
 5048.00    1.51846   1.51449   27.606
 5049.00    1.50534   1.51441   28.001
 5050.00    1.48944   1.51281   28.324
 5051.00    1.48148   1.50709   28.053
 5052.00    1.48459   1.50128   27.934
 5053.00    1.49732   1.50489   28.456
 5054.00    1.51618   1.51832   28.904
 5055.00    1.53608   1.53467   28.678
 5056.00    1.55126   1.55187   28.265
 5057.00    1.56023   1.57207   28.091
 5058.00    1.56761   1.59203   27.936
 5059.00    1.57646   1.60596   27.629
 5060.00    1.58413   1.61327   27.384
 5061.00    1.58520   1.61674   27.377
 5062.00    1.57472   1.61471   27.566
 5063.00    1.55566   1.60277   27.884
 5064.00    1.53913   1.58279   28.308
 5065.00    1.52842   1.56341   28.721
 5066.00    1.51496   1.54733   28.919
 5067.00    1.49411   1.52926   28.952
 5068.00    1.47074   1.51087   29.130
 5069.00    1.45281   1.50249   29.363
 5070.00    1.44726   1.50373   29.177
 5071.00    1.45459   1.50225   28.815
 5072.00    1.46875   1.49819   29.067
 5073.00    1.48354   1.50025   29.482
 5074.00    1.49484   1.50310   28.601
 5075.00    1.50038   1.49662   26.972
 5076.00    1.49895   1.48622   26.385
 5077.00    1.48829   1.47911   26.927
 5078.00    1.46708   1.46684   27.453
 5079.00    1.44163   1.44504   27.857
 5080.00    1.42290   1.42717   29.085
 5081.00    1.41445   1.42031   31.006
 5082.00    1.41274   1.41577   32.213
 5083.00    1.41476   1.41173   32.367
 5084.00    1.41939   1.41934   32.440
 5085.00    1.42606   1.43927   32.689
 5086.00    1.43474   1.46000   32.711
 5087.00    1.44623   1.47776   32.520
 5088.00    1.46081   1.49784   32.432
 5089.00    1.47556   1.51940   32.435
 5090.00    1.48659   1.53600   32.322
 5091.00    1.49339   1.54739   32.090
 5092.00    1.49749   1.55729   31.894
 5093.00    1.49897   1.56370   31.872
 5094.00    1.49667   1.56162   32.049
 5095.00    1.48920   1.55209   32.259
 5096.00    1.47688   1.53927   32.363
 5097.00    1.46388   1.52287   32.565
 5098.00    1.45488   1.50217   32.961
 5099.00    1.45055   1.48327   32.944
 5100.00    1.44829   1.47334   32.125
 5101.00    1.44395   1.47030   31.371
 5102.00    1.43696   1.46878   31.459
 5103.00    1.43457   1.46925   31.974
 5104.00    1.44183   1.47413   32.189
 5105.00    1.45173   1.47869   32.079
 5106.00    1.45422   1.47693   31.933
 5107.00    1.44564   1.47070   31.845
 5108.00    1.43016   1.46614   31.686
 5109.00    1.41909   1.46390   31.193
 5110.00    1.42022   1.46303   30.418
 5111.00    1.43032   1.46732   29.897
 5112.00    1.44409   1.47838   29.830
 5113.00    1.46056   1.49284   29.705
 5114.00    1.47797   1.50917   29.271
 5115.00    1.49100   1.52733   29.040
 5116.00    1.49731   1.54436   29.301
 5117.00    1.50090   1.55720   29.655
 5118.00    1.50556   1.56377   29.817
 5119.00    1.51097   1.56211   30.033
 5120.00    1.51384   1.55280   30.310
 5121.00    1.50909   1.53767   30.143
 5122.00    1.49244   1.51622   29.587
 5123.00    1.46252   1.48925   29.461
 5124.00    1.42497   1.46279   29.946
 5125.00    1.39175   1.44167   30.269
 5126.00    1.36981   1.42515   30.020
 5127.00    1.35789   1.41283   29.623
 5128.00    1.35385   1.40757   29.306
 5129.00    1.35699   1.41002   28.907
 5130.00    1.36459   1.41809   28.583
 5131.00    1.37246   1.42974   28.771
 5132.00    1.38111   1.44205   29.294
 5133.00    1.39485   1.45367   29.398
 5134.00    1.41202   1.46561   29.098
 5135.00    1.42532   1.47557   29.167
 5136.00    1.43211   1.47837   29.718
 5137.00    1.43517   1.47452   30.142
 5138.00    1.43601   1.46756   30.141
 5139.00    1.43373   1.45944   29.939
 5140.00    1.42704   1.45160   29.826
 5141.00    1.41566   1.44207   29.971
 5142.00    1.40229   1.43019   30.275
 5143.00    1.39144   1.42366   30.493
 5144.00    1.38606   1.42418   30.587
 5145.00    1.38663   1.42154   30.704
 5146.00    1.39117   1.41452   30.922
 5147.00    1.39598   1.41215   31.200
 5148.00    1.39736   1.41426   31.374
 5149.00    1.39304   1.41416   31.298
 5150.00    1.38421   1.41156   31.069
 5151.00    1.37519   1.41135   30.885
 5152.00    1.37202   1.41545   30.765
 5153.00    1.37890   1.42163   30.725
 5154.00    1.39335   1.42888   31.060
 5155.00    1.40903   1.44007   31.901
 5156.00    1.42063   1.45598   32.492
 5157.00    1.42595   1.47281   32.084
 5158.00    1.42741   1.48673   31.401
 5159.00    1.42814   1.49724   31.361
 5160.00    1.42738   1.50273   31.685
 5161.00    1.42247   1.49713   31.759
 5162.00    1.41164   1.47737   31.686
 5163.00    1.39185   1.44766   31.787
 5164.00    1.35702   1.40964   31.999
 5165.00    1.30436   1.36128   32.212
 5166.00    1.24011   1.30642   32.622
 5167.00    1.17586   1.25257   -1.000
 5168.00    1.12407   1.20575   -1.000
 5169.00    1.09174   1.17073   -1.000
 5170.00    1.07620   1.14766   -1.000
 5171.00    1.07177   1.13207   34.624
 5172.00    1.07504   1.12818   34.964
 5173.00    1.08565   1.14517   35.320
 5174.00    1.10586   1.17750   -1.000
 5175.00    1.13574   1.20992   -1.000
 5176.00    1.17059   1.24199   -1.000
 5177.00    1.20434   1.28059   -1.000
 5178.00    1.23177   1.31594   -1.000
 5179.00    1.24917   1.33258   -1.000
 5180.00    1.25446   1.33251   -1.000
 5181.00    1.24674   1.32388   -1.000
 5182.00    1.22683   1.30479   -1.000
 5183.00    1.20131   1.27815   -1.000
 5184.00    1.18272   1.26081   -1.000
 5185.00    1.18190   1.26154   -1.000
 5186.00    1.20380   1.27199   32.869
 5187.00    1.24455   1.28781   33.312
 5188.00    1.29204   1.31440   32.665
 5189.00    1.33218   1.35025   31.025
 5190.00    1.35388   1.37944    0.000
 5191.00    1.35719   1.39094    0.000
 5192.00    1.35315   1.39544    0.000
 5193.00    1.35359   1.40455    0.000
 5194.00    1.36609   1.41025    0.000
 5195.00    1.38929   1.40851    0.000
 5196.00    1.41502   1.41349    0.000
 5197.00    1.43811   1.42918    0.000
 5198.00    1.45751   1.44460    0.000
 5199.00    1.47190   1.45676    0.000
 5200.00    1.47900   1.46721    0.000
 5201.00    1.47674   1.47153    0.000
 5202.00    1.46387   1.46763    0.000
 5203.00    1.44074   1.45616    0.000
 5204.00    1.40961   1.43432    0.000
 5205.00    1.37490   1.40644    0.000
 5206.00    1.34193   1.38296    0.000
 5207.00    1.31441   1.36409    0.000
 5208.00    1.29519   1.34783    0.000
 5209.00    1.28833   1.34364    0.000
 5210.00    1.29675   1.35545    0.000
 5211.00    1.31814   1.37425   32.064
 5212.00    1.34774   1.39684   31.676
 5213.00    1.38343   1.42437   31.411
 5214.00    1.42351   1.45103   31.506
 5215.00    1.46277   1.47148   31.579
 5216.00    1.49562   1.48838   31.218
 5217.00    1.52057   1.50373   30.805
 5218.00    1.53812   1.51557   30.832
 5219.00    1.54750   1.52331   31.107
 5220.00    1.54811   1.52852   31.168
 5221.00    1.54121   1.53069   30.853
 5222.00    1.52843   1.52538   30.420
 5223.00    1.51013   1.51078   30.466
 5224.00    1.48727   1.49086   31.279
 5225.00    1.46326   1.46785   32.254
 5226.00    1.44246   1.44284   32.616
 5227.00    1.42857   1.42413   32.382
 5228.00    1.42403   1.41826   32.056
 5229.00    1.42961   1.41987   32.114
 5230.00    1.44392   1.42700   32.584
 5231.00    1.46329   1.44355   32.852
 5232.00    1.48280   1.46348   32.610
 5233.00    1.49764   1.47985   32.456
 5234.00    1.50692   1.49592   32.705
 5235.00    1.51534   1.51284   32.795
 5236.00    1.52688   1.52881   32.444
 5237.00    1.54137   1.54549   32.207
 5238.00    1.55691   1.56265   32.359
 5239.00    1.57146   1.57830   32.455
 5240.00    1.58328   1.59309   32.194
 5241.00    1.59118   1.60526   31.798
 5242.00    1.59460   1.60982   31.441
 5243.00    1.59368   1.60888   31.065
 5244.00    1.58947   1.60781   30.804
 5245.00    1.58352   1.60155   30.971
 5246.00    1.57616   1.58445   31.336
 5247.00    1.56649   1.56582   31.141
 5248.00    1.55546   1.55336   30.512
 5249.00    1.54574   1.53841   30.445
 5250.00    1.53730   1.51901   31.106
 5251.00    1.52811   1.50873   31.638
 5252.00    1.52149   1.51043   31.374
 5253.00    1.52445   1.51341   30.399
 5254.00    1.53505   1.51667   29.331
 5255.00    1.54369   1.52737   28.809
 5256.00    1.54750   1.54440   28.899
 5257.00    1.55043   1.55816   29.206
 5258.00    1.55283   1.56405   29.324
 5259.00    1.55083   1.56466   29.050
 5260.00    1.54143   1.55784   28.592
 5261.00    1.52356   1.53709   28.343
 5262.00    1.49736   1.50309   28.387
 5263.00    1.46344   1.46378   28.568
 5264.00    1.42172   1.42146   28.778
 5265.00    1.37412   1.37515   28.990
 5266.00    1.32986   1.33474   29.195
 5267.00    1.29989   1.31023   29.387
 5268.00    1.28557   1.29281   29.555
 5269.00    1.28254   1.27727   29.711
 5270.00    1.29042   1.27917   29.924
 5271.00    1.31041   1.29971   30.217
 5272.00    1.33946   1.32100   30.400
 5273.00    1.37191   1.34418   30.334
 5274.00    1.40315   1.37984   30.339
 5275.00    1.43167   1.41870   30.714
 5276.00    1.46079   1.45223   31.079
 5277.00    1.49318   1.48468   30.992
 5278.00    1.52443   1.51323   30.848
 5279.00    1.54891   1.53268   31.145
 5280.00    1.56696   1.54619   31.614
 5281.00    1.58072   1.55666   31.705
 5282.00    1.58941   1.56224   31.286
 5283.00    1.59299   1.56403   30.675
 5284.00    1.59579   1.56924   30.440
 5285.00    1.60325   1.58319   30.845
 5286.00    1.61836   1.60168   31.469
 5287.00    1.64019   1.61988   31.721
 5288.00    1.66341   1.64030   31.421
 5289.00    1.68291   1.66257   30.859
 5290.00    1.69714   1.67966   30.603
 5291.00    1.70645   1.68726   30.819
 5292.00    1.71125   1.68651   30.979
 5293.00    1.71000   1.67857   30.788
 5294.00    1.69858   1.66410   30.727
 5295.00    1.67524   1.64380   31.197
 5296.00    1.64337   1.61769   32.046
 5297.00    1.60916   1.58965   32.719
 5298.00    1.57981   1.56813   32.533
 5299.00    1.56119   1.55641   31.716
 5300.00    1.55642   1.55003   31.411
 5301.00    1.56460   1.55037   31.864
 5302.00    1.58118   1.56406   32.052
 5303.00    1.60201   1.58716   31.465
 5304.00    1.62501   1.61084   30.719
 5305.00    1.64925   1.63426   30.148
 5306.00    1.67397   1.65813   29.549
 5307.00    1.69639   1.67900   29.093
 5308.00    1.71235   1.69515   29.280
 5309.00    1.72196   1.70647   29.829
 5310.00    1.72929   1.71263   29.735
 5311.00    1.73500   1.71505   29.148
 5312.00    1.73559   1.71421   29.238
 5313.00    1.72888   1.70941   30.019
 5314.00    1.71567   1.70223   30.339
 5315.00    1.69939   1.69308   29.879
 5316.00    1.68449   1.68160   29.405
 5317.00    1.67254   1.67107   29.372
 5318.00    1.66195   1.66242   29.714
 5319.00    1.64964   1.65135   30.049
 5320.00    1.63304   1.63816   29.974
 5321.00    1.61350   1.62660   29.726
 5322.00    1.59471   1.61318   29.851
 5323.00    1.57790   1.59138   30.276
 5324.00    1.56194   1.56379   30.517
 5325.00    1.54539   1.53963   30.494
 5326.00    1.52748   1.51639   30.452
 5327.00    1.50903   1.48739   30.460
 5328.00    1.49224   1.46313   30.495
 5329.00    1.48006   1.45704   30.728
 5330.00    1.47597   1.46253   31.287
 5331.00    1.48358   1.47076   31.820
 5332.00    1.50494   1.48920   31.868
 5333.00    1.53813   1.52031   31.632
 5334.00    1.57656   1.55271   31.557
 5335.00    1.60906   1.57640   31.661
 5336.00    1.62718   1.59227   31.754
 5337.00    1.63360   1.60523   31.786
 5338.00    1.63550   1.61295   31.808
 5339.00    1.63583   1.60926   31.884
 5340.00    1.63409   1.59883   32.066
 5341.00    1.62839   1.59298   32.386
 5342.00    1.61893   1.59081   32.784
 5343.00    1.61077   1.58666   33.046
 5344.00    1.60859   1.58472   33.079
 5345.00    1.61203   1.58780   33.129
 5346.00    1.61766   1.59246   33.273
 5347.00    1.62145   1.59734   33.082
 5348.00    1.62172   1.60103   32.498
 5349.00    1.62097   1.60586   32.315
 5350.00    1.62308   1.61777   32.868
 5351.00    1.63085   1.63400   33.311
 5352.00    1.64511   1.64945   33.013
 5353.00    1.66445   1.66843   32.527
 5354.00    1.68697   1.69362   32.324
 5355.00    1.71110   1.71706   32.158
 5356.00    1.73369   1.73407   31.838
 5357.00    1.74973   1.74806   31.564
 5358.00    1.75679   1.75826   31.361
 5359.00    1.75685   1.76082   30.931
 5360.00    1.75249   1.75564   30.324
 5361.00    1.74482   1.74416   30.049
 5362.00    1.73285   1.72875   30.348
 5363.00    1.71429   1.71073   -2.000
 5364.00    1.69019   1.68902   -2.000
 5365.00    1.66563   1.66514   -2.000
 5366.00    1.64485   1.64282   -2.000
 5367.00    1.62924   1.62073   -2.000
 5368.00    1.61759   1.59939   -2.000
 5369.00    1.60692   1.58180   -2.000
 5370.00    1.59484   1.56692   -2.000
 5371.00    1.58179   1.55822   -2.000
 5372.00    1.57539   1.56009   -2.000
 5373.00    1.58624   1.56937   -2.000
 5374.00    1.61230   1.58341   -2.000
 5375.00    1.64040   1.60484   -2.000
 5376.00    1.66229   1.62885   -2.000
 5377.00    1.67675   1.64831   -2.000
 5378.00    1.68359   1.66453   30.290
 5379.00    1.68316   1.67578   30.459
 5380.00    1.67857   1.68007   30.381
 5381.00    1.67358   1.68162   30.117
 5382.00    1.66737   1.68092   30.135
 5383.00    1.65779   1.67602   30.877
 5384.00    1.64983   1.67191   31.814
 5385.00    1.65030   1.66941   31.954
 5386.00    1.65549   1.66354   31.613
 5387.00    1.65590   1.65662   31.784
 5388.00    1.64764   1.65006   32.484
 5389.00    1.63232   1.63904   33.052
 5390.00    1.61350   1.62455   33.036
 5391.00    1.59503   1.61097   32.560
 5392.00    1.57932   1.59605   32.381
 5393.00    1.56709   1.57873   33.027
 5394.00    1.55738   1.56489   33.786
 5395.00    1.54812   1.55529   33.752
 5396.00    1.53696   1.54379   33.577
 5397.00    1.52409   1.53383   34.143
 5398.00    1.51492   1.53353   34.878
 5399.00    1.51469   1.53440   34.834
 5400.00    1.52246   1.52947   34.260
 5401.00    1.53255   1.52851   33.845
 5402.00    1.53722   1.53069   33.798
 5403.00    1.53288   1.52413   33.992
 5404.00    1.52478   1.51142   34.146
 5405.00    1.51868   1.50086   34.066
 5406.00    1.51393   1.49143   33.840
 5407.00    1.50851   1.48388   33.688
 5408.00    1.50340   1.48158   33.797
 5409.00    1.50212   1.48500   34.106
 5410.00    1.50933   1.49634   34.192
 5411.00    1.52525   1.51589   33.767
 5412.00    1.54325   1.53757   33.013
 5413.00    1.55887   1.55907   32.302
 5414.00    1.57454   1.58316   31.950
 5415.00    1.59262   1.60750   31.998
 5416.00    1.61177   1.62732   32.160
 5417.00    1.63037   1.64136   32.092
 5418.00    1.64819   1.65173   31.622
 5419.00    1.66427   1.65853   31.001
 5420.00    1.67607   1.65928   30.775
 5421.00    1.68018   1.65678   30.968
 5422.00    1.67396   1.65433   30.986
 5423.00    1.66048   1.64872   30.660
 5424.00    1.64852   1.64141   30.467
 5425.00    1.64402   1.63758   30.519
 5426.00    1.64661   1.63365   30.431
 5427.00    1.65027   1.62695   30.202
 5428.00    1.64640   1.61851   30.287
 5429.00    1.63302   1.60706   30.755
 5430.00    1.61553   1.59674   31.210
 5431.00    1.59870   1.58739   31.525
 5432.00    1.58440   1.57256   31.928
 5433.00    1.57249   1.56142   32.414
 5434.00    1.56245   1.56160   32.723
 5435.00    1.55672   1.56467   32.875
 5436.00    1.55964   1.57043   33.124
 5437.00    1.57269   1.58550   33.410
 5438.00    1.59364   1.60771   33.438
 5439.00    1.61777   1.63074   33.245
 5440.00    1.63986   1.65241   33.105
 5441.00    1.65780   1.67114   33.065
 5442.00    1.67090   1.68251   33.037
 5443.00    1.67514   1.68465   33.170
 5444.00    1.66646   1.67895   33.659
 5445.00    1.64833   1.66664   34.251
 5446.00    1.62925   1.64938   34.478
 5447.00    1.61598   1.63295   34.316
 5448.00    1.61084   1.62189   34.061
 5449.00    1.60958   1.61318   33.886
 5450.00    1.60637   1.60753   33.801
 5451.00    1.60134   1.60762   33.718
 5452.00    1.59748   1.60857   33.590
 5453.00    1.59487   1.60735   33.566
 5454.00    1.59198   1.60390   33.738
 5455.00    1.58810   1.59867   33.819
 5456.00    1.58336   1.59613   33.573
 5457.00    1.57851   1.59726   33.318
 5458.00    1.57581   1.59745   33.410
 5459.00    1.57971   1.59911   33.686
 5460.00    1.59271   1.60545   33.694
 5461.00    1.61137   1.61133   33.063
 5462.00    1.62845   1.61180   31.972
 5463.00    1.63601   1.61015   31.243
 5464.00    1.63143   1.61243   31.273
 5465.00    1.62148   1.61396   31.473
 5466.00    1.61367   1.61113   31.380
 5467.00    1.60934   1.61279   31.471
 5468.00    1.60724   1.61794   31.983
 5469.00    1.60663   1.61607   32.123
 5470.00    1.60799   1.61089   31.464
 5471.00    1.61269   1.60854   30.799
 5472.00    1.61876   1.60080   30.691
 5473.00    1.61946   1.58493   -2.000
 5474.00    1.61142   1.57264   -2.000
 5475.00    1.59821   1.56292   -2.000
 5476.00    1.58263   1.54638   -2.000
 5477.00    1.56359   1.53385   -2.000
 5478.00    1.54291   1.53311   -2.000
 5479.00    1.52736   1.53188   -2.000
 5480.00    1.52186   1.52996   -2.000
 5481.00    1.52653   1.53806   -2.000
 5482.00    1.53907   1.55178   -2.000
 5483.00    1.55590   1.56128   -2.000
 5484.00    1.57237   1.57024   -2.000
 5485.00    1.58423   1.58396   -2.000
 5486.00    1.59239   1.59448   -2.000
 5487.00    1.60164   1.59949   -2.000
 5488.00    1.61014   1.60629   -2.000
 5489.00    1.61014   1.61138   -2.000
 5490.00    1.60231   1.61021   -2.000
 5491.00    1.59611   1.61166   -2.000
 5492.00    1.59725   1.61605   -2.000
 5493.00    1.60490   1.61493   -2.000
 5494.00    1.61457   1.61472   -2.000
 5495.00    1.62059   1.61936   -2.000
 5496.00    1.62022   1.61956   -2.000
 5497.00    1.61464   1.61631   33.731
 5498.00    1.60879   1.61831   34.690
 5499.00    1.60844   1.62025   35.351
 5500.00    1.61401   1.61517   35.066
 5501.00    1.62099   1.61025   34.194
 5502.00    1.62360   1.60832   33.548
 5503.00    1.61818   1.60283   33.732
 5504.00    1.60790   1.59511   34.456
 5505.00    1.59918   1.58916   34.880
 5506.00    1.59422   1.58355   34.578
 5507.00    1.59162   1.58018   33.779
 5508.00    1.58950   1.57819   33.147
 5509.00    1.58689   1.57304   33.047
 5510.00    1.58479   1.57004   32.777
 5511.00    1.58397   1.56985   31.677
 5512.00    1.58197   1.56614   30.573
 5513.00    1.57604   1.56370   30.408
 5514.00    1.56735   1.56622   30.959
 5515.00    1.56084   1.57018   31.483
 5516.00    1.56394   1.57735   31.531
 5517.00    1.58024   1.58960   31.221
 5518.00    1.60333   1.60479   31.223
 5519.00    1.62398   1.61934   31.858
 5520.00    1.63809   1.63182   32.284
 5521.00    1.64608   1.64296   31.831
 5522.00    1.65116   1.64973   31.381
 5523.00    1.65565   1.65016   31.713
 5524.00    1.65807   1.64595   32.265
 5525.00    1.65567   1.63844   32.235
 5526.00    1.64672   1.62919   31.695
 5527.00    1.63140   1.61817   31.553
 5528.00    1.61220   1.60683   33.049
 5529.00    1.59383   1.60084   34.728
 5530.00    1.58244   1.59866   31.301
 5531.00    1.58124   1.59606   27.988
 5532.00    1.58820   1.59831   38.829
 5533.00    1.59899   1.60570   43.984
 5534.00    1.60927   1.61033   22.929
 5535.00    1.61654   1.61319    8.430
 5536.00    1.62083   1.61981    5.796
 5537.00    1.62241   1.62601    5.781
 5538.00    1.62110   1.62935    6.313
 5539.00    1.61824   1.63559    6.313
 5540.00    1.61695   1.64311    6.140
 5541.00    1.61883   1.64799    6.156
 5542.00    1.62323   1.65196    6.149
 5543.00    1.63046   1.65572    6.078
 5544.00    1.64191   1.65978    6.179
 5545.00    1.65541   1.66263    6.229
 5546.00    1.66530   1.66372    5.740
 5547.00    1.66884   1.66837    5.513
 5548.00    1.66772   1.67538    7.290
 5549.00    1.66526   1.67914   17.047
 5550.00    1.66469   1.68302   43.984
 5551.00    1.66705   1.68817   43.213
 5552.00    1.67097   1.68929   28.390
 5553.00    1.67381   1.68667   30.823
 5554.00    1.67343   1.68304   34.987
 5555.00    1.67146   1.67851   33.034
 5556.00    1.67109   1.67255   31.011
 5557.00    1.67003   1.66557   31.377
 5558.00    1.66274   1.65983   32.551
 5559.00    1.64901   1.65526   33.111
 5560.00    1.63388   1.64928   32.667
 5561.00    1.62331   1.64297   31.883
 5562.00    1.62134   1.63673   31.615
 5563.00    1.62648   1.62976   31.792
 5564.00    1.63356   1.62385   31.852
 5565.00    1.63811   1.61660   31.690
 5566.00    1.63747   1.60875   31.572
 5567.00    1.63119   1.60599   31.694
 5568.00    1.62130   1.60355   32.071
 5569.00    1.61238   1.59812   32.471
 5570.00    1.60915   1.59853   32.634
 5571.00    1.61303   1.60334   32.629
 5572.00    1.62168   1.60244   32.659
 5573.00    1.62921   1.60423   32.735
 5574.00    1.63127   1.61454   32.811
 5575.00    1.63053   1.61866   32.972
 5576.00    1.63176   1.62018   33.206
 5577.00    1.63566   1.63045   33.162
 5578.00    1.64051   1.63649   32.731
 5579.00    1.64444   1.63595   32.555
 5580.00    1.64614   1.63915   33.097
 5581.00    1.64505   1.63796   33.868
 5582.00    1.64047   1.62928   34.240
 5583.00    1.63097   1.62059   34.349
 5584.00    1.61670   1.60727   34.515
 5585.00    1.60082   1.58815   34.662
 5586.00    1.58546   1.56939   34.632
 5587.00    1.56910   1.55075   34.459
 5588.00    1.55137   1.53344   34.233
 5589.00    1.53590   1.52038   33.986
 5590.00    1.52621   1.51281   33.694
 5591.00    1.52299   1.51179   33.295
 5592.00    1.52525   1.51641   32.815
 5593.00    1.53121   1.52560   32.397
 5594.00    1.53941   1.53604   32.129
 5595.00    1.54916   1.54715   31.977
 5596.00    1.56019   1.55896   31.855
 5597.00    1.57198   1.56474   31.684
 5598.00    1.58147   1.56682   31.494
 5599.00    1.58355   1.57092   31.436
 5600.00    1.57809   1.57057   31.612
 5601.00    1.57161   1.56676   31.984
 5602.00    1.57054   1.56891   32.290
 5603.00    1.57775   1.57572   32.160
 5604.00    1.59034   1.58505   31.759
 5605.00    1.60183   1.59919   31.694
 5606.00    1.61217   1.61708   31.990
 5607.00    1.62777   1.63665   32.060
 5608.00    1.64936   1.65429   31.768
 5609.00    1.67007   1.66773   31.565
 5610.00    1.68181   1.67636   31.752
 5611.00    1.67912   1.67786   32.270
 5612.00    1.66413   1.67274   32.633
 5613.00    1.64489   1.66347   32.322
 5614.00    1.62751   1.64864   31.937
 5615.00    1.61432   1.62978   32.545
 5616.00    1.60436   1.61472   33.746
 5617.00    1.59514   1.60207   34.052
 5618.00    1.58606   1.58811   33.581
 5619.00    1.57874   1.58158   33.658
 5620.00    1.57601   1.58205   34.442
 5621.00    1.57954   1.58078   35.127
 5622.00    1.58604   1.58052   35.220
 5623.00    1.58987   1.58229   34.823
 5624.00    1.58910   1.58208   34.426
 5625.00    1.58529   1.58331   34.501
 5626.00    1.58143   1.58749   35.067
 5627.00    1.58070   1.59077   35.787
 5628.00    1.58516   1.59730   36.193
 5629.00    1.59520   1.60974   35.910
 5630.00    1.60905   1.62066   34.982
 5631.00    1.62307   1.62888   33.857
 5632.00    1.63240   1.63744   33.187
 5633.00    1.63434   1.64192   33.253
 5634.00    1.63189   1.64021   33.464
 5635.00    1.62934   1.63605   33.223
 5636.00    1.62692   1.62953   32.943
 5637.00    1.62298   1.61989   33.085
 5638.00    1.61700   1.61101   33.186
 5639.00    1.61018   1.60445   32.732
 5640.00    1.60553   1.59789   32.073
 5641.00    1.60391   1.59319   31.745
 5642.00    1.60124   1.59340   31.886
 5643.00    1.59459   1.59483   32.299
 5644.00    1.58688   1.59608   32.522
 5645.00    1.58191   1.60101   32.418
 5646.00    1.58060   1.60732   32.528
 5647.00    1.58417   1.61237   32.961
 5648.00    1.59587   1.61800   32.783
 5649.00    1.61512   1.62300   31.741
 5650.00    1.63472   1.62648   31.038
 5651.00    1.64783   1.62835   31.276
 5652.00    1.65229   1.62772   31.780
 5653.00    1.64934   1.62523   32.014
 5654.00    1.64227   1.61904   32.323
 5655.00    1.63346   1.60959   32.913
 5656.00    1.62327   1.60105   33.365
 5657.00    1.61218   1.58934   33.445
 5658.00    1.60150   1.57417   33.457
 5659.00    1.59176   1.56631   33.612
 5660.00    1.58225   1.56232   33.809
 5661.00    1.57237   1.55509   33.971
 5662.00    1.56257   1.55499   34.176
 5663.00    1.55560   1.56341   34.533
 5664.00    1.55579   1.56962   35.058
 5665.00    1.56477   1.57607   35.423
 5666.00    1.58045   1.58678   35.137
 5667.00    1.59889   1.59651   34.501
 5668.00    1.61576   1.60449   34.334
 5669.00    1.62855   1.61342   34.447
 5670.00    1.63679   1.62226   33.903
 5671.00    1.64062   1.63118   32.922
 5672.00    1.64077   1.64155   32.503
 5673.00    1.63953   1.65227   32.557
 5674.00    1.63956   1.66130   32.289
 5675.00    1.64055   1.66894   31.943
 5676.00    1.64040   1.67597   32.354
 5677.00    1.63989   1.67934   33.152
 5678.00    1.64218   1.67737   33.152
 5679.00    1.64945   1.67354   32.419
 5680.00    1.66108   1.66845   31.906
 5681.00    1.67152   1.65905   31.856
 5682.00    1.67327   1.64738   31.958
 5683.00    1.66289   1.63793   31.938
 5684.00    1.64236   1.62931   31.715
 5685.00    1.61908   1.62003   31.470
 5686.00    1.60189   1.61407   31.419
 5687.00    1.59475   1.61232   31.484
 5688.00    1.59749   1.61248   31.489
 5689.00    1.60814   1.61565   31.474
 5690.00    1.62418   1.62207   31.533
 5691.00    1.64365   1.62991   31.541
 5692.00    1.66457   1.63924   31.363
 5693.00    1.68413   1.64821   31.130
 5694.00    1.69902   1.65392   31.040
 5695.00    1.70593   1.65760   31.117
 5696.00    1.70277   1.65903   31.338
 5697.00    1.68984   1.65495   31.778
 5698.00    1.66978   1.64673   32.487
 5699.00    1.64719   1.63843   33.339
 5700.00    1.62682   1.62809   34.133
 5701.00    1.61188   1.61450   34.740
 5702.00    1.60353   1.60316   35.095
 5703.00    1.60064   1.59352   35.185
 5704.00    1.60023   1.58211   35.039
 5705.00    1.59805   1.57110   34.741
 5706.00    1.59067   1.56161   34.544
 5707.00    1.57719   1.55288   34.858
 5708.00    1.56103   1.54326   35.557
 5709.00    1.54982   1.53535   35.642
 5710.00    1.54702   1.53416   34.847
 5711.00    1.54822   1.53477   34.324
 5712.00    1.55066   1.53842   34.505
 5713.00    1.55778   1.55219   34.431
 5714.00    1.57330   1.56780   33.744
 5715.00    1.59760   1.58356   33.366
 5716.00    1.62685   1.60589   33.457
 5717.00    1.65399   1.62630   32.995
 5718.00    1.67498   1.64287   31.918
 5719.00    1.69075   1.66150   31.409
 5720.00    1.70328   1.67638   31.656
 5721.00    1.71373   1.68691   31.635
 5722.00    1.72206   1.69767   31.121
 5723.00    1.72767   1.70439   30.983
 5724.00    1.73165   1.70688   31.321
 5725.00    1.73619   1.70922   31.291
 5726.00    1.73976   1.70821   30.705
 5727.00    1.73783   1.70340   30.242
 5728.00    1.73028   1.69966   30.328
 5729.00    1.72139   1.69611   30.938
 5730.00    1.71342   1.69071   31.753
 5731.00    1.70618   1.68709   32.294
 5732.00    1.70106   1.68680   32.421
 5733.00    1.70057   1.68675   32.391
 5734.00    1.70463   1.68671   32.467
 5735.00    1.71061   1.68925   32.764
 5736.00    1.71529   1.69231   33.129
 5737.00    1.71675   1.69354   33.314
 5738.00    1.71686   1.69492   33.438
 5739.00    1.71916   1.69598   33.766
 5740.00    1.72368   1.69555    0.000
 5741.00    1.72768   1.69509    0.000
 5742.00    1.72906   1.69431    0.000
 5743.00    1.72733   1.69310    0.000
 5744.00    1.72412   1.69222    0.000
 5745.00    1.72157   1.69089    0.000
 5746.00    1.71981   1.68909    0.000
 5747.00    1.71800   1.68647    0.000
 5748.00    1.71627   1.68246    0.000
 5749.00    1.71568   1.67834    0.000
 5750.00    1.71751   1.67306    0.000
 5751.00    1.72144   1.66629    0.000
 5752.00    1.72362   1.66115    0.000
 5753.00    1.72006   1.65669    0.000
 5754.00    1.71074   1.65229    0.000
 5755.00    1.69928   1.65121    0.000
 5756.00    1.69171   1.65176    0.000
 5757.00    1.69136   1.65223    0.000
 5758.00    1.69461   1.65474    0.000
 5759.00    1.69645   1.65651    0.000
 5760.00    1.69586   1.65628    0.000
 5761.00    1.69353   1.65714    0.000
 5762.00    1.68974   1.65736    0.000
 5763.00    1.68638   1.65780    0.000
 5764.00    1.68802   1.66249    0.000
 5765.00    1.69672   1.66838    0.000
 5766.00    1.70893   1.67510    0.000
 5767.00    1.72143   1.68520    0.000
 5768.00    1.73476   1.69373    0.000
 5769.00    1.74831   1.69896    0.000
 5770.00    1.75779   1.70390    0.000
 5771.00    1.75929   1.70527    0.000
 5772.00    1.75191   1.70267    0.000
 5773.00    1.73860   1.70013    0.000
 5774.00    1.72533   1.69534    0.000
 5775.00    1.71557   1.68833    0.000
 5776.00    1.70810   1.68214    0.000
 5777.00    1.70045   1.67323    0.000
 5778.00    1.69066   1.66122    0.000
 5779.00    1.67735   1.64896    0.000
 5780.00    1.65992   1.63369    0.000
 5781.00    1.63928   1.61578    0.000
 5782.00    1.61785   1.59977    0.000
 5783.00    1.59871   1.58617    0.000
 5784.00    1.58473   1.57436    0.000
 5785.00    1.57728   1.56765    0.000
 5786.00    1.57593   1.56876   -2.000
 5787.00    1.57931   1.57346   -2.000
 5788.00    1.58557   1.58063   -2.000
 5789.00    1.59286   1.59422   -2.000
 5790.00    1.60004   1.60827   -2.000
 5791.00    1.60811   1.62003   -2.000
 5792.00    1.61967   1.63468   -2.000
 5793.00    1.63656   1.64729   -2.000
 5794.00    1.65820   1.65604   -2.000
 5795.00    1.67938   1.66642   -2.000
 5796.00    1.69294   1.67534   -2.000
 5797.00    1.69669   1.68080   -2.000
 5798.00    1.69383   1.68721   -2.000
 5799.00    1.69076   1.69434   -2.000
 5800.00    1.69306   1.69859   -2.000
 5801.00    1.69918   1.70187   -2.000
 5802.00    1.70404   1.70639   -2.000
 5803.00    1.70695   1.70786   -2.000
 5804.00    1.71102   1.70631   -2.000
 5805.00    1.71971   1.70557   -2.000
 5806.00    1.73302   1.70337    0.000
 5807.00    1.74307   1.69994    0.000
 5808.00    1.74151   1.69833    0.000
 5809.00    1.73010   1.69732    0.000
 5810.00    1.71734   1.69701    0.000
 5811.00    1.71197   1.69775    0.000
 5812.00    1.71750   1.69794    0.000
 5813.00    1.72719   1.69813    0.000
 5814.00    1.73144   1.69845    0.000
 5815.00    1.72643   1.69801    0.000
 5816.00    1.71398   1.69792    0.000
 5817.00    1.70013   1.69972    0.000
 5818.00    1.69145   1.70286    0.000
 5819.00    1.69151   1.70664    0.000
 5820.00    1.69972   1.71227    0.000
 5821.00    1.71102   1.71892    0.000
 5822.00    1.71990   1.72438    0.000
 5823.00    1.72383   1.72919    0.000
 5824.00    1.72405   1.73354    0.000
 5825.00    1.72537   1.73634    0.000
 5826.00    1.73129   1.73802    0.000
 5827.00    1.74090   1.73931    0.000
 5828.00    1.75122   1.73982    0.000
 5829.00    1.75896   1.73987    0.000
 5830.00    1.76179   1.73954    0.000
 5831.00    1.75898   1.73792    0.000
 5832.00    1.75150   1.73600    0.000
 5833.00    1.74181   1.73420    0.000
 5834.00    1.73298   1.73089    0.000
 5835.00    1.72750   1.72771    0.000
 5836.00    1.72441   1.72656    0.000
 5837.00    1.71961   1.72523    0.000
 5838.00    1.71337   1.72420    0.000
 5839.00    1.71147   1.72615    0.000
 5840.00    1.71625   1.72859    0.000
 5841.00    1.72426   1.72995    0.000
 5842.00    1.73102   1.73222    0.000
 5843.00    1.73385   1.73362    0.000
 5844.00    1.73447   1.73210    0.000
 5845.00    1.73733   1.72917    0.000
 5846.00    1.74134   1.72450    0.000
 5847.00    1.74022   1.71725    0.000
 5848.00    1.73103   1.70901    0.000
 5849.00    1.71572   1.70001    0.000
 5850.00    1.69795   1.68976    0.000
 5851.00    1.68131   1.67955    0.000
 5852.00    1.66731   1.66931    0.000
 5853.00    1.65601   1.65816    0.000
 5854.00    1.64852   1.64730    0.000
 5855.00    1.64604   1.63766    0.000
 5856.00    1.64653   1.62827    0.000
 5857.00    1.64619   1.62008    0.000
 5858.00    1.64376   1.61553    0.000
 5859.00    1.64078   1.61317    0.000
 5860.00    1.64015   1.61254    0.000
 5861.00    1.64425   1.61619    0.000
 5862.00    1.65215   1.62151    0.000
 5863.00    1.66052   1.62707    0.000
 5864.00    1.66612   1.63483    0.000
 5865.00    1.66764   1.64254    0.000
 5866.00    1.66784   1.64890    0.000
 5867.00    1.67023   1.65596    0.000
 5868.00    1.67442   1.66316    0.000
 5869.00    1.67829   1.66886    0.000
 5870.00    1.68159   1.67422    0.000
 5871.00    1.68437   1.67979    0.000
 5872.00    1.68504   1.68347    0.000
 5873.00    1.68307   1.68510    0.000
 5874.00    1.68190   1.68598    0.000
 5875.00    1.68441   1.68480    0.000
 5876.00    1.68828   1.68085    0.000
 5877.00    1.68924   1.67559    0.000
 5878.00    1.68473   1.66917    0.000
 5879.00    1.67527   1.66099    0.000
 5880.00    1.66492   1.65111    0.000
 5881.00    1.65698   1.64069    0.000
 5882.00    1.65056   1.62911    0.000
 5883.00    1.64092   1.61354    0.000
 5884.00    1.62081   1.59474    0.000
 5885.00    1.58643   1.57263    0.000
 5886.00    1.54103   1.54237    0.000
 5887.00    1.49088   1.50626    0.000
 5888.00    1.44207   1.46895    0.000
 5889.00    1.39827   1.42608    0.000
 5890.00    1.36014   1.38331    0.000
 5891.00    1.32909   1.35106    0.000
 5892.00    1.30836   1.32192    0.000
 5893.00    1.29757   1.30021    0.000
 5894.00    1.29150   1.29655    0.000
 5895.00    1.28776   1.29822    0.000
 5896.00    1.28974   1.30611    0.000
 5897.00    1.30244   1.33019    0.000
 5898.00    1.32931   1.35742    0.000
 5899.00    1.36713   1.38670    0.000
 5900.00    1.40673   1.42564    0.000
 5901.00    1.44323   1.46387   33.438
 5902.00    1.47810   1.49812   33.501
 5903.00    1.51230   1.53258   33.333
 5904.00    1.54451   1.56193   32.979
 5905.00    1.57368   1.58417   32.872
 5906.00    1.59925   1.60255   33.511
 5907.00    1.61913   1.61641   34.445
 5908.00    1.63053   1.62562   34.483
 5909.00    1.63352   1.63214   33.825
 5910.00    1.63136   1.63589   33.748
 5911.00    1.62866   1.63731   34.314
 5912.00    1.62957   1.63717   34.622
 5913.00    1.63485   1.63477   34.639
 5914.00    1.64218   1.63176   35.039
 5915.00    1.64845   1.62912   35.678
 5916.00    1.65131   1.62609   35.777
 5917.00    1.65118   1.62530   35.218
 5918.00    1.65015   1.62647   34.569
 5919.00    1.64916   1.62827   34.462
 5920.00    1.64869   1.63288   35.113
 5921.00    1.65102   1.63784   35.636
 5922.00    1.65728   1.64199   34.984
 5923.00    1.66258   1.64712   33.946
 5924.00    1.66096   1.65041   33.730
 5925.00    1.65374   1.65211   33.980
 5926.00    1.64664   1.65368   33.747
 5927.00    1.64382   1.65278   33.066
 5928.00    1.64580   1.65122   32.512
 5929.00    1.64822   1.64974   32.365
 5930.00    1.64687   1.64680   32.613
 5931.00    1.64372   1.64467   33.011
 5932.00    1.64249   1.64343   33.259
 5933.00    1.64329   1.64263   33.222
 5934.00    1.64451   1.64267   32.913
 5935.00    1.64535   1.64341   32.427
 5936.00    1.64592   1.64575   32.060
 5937.00    1.64699   1.64751   32.348
 5938.00    1.64947   1.64889   33.399
 5939.00    1.65385   1.65173   34.268
 5940.00    1.65980   1.65301   34.173
 5941.00    1.66592   1.65344   33.772
 5942.00    1.67008   1.65490   33.780
 5943.00    1.66996   1.65516   33.982
 5944.00    1.66480   1.65522   34.108
 5945.00    1.65659   1.65575   34.406
 5946.00    1.64974   1.65501   34.986
 5947.00    1.64974   1.65422   35.435
 5948.00    1.65645   1.65311   35.530
 5949.00    1.66198   1.65003   35.623
 5950.00    1.66114   1.64698   35.844
 5951.00    1.65632   1.64452   35.754
 5952.00    1.65104   1.64091   35.142
 5953.00    1.64660   1.63781   34.353
 5954.00    1.64368   1.63673   33.774
 5955.00    1.64309   1.63598   33.575
 5956.00    1.64570   1.63603   33.620
 5957.00    1.65185   1.63825   33.533
 5958.00    1.65941   1.64160   33.195
 5959.00    1.66428   1.64580   32.852
 5960.00    1.66527   1.65126   32.699
 5961.00    1.66489   1.65760   32.764
 5962.00    1.66520   1.66353   32.957
 5963.00    1.66655   1.66902   33.127
 5964.00    1.66839   1.67485   33.207
 5965.00    1.67007   1.67906   33.226
 5966.00    1.67261   1.68223   33.190
 5967.00    1.67760   1.68627   33.086
 5968.00    1.68321   1.68904   33.009
 5969.00    1.68534   1.69114   33.087
 5970.00    1.68355   1.69374   33.242
 5971.00    1.68093   1.69478   33.309
 5972.00    1.67999   1.69418   33.512
 5973.00    1.68125   1.69230   34.212
 5974.00    1.68245   1.68844   35.085
 5975.00    1.68053   1.68265   35.392
 5976.00    1.67590   1.67586   35.264
 5977.00    1.67103   1.66891   35.386
 5978.00    1.66628   1.66159   35.749
 5979.00    1.66046   1.65516   35.892
 5980.00    1.65352   1.64999   35.759
 5981.00    1.64692   1.64442   35.587
 5982.00    1.64328   1.64041   35.412
 5983.00    1.64431   1.63743   35.158
 5984.00    1.64772   1.63334   34.877
 5985.00    1.64989   1.63144   34.641
 5986.00    1.65018   1.63138   34.375
 5987.00    1.64978   1.63156   33.991
 5988.00    1.64934   1.63415   33.580
 5989.00    1.64913   1.63838   33.249
 5990.00    1.64947   1.64343   32.941
 5991.00    1.65040   1.64874   32.660
 5992.00    1.65124   1.65346   32.674
 5993.00    1.65148   1.65778   33.040
 5994.00    1.65144   1.66015   33.141
 5995.00    1.65091   1.66104   32.635
 5996.00    1.64802   1.66077   32.314
 5997.00    1.64206   1.65839   32.745
 5998.00    1.63582   1.65581   33.271
 5999.00    1.63265   1.65240   33.197
 6000.00    1.63377   1.64803   32.925
 6001.00    1.63755   1.64530   33.023
 6002.00    1.63974   1.64172   33.498
 6003.00    1.63797   1.63768   34.118
 6004.00    1.63453   1.63531   34.664
 6005.00    1.63207   1.63112   34.926
 6006.00    1.63101   1.62747   34.757
 6007.00    1.63175   1.62536   34.283
 6008.00    1.63554   1.62153   33.910
 6009.00    1.64123   1.61965   33.911
 6010.00    1.64443   1.61880   34.255
 6011.00    1.64305   1.61741   34.767
 6012.00    1.63957   1.61796   35.203
 6013.00    1.63717   1.61718   35.356
 6014.00    1.63740   1.61609   35.159
 6015.00    1.63889   1.61636   34.820
 6016.00    1.63781   1.61414   34.710
 6017.00    1.63209   1.61182   34.807
 6018.00    1.62284   1.61101   34.662
 6019.00    1.61293   1.60934   34.140
 6020.00    1.60555   1.60866   33.564
 6021.00    1.60143   1.60926   33.202
 6022.00    1.59913   1.61121   33.109
 6023.00    1.59930   1.61521   33.159
 6024.00    1.60458   1.61970   33.148
 6025.00    1.61494   1.62656   33.103
 6026.00    1.62712   1.63494   33.227
 6027.00    1.63731   1.64287   33.453
 6028.00    1.64302   1.65225   33.495
 6029.00    1.64585   1.66149   33.346
 6030.00    1.65019   1.66995   33.259
 6031.00    1.65838   1.67829   33.362
 6032.00    1.66995   1.68534   33.602
 6033.00    1.68290   1.69158   33.783
 6034.00    1.69456   1.69688   33.764
 6035.00    1.70297   1.70078   33.832
 6036.00    1.70720   1.70341   34.337
 6037.00    1.70741   1.70510   34.860
 6038.00    1.70461   1.70616   34.747
 6039.00    1.70032   1.70583   34.529
 6040.00    1.69584   1.70564   35.064
 6041.00    1.69140   1.70605   35.810
 6042.00    1.68691   1.70575   35.666
 6043.00    1.68336   1.70680   35.021
 6044.00    1.68300   1.70891   34.811
 6045.00    1.68909   1.71066   34.852
 6046.00    1.70288   1.71319   34.474
 6047.00    1.71982   1.71582   33.582
 6048.00    1.73297   1.71741   32.599
 6049.00    1.73792   1.71804   32.121
 6050.00    1.73469   1.71734   32.338
 6051.00    1.72880   1.71522   32.547
 6052.00    1.72477   1.71190   32.147
 6053.00    1.71972   1.70694   31.735
 6054.00    1.71001   1.70149   31.943
 6055.00    1.69798   1.69635   32.415
 6056.00    1.68814   1.69104   32.615
 6057.00    1.68308   1.68670   32.668
 6058.00    1.68230   1.68346   32.826
 6059.00    1.68211   1.68075   32.971
 6060.00    1.67985   1.67907   33.017
 6061.00    1.67678   1.67768   33.211
 6062.00    1.67428   1.67542   33.729
 6063.00    1.67137   1.67422   34.392
 6064.00    1.66717   1.67435   34.904
 6065.00    1.66273   1.67377   35.083
 6066.00    1.66097   1.67561   34.965
 6067.00    1.66584   1.68034   34.793
 6068.00    1.67822   1.68582   34.703
 6069.00    1.69436   1.69394   34.618
 6070.00    1.71031   1.70257   34.621
 6071.00    1.72417   1.71048   35.018
 6072.00    1.73447   1.71810   35.640
 6073.00    1.73961   1.72255   35.683
 6074.00    1.73857   1.72426   34.981
 6075.00    1.73172   1.72298   34.310
 6076.00    1.72225   1.71821   34.034
 6077.00    1.71508   1.71206   33.862
 6078.00    1.71061   1.70291   33.654
 6079.00    1.70454   1.69219   33.568
 6080.00    1.69622   1.68327   33.500
 6081.00    1.68946   1.67389   33.127
 6082.00    1.68462   1.66501   32.701
 6083.00    1.67809   1.65893   32.847
 6084.00    1.66919   1.65390   33.353
 6085.00    1.66097   1.65067   33.316
 6086.00    1.65623   1.64880   32.835
 6087.00    1.65615   1.64652   32.826
 6088.00    1.65978   1.64626   33.265
 6089.00    1.66463   1.64659   33.355
 6090.00    1.66829   1.64522   33.095
 6091.00    1.66925   1.64562   33.125
 6092.00    1.66767   1.64739   33.434
 6093.00    1.66473   1.64822   33.588
 6094.00    1.66095   1.65008   33.820
 6095.00    1.65657   1.65299   34.648
 6096.00    1.65298   1.65525   35.571
 6097.00    1.65183   1.65714   35.590
 6098.00    1.65297   1.65771   35.106
 6099.00    1.65465   1.65495   35.135
 6100.00    1.65446   1.65128   35.500
 6101.00    1.65053   1.64794   35.454
 6102.00    1.64300   1.64139   35.100
 6103.00    1.63401   1.63555   34.974
 6104.00    1.62713   1.63318   35.151
 6105.00    1.62534   1.63084   35.321
 6106.00    1.62865   1.63270   35.057
 6107.00    1.63572   1.63733   34.220
 6108.00    1.64639   1.64146   33.304
 6109.00    1.66074   1.64976   32.823
 6110.00    1.67783   1.65774   32.780
 6111.00    1.69530   1.66312   32.915
 6112.00    1.70936   1.66970   32.939
 6113.00    1.71667   1.67364   32.701
 6114.00    1.71625   1.67560   32.323
 6115.00    1.70958   1.67700   32.079
 6116.00    1.70035   1.67374   32.246
 6117.00    1.69216   1.66935   32.792
 6118.00    1.68644   1.66451   33.151
 6119.00    1.68124   1.65518   33.048
 6120.00    1.67120   1.64688   33.115
 6121.00    1.65335   1.63968   33.799
 6122.00    1.63106   1.63050   34.638
 6123.00    1.61119   1.62565   35.154
 6124.00    1.60092   1.62318   35.540
 6125.00    1.60149   1.62096   35.931
 6126.00    1.60594   1.62336   35.958
 6127.00    1.60876   1.62648   35.536
 6128.00    1.61092   1.62957   35.171
 6129.00    1.61539   1.63422   34.985
 6130.00    1.62384   1.63668   34.462
 6131.00    1.63369   1.63683   33.569
 6132.00    1.63837   1.63539   32.984
 6133.00    1.63487   1.63012   33.029
 6134.00    1.62632   1.62085   33.415
 6135.00    1.61701   1.61141   33.657
 6136.00    1.60997   1.60158   33.399
 6137.00    1.60585   1.59066   32.951
 6138.00    1.60371   1.58348   33.039
 6139.00    1.60516   1.58076   33.406
 6140.00    1.61401   1.58283   32.936
 6141.00    1.62956   1.58926   31.957
 6142.00    1.64598   1.59766   31.937
 6143.00    1.65728   1.60990   32.879
 6144.00    1.66009   1.62304   33.373
 6145.00    1.65654   1.63350   33.145
 6146.00    1.65269   1.64188   33.248
 6147.00    1.65197   1.64756   33.832
 6148.00    1.65392   1.65102   34.138
 6149.00    1.65579   1.65164   34.056
 6150.00    1.65433   1.64956   34.093
 6151.00    1.64878   1.64643   34.197
 6152.00    1.64078   1.64245   33.936
 6153.00    1.63247   1.63827   33.489
 6154.00    1.62533   1.63240   33.392
 6155.00    1.61890   1.62506   33.729
 6156.00    1.61146   1.61749   34.228
 6157.00    1.60184   1.60688   34.654
 6158.00    1.58995   1.59304   34.847
 6159.00    1.57712   1.57771   34.684
 6160.00    1.56458   1.56079   34.264
 6161.00    1.55124   1.54349   34.150
 6162.00    1.53546   1.52732   34.733
 6163.00    1.51812   1.51297   35.345
 6164.00    1.50281   1.50375   35.095
 6165.00    1.49501   1.49941   34.420
 6166.00    1.49725   1.49635   34.133
 6167.00    1.50349   1.49821   34.152
 6168.00    1.50561   1.50499   34.081
 6169.00    1.50158   1.51139   33.974
 6170.00    1.49363   1.51834   34.039
 6171.00    1.48510   1.52702   34.266
 6172.00    1.47924   1.53621   34.497
 6173.00    1.47823   1.54541   34.566
 6174.00    1.48256   1.55396   34.486
 6175.00    1.49073   1.56307   34.568
 6176.00    1.50114   1.57335   34.982
 6177.00    1.51361   1.58219   35.425
 6178.00    1.52790   1.59004   35.648
 6179.00    1.54250   1.59786   35.872
 6180.00    1.55577   1.60399   36.082
 6181.00    1.56669   1.60894   35.623
 6182.00    1.57471   1.61215   34.574
 6183.00    1.57932   1.61296   34.200
 6184.00    1.57915   1.61231   34.957
 6185.00    1.57189   1.60840   35.711
 6186.00    1.55763   1.60206   35.753
 6187.00    1.54039   1.59496   35.988
 6188.00    1.52530   1.58448   36.844
 6189.00    1.51657   1.57453   37.233
 6190.00    1.51561   1.56770   -2.000
 6191.00    1.52056   1.55957   -2.000
 6192.00    1.52873   1.55508   -2.000
 6193.00    1.53783   1.55569   -2.000
 6194.00    1.54649   1.55800   -2.000
 6195.00    1.55456   1.56381   -2.000
 6196.00    1.56332   1.56969   -2.000
 6197.00    1.57445   1.57617   -2.000
 6198.00    1.58576   1.58518   -2.000
 6199.00    1.59182   1.59138   -2.000
 6200.00    1.59164   1.59573   -2.000
 6201.00    1.58945   1.60084   -2.000
 6202.00    1.58864   1.60530   32.376
 6203.00    1.58976   1.60954   32.370
 6204.00    1.59066   1.61305   33.221
 6205.00    1.58826   1.61575   34.541
 6206.00    1.58313   1.61882   35.597
 6207.00    1.57910   1.61996   35.853
 6208.00    1.57903   1.61831   35.813
 6209.00    1.58334   1.61460   36.434
 6210.00    1.58925   1.60720   37.318
 6211.00    1.59219   1.59742   37.146
 6212.00    1.58945   1.58609   36.112
 6213.00    1.58056   1.57213   35.437
 6214.00    1.56665   1.55869   35.441
 6215.00    1.54989   1.54607   35.750
 6216.00    1.53252   1.53384   35.988
 6217.00    1.51689   1.52562   35.980
 6218.00    1.50561   1.51976   35.895
 6219.00    1.50028   1.51573   35.841
 6220.00    1.49954   1.51551   35.255
 6221.00    1.50049   1.51652   33.876
 6222.00    1.50125   1.51956   32.911
 6223.00    1.50235   1.52399   33.276
 6224.00    1.50775   1.52626   33.818
 6225.00    1.51991   1.52872   33.135
 6226.00    1.53369   1.53049   32.393
 6227.00    1.54126   1.52948   33.040
 6228.00    1.53873   1.52787   34.392
 6229.00    1.52726   1.52484   35.019
 6230.00    1.51309   1.52035   34.992
 6231.00    1.50339   1.51788   35.136
 6232.00    1.50196   1.51675   35.696
 6233.00    1.50739   1.51668   36.374
 6234.00    1.51258   1.51972   36.517
 6235.00    1.51159   1.52268   36.019
 6236.00    1.50540   1.52596   35.892
 6237.00    1.49845   1.52964   36.646
 6238.00    1.49493   1.53064   37.237
 6239.00    1.49564   1.52977   36.891
 6240.00    1.49649   1.52565   36.571
 6241.00    1.49406   1.52065   36.894
 6242.00    1.48919   1.51505   36.980
 6243.00    1.48457   1.50807   36.336
 6244.00    1.48279   1.50430   35.852
 6245.00    1.48506   1.50177   35.895
 6246.00    1.49072   1.50088   35.590
 6247.00    1.49843   1.50342   34.598
 6248.00    1.50684   1.50484   33.755
 6249.00    1.51483   1.50617   33.518
 6250.00    1.52155   1.50822   33.548
 6251.00    1.52634   1.50680   33.543
 6252.00    1.52819   1.50306   33.529
 6253.00    1.52392   1.49833   33.458
 6254.00    1.50926   1.49091   33.113
 6255.00    1.48678   1.48330   32.458
 6256.00    1.46647   1.47679   31.720
 6257.00    1.45547   1.47163   31.199
 6258.00    1.45475   1.46901   31.159
 6259.00    1.46162   1.47066   31.671
 6260.00    1.47146   1.47704   32.627
 6261.00    1.47996   1.48470   33.874
 6262.00    1.48483   1.49467   35.214
 6263.00    1.48826   1.50658   36.320
 6264.00    1.49533   1.51830   36.835
 6265.00    1.50772   1.52966   36.791
 6266.00    1.52339   1.53865   36.551
 6267.00    1.54036   1.54613   36.264
 6268.00    1.55688   1.55284   35.893
 6269.00    1.56947   1.55761   35.576
 6270.00    1.57437   1.56056   35.474
 6271.00    1.57164   1.56349   35.301
 6272.00    1.56490   1.56737   34.656
 6273.00    1.55902   1.57039   33.814
 6274.00    1.55768   1.57196   33.375
 6275.00    1.55979   1.57376   33.539
 6276.00    1.56209   1.57508   34.088
 6277.00    1.56459   1.57484   34.414
 6278.00    1.56871   1.57478   34.034
 6279.00    1.57275   1.57393   33.453
 6280.00    1.57402   1.57224    0.000
 6281.00    1.57313   1.57255    0.000
 6282.00    1.57237   1.57291    0.000
 6283.00    1.57270   1.57477    0.000
 6284.00    1.57424   1.57923    0.000
 6285.00    1.57746   1.58268    0.000
 6286.00    1.58301   1.58812    0.000
 6287.00    1.59137   1.59405    0.000
 6288.00    1.60219   1.59831    0.000
 6289.00    1.61380   1.60265    0.000
 6290.00    1.62368   1.60354    0.000
 6291.00    1.62911   1.60268    0.000
 6292.00    1.62782   1.60091    0.000
 6293.00    1.61860   1.59587    0.000
 6294.00    1.60315   1.59042    0.000
 6295.00    1.58711   1.58371    0.000
 6296.00    1.57530   1.57557    0.000
 6297.00    1.56804   1.56829    0.000
 6298.00    1.56349   1.56079    0.000
 6299.00    1.55970   1.55499    0.000
 6300.00    1.55495   1.55137    0.000
 6301.00    1.54818   1.54782    0.000
 6302.00    1.54102   1.54609    0.000
 6303.00    1.53822   1.54752    0.000
 6304.00    1.54207   1.55165    0.000
 6305.00    1.54963   1.55691    0.000
 6306.00    1.55700   1.56204    0.000
 6307.00    1.56182   1.56764    0.000
 6308.00    1.56367   1.57353    0.000
 6309.00    1.56390   1.57824    0.000
 6310.00    1.56405   1.57975    0.000
 6311.00    1.56498   1.57839    0.000
 6312.00    1.56622   1.57528    0.000
 6313.00    1.56622   1.57081    0.000
 6314.00    1.56440   1.56415    0.000
 6315.00    1.56173   1.55530    0.000
 6316.00    1.55958   1.54817    0.000
 6317.00    1.55898   1.54241    0.000
 6318.00    1.56006   1.53793    0.000
 6319.00    1.56199   1.53633    0.000
 6320.00    1.56395   1.53639    0.000
 6321.00    1.56546   1.54070   35.307
 6322.00    1.56673   1.54762   35.239
 6323.00    1.56855   1.55446   35.398
 6324.00    1.57178   1.56351   35.566
 6325.00    1.57693   1.57354   35.369
 6326.00    1.58353   1.58312   34.775
 6327.00    1.59034   1.58998   34.097
 6328.00    1.59640   1.59574   33.689
 6329.00    1.60132   1.60100   33.727
 6330.00    1.60508   1.60278   33.907
 6331.00    1.60773   1.60300   33.807
 6332.00    1.60856   1.60036   33.790
 6333.00    1.60639   1.59637   34.478
 6334.00    1.60042   1.59245   35.424
 6335.00    1.59123   1.58558   35.631
 6336.00    1.58220   1.57848   35.350
 6337.00    1.57718   1.57332   35.469
 6338.00    1.57645   1.56914   35.927
 6339.00    1.57779   1.56566   36.178
 6340.00    1.57917   1.56320   36.299
 6341.00    1.57938   1.56172   36.611
 6342.00    1.57829   1.56265   36.867
 6343.00    1.57668   1.56460   36.717
 6344.00    1.57600   1.56511   36.473
 6345.00    1.57733   1.56766   36.497
 6346.00    1.58032   1.57115   36.437
 6347.00    1.58382   1.57421   35.855
 6348.00    1.58695   1.57828   34.998
 6349.00    1.58995   1.58151   34.362
 6350.00    1.59464   1.58478   34.213
 6351.00    1.60196   1.58741   34.412
 6352.00    1.60972   1.58707   34.294
 6353.00    1.61480   1.58511   33.578
 6354.00    1.61544   1.58057   33.009
 6355.00    1.61121   1.57274   33.097
 6356.00    1.60262   1.56384   33.347
 6357.00    1.58954   1.55365   33.333
 6358.00    1.57053   1.54205   33.477
 6359.00    1.54647   1.53040   34.094
 6360.00    1.52262   1.51998   34.753
 6361.00    1.50413   1.51219   35.135
 6362.00    1.49296   1.50742   35.617
 6363.00    1.48829   1.50528   36.298
 6364.00    1.48746   1.50670   36.490
 6365.00    1.48922   1.51297   36.091
 6366.00    1.49488   1.52206   36.099
 6367.00    1.50463   1.53308   36.884
 6368.00    1.51626   1.54641   37.553
 6369.00    1.52891   1.56027   37.377
 6370.00    1.54418   1.57389   36.620
 6371.00    1.56273   1.58630   35.883
 6372.00    1.58269   1.59715   35.600
 6373.00    1.60025   1.60684   35.608
 6374.00    1.61103   1.61412   35.288
 6375.00    1.61448   1.61866   34.727
 6376.00    1.61434   1.62147   34.677
 6377.00    1.61422   1.62313   35.073
 6378.00    1.61583   1.62294   34.998
 6379.00    1.61848   1.62158   34.359
 6380.00    1.61992   1.61959   33.976
 6381.00    1.61890   1.61743   34.137
 6382.00    1.61568   1.61665   34.504
 6383.00    1.61123   1.61589   34.837
 6384.00    1.60702   1.61544   35.128
 6385.00    1.60543   1.61610   35.377
 6386.00    1.60862   1.61686   35.538
 6387.00    1.61573   1.61791   35.546
 6388.00    1.62315   1.61812   35.319
 6389.00    1.62667   1.61687   34.774
 6390.00    1.62339   1.61449   33.984
 6391.00    1.61441   1.61153   33.430
 6392.00    1.60363   1.60778   33.623
 6393.00    1.59421   1.60244   34.469
 6394.00    1.58781   1.59752   35.378
 6395.00    1.58440   1.59348   35.712
 6396.00    1.58300   1.59039   35.220
 6397.00    1.58285   1.58822   34.466
 6398.00    1.58363   1.58682   34.140
 6399.00    1.58523   1.58646   34.193
 6400.00    1.58707   1.58647   34.234
 6401.00    1.58711   1.58866   34.152
 6402.00    1.58400   1.59089   34.027
 6403.00    1.57970   1.59335   33.889
 6404.00    1.57666   1.59643   33.787
 6405.00    1.57413   1.59716   33.902
 6406.00    1.57112   1.59925   34.336
 6407.00    1.56992   1.60061   34.873
 6408.00    1.57338   1.59894   35.205
 6409.00    1.58163   1.59798   35.262
 6410.00    1.59281   1.59605   35.198
 6411.00    1.60422   1.59361   35.285
 6412.00    1.61328   1.59222   35.598
 6413.00    1.61815   1.59041   35.792
 6414.00    1.61736   1.58978   35.651
 6415.00    1.60978   1.59014   35.524
 6416.00    1.59764   1.58945   35.687
 6417.00    1.58789   1.58887   35.894
 6418.00    1.58478   1.58922   35.949
 6419.00    1.58516   1.58925   36.068
 6420.00    1.58358   1.58954   36.229
 6421.00    1.57665   1.59055   35.850
 6422.00    1.56684   1.59254   34.744
 6423.00    1.56305   1.59664   33.529
 6424.00    1.57115   1.60112   32.727
 6425.00    1.58913   1.60542   32.438
 6426.00    1.61088   1.60932   32.509
 6427.00    1.62932   1.61248   32.661
 6428.00    1.64027   1.61484   32.839
 6429.00    1.64368   1.61521   33.288
 6430.00    1.64020   1.61309   33.982
 6431.00    1.63009   1.60993   34.451
 6432.00    1.61543   1.60752   34.428
 6433.00    1.60052   1.60512   34.140
 6434.00    1.58960   1.60380   33.971
 6435.00    1.58528   1.60292   34.235
 6436.00    1.58637   1.60248   34.931
 6437.00    1.58885   1.60466   35.722
 6438.00    1.59133   1.60682   36.270
 6439.00    1.59560   1.60912   36.390
 6440.00    1.60211   1.61306   36.088
 6441.00    1.60900   1.61714   35.530
 6442.00    1.61329   1.62222   34.933
 6443.00    1.61299   1.62671   34.435
 6444.00    1.61162   1.62871   33.902
 6445.00    1.61528   1.63000   33.173
 6446.00    1.62286   1.62906   32.679
 6447.00    1.62741   1.62506   33.002
 6448.00    1.62496   1.61936   33.809
 6449.00    1.61598   1.61051   34.140
 6450.00    1.60408   1.60113   33.851
 6451.00    1.59376   1.59392   33.504
 6452.00    1.58683   1.58802   33.318
 6453.00    1.58384   1.58587   33.243
 6454.00    1.58772   1.58580   33.409
 6455.00    1.60009   1.58711   33.918
 6456.00    1.61445   1.59154   34.332
 6457.00    1.62173   1.59657   34.222
 6458.00    1.62066   1.60187   34.198
 6459.00    1.61616   1.60652   34.966
 6460.00    1.61437   1.60934   35.794
 6461.00    1.61863   1.61125   35.622
 6462.00    1.62530   1.61129   35.203
 6463.00    1.62864   1.61098   35.547
 6464.00    1.62737   1.61123   35.890
 6465.00    1.62274   1.61153   35.257
 6466.00    1.61537   1.61307   34.546
 6467.00    1.60640   1.61449   34.718
 6468.00    1.59886   1.61646   35.101
 6469.00    1.59631   1.61911   34.803
 6470.00    1.60121   1.62169   34.259
 6471.00    1.61309   1.62338   34.033
 6472.00    1.62748   1.62454   33.778
 6473.00    1.63926   1.62575   33.233
 6474.00    1.64567   1.62601   32.921
 6475.00    1.64671   1.62611   33.110
 6476.00    1.64482   1.62534   33.175
 6477.00    1.64253   1.62407   32.816
 6478.00    1.64088   1.62244   32.807
 6479.00    1.64054   1.61998   33.556
 6480.00    1.64231   1.61676   34.297
 6481.00    1.64428   1.61268   34.384
 6482.00    1.64086   1.60847   34.235
 6483.00    1.62826   1.60444   34.424
 6484.00    1.60777   1.60102   35.098
 6485.00    1.58532   1.59832   35.960
 6486.00    1.56973   1.59563   36.358
 6487.00    1.56506   1.59220   36.199
 6488.00    1.56781   1.58766   36.180
 6489.00    1.57232   1.58069   36.361
 6490.00    1.57398   1.57095   35.993
 6491.00    1.57173   1.55791   35.636
 6492.00    1.56775   1.54213   36.715
 6493.00    1.56206   1.52481   36.409
 6494.00    1.55181   1.50567   30.935
 6495.00    1.53702   1.48859   28.948
 6496.00    1.52150   1.47437   43.984
 6497.00    1.50905   1.46511   43.984
 6498.00    1.50211   1.46286   17.600
 6499.00    1.50194   1.46459    7.870
 6500.00    1.50874   1.47302    6.094
 6501.00    1.52194   1.48594    6.337
 6502.00    1.53975   1.50171    6.649
 6503.00    1.55820   1.52019    6.439
 6504.00    1.57237   1.53747    6.434
 6505.00    1.58040   1.55404    6.460
 6506.00    1.58375   1.56890    5.941
 6507.00    1.58566   1.58086    5.910
 6508.00    1.58938   1.59049    8.536
 6509.00    1.59544   1.59731   23.530
 6510.00    1.60183   1.60188   43.984
 6511.00    1.60548   1.60489   42.545
 6512.00    1.60437   1.60605   30.235
 6513.00    1.60057   1.60581   34.625
 6514.00    1.59794   1.60444   38.658
 6515.00    1.59734   1.60230   35.911
 6516.00    1.59797   1.59988   33.923
 6517.00    1.60063   1.59766   33.989
 6518.00    1.60656   1.59553   34.063
 6519.00    1.61500   1.59442   33.814
 6520.00    1.62384   1.59473   33.836
 6521.00    1.63095   1.59559   33.780
 6522.00    1.63484   1.59780   33.214
 6523.00    1.63518   1.59993   32.857
 6524.00    1.63350   1.60211   33.363
 6525.00    1.63348   1.60447   33.998
 6526.00    1.63729   1.60552   33.879
 6527.00    1.64191   1.60585   33.628
 6528.00    1.64363   1.60542    0.000
 6529.00    1.64274   1.60442    0.000
 6530.00    1.64103   1.60389    0.000
 6531.00    1.63921   1.60329    0.000
 6532.00    1.63756   1.60252    0.000
 6533.00    1.63662   1.60242    0.000
 6534.00    1.63738   1.60298    0.000
 6535.00    1.64110   1.60478    0.000
 6536.00    1.64824   1.60702    0.000
 6537.00    1.65752   1.60893    0.000
 6538.00    1.66539   1.61046    0.000
 6539.00    1.66654   1.61144    0.000
 6540.00    1.65903   1.61166    0.000
 6541.00    1.64691   1.61029    0.000
 6542.00    1.63589   1.60742    0.000
 6543.00    1.63019   1.60262    0.000
 6544.00    1.63037   1.59678    0.000
 6545.00    1.63320   1.59034    0.000
 6546.00    1.63716   1.58279    0.000
 6547.00    1.64424   1.57604    0.000
 6548.00    1.65536   1.56910    0.000
 6549.00    1.66803   1.56285    0.000
 6550.00    1.67593   1.55723    0.000
 6551.00    1.67105   1.55055    0.000
 6552.00    1.65235   1.54381    0.000
 6553.00    1.62725   1.53565    0.000
 6554.00    1.60369   1.52623    0.000
 6555.00    1.58614   1.51527    0.000
 6556.00    1.57264   1.50160    0.000
 6557.00    1.55708   1.48513    0.000
 6558.00    1.53972   1.46634    0.000
 6559.00    1.52726   1.44686    0.000
 6560.00    1.52302   1.42641    0.000
 6561.00    1.52529   1.40669    0.000
 6562.00    1.53095   1.38764    0.000
 6563.00    1.53730   1.37217    0.000
 6564.00    1.54390   1.36454    0.000
 6565.00    1.55112   1.36343    0.000
 6566.00    1.55598   1.37128    0.000
 6567.00    1.55366   1.38468    0.000
 6568.00    1.54299   1.40046    0.000
 6569.00    1.52768   1.41900    0.000
 6570.00    1.51636   1.43765    0.000
 6571.00    1.51716   1.45662    0.000
 6572.00    1.52825   1.47339    0.000
 6573.00    1.54195   1.48650    0.000
 6574.00    1.55486   1.49696    0.000
 6575.00    1.56731   1.50545    0.000
 6576.00    1.57981   1.51390    0.000
 6577.00    1.59267   1.52198    0.000
 6578.00    1.60631   1.53014    0.000
 6579.00    1.62153   1.53772    0.000
 6580.00    1.63984   1.54410    0.000
 6581.00    1.66388   1.54984    0.000
 6582.00    1.69751   1.55516    0.000
 6583.00    1.74010   1.55994    0.000
 6584.00    1.78053   1.56403    0.000
 6585.00    1.80535   1.56722    0.000
 6586.00    1.80857   1.56867    0.000
 6587.00    1.79098   1.56929    0.000
 6588.00    1.75812   1.56850    0.000
 6589.00    1.71687   1.56674    0.000
 6590.00    1.67259   1.56437    0.000
 6591.00    1.63083   1.55984    0.000
 6592.00    1.59845   1.55432    0.000
 6593.00    1.57841   1.54798    0.000
 6594.00    1.56639   1.54273    0.000
 6595.00    1.55823   1.53958    0.000
 6596.00    1.55508   1.53833    0.000
 6597.00    1.55815   1.53946    0.000
 6598.00    1.56505   1.54159    0.000
 6599.00    1.57178   1.54495    0.000
 6600.00    1.57465   1.54944    0.000
 6601.00    1.57392   1.55445    0.000
 6602.00    1.57468   1.55924    0.000
 6603.00    1.58035   1.56199    0.000
 6604.00    1.58941   1.56232    0.000
 6605.00    1.59788   1.56137    0.000
 6606.00    1.60154   1.55962    0.000
 6607.00    1.59960   1.55733    0.000
 6608.00    1.59551   1.55500    0.000
 6609.00    1.59268   1.55270   34.121
 6610.00    1.59241   1.55234   34.230
 6611.00    1.59350   1.55367   34.268
 6612.00    1.59340   1.55670   33.983
 6613.00    1.59274   1.56143   33.535
 6614.00    1.59547   1.56648   33.381
 6615.00    1.60328   1.57234   33.448
 6616.00    1.61392   1.57775   33.204
 6617.00    1.62254   1.58304   32.778
 6618.00    1.62429   1.58746   32.869
 6619.00    1.62029   1.58963   33.566
 6620.00    1.61652   1.59040   34.294
 6621.00    1.61571   1.58998   34.638
 6622.00    1.61612   1.58835   34.641
 6623.00    1.61455   1.58535   34.677
 6624.00    1.60861   1.58069   35.128
 6625.00    1.59995   1.57540   35.780
 6626.00    1.59284   1.57050   36.007
 6627.00    1.58916   1.56518   35.675
 6628.00    1.58800   1.56026   35.105
 6629.00    1.58716   1.55514   34.440
 6630.00    1.58424   1.55002   33.724
 6631.00    1.57807   1.54550   33.226
 6632.00    1.56932   1.54121   33.242
 6633.00    1.56102   1.53789   33.727
 6634.00    1.55619   1.53511   34.331
 6635.00    1.55397   1.53343   34.532
 6636.00    1.55185   1.53333   34.059
 6637.00    1.54984   1.53467   33.439
 6638.00    1.54910   1.53651   33.325
 6639.00    1.54925   1.53853   33.698
 6640.00    1.54884   1.54066   34.250
 6641.00    1.54658   1.54272   34.926
 6642.00    1.54408   1.54467   35.658
 6643.00    1.54820   1.54598   35.950
 6644.00    1.56227   1.54696   35.559
 6645.00    1.57695   1.54742   35.246
 6646.00    1.58167   1.54787   35.609
 6647.00    1.57697   1.54901   36.043
 6648.00    1.56977   1.55037   35.797
 6649.00    1.56725   1.55183   35.160
 6650.00    1.57211   1.55286   34.671
 6651.00    1.57949   1.55400   34.395
 6652.00    1.58258   1.55547   34.281
 6653.00    1.57776   1.55620   34.405
 6654.00    1.56652   1.55610   34.625
 6655.00    1.55567   1.55563   34.377
 6656.00    1.55022   1.55452   33.439
 6657.00    1.54884   1.55272   32.349
 6658.00    1.54870   1.54968   31.756
 6659.00    1.54855   1.54593   32.060
 6660.00    1.54767   1.54192   33.091
 6661.00    1.54504   1.53707   33.914
 6662.00    1.53887   1.53211   34.048
 6663.00    1.52722   1.52682   34.196
 6664.00    1.51187   1.52275   34.833
 6665.00    1.49925   1.51997   35.565
 6666.00    1.49462   1.51852   35.910
 6667.00    1.49916   1.51908   35.802
 6668.00    1.50992   1.52065   35.534
 6669.00    1.52120   1.52381   35.542
 6670.00    1.53020   1.52759   35.825
 6671.00    1.53813   1.53172   35.906
 6672.00    1.54542   1.53551   35.602
 6673.00    1.55052   1.53741   35.193
 6674.00    1.55228   1.53825   34.875
 6675.00    1.55091   1.53780   34.597
 6676.00    1.54836   1.53585   34.133
 6677.00    1.54734   1.53281   33.326
 6678.00    1.54831   1.52881   32.628
 6679.00    1.54921   1.52573   32.721
 6680.00    1.54715   1.52354   33.399
 6681.00    1.54046   1.52330   33.765
 6682.00    1.53256   1.52516   33.739
 6683.00    1.52962   1.52728   33.946
 6684.00    1.53278   1.53071   34.245
 6685.00    1.53863   1.53435   34.027
 6686.00    1.54465   1.53882   33.756
 6687.00    1.54978   1.54310   34.329
 6688.00    1.55299   1.54573   35.216
 6689.00    1.55383   1.54777   35.115
 6690.00    1.55373   1.54844   34.424
 6691.00    1.55473   1.54812   34.371
 6692.00    1.55692   1.54684   34.790
 6693.00    1.55834   1.54452   34.797
 6694.00    1.55588   1.54163   34.444
 6695.00    1.54712   1.53820   34.279
 6696.00    1.53290   1.53446    0.000
 6697.00    1.51681   1.53117    0.000
 6698.00    1.50378   1.52803    0.000
 6699.00    1.49781   1.52592    0.000
 6700.00    1.49931   1.52516    0.000
 6701.00    1.50536   1.52478    0.000
 6702.00    1.51076   1.52511    0.000
 6703.00    1.51203   1.52508    0.000
 6704.00    1.51143   1.52525    0.000
 6705.00    1.51373   1.52545    0.000
 6706.00    1.52201   1.52538    0.000
 6707.00    1.53457   1.52520    0.000
 6708.00    1.54325   1.52425    0.000
 6709.00    1.54227   1.52254    0.000
 6710.00    1.53558   1.51957    0.000
 6711.00    1.52978   1.51612    0.000
 6712.00    1.52784   1.51170    0.000
 6713.00    1.53022   1.50681    0.000
 6714.00    1.53619   1.50197    0.000
 6715.00    1.54468   1.49650    0.000
 6716.00    1.55460   1.49179    0.000
 6717.00    1.56437   1.48772    0.000
 6718.00    1.57169   1.48544    0.000
 6719.00    1.57480   1.48542    0.000
 6720.00    1.57306   1.48664    0.000
 6721.00    1.56553   1.48989    0.000
 6722.00    1.55106   1.49385    0.000
 6723.00    1.53320   1.49845    0.000
 6724.00    1.52061   1.50326    0.000
 6725.00    1.51692   1.50808    0.000
 6726.00    1.51750   1.51274    0.000
 6727.00    1.51848   1.51647    0.000
 6728.00    1.52023   1.51933    0.000
 6729.00    1.52448   1.52190    0.000
 6730.00    1.53278   1.52424    0.000
 6731.00    1.54591   1.52587    0.000
 6732.00    1.56266   1.52676    0.000
 6733.00    1.57681   1.52669    0.000
 6734.00    1.57919   1.52622    0.000
 6735.00    1.56783   1.52508    0.000
 6736.00    1.54917   1.52355    0.000
 6737.00    1.53100   1.52129    0.000
 6738.00    1.51907   1.51846    0.000
 6739.00    1.51406   1.51536    0.000
 6740.00    1.51304   1.51202    0.000
 6741.00    1.51536   1.50912    0.000
 6742.00    1.52136   1.50637    0.000
 6743.00    1.52588   1.50390    0.000
 6744.00    1.52226   1.50154    0.000
 6745.00    1.51484   1.49909    0.000
 6746.00    1.51330   1.49730    0.000
 6747.00    1.51534   1.49584    0.000
 6748.00    1.50999   1.49418    0.000
 6749.00    1.49118   1.49322    0.000
 6750.00    1.46088   1.49229    0.000
 6751.00    1.42963   1.49267    0.000
 6752.00    1.41195   1.49367    0.000
 6753.00    1.41832   1.49549   30.788
 6754.00    1.45006   1.49896   30.245
 6755.00    1.49408   1.50251   29.272
 6756.00    1.53258   1.50771   28.648
 6757.00    1.55789   1.51311   28.426
 6758.00    1.57252   1.51870   28.303
 6759.00    1.58584   1.52419   28.074
 6760.00    1.60496   1.52850   27.751
 6761.00    1.62478   1.53198   27.615
 6762.00    1.63604   1.53373   27.888
 6763.00    1.63575   1.53428   28.411
 6764.00    1.62535   1.53332   28.901
 6765.00    1.60770   1.53129   29.288
 6766.00    1.58657   1.52822   29.629
 6767.00    1.56623   1.52468   29.973
 6768.00    1.54768   1.52130   30.404
 6769.00    1.52650   1.51863   31.084
 6770.00    1.50461   1.51713   31.865
 6771.00    1.49763   1.51710   31.997
 6772.00    1.51255   1.51839   31.249
 6773.00    1.53285   1.52074   30.590
 6774.00    1.54287   1.52454   30.599
 6775.00    1.54460   1.52887   30.735
 6776.00    1.54550   1.53343   30.631
 6777.00    1.54935   1.53694   30.801
 6778.00    1.55551   1.53932   31.381
 6779.00    1.55947   1.54029   31.511
 6780.00    1.55695   1.53944   30.921
 6781.00    1.54726   1.53726   30.576
 6782.00    1.53808   1.53320   30.710
 6783.00    1.54337   1.52818   30.298
 6784.00    1.56041   1.52246   29.088
 6785.00    1.56688   1.51716   28.095
 6786.00    1.55987   1.51291   27.819
 6787.00    1.56281   1.51004   27.973
 6788.00    1.57748   1.50867   28.327
 6789.00    1.57662   1.50813   28.939
 6790.00    1.55674   1.50877   29.807
 6791.00    1.54485   1.50958   30.734
 6792.00    1.54554   1.51069   31.419
 6793.00    1.53550   1.51182   31.645
 6794.00    1.51110   1.51272   31.694
 6795.00    1.49352   1.51350   32.104
 6796.00    1.49365   1.51390   32.553
 6797.00    1.50527   1.51495   32.084
 6798.00    1.51820   1.51580   31.075
 6799.00    1.52400   1.51702   30.795
 6800.00    1.52031   1.51857   31.415
 6801.00    1.51189   1.51998   32.134
 6802.00    1.50988   1.52157   32.346
 6803.00    1.52354   1.52277   31.956
 6804.00    1.54262   1.52374   31.137
 6805.00    1.54950   1.52430   30.145
 6806.00    1.55231   1.52425   29.148
 6807.00    1.57049   1.52410   28.298
 6808.00    1.59389   1.52372   27.893
 6809.00    1.59686   1.52282   28.225
 6810.00    1.57783   1.52210   29.297
 6811.00    1.55355   1.52160   30.786
 6812.00    1.53701   1.52101   31.989
 6813.00    1.53364   1.52092   32.309
 6814.00    1.54126   1.52106   32.291
 6815.00    1.55189   1.52135   32.836
 6816.00    1.55486   1.52226   33.842
 6817.00    1.54498   1.52342   34.561
 6818.00    1.53197   1.52536   34.509
 6819.00    1.52822   1.52745   33.715
 6820.00    1.53258   1.52926   32.629
 6821.00    1.53706   1.53125   31.688
 6822.00    1.53691   1.53295   31.013
 6823.00    1.53296   1.53475   30.547
 6824.00    1.53226   1.53634   30.200
 6825.00    1.53968   1.53737   29.941
 6826.00    1.55043   1.53782   29.871
 6827.00    1.55764   1.53749   30.063
 6828.00    1.56002   1.53673   30.416
 6829.00    1.56024   1.53585   30.691
 6830.00    1.56243   1.53480   30.586
 6831.00    1.56722   1.53401   30.028
 6832.00    1.56884   1.53319   29.336
 6833.00    1.56232   1.53205   28.872
 6834.00    1.54859   1.53021   28.844
 6835.00    1.53165   1.52770   29.347
 6836.00    1.51630   1.52446   30.369
 6837.00    1.50703   1.52037   31.545
 6838.00    1.50673   1.51548   32.110
 6839.00    1.51268   1.50981   32.356
 6840.00    1.51603   1.50437   33.898
 6841.00    1.51121   1.49904   35.138
 6842.00    1.50056   1.49508   31.081
 6843.00    1.49074   1.49282   28.059
 6844.00    1.48910   1.49252   38.608
 6845.00    1.49596   1.49432   43.984
 6846.00    1.50376   1.49743   19.850
 6847.00    1.50836   1.50149    8.380
 6848.00    1.51215   1.50556    6.134
 6849.00    1.51637   1.50924    6.250
 6850.00    1.51849   1.51210    6.785
 6851.00    1.51459   1.51375    6.751
 6852.00    1.50259   1.51402    6.547
 6853.00    1.48967   1.51289    6.602
 6854.00    1.48897   1.51037    6.870
 6855.00    1.50132   1.50670    6.869
 6856.00    1.51505   1.50268    6.252
 6857.00    1.52215   1.49842    6.089
 6858.00    1.52167   1.49504    8.309
 6859.00    1.51564   1.49272   19.880
 6860.00    1.50739   1.49071   43.984
 6861.00    1.50060   1.48969   37.942
 6862.00    1.49769   1.48938   26.831
 6863.00    1.49685   1.48959   29.076
 6864.00    1.49473   1.49050   32.853
 6865.00    1.49331   1.49185   32.309
 6866.00    1.49739   1.49321   31.011
 6867.00    1.50692   1.49347   30.665
 6868.00    1.51748   1.49336   30.477
 6869.00    1.52402   1.49314   30.401
 6870.00    1.52362   1.49269   30.866
 6871.00    1.51857   1.49285   31.531
 6872.00    1.51287   1.49337   31.733
 6873.00    1.50627   1.49388   31.731
 6874.00    1.49756   1.49435   32.139
 6875.00    1.49058   1.49536   32.768
 6876.00    1.49052   1.49685   33.076
 6877.00    1.49781   1.49841   33.119
 6878.00    1.50868   1.50014   33.244
 6879.00    1.51714   1.50185   33.475
 6880.00    1.51838   1.50331   33.614
 6881.00    1.51233   1.50408   33.471
 6882.00    1.50264   1.50503   32.991
 6883.00    1.49476   1.50614   32.342
 6884.00    1.49052   1.50770   31.754
 6885.00    1.48401   1.50999   31.375
 6886.00    1.47187   1.51321   31.211
 6887.00    1.46212   1.51729   31.102
 6888.00    1.46282   1.52120   30.941
 6889.00    1.47232   1.52576   30.826
 6890.00    1.48546   1.53031   30.794
 6891.00    1.49919   1.53436   30.654
 6892.00    1.51194   1.53777   30.363
 6893.00    1.52288   1.54054   30.233
 6894.00    1.53209   1.54238   30.475
 6895.00    1.54016   1.54316   30.939
 6896.00    1.54526   1.54381   31.435
 6897.00    1.54259   1.54399   31.936
 6898.00    1.53224   1.54399   32.407
 6899.00    1.52197   1.54419   32.705
 6900.00    1.51576   1.54462   32.738
 6901.00    1.50979   1.54501   32.568
 6902.00    1.50436   1.54564   32.339
 6903.00    1.50696   1.54664   32.192
 6904.00    1.51663   1.54789   32.086
 6905.00    1.52089   1.54886   31.814
 6906.00    1.51484   1.54959   31.444
 6907.00    1.50635   1.55031   31.308
 6908.00    1.50233   1.55032   31.325
 6909.00    1.50329   1.55012   31.031
 6910.00    1.50475   1.54893   30.613
 6911.00    1.50101   1.54738   30.810
 6912.00    1.49573   1.54515   31.473
 6913.00    1.49961   1.54244   31.569
 6914.00    1.51175   1.53963   31.125
 6915.00    1.52038   1.53722   31.230
 6916.00    1.52271   1.53525   32.113
 6917.00    1.52504   1.53384   33.008
 6918.00    1.52692   1.53351   33.296
 6919.00    1.52209   1.53310   32.960
 6920.00    1.51210   1.53348   32.434
 6921.00    1.50469   1.53377   32.209
 6922.00    1.50204   1.53369   32.263
 6923.00    1.50047   1.53318   32.266
 6924.00    1.49593   1.53179   32.207
 6925.00    1.48697   1.53026   32.241
 6926.00    1.47805   1.52791   32.115
 6927.00    1.47547   1.52621   31.484
 6928.00    1.47875   1.52499   30.641
 6929.00    1.48313   1.52440   30.116
 6930.00    1.48656   1.52438   29.978
 6931.00    1.48932   1.52445   30.046
 6932.00    1.49154   1.52527   30.249
 6933.00    1.49321   1.52596   30.596
 6934.00    1.49478   1.52736   31.066
 6935.00    1.49747   1.52859   31.560
 6936.00    1.50324   1.53029   31.888
 6937.00    1.51257   1.53212   31.943
 6938.00    1.52194   1.53320   31.925
 6939.00    1.52740   1.53411   32.078
 6940.00    1.52903   1.53437   32.374
 6941.00    1.52840   1.53429   32.633
 6942.00    1.52547   1.53338   32.702
 6943.00    1.52153   1.53190   32.453
 6944.00    1.52171   1.52973   31.801
 6945.00    1.52678   1.52710   30.977
 6946.00    1.52665   1.52482   30.598
 6947.00    1.51412   1.52266   30.862
 6948.00    1.49625   1.52136   31.023
 6949.00    1.48387   1.52081   30.567
 6950.00    1.48221   1.52034   30.110
 6951.00    1.48980   1.52001   30.166
 6952.00    1.49917   1.52014   30.422
 6953.00    1.50346   1.52017   30.593
 6954.00    1.50092   1.52100   30.958
 6955.00    1.49383   1.52251   31.595
 6956.00    1.48692   1.52458   31.934
 6957.00    1.48343   1.52728   31.715
 6958.00    1.48332   1.53045   31.503
 6959.00    1.48649   1.53393   31.702
 6960.00    1.49375   1.53723   32.110
 6961.00    1.50219   1.54080   32.324
 6962.00    1.50494   1.54405   32.047
 6963.00    1.50176   1.54711   31.451
 6964.00    1.50137   1.54977   31.090
 6965.00    1.50939   1.55186   31.093
 6966.00    1.52413   1.55359   31.059
 6967.00    1.54197   1.55462   30.766
 6968.00    1.55946   1.55499   30.365
 6969.00    1.57233   1.55494   29.944
 6970.00    1.57632   1.55420   29.495
 6971.00    1.57131   1.55193   29.284
 6972.00    1.56111   1.54850   29.721
 6973.00    1.54812   1.54394   30.596
 6974.00    1.53293   1.53830   31.093
 6975.00    1.51850   1.53229   31.015
 6976.00    1.50885   1.52523   30.939
 6977.00    1.50210   1.51840   31.153
 6978.00    1.49248   1.51228   31.530
 6979.00    1.48033   1.50795   31.924
 6980.00    1.47143   1.50562   32.242
 6981.00    1.46901   1.50584   32.338
 6982.00    1.47283   1.50949   32.112
 6983.00    1.48107   1.51490   31.729
 6984.00    1.49060   1.52141   31.474
 6985.00    1.49653   1.52853   31.403
 6986.00    1.49520   1.53536   31.361
 6987.00    1.48993   1.54146   31.107
 6988.00    1.48767   1.54658   30.561
 6989.00    1.49157   1.55052   30.126
 6990.00    1.50090   1.55333   30.175
 6991.00    1.51311   1.55492   30.319
 6992.00    1.52383   1.55575   30.042
 6993.00    1.52672   1.55600   29.806
 6994.00    1.51893   1.55552   30.283
 6995.00    1.50831   1.55429   31.228
 6996.00    1.50528   1.55227   31.908
 6997.00    1.51149   1.54961   32.032
 6998.00    1.52146   1.54670   31.793
 6999.00    1.52673   1.54310   31.574
 7000.00    1.52093   1.53932   31.644
 7001.00    1.50474   1.53524   -2.000
 7002.00    1.48456   1.53151   -2.000
 7003.00    1.46985   1.52862   -2.000
 7004.00    1.46692   1.52631   -2.000
 7005.00    1.47349   1.52441   -2.000
 7006.00    1.48148   1.52280   -2.000
 7007.00    1.48116   1.52201   -2.000
 7008.00    1.47071   1.52174   -2.000
 7009.00    1.46192   1.52178   -2.000
 7010.00    1.46385   1.52179   -2.000
 7011.00    1.47145   1.52162   -2.000
 7012.00    1.47702   1.52104   -2.000
 7013.00    1.47882   1.51975   -2.000
 7014.00    1.48002   1.51827   -2.000
 7015.00    1.48598   1.51669   -2.000
 7016.00    1.49347   1.51497   -2.000
 7017.00    1.48815   1.51352   -2.000
 7018.00    1.46674   1.51237   -2.000
 7019.00    1.44546   1.51257   -2.000
 7020.00    1.43692   1.51421   -2.000
 7021.00    1.43946   1.51585   -2.000
 7022.00    1.44593   1.51738   -2.000
 7023.00    1.44999   1.51870   -2.000
 7024.00    1.45372   1.51993   -2.000
 7025.00    1.46591   1.52069   -2.000
 7026.00    1.48178   1.52177   -2.000
 7027.00    1.48301   1.52331   -2.000
 7028.00    1.47017   1.52560   -2.000
 7029.00    1.46522   1.52796   -2.000
 7030.00    1.47590   1.53042   -2.000
 7031.00    1.48966   1.53289   -2.000
 7032.00    1.49652   1.53537   -2.000
 7033.00    1.49538   1.53770   -2.000
 7034.00    1.48960   1.53978   -2.000
 7035.00    1.48416   1.54177   -2.000
 7036.00    1.48216   1.54404   -2.000
 7037.00    1.48460   1.54644   -2.000
 7038.00    1.49266   1.54940   -2.000
 7039.00    1.50662   1.55294   -2.000
 7040.00    1.52221   1.55659   -2.000
 7041.00    1.53198   1.56158   -2.000
 7042.00    1.53046   1.56785   -2.000
 7043.00    1.51792   1.57389   -2.000
 7044.00    1.50517   1.57931   -2.000
 7045.00    1.50612   1.58354   -2.000
 7046.00    1.52216   1.58660   -2.000
 7047.00    1.54460   1.58778   -2.000
 7048.00    1.56451   1.58774   -2.000
 7049.00    1.57628   1.58571   -2.000
 7050.00    1.58034   1.58145   -2.000
 7051.00    1.57916   1.57520   -2.000
 7052.00    1.57086   1.56658   -2.000
 7053.00    1.55388   1.55659   -2.000
 7054.00    1.53462   1.54534   -2.000
 7055.00    1.52140   1.53364   -2.000
 7056.00    1.51545   1.52280   -2.000
 7057.00    1.51186   1.51271   -2.000
 7058.00    1.50269   1.50398   -2.000
 7059.00    1.48287   1.49625   -2.000
 7060.00    1.45629   1.48952   -2.000
 7061.00    1.43282   1.48361   -2.000
 7062.00    1.42356   1.47863   -2.000
 7063.00    1.43175   1.47491   -2.000
 7064.00    1.44589   1.47222   -2.000
 7065.00    1.45606   1.46987   -2.000
 7066.00    1.46727   1.46834   -2.000
 7067.00    1.48286   1.46740   -2.000
 7068.00    1.49156   1.46679   -2.000
 7069.00    1.48385   1.46717   -2.000
 7070.00    1.46467   1.46863   -2.000
 7071.00    1.44766   1.47153   -2.000
 7072.00    1.44814   1.47592   -2.000
 7073.00    1.46790   1.48090   -2.000
 7074.00    1.48940   1.48572   -2.000
 7075.00    1.50147   1.49041   -2.000
 7076.00    1.51139   1.49467   -2.000
 7077.00    1.52032   1.49777   -2.000
 7078.00    1.51424   1.49967   -2.000
 7079.00    1.49337   1.49986   -2.000
 7080.00    1.48074   1.49843   -2.000
 7081.00    1.48590   1.49486   -2.000
 7082.00    1.49226   1.48941   -2.000
 7083.00    1.48320   1.48228   -2.000
 7084.00    1.45490   1.47338   -2.000
 7085.00    1.41760   1.46337   -2.000
 7086.00    1.39111   1.45296   -2.000
 7087.00    1.38614   1.44299   -2.000
 7088.00    1.39814   1.43449   -2.000
 7089.00    1.41173   1.42679   -2.000
 7090.00    1.40936   1.42009   -2.000
 7091.00    1.39302   1.41512   -2.000
 7092.00    1.38108   1.41160   -2.000
 7093.00    1.37653   1.40942   -2.000
 7094.00    1.36722   1.40915   -2.000
 7095.00    1.35438   1.40931   -2.000
 7096.00    1.35102   1.41099   -2.000
 7097.00    1.35607   1.41313   -2.000
 7098.00    1.35693   1.41572   -2.000
 7099.00    1.35210   1.41878   -2.000
 7100.00    1.34918   1.42156   -2.000
 7101.00    1.34794   1.42457   -2.000
 7102.00    1.34275   1.42665   -2.000
 7103.00    1.33566   1.42838   -2.000
 7104.00    1.33446   1.42916   -2.000
 7105.00    1.34356   1.42955   -2.000
 7106.00    1.36087   1.42942   -2.000
 7107.00    1.37565   1.42892   -2.000
 7108.00    1.37602   1.42751   -2.000
 7109.00    1.36174   1.42578   -2.000
 7110.00    1.34069   1.42411   -2.000
 7111.00    1.32029   1.42291   -2.000
 7112.00    1.30705   1.42171   -2.000
 7113.00    1.30751   1.42075   -2.000
 7114.00    1.32366   1.42065   -2.000
 7115.00    1.34720   1.42110   -2.000
 7116.00    1.36606   1.42197   -2.000
 7117.00    1.37334   1.42252   -2.000
 7118.00    1.36926   1.42310   -2.000
 7119.00    1.36140   1.42326   -2.000
 7120.00    1.35696   1.42269   -2.000
 7121.00    1.35510   1.42180   -2.000
 7122.00    1.35342   1.41991   -2.000
 7123.00    1.35442   1.41780   -2.000
 7124.00    1.35929   1.41467   -2.000
 7125.00    1.36265   1.41144   -2.000
 7126.00    1.36033   1.40820   -2.000
 7127.00    1.35533   1.40426   -2.000
 7128.00    1.34952   1.40046   -2.000
 7129.00    1.33818   1.39712   -2.000
 7130.00    1.32068   1.39479   -2.000
 7131.00    1.30671   1.39314   -2.000
 7132.00    1.30252   1.39239   -2.000
 7133.00    1.30324   1.39276   -2.000
 7134.00    1.30464   1.39509   -2.000
 7135.00    1.30915   1.39820   -2.000
 7136.00    1.31551   1.40203   -2.000
 7137.00    1.31521   1.40616   -2.000
 7138.00    1.30642   1.40979   -2.000
 7139.00    1.29845   1.41353   -2.000
 7140.00    1.29539   1.41631   -2.000
 7141.00    1.29130   1.41807   -2.000
 7142.00    1.28616   1.41910   -2.000
 7143.00    1.28945   1.41982   -2.000
 7144.00    1.30269   1.41954   -2.000
 7145.00    1.31657   1.41840   -2.000
 7146.00    1.32884   1.41724   -2.000
 7147.00    1.34494   1.41580   -2.000
 7148.00    1.35442   1.41475   -2.000
 7149.00    1.33549   1.41418   -2.000
 7150.00    1.29853   1.41383   -2.000
 7151.00    1.28156   1.41499   -2.000
 7152.00    1.29069   1.41742   -2.000
 7153.00    1.30020   1.42024   -2.000
 7154.00    1.30640   1.42371   -2.000
 7155.00    1.32741   1.42729   -2.000
 7156.00    1.36078   1.43021   -2.000
 7157.00    1.38629   1.43240   -2.000
 7158.00    1.40087   1.43363   -2.000
 7159.00    1.41620   1.43476   -2.000
 7160.00    1.43325   1.43408   -2.000
 7161.00    1.44326   1.43254   -2.000
 7162.00    1.44209   1.43040   -2.000
 7163.00    1.43003   1.42827   -2.000
 7164.00    1.40542   1.42662   -2.000
 7165.00    1.36853   1.42524   -2.000
 7166.00    1.33061   1.42457   -2.000
 7167.00    1.30769   1.42492   -2.000
 7168.00    1.30749   1.42746   -2.000
 7169.00    1.32499   1.43116   -2.000
 7170.00    1.34011   1.43561   -2.000
 7171.00    1.33902   1.43992   -2.000
 7172.00    1.34265   1.44387   -2.000
 7173.00    1.36965   1.44739   -2.000
 7174.00    1.38537   1.45000   -2.000
 7175.00    1.35622   1.45136   -2.000
 7176.00    1.32030   1.45120   -2.000
 7177.00    1.32314   1.44976   -2.000
 7178.00    1.33880   1.44721   -2.000
 7179.00    1.32803   1.44422   -2.000
 7180.00    1.30600   1.44125   -2.000
 7181.00    1.30053   1.43758   -2.000
 7182.00    1.30621   1.43358   -2.000
 7183.00    1.30808   1.42975   -2.000
 7184.00    1.30624   1.42649   -2.000
 7185.00    1.30564   1.42392   -2.000
 7186.00    1.30589   1.42120   -2.000
 7187.00    1.30355   1.41824   -2.000
 7188.00    1.29497   1.41557   -2.000
 7189.00    1.27891   1.41288   -2.000
 7190.00    1.25888   1.41091   -2.000
 7191.00    1.24707   1.41017   -2.000
 7192.00    1.26252   1.41004   -2.000
 7193.00    1.30296   1.41125   -2.000
 7194.00    1.33454   1.41269   -2.000
 7195.00    1.33711   1.41476   -2.000
 7196.00    1.32552   1.41748   -2.000
 7197.00    1.31673   1.42063   -2.000
 7198.00    1.31294   1.42375   -2.000
 7199.00    1.31155   1.42625   -2.000
 7200.00    1.31077   1.42877   -2.000
 7201.00    1.31022   1.43080   -2.000
 7202.00    1.30900   1.43203   -2.000
 7203.00    1.29694   1.43253   -2.000
 7204.00    1.26059   1.43214   -2.000
 7205.00    1.22096   1.43133   -2.000
 7206.00    1.22613   1.43039   -2.000
 7207.00    1.26994   1.42882   -2.000
 7208.00    1.29153   1.42735   -2.000
 7209.00    1.27629   1.42563   -2.000
 7210.00    1.26523   1.42523   -2.000
 7211.00    1.27371   1.42606   -2.000
 7212.00    1.28119   1.42759   -2.000
 7213.00    1.27815   1.43034   -2.000
 7214.00    1.27293   1.43292   -2.000
 7215.00    1.27178   1.43588   -2.000
 7216.00    1.27453   1.43882   -2.000
 7217.00    1.27781   1.44188   -2.000
 7218.00    1.28066   1.44487   -2.000
