###################################################################
## OUTPUT of StarlightChains_v04.for    [Cid@UFSC - 01/Apr/2007] ##
###################################################################

## Some input info
ASASSN-15fj.txt                          [arq_obs]
Base.CB07.vall.4m                        [arq_base]
Masks.EmLines.NEW.gm                     [arq_masks]
StCv04.C11.config                        [arq_config]
   66                                    [N_base]
    0                                    [N_YAV_components = # of components with extra extinction!]
    0                                    [i_FitPowerLaw (1/0 = Yes/No)]
-9.99                                    [alpha_PowerLaw]
CCM                                      [red_law_option]
 1.458241                                [q_norm = A(l_norm)/A(V)]

## (Re)Sampling Parameters
 3741.00                                 [l_ini (A)]
 7218.00                                 [l_fin (A)]
    1.00                                 [dl    (A)]     (OBS: dl_cushion =    50.00 A)

## Normalization info
 4020.00                                 [l_norm (A) - for base]
 4010.00                                 [llow_norm (A) - window for f_obs]
 4060.00                                 [lupp_norm (A) - window for f_obs]
9.708200E-17                             [fobs_norm (in input units)]

## S/N
 3691.00                                 [llow_SN (A) - window for S/N]
 7268.00                                 [lupp_SN (A) - window for S/N]
   5.287                                 [S/N in S/N window]
   4.431                                 [S/N in norm. window]
  19.537                                 [S/N_err in S/N window]
  16.376                                 [S/N_err in norm. window]
  1.0000                                 [fscale_chi2]

## etc...
    -2007443                             [idum_orig]
  2237                                   [NOl_eff]
  2237                                   [Nl_eff]
     0    NSIGMA                         [Ntot_cliped & clip_method]
   614250                                [Nglobal_steps]
   7                                     [N_chains]
   9                                     [NEX0s_base = N_base in EX0s-fits]
 0   0   1        1   2.0   4.000E+01    [Clip-Bug, RC-Crash & Burn-In warning-flags, n_censored_weights, wei_nsig_threshold & wei_limit]
    10      9.859      9.365      0.494  [idt_all, wdt_TotTime, wdt_UsrTime & wdt_SysTime (sec)]

## Synthesis Results - Best model ##

 2.74233E-01                             [chi2/Nl_eff]
     2.34100                             [adev (%)]

   117.44736                             [sum-of-x (%)]
 8.00022E-17                             [Flux_tot (units of input spectrum!)]
 1.78880E-12                             [Mini_tot (???)]
 9.95973E-13                             [Mcor_tot (???)]

 -52.66                                  [v0_min  (km/s)]
 170.80                                  [vd_min  (km/s)]
-0.2638                                  [AV_min  (mag)]
 0.0000                                  [YAV_min (mag)]

# j     x_j(%)      Mini_j(%)     Mcor_j(%)     age_j(yr)     Z_j      (L/M)_j    YAV?  Mstars   component_j        a/Fe...       SSP_chi2r SSP_adev(%)   SSP_AV   SSP_x(%)
  1      0.0000     0.0000E+00    0.0000E+00    1.000000E+06  0.00400  1.094E-02    0   1.0000   age020_m42            0.0000     3.2724E+00    10.7950   3.2395   105.9672
  2      0.0000     0.0000E+00    0.0000E+00    3.160000E+06  0.00400  4.007E-02    0   0.9999   age045_m42            0.0000     3.0890E+00    10.3346   2.5004   114.1361
  3      0.0000     0.0000E+00    0.0000E+00    5.010000E+06  0.00400  2.539E-02    0   0.9488   age055_m42            0.0000     3.1184E+00    10.5581   2.8211   111.2564
  4      0.0000     0.0000E+00    0.0000E+00    6.610000E+06  0.00400  2.620E-02    0   0.9220   age061_m42            0.0000     3.0620E+00    10.4392   2.4145   115.1286
  5      0.0000     0.0000E+00    0.0000E+00    1.000000E+07  0.00400  1.322E-02    0   0.8862   age070_m42            0.0000     3.5256E+00    12.4177   2.0504   122.4265
  6      0.0000     0.0000E+00    0.0000E+00    1.445000E+07  0.00400  7.883E-03    0   0.8571   age078_m42            0.0000     3.5480E+00    12.3064   2.3939   118.3615
  7      0.0000     0.0000E+00    0.0000E+00    2.512000E+07  0.00400  5.251E-03    0   0.8174   age090_m42            0.0000     3.7020E+00    12.8343   1.9024   124.1961
  8      0.0000     0.0000E+00    0.0000E+00    4.000000E+07  0.00400  3.649E-03    0   0.7851   age104_m42            0.0000     3.5060E+00    12.4353   1.6800   124.9414
  9      0.0000     0.0000E+00    0.0000E+00    5.500000E+07  0.00400  3.098E-03    0   0.7629   age110_m42            0.0000     3.2328E+00    11.3631   1.8700   122.8025
 10      0.0000     0.0000E+00    0.0000E+00    1.015200E+08  0.00400  2.228E-03    0   0.7207   age116_m42            0.0000     3.0553E+00    10.6397   1.9120   121.7710
 11      0.0000     0.0000E+00    0.0000E+00    2.861200E+08  0.00400  1.093E-03    0   0.6648   age125_m42            0.0000     3.1881E+00    11.0461   1.3209   127.2300
 12      0.0000     0.0000E+00    0.0000E+00    5.088000E+08  0.00400  6.597E-04    0   0.6365   age130_m42            0.0000     2.6663E+00     9.7663   1.3429   126.2596
 13      0.0000     0.0000E+00    0.0000E+00    1.434000E+09  0.00400  2.132E-04    0   0.5798   age139_m42            0.0000     1.7030E+00     8.3207   0.3759   128.3341
 14      0.0000     0.0000E+00    0.0000E+00    4.250000E+09  0.00400  5.895E-05    0   0.5377   age158_m42            0.0000     9.8715E-01     6.4734  -0.0033   119.7373
 15      0.0000     0.0000E+00    0.0000E+00    7.500000E+09  0.00400  3.510E-05    0   0.5212   age171_m42            0.0000     7.6317E-01     5.5623  -0.1641   117.5333
 16      0.0000     0.0000E+00    0.0000E+00    1.300000E+10  0.00400  2.005E-05    0   0.5034   age193_m42            0.0000     6.2081E-01     4.7737  -0.3030   115.5976
 17      0.0000     0.0000E+00    0.0000E+00    1.800000E+10  0.00400  1.525E-05    0   0.4967   age213_m42            0.0000     6.3451E-01     4.9548  -0.3326   115.4002
 18      0.0000     0.0000E+00    0.0000E+00    1.000000E+06  0.00800  1.238E-02    0   1.0000   age020_m52            0.0000     3.2530E+00    10.7761   3.2358   106.1697
 19      0.0000     0.0000E+00    0.0000E+00    3.160000E+06  0.00800  3.074E-02    0   0.9966   age045_m52            0.0000     3.1887E+00    10.6490   3.1592   107.0955
 20      0.0000     0.0000E+00    0.0000E+00    5.010000E+06  0.00800  2.668E-02    0   0.9443   age055_m52            0.0000     3.0787E+00    10.6437   2.9001   110.4037
 21      0.0000     0.0000E+00    0.0000E+00    6.610000E+06  0.00800  2.136E-02    0   0.9177   age061_m52            0.0000     2.9349E+00    11.7971   1.5543   123.4393
 22      0.0000     0.0000E+00    0.0000E+00    1.000000E+07  0.00800  1.215E-02    0   0.8827   age070_m52            0.0000     3.7091E+00    13.0306   2.2144   123.1794
 23      0.0000     0.0000E+00    0.0000E+00    1.445000E+07  0.00800  8.717E-03    0   0.8552   age078_m52            0.0000     3.4395E+00    12.2736   2.3533   120.3523
 24      0.0000     0.0000E+00    0.0000E+00    2.512000E+07  0.00800  5.592E-03    0   0.8162   age090_m52            0.0000     3.6008E+00    12.8058   1.9637   125.9354
 25      0.0000     0.0000E+00    0.0000E+00    4.000000E+07  0.00800  3.896E-03    0   0.7841   age104_m52            0.0000     3.4291E+00    12.2006   1.8928   125.9765
 26      0.0000     0.0000E+00    0.0000E+00    1.015200E+08  0.00800  2.148E-03    0   0.7226   age116_m52            0.0000     3.0628E+00    11.0226   1.8640   123.7530
 27      0.0000     0.0000E+00    0.0000E+00    2.861200E+08  0.00800  9.925E-04    0   0.6683   age125_m52            0.0000     2.5353E+00     9.6628   1.4050   127.5932
 28      0.0000     0.0000E+00    0.0000E+00    9.047900E+08  0.00800  3.141E-04    0   0.6138   age135_m52            0.0000     1.5909E+00     7.3233   0.6523   130.1330
 29      0.0000     0.0000E+00    0.0000E+00    1.434000E+09  0.00800  1.719E-04    0   0.5853   age139_m52            0.0000     1.1760E+00     6.8759   0.0837   126.8302
 30      0.0000     0.0000E+00    0.0000E+00    2.500000E+09  0.00800  7.872E-05    0   0.5600   age150_m52            0.0000     6.2452E-01     4.9500  -0.1294   120.0843
 31      0.0036     3.1695E-03    3.0887E-03    4.250000E+09  0.00800  4.336E-05    0   0.5426   age158_m52            0.0000     6.2640E-01     4.8733  -0.1416   118.7604
 32      0.0000     0.0000E+00    0.0000E+00    6.250000E+09  0.00800  3.159E-05    0   0.5319   age166_m52            0.0000     4.2617E-01     3.7140  -0.3110   117.0067
 33      0.0000     0.0000E+00    0.0000E+00    1.300000E+10  0.00800  1.361E-05    0   0.5073   age193_m52            0.0000     2.8735E-01     2.5963  -0.7407   114.2034
 34      0.0000     0.0000E+00    0.0000E+00    1.800000E+10  0.00800  9.886E-06    0   0.4990   age213_m52            0.0000     2.4852E-01     2.2643  -0.8112   111.7447
 35      0.0000     0.0000E+00    0.0000E+00    1.000000E+06  0.02000  1.544E-02    0   1.0000   age020_m62            0.0000     3.2504E+00    10.7781   3.2321   106.3961
 36      0.0000     0.0000E+00    0.0000E+00    3.160000E+06  0.02000  3.762E-02    0   0.9858   age045_m62            0.0000     3.2075E+00    10.6914   3.1734   107.2353
 37      0.0000     0.0000E+00    0.0000E+00    5.010000E+06  0.02000  3.296E-02    0   0.9342   age055_m62            0.0000     2.9565E+00    10.1807   2.7886   112.2561
 38      0.0000     0.0000E+00    0.0000E+00    8.710000E+06  0.02000  1.154E-02    0   0.8861   age067_m62            0.0000     6.2804E+00    18.1375   1.5205   136.2491
 39      0.0000     0.0000E+00    0.0000E+00    1.445000E+07  0.02000  7.663E-03    0   0.8472   age078_m62            0.0000     4.1589E+00    14.3216   1.8189   128.8615
 40      0.0000     0.0000E+00    0.0000E+00    2.512000E+07  0.02000  4.532E-03    0   0.8099   age090_m62            0.0000     4.3841E+00    14.6250   1.8033   129.1125
 41      0.0000     0.0000E+00    0.0000E+00    5.500000E+07  0.02000  2.733E-03    0   0.7595   age110_m62            0.0000     3.2836E+00    12.1325   1.8750   125.0651
 42      0.0000     0.0000E+00    0.0000E+00    1.609000E+08  0.02000  1.369E-03    0   0.6985   age120_m62            0.0000     2.8874E+00    10.5477   1.7494   126.3804
 43      0.0000     0.0000E+00    0.0000E+00    2.861200E+08  0.02000  9.013E-04    0   0.6714   age125_m62            0.0000     2.5744E+00     9.6720   1.5114   129.2228
 44      0.0000     0.0000E+00    0.0000E+00    5.088000E+08  0.02000  5.028E-04    0   0.6449   age130_m62            0.0000     1.9233E+00     7.7911   1.1871   129.3954
 45      0.0000     0.0000E+00    0.0000E+00    9.047900E+08  0.02000  2.428E-04    0   0.6179   age135_m62            0.0000     1.1485E+00     6.1502   0.6329   126.7755
 46      0.0000     0.0000E+00    0.0000E+00    1.434000E+09  0.02000  1.263E-04    0   0.5908   age139_m62            0.0000     7.8311E-01     5.3623   0.2048   123.9289
 47      0.0023     1.4411E-03    1.4684E-03    2.500000E+09  0.02000  5.985E-05    0   0.5673   age150_m62            0.0000     4.5312E-01     3.8275  -0.1129   119.4907
 48      7.5180     8.7522E+00    8.5953E+00    4.250000E+09  0.02000  3.271E-05    0   0.5468   age158_m62            0.0000     2.7355E-01     2.3779  -0.3710   115.9359
 49      0.8012     2.2433E+00    2.0818E+00    1.000000E+10  0.02000  1.360E-05    0   0.5167   age181_m62            0.0000     2.9048E-01     2.4074  -0.6644   112.6773
 50      0.0000     0.0000E+00    0.0000E+00    1.800000E+10  0.02000  7.124E-06    0   0.5013   age213_m62            0.0000     3.7885E-01     3.1817  -0.8251   109.3768
 51      0.0000     0.0000E+00    0.0000E+00    1.000000E+06  0.05000  2.592E-02    0   0.9998   age020_m72            0.0000     3.2846E+00    10.8756   3.2203   106.5698
 52      0.0000     0.0000E+00    0.0000E+00    3.160000E+06  0.05000  4.845E-02    0   0.9577   age045_m72            0.0000     3.0993E+00    10.3563   3.0605   108.4908
 53      0.0000     0.0000E+00    0.0000E+00    5.010000E+06  0.05000  3.072E-02    0   0.9147   age055_m72            0.0000     3.6278E+00    12.6612   2.4885   119.2933
 54      0.0000     0.0000E+00    0.0000E+00    6.610000E+06  0.05000  1.455E-02    0   0.8877   age061_m72            0.0000     9.4384E+00    20.6976   1.5721   139.2357
 55      0.0000     0.0000E+00    0.0000E+00    1.000000E+07  0.05000  9.074E-03    0   0.8524   age070_m72            0.0000     3.9761E+00    12.6018   2.7155   117.3705
 56      0.0000     0.0000E+00    0.0000E+00    2.512000E+07  0.05000  4.250E-03    0   0.7902   age090_m72            0.0000     3.8941E+00    12.7181   2.3711   121.6201
 57      0.0000     0.0000E+00    0.0000E+00    4.000000E+07  0.05000  3.087E-03    0   0.7618   age104_m72            0.0000     4.1032E+00    13.1014   2.1212   124.9856
 58      0.0000     0.0000E+00    0.0000E+00    1.015200E+08  0.05000  1.700E-03    0   0.7096   age116_m72            0.0000     3.1899E+00    11.2788   1.8759   126.9956
 59      0.0000     0.0000E+00    0.0000E+00    2.861200E+08  0.05000  7.384E-04    0   0.6633   age125_m72            0.0000     2.1812E+00     8.6553   1.4059   129.3998
 60      0.0000     0.0000E+00    0.0000E+00    5.088000E+08  0.05000  3.819E-04    0   0.6372   age130_m72            0.0000     1.3986E+00     6.6907   0.9581   128.6429
 61     24.1010     5.4759E+00    6.0092E+00    9.047900E+08  0.05000  1.676E-04    0   0.6110   age135_m72            0.0000     6.6137E-01     4.2568   0.3336   122.1863
 62      0.0007     2.9531E-04    3.1155E-04    1.434000E+09  0.05000  8.837E-05    0   0.5874   age139_m72            0.0000     4.1084E-01     3.5620  -0.1084   120.9854
 63     81.0075     7.2874E+01    7.3269E+01    2.500000E+09  0.05000  4.233E-05    0   0.5598   age150_m72            0.0000     2.4219E-01     2.0672  -0.3540   116.0086
 64      4.0131     1.0649E+01    1.0040E+01    6.250000E+09  0.05000  1.435E-05    0   0.5249   age166_m72            0.0000     3.2009E-01     2.5334  -0.7443   111.3469
 65      0.0000     0.0000E+00    0.0000E+00    1.300000E+10  0.05000  6.513E-06    0   0.5036   age193_m72            0.0000     5.2868E-01     3.8307  -0.9625   109.3619
 66      0.0000     0.0000E+00    0.0000E+00    1.800000E+10  0.05000  4.527E-06    0   0.4945   age213_m72            0.0000     8.3417E-01     5.3866  -1.0000   103.1381


## Synthesis Results - Average & Chains ##

# j      x_j: min, <> & last-chain-values for 1 ...  7 chains
  1      0.0000      0.0038      0.0000      0.0000      0.0000      0.0000      0.0000      0.0000      0.0000
  2      0.0000      0.0083      0.0000      0.0000      0.0000      0.0000      0.0000      0.0000      0.0000
  3      0.0000      0.0117      0.0000      0.0000      0.0000      0.0000      0.0000      0.0000      0.0000
  4      0.0000      0.0086      0.0000      0.0000      0.0000      0.0000      0.0000      0.0000      0.0000
  5      0.0000      0.0201      0.0000      0.0000      0.0000      0.0000      0.0000      0.0342      0.0000
  6      0.0000      0.0111      0.0000      0.0000      0.0000      0.0000      0.0000      0.0000      0.0000
  7      0.0000      0.0057      0.0000      0.0000      0.0000      0.0000      0.0000      0.0000      0.0000
  8      0.0000      0.0148      0.0000      0.0000      0.0000      0.0000      0.0000      0.0000      0.0000
  9      0.0000      0.0136      0.0000      0.0000      0.0000      0.0000      0.0000      0.0000      0.1718
 10      0.0000      0.0141      0.0000      0.0000      0.0000      0.0000      0.0000      0.0000      0.0000
 11      0.0000      0.0264      0.0000      0.0000      0.0000      0.0000      0.0519      0.1385      0.0000
 12      0.0000      0.0219      0.0000      0.0000      0.0000      0.0000      0.0280      0.0000      0.0000
 13      0.0000      0.0694      0.0000      0.0000      0.0000      0.0000      0.0000      0.0000      0.0000
 14      0.0000      0.1377      0.0000      0.0000      0.0000      0.0000      0.0000      0.0000      0.0000
 15      0.0000      0.2334      0.2131      0.0000      0.0000      0.0000      0.0000      0.0000      0.2123
 16      0.0000      0.1745      0.0000      0.0000      0.0000      0.1377      0.0000      0.0000      0.0000
 17      0.0000      0.2159      0.0000      0.5328      0.0000      0.0000      0.0000      0.0185      1.3725
 18      0.0000      0.0047      0.0000      0.0000      0.0000      0.0000      0.0000      0.0293      0.0000
 19      0.0000      0.0063      0.0000      0.0000      0.0000      0.0000      0.0000      0.0000      0.0000
 20      0.0000      0.0092      0.0000      0.0000      0.0000      0.0000      0.0000      0.0000      0.0000
 21      0.0000      0.0146      0.0000      0.0000      0.0000      0.0000      0.0000      0.0000      0.0000
 22      0.0000      0.0046      0.0000      0.0000      0.0000      0.0000      0.0000      0.0000      0.0000
 23      0.0000      0.0077      0.0000      0.0000      0.0000      0.0000      0.0000      0.0000      0.0000
 24      0.0000      0.0052      0.0000      0.0000      0.0000      0.0000      0.0000      0.0000      0.0000
 25      0.0000      0.0059      0.0000      0.0000      0.0000      0.0000      0.0000      0.0000      0.0000
 26      0.0000      0.0148      0.1934      0.0000      0.0000      0.0000      0.0000      0.0000      0.0000
 27      0.0000      0.0195      0.0000      0.0000      0.0000      0.0000      0.0000      0.0000      0.0000
 28      0.0000      0.0934      0.0000      0.0000      0.1008      0.0000      0.0000      0.3694      0.0000
 29      0.0000      0.1741      0.0000      0.1115      0.0770      1.2576      0.0626      0.0000      0.0000
 30      0.0000      0.4037      0.0000      0.0000      1.0518      0.0000      0.3096      0.3959      0.1765
 31      0.0036      0.3839      0.1944      0.0127      0.1949      0.1397      0.0000      1.2685      0.3533
 32      0.0000      0.4705      1.1852      1.0459      0.0000      0.7469      0.4335      0.0000      0.0000
 33      0.0000      0.1025      0.0000      0.0899      0.0000      0.0000      0.0000      0.0000      0.0415
 34      0.0000      0.1104      0.0342      0.0000      0.1289      0.0818      0.0000      0.5201      0.0000
 35      0.0000      0.0062      0.0000      0.0000      0.0172      0.0000      0.0000      0.0000      0.0000
 36      0.0000      0.0048      0.0000      0.0342      0.0000      0.0000      0.0000      0.0000      0.0000
 37      0.0000      0.0063      0.0000      0.0000      0.0000      0.0000      0.0000      0.0141      0.0000
 38      0.0000      0.0061      0.0000      0.0000      0.0000      0.0000      0.0000      0.0000      0.0000
 39      0.0000      0.0113      0.0492      0.0000      0.0000      0.0000      0.0000      0.0000      0.0000
 40      0.0000      0.0134      0.0000      0.0000      0.0000      0.0000      0.0000      0.0000      0.0000
 41      0.0000      0.0070      0.0000      0.0000      0.0000      0.0000      0.0000      0.0000      0.0000
 42      0.0000      0.0171      0.0000      0.0000      0.0000      0.0000      0.0000      0.0000      0.0000
 43      0.0000      0.0075      0.0000      0.0000      0.0000      0.0000      0.0000      0.0000      0.0000
 44      0.0000      0.0256      0.0000      0.0000      0.0000      0.0000      0.0000      0.0000      0.0000
 45      0.0000      0.6506      0.0000      1.7071      0.0000      0.0000      0.0000      0.7303      0.0000
 46      0.0000      0.3894      0.0000      0.0000      0.0000      0.2397      0.5085      0.0000      0.0000
 47      0.0023     10.8285      8.6098     10.5538     10.9023      9.5845      8.3538      8.2822     10.9096
 48      7.5180      2.5171      2.7744      3.9687      5.0238      0.0000      2.4971      2.4109      2.9678
 49      0.8012      0.7035      1.5847      0.2604      0.0000      1.7185      0.9861      0.8796      0.0000
 50      0.0000      0.1289      0.8353      0.0000      0.0000      0.2459      0.0000      0.6698      0.0000
 51      0.0000      0.0040      0.0000      0.0000      0.0000      0.0000      0.0000      0.0000      0.0000
 52      0.0000      0.0039      0.0000      0.0000      0.0000      0.0000      0.0000      0.0000      0.0000
 53      0.0000      0.0051      0.0000      0.0000      0.0000      0.0000      0.0000      0.0000      0.0000
 54      0.0000      0.0071      0.0000      0.0000      0.0000      0.0000      0.0000      0.0000      0.0000
 55      0.0000      0.0062      0.0000      0.0000      0.0000      0.0000      0.0000      0.0000      0.0445
 56      0.0000      0.0191      0.0000      0.0000      0.0000      0.0355      0.0000      0.0000      0.0000
 57      0.0000      0.0048      0.1003      0.0000      0.0000      0.0000      0.0000      0.0000      0.0000
 58      0.0000      0.0136      0.0000      0.0000      0.1070      0.0220      0.0000      0.0000      0.0000
 59      0.0000      0.0393      0.4399      0.0000      0.0000      0.0000      0.0000      0.0000      0.0000
 60      0.0000      0.0603      0.0173      0.0000      0.0000      0.0000      0.0000      0.0000      0.0000
 61     24.1010     53.3572     54.0285     54.4126     52.1453     54.3734     56.2272     52.8598     55.5243
 62      0.0007     37.2142     35.8113     37.7482     38.1835     38.6952     38.0633     34.9395     35.0869
 63     81.0075     10.0717     12.9527      8.9716     11.3196     11.6141     10.6532     15.8377     12.4905
 64      4.0131      0.7577      0.7830      0.6994      0.5120      0.5906      1.6827      0.9694      0.7861
 65      0.0000      0.1075      0.0000      0.4205      0.1558      0.4837      0.0000      0.0000      0.0000
 66      0.0000      0.3087      0.0189      0.0000      0.5009      0.0000      0.4377      0.1222      0.0000

# j      m_j: min, <> & last-chain-values for 1 ...  7 chains
  1  0.0000E+00  3.9642E-05  0.0000E+00  0.0000E+00  0.0000E+00  0.0000E+00  0.0000E+00  0.0000E+00  0.0000E+00
  2  0.0000E+00  2.3833E-05  0.0000E+00  0.0000E+00  0.0000E+00  0.0000E+00  0.0000E+00  0.0000E+00  0.0000E+00
  3  0.0000E+00  5.0182E-05  0.0000E+00  0.0000E+00  0.0000E+00  0.0000E+00  0.0000E+00  0.0000E+00  0.0000E+00
  4  0.0000E+00  3.4748E-05  0.0000E+00  0.0000E+00  0.0000E+00  0.0000E+00  0.0000E+00  0.0000E+00  0.0000E+00
  5  0.0000E+00  1.5469E-04  0.0000E+00  0.0000E+00  0.0000E+00  0.0000E+00  0.0000E+00  2.4649E-04  0.0000E+00
  6  0.0000E+00  1.3861E-04  0.0000E+00  0.0000E+00  0.0000E+00  0.0000E+00  0.0000E+00  0.0000E+00  0.0000E+00
  7  0.0000E+00  1.0236E-04  0.0000E+00  0.0000E+00  0.0000E+00  0.0000E+00  0.0000E+00  0.0000E+00  0.0000E+00
  8  0.0000E+00  3.6608E-04  0.0000E+00  0.0000E+00  0.0000E+00  0.0000E+00  0.0000E+00  0.0000E+00  0.0000E+00
  9  0.0000E+00  3.8391E-04  0.0000E+00  0.0000E+00  0.0000E+00  0.0000E+00  0.0000E+00  0.0000E+00  5.0514E-03
 10  0.0000E+00  5.2352E-04  0.0000E+00  0.0000E+00  0.0000E+00  0.0000E+00  0.0000E+00  0.0000E+00  0.0000E+00
 11  0.0000E+00  1.8426E-03  0.0000E+00  0.0000E+00  0.0000E+00  0.0000E+00  3.5950E-03  9.0532E-03  0.0000E+00
 12  0.0000E+00  2.4233E-03  0.0000E+00  0.0000E+00  0.0000E+00  0.0000E+00  3.0770E-03  0.0000E+00  0.0000E+00
 13  0.0000E+00  2.1656E-02  0.0000E+00  0.0000E+00  0.0000E+00  0.0000E+00  0.0000E+00  0.0000E+00  0.0000E+00
 14  0.0000E+00  1.4412E-01  0.0000E+00  0.0000E+00  0.0000E+00  0.0000E+00  0.0000E+00  0.0000E+00  0.0000E+00
 15  0.0000E+00  3.9777E-01  3.4708E-01  0.0000E+00  0.0000E+00  0.0000E+00  0.0000E+00  0.0000E+00  3.7626E-01
 16  0.0000E+00  5.0287E-01  0.0000E+00  0.0000E+00  0.0000E+00  3.9779E-01  0.0000E+00  0.0000E+00  0.0000E+00
 17  0.0000E+00  8.0730E-01  0.0000E+00  2.0525E+00  0.0000E+00  0.0000E+00  0.0000E+00  6.4615E-02  5.3363E+00
 18  0.0000E+00  4.3149E-05  0.0000E+00  0.0000E+00  0.0000E+00  0.0000E+00  0.0000E+00  2.5422E-04  0.0000E+00
 19  0.0000E+00  2.3313E-05  0.0000E+00  0.0000E+00  0.0000E+00  0.0000E+00  0.0000E+00  0.0000E+00  0.0000E+00
 20  0.0000E+00  3.7490E-05  0.0000E+00  0.0000E+00  0.0000E+00  0.0000E+00  0.0000E+00  0.0000E+00  0.0000E+00
 21  0.0000E+00  7.2207E-05  0.0000E+00  0.0000E+00  0.0000E+00  0.0000E+00  0.0000E+00  0.0000E+00  0.0000E+00
 22  0.0000E+00  3.8286E-05  0.0000E+00  0.0000E+00  0.0000E+00  0.0000E+00  0.0000E+00  0.0000E+00  0.0000E+00
 23  0.0000E+00  8.7081E-05  0.0000E+00  0.0000E+00  0.0000E+00  0.0000E+00  0.0000E+00  0.0000E+00  0.0000E+00
 24  0.0000E+00  8.6361E-05  0.0000E+00  0.0000E+00  0.0000E+00  0.0000E+00  0.0000E+00  0.0000E+00  0.0000E+00
 25  0.0000E+00  1.3557E-04  0.0000E+00  0.0000E+00  0.0000E+00  0.0000E+00  0.0000E+00  0.0000E+00  0.0000E+00
 26  0.0000E+00  5.7069E-04  7.1362E-03  0.0000E+00  0.0000E+00  0.0000E+00  0.0000E+00  0.0000E+00  0.0000E+00
 27  0.0000E+00  1.5050E-03  0.0000E+00  0.0000E+00  0.0000E+00  0.0000E+00  0.0000E+00  0.0000E+00  0.0000E+00
 28  0.0000E+00  2.0947E-02  0.0000E+00  0.0000E+00  2.2292E-02  0.0000E+00  0.0000E+00  7.7560E-02  0.0000E+00
 29  0.0000E+00  6.8034E-02  0.0000E+00  4.4887E-02  2.9680E-02  4.9285E-01  2.4274E-02  0.0000E+00  0.0000E+00
 30  0.0000E+00  3.2967E-01  0.0000E+00  0.0000E+00  8.4706E-01  0.0000E+00  2.5063E-01  3.0259E-01  1.4990E-01
 31  3.0887E-03  5.5138E-01  2.6674E-01  1.8825E-02  2.7611E-01  2.0125E-01  0.0000E+00  1.7054E+00  5.2782E-01
 32  0.0000E+00  9.0939E-01  2.1887E+00  2.0829E+00  0.0000E+00  1.4476E+00  8.3061E-01  0.0000E+00  0.0000E+00
 33  0.0000E+00  4.3841E-01  0.0000E+00  3.9645E-01  0.0000E+00  0.0000E+00  0.0000E+00  0.0000E+00  1.8474E-01
 34  0.0000E+00  6.3982E-01  1.8953E-01  0.0000E+00  7.3681E-01  4.7530E-01  0.0000E+00  2.8207E+00  0.0000E+00
 35  0.0000E+00  4.6135E-05  0.0000E+00  0.0000E+00  1.2604E-04  0.0000E+00  0.0000E+00  0.0000E+00  0.0000E+00
 36  0.0000E+00  1.4459E-05  0.0000E+00  1.0588E-04  0.0000E+00  0.0000E+00  0.0000E+00  0.0000E+00  0.0000E+00
 37  0.0000E+00  2.0580E-05  0.0000E+00  0.0000E+00  0.0000E+00  0.0000E+00  0.0000E+00  4.2939E-05  0.0000E+00
 38  0.0000E+00  5.3700E-05  0.0000E+00  0.0000E+00  0.0000E+00  0.0000E+00  0.0000E+00  0.0000E+00  0.0000E+00
 39  0.0000E+00  1.4303E-04  5.9682E-04  0.0000E+00  0.0000E+00  0.0000E+00  0.0000E+00  0.0000E+00  0.0000E+00
 40  0.0000E+00  2.7537E-04  0.0000E+00  0.0000E+00  0.0000E+00  0.0000E+00  0.0000E+00  0.0000E+00  0.0000E+00
 41  0.0000E+00  2.2276E-04  0.0000E+00  0.0000E+00  0.0000E+00  0.0000E+00  0.0000E+00  0.0000E+00  0.0000E+00
 42  0.0000E+00  1.0036E-03  0.0000E+00  0.0000E+00  0.0000E+00  0.0000E+00  0.0000E+00  0.0000E+00  0.0000E+00
 43  0.0000E+00  6.4157E-04  0.0000E+00  0.0000E+00  0.0000E+00  0.0000E+00  0.0000E+00  0.0000E+00  0.0000E+00
 44  0.0000E+00  3.7718E-03  0.0000E+00  0.0000E+00  0.0000E+00  0.0000E+00  0.0000E+00  0.0000E+00  0.0000E+00
 45  0.0000E+00  1.9006E-01  0.0000E+00  5.1383E-01  0.0000E+00  0.0000E+00  0.0000E+00  1.9969E-01  0.0000E+00
 46  0.0000E+00  2.0906E-01  0.0000E+00  0.0000E+00  0.0000E+00  1.2908E-01  2.7069E-01  0.0000E+00  0.0000E+00
 47  1.4684E-03  1.1782E+01  8.9506E+00  1.1832E+01  1.1699E+01  1.0457E+01  9.0106E+00  8.4343E+00  1.2344E+01
 48  8.5953E+00  4.8300E+00  5.0866E+00  7.8467E+00  9.5070E+00  0.0000E+00  4.7501E+00  4.3299E+00  5.9222E+00
 49  2.0818E+00  3.0682E+00  6.6031E+00  1.1700E+00  0.0000E+00  7.5150E+00  4.2631E+00  3.5905E+00  0.0000E+00
 50  0.0000E+00  1.0411E+00  6.4466E+00  0.0000E+00  0.0000E+00  1.9913E+00  0.0000E+00  5.0636E+00  0.0000E+00
 51  0.0000E+00  1.7750E-05  0.0000E+00  0.0000E+00  0.0000E+00  0.0000E+00  0.0000E+00  0.0000E+00  0.0000E+00
 52  0.0000E+00  8.8495E-06  0.0000E+00  0.0000E+00  0.0000E+00  0.0000E+00  0.0000E+00  0.0000E+00  0.0000E+00
 53  0.0000E+00  1.7515E-05  0.0000E+00  0.0000E+00  0.0000E+00  0.0000E+00  0.0000E+00  0.0000E+00  0.0000E+00
 54  0.0000E+00  4.9975E-05  0.0000E+00  0.0000E+00  0.0000E+00  0.0000E+00  0.0000E+00  0.0000E+00  0.0000E+00
 55  0.0000E+00  6.6382E-05  0.0000E+00  0.0000E+00  0.0000E+00  0.0000E+00  0.0000E+00  0.0000E+00  4.9865E-04
 56  0.0000E+00  4.0793E-04  0.0000E+00  0.0000E+00  0.0000E+00  7.6045E-04  0.0000E+00  0.0000E+00  0.0000E+00
 57  0.0000E+00  1.3596E-04  2.7152E-03  0.0000E+00  0.0000E+00  0.0000E+00  0.0000E+00  0.0000E+00  0.0000E+00
 58  0.0000E+00  6.5333E-04  0.0000E+00  0.0000E+00  5.0558E-03  1.0589E-03  0.0000E+00  0.0000E+00  0.0000E+00
 59  0.0000E+00  4.0524E-03  4.3342E-02  0.0000E+00  0.0000E+00  0.0000E+00  0.0000E+00  0.0000E+00  0.0000E+00
 60  0.0000E+00  1.1551E-02  3.1667E-03  0.0000E+00  0.0000E+00  0.0000E+00  0.0000E+00  0.0000E+00  0.0000E+00
 61  6.0092E+00  2.2328E+01  2.1602E+01  2.3461E+01  2.1520E+01  2.2816E+01  2.3326E+01  2.0704E+01  2.4163E+01
 62  3.1155E-04  2.8394E+01  2.6107E+01  2.9677E+01  2.8732E+01  2.9605E+01  2.8791E+01  2.4952E+01  2.7840E+01
 63  7.3269E+01  1.5289E+01  1.8787E+01  1.4033E+01  1.6947E+01  1.7679E+01  1.6032E+01  2.2502E+01  1.9718E+01
 64  1.0040E+01  3.1813E+00  3.1412E+00  3.0256E+00  2.1199E+00  2.4864E+00  7.0040E+00  3.8095E+00  3.4323E+00
 65  0.0000E+00  9.5428E-01  0.0000E+00  3.8458E+00  1.3641E+00  4.3052E+00  0.0000E+00  0.0000E+00  0.0000E+00
 66  0.0000E+00  3.8701E+00  2.2633E-01  0.0000E+00  6.1942E+00  0.0000E+00  5.4410E+00  1.4342E+00  0.0000E+00

# AV, chi2 & Mass for <> & i_chain = 1 ...  7 solutions
AV      -0.2638      0.0424      0.0275      0.0410      0.0177      0.0379      0.0318      0.0073      0.0421
chi2 2.7423E-01  4.7715E-01  4.6393E-01  4.7433E-01  4.5713E-01  4.7023E-01  4.6410E-01  4.4968E-01  4.7098E-01
Mass 9.9597E-13  8.9532E-13  9.1847E-13  8.6730E-13  8.7817E-13  8.8746E-13  8.9031E-13  9.1252E-13  8.6063E-13
 -52.66                                  [v0_min (km/s) before EX0s...]
 170.80                                  [vd_min (km/s) before EX0s...]


## Synthetic spectrum (Best Model) ##l_obs f_obs f_syn wei
 3478    [Nl_obs]
 3741.00    0.49283   0.60504    0.000
 3742.00    0.48662   0.58593    0.000
 3743.00    0.47744   0.55384    0.000
 3744.00    0.46616   0.51668    0.000
 3745.00    0.44255   0.48110    9.228
 3746.00    0.40920   0.45171    9.167
 3747.00    0.38992   0.43349    7.722
 3748.00    0.39628   0.43230    6.366
 3749.00    0.41626   0.45189    5.746
 3750.00    0.44032   0.49247    5.705
 3751.00    0.46928   0.54830    5.859
 3752.00    0.50214   0.60640    6.004
 3753.00    0.53254   0.65147    6.114
 3754.00    0.55131   0.67322    5.923
 3755.00    0.55150   0.66948    5.314
 3756.00    0.53803   0.64569    4.985
 3757.00    0.52374   0.61337    5.573
 3758.00    0.51730   0.58610    6.939
 3759.00    0.52154   0.57344    7.517
 3760.00    0.53492   0.57636    6.936
 3761.00    0.55143   0.58748    6.562
 3762.00    0.56061   0.59801    6.856
 3763.00    0.55507   0.60389    7.714
 3764.00    0.53827   0.60481    8.194
 3765.00    0.51940   0.60244    7.449
 3766.00    0.50744   0.59932    6.498
 3767.00    0.50915   0.59793    5.992
 3768.00    0.52699   0.60163    5.769
 3769.00    0.55339   0.61308    5.807
 3770.00    0.57107   0.63114    6.463
 3771.00    0.57376   0.65259    7.869
 3772.00    0.57344   0.67481    8.727
 3773.00    0.58189   0.69492    7.967
 3774.00    0.60139   0.71076    7.007
 3775.00    0.62262   0.72371    6.504
 3776.00    0.63174   0.73741    6.297
 3777.00    0.63318   0.75428    6.259
 3778.00    0.64415   0.77390    6.331
 3779.00    0.66363   0.79365    6.356
 3780.00    0.67556   0.81006    6.161
 3781.00    0.67223   0.81896    5.826
 3782.00    0.65741   0.81638    5.482
 3783.00    0.64251   0.80024    5.050
 3784.00    0.63735   0.77120    4.634
 3785.00    0.63839   0.73300    4.760
 3786.00    0.63687   0.69222    5.986
 3787.00    0.63019   0.65703    8.034
 3788.00    0.61998   0.63388    8.416
 3789.00    0.60840   0.62246    7.512
 3790.00    0.59489   0.61699    6.995
 3791.00    0.57509   0.61133    6.480
 3792.00    0.55039   0.60089    5.857
 3793.00    0.53197   0.58371    5.740
 3794.00    0.52545   0.56203    6.338
 3795.00    0.52475   0.54142    7.202
 3796.00    0.52635   0.52787    7.767
 3797.00    0.53334   0.52647    8.163
 3798.00    0.54411   0.54043    8.487
 3799.00    0.55222   0.57006    8.428
 3800.00    0.56045   0.61138    8.229
 3801.00    0.57944   0.65566    8.435
 3802.00    0.61127   0.69294    8.549
 3803.00    0.64652   0.71714    7.600
 3804.00    0.66828   0.72806    6.380
 3805.00    0.66486   0.73003    5.789
 3806.00    0.65030   0.72998    5.923
 3807.00    0.64670   0.73359    6.651
 3808.00    0.65257   0.74120    7.095
 3809.00    0.65518   0.74724    6.437
 3810.00    0.65180   0.74313    5.934
 3811.00    0.64356   0.72357    6.300
 3812.00    0.62698   0.69117    6.585
 3813.00    0.60159   0.65461    5.915
 3814.00    0.57602   0.62335    5.455
 3815.00    0.55786   0.60299    5.847
 3816.00    0.54655   0.59262    6.791
 3817.00    0.53850   0.58687    7.516
 3818.00    0.53081   0.58070    7.491
 3819.00    0.52248   0.57193    7.263
 3820.00    0.51388   0.56133    7.855
 3821.00    0.50243   0.55034    9.172
 3822.00    0.48404   0.53852    8.935
 3823.00    0.46382   0.52377    7.533
 3824.00    0.45351   0.50546    7.269
 3825.00    0.45359   0.48727    8.273
 3826.00    0.45373   0.47450    9.528
 3827.00    0.44644   0.46870   10.209
 3828.00    0.43102   0.46626   10.687
 3829.00    0.41457   0.46173   11.053
 3830.00    0.40500   0.45191   11.112
 3831.00    0.40000   0.43763   11.503
 3832.00    0.39354   0.42262   12.292
 3833.00    0.38671   0.41131   10.657
 3834.00    0.38265   0.40672    7.574
 3835.00    0.37972   0.40861    6.392
 3836.00    0.37647   0.41481    7.279
 3837.00    0.37664   0.42451    9.535
 3838.00    0.38636   0.43924   10.986
 3839.00    0.41044   0.46172   11.441
 3840.00    0.44525   0.49315   11.583
 3841.00    0.47737   0.53084    9.762
 3842.00    0.50058   0.56905    7.535
 3843.00    0.52191   0.60196    6.874
 3844.00    0.54691   0.62571    7.645
 3845.00    0.57338   0.63980    8.872
 3846.00    0.59402   0.64633    9.228
 3847.00    0.60163   0.64777    0.000
 3848.00    0.60128   0.64666    0.000
 3849.00    0.60528   0.64537    0.000
 3850.00    0.61172   0.64498    0.000
 3851.00    0.60923   0.64518    0.000
 3852.00    0.59812   0.64415    0.000
 3853.00    0.58785   0.63874    0.000
 3854.00    0.58498   0.62704    0.000
 3855.00    0.58963   0.61058    0.000
 3856.00    0.59403   0.59293    0.000
 3857.00    0.58966   0.57816    0.000
 3858.00    0.57597   0.57110    0.000
 3859.00    0.56016   0.57577    0.000
 3860.00    0.55497   0.59291    0.000
 3861.00    0.56908   0.61899    0.000
 3862.00    0.59969   0.64657    0.000
 3863.00    0.63469   0.66732    0.000
 3864.00    0.65712   0.67665    0.000
 3865.00    0.65960   0.67498    0.000
 3866.00    0.65000   0.66543    0.000
 3867.00    0.63883   0.65082    0.000
 3868.00    0.63226   0.63317    0.000
 3869.00    0.62912   0.61518    0.000
 3870.00    0.62335   0.60132    0.000
 3871.00    0.61480   0.59658    0.000
 3872.00    0.60993   0.60317    0.000
 3873.00    0.61410   0.61823    0.000
 3874.00    0.62647   0.63427    0.000
 3875.00    0.63440   0.64323    0.000
 3876.00    0.62392   0.64115    0.000
 3877.00    0.60037   0.63017    0.000
 3878.00    0.58025   0.61649    0.000
 3879.00    0.57267   0.60553    0.000
 3880.00    0.57548   0.59933    0.000
 3881.00    0.57556   0.59648    6.422
 3882.00    0.56583   0.59305    6.486
 3883.00    0.56031   0.58583    5.913
 3884.00    0.56666   0.57458    4.594
 3885.00    0.56511   0.56127    4.128
 3886.00    0.54370   0.54993    4.887
 3887.00    0.52097   0.54689    6.838
 3888.00    0.51790   0.55801    8.859
 3889.00    0.54006   0.58365    9.118
 3890.00    0.58038   0.61807    8.117
 3891.00    0.62332   0.65349    7.293
 3892.00    0.65423   0.68333    6.924
 3893.00    0.66591   0.70407    6.719
 3894.00    0.66684   0.71648    6.548
 3895.00    0.67528   0.72411    6.525
 3896.00    0.69514   0.73020    6.943
 3897.00    0.71568   0.73630    8.043
 3898.00    0.72778   0.74252    8.455
 3899.00    0.72936   0.74750    6.693
 3900.00    0.72763   0.74932    5.390
 3901.00    0.73001   0.74688    5.559
 3902.00    0.72968   0.74022    6.568
 3903.00    0.71901   0.73161    6.826
 3904.00    0.70935   0.72603    6.342
 3905.00    0.71362   0.72977    6.288
 3906.00    0.72531   0.74590    6.971
 3907.00    0.73406   0.77166    8.047
 3908.00    0.74139   0.80136    7.838
 3909.00    0.75305   0.82842    6.420
 3910.00    0.77145   0.84724    5.924
 3911.00    0.79238   0.85583    6.791
 3912.00    0.80552   0.85522    8.111
 3913.00    0.80730   0.84744    8.255
 3914.00    0.80417   0.83407    7.682
 3915.00    0.79706   0.81625    7.406
 3916.00    0.77868   0.79510    7.608
 3917.00    0.75031   0.77149    7.592
 3918.00    0.72309   0.74679    6.529
 3919.00    0.70314   0.72393    5.580
 3920.00    0.68871   0.70549    5.774
 3921.00    0.67511   0.69208    7.074
 3922.00    0.65821   0.68134    8.307
 3923.00    0.63882   0.66798    8.469
 3924.00    0.61813   0.64586    8.281
 3925.00    0.58892   0.61088    7.891
 3926.00    0.54299   0.56299    7.180
 3927.00    0.48377   0.50554    6.706
 3928.00    0.42187   0.44407    6.903
 3929.00    0.36741   0.38426    7.800
 3930.00    0.32574   0.33100    9.167
 3931.00    0.29517   0.28909   10.178
 3932.00    0.27565   0.26276    9.994
 3933.00    0.27471   0.25539    9.223
 3934.00    0.29676   0.26867    8.565
 3935.00    0.33639   0.30148    8.058
 3936.00    0.38424   0.34955    7.733
 3937.00    0.43170   0.40595    7.775
 3938.00    0.47559   0.46271    8.272
 3939.00    0.51802   0.51303    9.077
 3940.00    0.55770   0.55327    9.544
 3941.00    0.58931   0.58413    8.882
 3942.00    0.61285   0.60967    7.868
 3943.00    0.63430   0.63506    7.488
 3944.00    0.65913   0.66354    7.356
 3945.00    0.68848   0.69446    6.784
 3946.00    0.71535   0.72501    6.511
 3947.00    0.73320   0.75268    7.479
 3948.00    0.75221   0.77562    8.939
 3949.00    0.78269   0.79327    8.163
 3950.00    0.80730   0.80661    6.842
 3951.00    0.80632   0.81639    6.796
 3952.00    0.79279   0.82210    7.612
 3953.00    0.78655   0.82318    8.266
 3954.00    0.78410   0.81981    8.284
 3955.00    0.77515   0.81276    7.977
 3956.00    0.75897   0.80155    7.704
 3957.00    0.73650   0.78365    7.476
 3958.00    0.70452   0.75653    7.016
 3959.00    0.66208   0.71866    6.488
 3960.00    0.61340   0.67003    0.000
 3961.00    0.56213   0.61339    0.000
 3962.00    0.50904   0.55327    0.000
 3963.00    0.45503   0.49344    0.000
 3964.00    0.40344   0.43606    0.000
 3965.00    0.36308   0.38270    0.000
 3966.00    0.34340   0.33689    0.000
 3967.00    0.33850   0.30506    0.000
 3968.00    0.33518   0.29370    0.000
 3969.00    0.34182   0.30601    0.000
 3970.00    0.37630   0.34043    0.000
 3971.00    0.42970   0.39178    0.000
 3972.00    0.47942   0.45357    0.000
 3973.00    0.52131   0.52000    0.000
 3974.00    0.56475   0.58699    0.000
 3975.00    0.61826   0.65202    0.000
 3976.00    0.68118   0.71330    0.000
 3977.00    0.73820   0.76857    0.000
 3978.00    0.77633   0.81485    0.000
 3979.00    0.79974   0.84976    0.000
 3980.00    0.81638   0.87282    0.000
 3981.00    0.82732   0.88623    7.293
 3982.00    0.83268   0.89450    8.365
 3983.00    0.83596   0.90244    7.809
 3984.00    0.84349   0.91333    6.170
 3985.00    0.86169   0.92767    5.658
 3986.00    0.88744   0.94359    6.373
 3987.00    0.90817   0.95877    7.432
 3988.00    0.91803   0.97174    7.815
 3989.00    0.92093   0.98242    7.769
 3990.00    0.92138   0.99109    7.554
 3991.00    0.92182   0.99689    7.110
 3992.00    0.92343   0.99855    6.980
 3993.00    0.92669   0.99526    7.445
 3994.00    0.93212   0.98782    6.542
 3995.00    0.93985   0.98012    4.352
 3996.00    0.94876   0.97798    3.465
 3997.00    0.95763   0.98570    4.052
 3998.00    0.96695   1.00297    5.714
 3999.00    0.97663   1.02438    5.798
 4000.00    0.98340   1.04182    4.971
 4001.00    0.98439   1.04808    5.230
 4002.00    0.98075   1.04008    6.337
 4003.00    0.97494   1.02127    7.130
 4004.00    0.96848   1.00076    6.917
 4005.00    0.96445   0.98839    6.334
 4006.00    0.96830   0.98982    6.097
 4007.00    0.98249   1.00455    6.356
 4008.00    1.00356   1.02728    6.817
 4009.00    1.02335   1.05073    7.209
 4010.00    1.03247   1.06968    7.554
 4011.00    1.03102   1.08318    7.697
 4012.00    1.02744   1.09292    7.280
 4013.00    1.02161   1.10050    6.560
 4014.00    1.00749   1.10660    6.108
 4015.00    0.99464   1.11157    6.280
 4016.00    1.00129   1.11589    7.410
 4017.00    1.02654   1.11997    9.317
 4018.00    1.05359   1.12314   10.140
 4019.00    1.06731   1.12376    9.470
 4020.00    1.05958   1.12076    9.085
 4021.00    1.03261   1.11476    9.637
 4022.00    1.00000   1.10817   10.726
 4023.00    0.98577   1.10473   10.114
 4024.00    1.00178   1.10664    7.847
 4025.00    1.02704   1.11156    6.757
 4026.00    1.03559   1.11273    7.278
 4027.00    1.02225   1.10250    8.540
 4028.00    0.99772   1.07683    9.012
 4029.00    0.97999   1.03843    8.677
 4030.00    0.97414   0.99701    8.454
 4031.00    0.96616   0.96525    8.738
 4032.00    0.95321   0.95336    9.372
 4033.00    0.95193   0.96537    9.562
 4034.00    0.96828   0.99787    8.987
 4035.00    0.99053   1.04147    8.256
 4036.00    1.01015   1.08459    7.720
 4037.00    1.02548   1.11731    7.327
 4038.00    1.03106   1.13379    6.845
 4039.00    1.02095   1.13281    6.198
 4040.00    1.00346   1.11597    5.795
 4041.00    0.99232   1.08593    5.991
 4042.00    0.98343   1.04674    6.621
 4043.00    0.96562   1.00570    7.104
 4044.00    0.94482   0.97393    7.272
 4045.00    0.93656   0.96223    7.431
 4046.00    0.95018   0.97514    7.669
 4047.00    0.98323   1.00763    7.798
 4048.00    1.01898   1.04718    7.538
 4049.00    1.04028   1.07975    7.047
 4050.00    1.04248   1.09588    6.957
 4051.00    1.03003   1.09371    7.178
 4052.00    1.01211   1.07792    6.493
 4053.00    0.99648   1.05567    5.422
 4054.00    0.98578   1.03350    5.546
 4055.00    0.97790   1.01634    7.499
 4056.00    0.96793   1.00684    9.714
 4057.00    0.95493   1.00470    8.920
 4058.00    0.94284   1.00645    8.200
 4059.00    0.93283   1.00634    8.916
 4060.00    0.92243   0.99930   10.102
 4061.00    0.91153   0.98494   10.352
 4062.00    0.90287   0.96863    9.567
 4063.00    0.89844   0.95843    9.242
 4064.00    0.89857   0.96037   10.417
 4065.00    0.90220   0.97482   10.863
 4066.00    0.90930   0.99666    8.090
 4067.00    0.92451   1.01814    6.390
 4068.00    0.94966   1.03240    6.923
 4069.00    0.97324   1.03663    9.006
 4070.00    0.98227   1.03311   10.015
 4071.00    0.97759   1.02602    9.576
 4072.00    0.96560   1.01733    9.577
 4073.00    0.94885   1.00602    9.399
 4074.00    0.93021   0.99106    8.433
 4075.00    0.91643   0.97508    7.715
 4076.00    0.91414   0.96495    7.717
 4077.00    0.92619   0.96821    8.094
 4078.00    0.94805   0.98807    8.407
 4079.00    0.96887   1.01969    8.475
 4080.00    0.98558   1.05247    8.422
 4081.00    1.00522   1.07675    8.515
 4082.00    1.02830   1.08916    8.679
 4083.00    1.04655   1.09392    8.493
 4084.00    1.05747   1.09896    7.907
 4085.00    1.06560   1.11016    7.326
 4086.00    1.07330   1.12797    7.172
 4087.00    1.07869   1.14764    7.692
 4088.00    1.07727   1.16237    8.459
 4089.00    1.06630   1.16752    8.435
 4090.00    1.05188   1.16212    7.938
 4091.00    1.04181   1.14774    7.834
 4092.00    1.03339   1.12640    0.000
 4093.00    1.01984   1.09942    0.000
 4094.00    1.00034   1.06757    0.000
 4095.00    0.97657   1.03179    0.000
 4096.00    0.94782   0.99352    0.000
 4097.00    0.91329   0.95408    0.000
 4098.00    0.87464   0.91528    0.000
 4099.00    0.83789   0.88109    0.000
 4100.00    0.81347   0.85780    0.000
 4101.00    0.80910   0.85195    0.000
 4102.00    0.82549   0.86687    0.000
 4103.00    0.85658   0.89973    0.000
 4104.00    0.89172   0.94202    0.000
 4105.00    0.92310   0.98314    0.000
 4106.00    0.94743   1.01459    0.000
 4107.00    0.96058   1.03308    0.000
 4108.00    0.96085   1.04111    0.000
 4109.00    0.96246   1.04467    0.000
 4110.00    0.98478   1.04995    0.000
 4111.00    1.01904   1.06073    0.000
 4112.00    1.04146   1.07681    0.000
 4113.00    1.05342   1.09445    8.193
 4114.00    1.06788   1.10826    8.711
 4115.00    1.07594   1.11375    8.714
 4116.00    1.06351   1.10956    8.211
 4117.00    1.03973   1.09812    7.901
 4118.00    1.02124   1.08436    8.245
 4119.00    1.01120   1.07330    8.978
 4120.00    1.00702   1.06773    9.460
 4121.00    1.00896   1.06768    9.395
 4122.00    1.01443   1.07123    9.130
 4123.00    1.01501   1.07535    9.301
 4124.00    1.00942   1.07671    9.932
 4125.00    1.00922   1.07291    9.939
 4126.00    1.02297   1.06333    9.049
 4127.00    1.04704   1.04901    8.401
 4128.00    1.06421   1.03188    8.319
 4129.00    1.05233   1.01438    8.395
 4130.00    1.01668   0.99961    8.383
 4131.00    0.98804   0.99144    8.325
 4132.00    0.98105   0.99374    8.059
 4133.00    0.98885   1.00841    7.447
 4134.00    1.00235   1.03370    6.972
 4135.00    1.01568   1.06429    7.112
 4136.00    1.02707   1.09300    7.637
 4137.00    1.03808   1.11299    7.846
 4138.00    1.05178   1.11921    7.642
 4139.00    1.06712   1.10957    7.435
 4140.00    1.07234   1.08606    7.331
 4141.00    1.05844   1.05548    7.320
 4142.00    1.03482   1.02789    7.532
 4143.00    1.01387   1.01222    7.900
 4144.00    0.99555   1.01183    7.758
 4145.00    0.98231   1.02289    7.069
 4146.00    0.98891   1.03719    6.863
 4147.00    1.01582   1.04719    7.599
 4148.00    1.03646   1.04951    8.768
 4149.00    1.03233   1.04496    9.244
 4150.00    1.01009   1.03635    8.698
 4151.00    0.98362   1.02643    8.035
 4152.00    0.96446   1.01708    8.147
 4153.00    0.95968   1.00995    8.988
 4154.00    0.96990   1.00720    9.455
 4155.00    0.98528   1.01100    9.207
 4156.00    0.99194   1.02234    9.212
 4157.00    0.99170   1.04030    9.612
 4158.00    0.99867   1.06214    9.763
 4159.00    1.02005   1.08437    9.594
 4160.00    1.05158   1.10381    9.556
 4161.00    1.07782   1.11808    9.737
 4162.00    1.08336   1.12559    9.825
 4163.00    1.06909   1.12563    9.308
 4164.00    1.04734   1.11897    8.370
 4165.00    1.03181   1.10789    8.049
 4166.00    1.02993   1.09499    8.855
 4167.00    1.03680   1.08130   10.039
 4168.00    1.04218   1.06554   10.159
 4169.00    1.03778   1.04550    9.590
 4170.00    1.02137   1.02074    9.179
 4171.00    0.99855   0.99454    8.864
 4172.00    0.97754   0.97283    8.677
 4173.00    0.96458   0.96057    8.951
 4174.00    0.95747   0.95892   -2.000
 4175.00    0.94734   0.96534   -2.000
 4176.00    0.93838   0.97600   -2.000
 4177.00    0.94789   0.98794   -2.000
 4178.00    0.97825   0.99967   -2.000
 4179.00    1.01502   1.01059   -2.000
 4180.00    1.04917   1.02052   -2.000
 4181.00    1.07827   1.02965   -2.000
 4182.00    1.09387   1.03805   -2.000
 4183.00    1.08732   1.04513   -2.000
 4184.00    1.06611   1.04975   -2.000
 4185.00    1.04590   1.05150   -2.000
 4186.00    1.03274   1.05197   -2.000
 4187.00    1.02665   1.05433   -2.000
 4188.00    1.02979   1.06127   -2.000
 4189.00    1.04290   1.07296    9.156
 4190.00    1.06051   1.08659    9.093
 4191.00    1.07533   1.09733    8.248
 4192.00    1.08286   1.10010    7.860
 4193.00    1.08152   1.09140    8.463
 4194.00    1.07210   1.07120    9.331
 4195.00    1.05511   1.04349    9.479
 4196.00    1.03031   1.01489    9.240
 4197.00    1.00262   0.99178    9.233
 4198.00    0.98318   0.97788    9.562
 4199.00    0.97978   0.97372    9.948
 4200.00    0.99169   0.97799    9.884
 4201.00    1.00700   0.98912    9.592
 4202.00    1.01066   1.00604    9.801
 4203.00    1.01032   1.02770   10.377
 4204.00    1.02756   1.05234   10.347
 4205.00    1.05714   1.07721    9.702
 4206.00    1.07580   1.09924    9.253
 4207.00    1.08136   1.11610    9.264
 4208.00    1.08729   1.12694    9.588
 4209.00    1.09931   1.13197    9.796
 4210.00    1.11268   1.13169    9.588
 4211.00    1.11512   1.12632    9.462
 4212.00    1.10172   1.11668    9.890
 4213.00    1.08974   1.10580   10.452
 4214.00    1.09423   1.09915   10.399
 4215.00    1.10488   1.10221    9.839
 4216.00    1.10978   1.11673    9.412
 4217.00    1.11416   1.13856    9.666
 4218.00    1.12149   1.15881   10.491
 4219.00    1.12208   1.16739   10.522
 4220.00    1.10843   1.15663    9.435
 4221.00    1.08270   1.12361    8.737
 4222.00    1.04816   1.07135    8.890
 4223.00    1.00733   1.00903    9.414
 4224.00    0.97089   0.95100    9.597
 4225.00    0.95472   0.91294    9.090
 4226.00    0.95906   0.90614    8.735
 4227.00    0.97179   0.93179    9.510
 4228.00    0.99457   0.97982   10.323
 4229.00    1.03538   1.03301    8.703
 4230.00    1.07748   1.07502    7.054
 4231.00    1.09475   1.09704    7.059
 4232.00    1.09127   1.09961    7.994
 4233.00    1.08621   1.08985    8.201
 4234.00    1.08078   1.07665    8.010
 4235.00    1.06802   1.06707    8.706
 4236.00    1.05117   1.06508    9.766
 4237.00    1.04044   1.07196    9.698
 4238.00    1.04610   1.08717    9.138
 4239.00    1.06914   1.10892    9.093
 4240.00    1.09585   1.13434    9.289
 4241.00    1.11559   1.15953    9.325
 4242.00    1.13167   1.17989    9.388
 4243.00    1.14622   1.19085    9.543
 4244.00    1.15252   1.18918    9.391
 4245.00    1.14547   1.17445    8.956
 4246.00    1.12696   1.14984    8.790
 4247.00    1.10503   1.12137    8.999
 4248.00    1.08918   1.09577    9.204
 4249.00    1.07666   1.07805    9.287
 4250.00    1.05780   1.06987    9.483
 4251.00    1.04361   1.06979    9.627
 4252.00    1.05529   1.07485    9.342
 4253.00    1.08215   1.08229    9.131
 4254.00    1.09464   1.08984    9.760
 4255.00    1.08840   1.09507   11.088
 4256.00    1.07668   1.09544   11.865
 4257.00    1.06431   1.09025   11.255
 4258.00    1.05240   1.08297    9.964
 4259.00    1.04951   1.08097    9.000
 4260.00    1.06191   1.09161    8.733
 4261.00    1.08237   1.11718    9.062
 4262.00    1.10304   1.15258    9.714
 4263.00    1.12660   1.18727   10.182
 4264.00    1.15089   1.21003   10.181
 4265.00    1.15929   1.21311   10.169
 4266.00    1.14106   1.19414   10.441
 4267.00    1.10278   1.15593   10.644
 4268.00    1.05572   1.10533   10.442
 4269.00    1.00915   1.05177    9.998
 4270.00    0.97262   1.00559    9.728
 4271.00    0.95529   0.97578   10.010
 4272.00    0.95937   0.96775   10.748
 4273.00    0.97938   0.98196   11.262
 4274.00    1.00697   1.01384   11.241
 4275.00    1.03458   1.05503   11.083
 4276.00    1.06036   1.09559   10.970
 4277.00    1.08438   1.12687   10.842
 4278.00    1.09877   1.14436   10.798
 4279.00    1.09608   1.14860   11.001
 4280.00    1.08628   1.14387   11.380
 4281.00    1.08381   1.13487   11.683
 4282.00    1.08574   1.12419   11.686
 4283.00    1.08149   1.11162   11.375
 4284.00    1.06768   1.09552   11.023
 4285.00    1.04757   1.07467   10.847
 4286.00    1.02807   1.04980   10.814
 4287.00    1.01500   1.02428   10.928
 4288.00    1.00935   1.00370   11.390
 4289.00    1.00841   0.99365   12.057
 4290.00    1.00770   0.99660   12.055
 4291.00    1.00655   1.00965   11.376
 4292.00    1.00931   1.02524   11.220
 4293.00    1.01595   1.03436   11.884
 4294.00    1.01887   1.03022   12.446
 4295.00    1.00823   1.01026   12.338
 4296.00    0.97710   0.97640   12.130
 4297.00    0.93059   0.93428   12.241
 4298.00    0.88357   0.89181   12.622
 4299.00    0.84699   0.85678   12.946
 4300.00    0.82389   0.83409   12.902
 4301.00    0.80927   0.82396   12.892
 4302.00    0.79641   0.82226   13.446
 4303.00    0.78781   0.82293   13.888
 4304.00    0.78846   0.82113   13.212
 4305.00    0.79335   0.81573   12.323
 4306.00    0.79464   0.80994   12.236
 4307.00    0.79283   0.80992   12.672
 4308.00    0.79390   0.82172   12.907
 4309.00    0.80468   0.84864   12.662
 4310.00    0.83230   0.89025   12.180
 4311.00    0.88291   0.94367   11.907
 4312.00    0.95350   1.00555   11.949
 4313.00    1.02865   1.07274   11.927
 4314.00    1.09686   1.14119   11.688
 4315.00    1.15765   1.20479   11.574
 4316.00    1.20605   1.25561   11.620
 4317.00    1.22909   1.28654   11.411
 4318.00    1.22406   1.29358   11.007
 4319.00    1.20146   1.27689   10.946
 4320.00    1.16832   1.24000   11.351
 4321.00    1.12589   1.18910   11.880
 4322.00    1.07939   1.13321   12.213
 4323.00    1.03931   1.08420   12.245
 4324.00    1.01719   1.05459   12.041
 4325.00    1.02171   1.05293   11.755
 4326.00    1.05301   1.07913   11.529
 4327.00    1.10268   1.12395   11.272
 4328.00    1.15579   1.17358   10.459
 4329.00    1.19574   1.21621    9.144
 4330.00    1.21090   1.24598    0.000
 4331.00    1.20116   1.26195    0.000
 4332.00    1.18222   1.26420    0.000
 4333.00    1.16492   1.25108    0.000
 4334.00    1.13837   1.21977    0.000
 4335.00    1.09351   1.16962    0.000
 4336.00    1.04040   1.10564    0.000
 4337.00    0.99373   1.03891    0.000
 4338.00    0.96230   0.98367    0.000
 4339.00    0.94730   0.95223    0.000
 4340.00    0.94472   0.95029    0.000
 4341.00    0.95794   0.97565    0.000
 4342.00    0.99719   1.02008    0.000
 4343.00    1.05726   1.07315    0.000
 4344.00    1.11625   1.12564    0.000
 4345.00    1.15685   1.17074    0.000
 4346.00    1.17387   1.20351    0.000
 4347.00    1.17566   1.22040    0.000
 4348.00    1.17498   1.22008    0.000
 4349.00    1.16998   1.20533    0.000
 4350.00    1.15207   1.18397    0.000
 4351.00    1.12563   1.16656   12.648
 4352.00    1.10455   1.16178   11.728
 4353.00    1.10178   1.17206   11.318
 4354.00    1.12085   1.19317   11.908
 4355.00    1.14902   1.21743   12.620
 4356.00    1.17373   1.23844   12.273
 4357.00    1.19786   1.25433   11.474
 4358.00    1.22547   1.26760   11.165
 4359.00    1.24998   1.28222   11.578
 4360.00    1.26272   1.30037   12.324
 4361.00    1.26023   1.32065   12.226
 4362.00    1.24878   1.33872   11.294
 4363.00    1.24274   1.34937   11.022
 4364.00    1.24633   1.34895   11.833
 4365.00    1.24981   1.33713   12.863
 4366.00    1.24825   1.31720   13.233
 4367.00    1.24460   1.29446   13.112
 4368.00    1.23541   1.27343   13.026
 4369.00    1.21294   1.25562   13.243
 4370.00    1.18285   1.23949   13.353
 4371.00    1.16038   1.22291   12.733
 4372.00    1.15155   1.20625   11.883
 4373.00    1.15264   1.19334   11.572
 4374.00    1.15720   1.18918   11.787
 4375.00    1.15951   1.19578   12.137
 4376.00    1.15764   1.20906   12.345
 4377.00    1.15151   1.21954   12.413
 4378.00    1.13972   1.21626   12.701
 4379.00    1.11874   1.19213   13.427
 4380.00    1.08353   1.14782   14.051
 4381.00    1.03799   1.09257   14.063
 4382.00    1.00153   1.04127   14.023
 4383.00    0.99013   1.00849   14.307
 4384.00    1.00310   1.00203   14.308
 4385.00    1.03009   1.01984   13.787
 4386.00    1.05777   1.05206   13.447
 4387.00    1.07928   1.08705   13.527
 4388.00    1.09682   1.11679   13.563
 4389.00    1.11379   1.13899   13.497
 4390.00    1.13072   1.15541   13.815
 4391.00    1.14369   1.16904   14.347
 4392.00    1.14770   1.18247   14.211
 4393.00    1.14720   1.19732   13.465
 4394.00    1.15333   1.21380   12.973
 4395.00    1.17012   1.23008   13.120
 4396.00    1.19226   1.24243   13.796
 4397.00    1.20758   1.24687   14.204
 4398.00    1.20591   1.24148   13.567
 4399.00    1.19188   1.22718   12.751
 4400.00    1.17528   1.20666   12.731
 4401.00    1.15611   1.18271   13.375
 4402.00    1.13325   1.15809   14.114
 4403.00    1.11521   1.13634   14.607
 4404.00    1.11010   1.12216   14.772
 4405.00    1.11608   1.12005   14.668
 4406.00    1.12835   1.13230   14.479
 4407.00    1.14491   1.15780   14.426
 4408.00    1.16445   1.19183   14.366
 4409.00    1.18495   1.22702   13.793
 4410.00    1.20509   1.25490   12.993
 4411.00    1.22394   1.26872   12.901
 4412.00    1.23635   1.26662   13.571
 4413.00    1.23480   1.25323   14.005
 4414.00    1.22303   1.23809   13.769
 4415.00    1.21499   1.23086   13.549
 4416.00    1.21672   1.23639   13.723
 4417.00    1.22444   1.25232   14.129
 4418.00    1.23378   1.27113   14.323
 4419.00    1.24243   1.28481   13.923
 4420.00    1.25051   1.28936   13.240
 4421.00    1.25920   1.28608   12.839
 4422.00    1.26844   1.27975   12.941
 4423.00    1.27663   1.27506   13.426
 4424.00    1.28099   1.27405   13.694
 4425.00    1.28008   1.27576   13.319
 4426.00    1.27621   1.27756   12.958
 4427.00    1.27163   1.27697   13.194
 4428.00    1.26493   1.27267   13.713
 4429.00    1.25576   1.26456   14.032
 4430.00    1.24777   1.25339   14.223
 4431.00    1.24027   1.24061   14.397
 4432.00    1.22551   1.22898   14.318
 4433.00    1.20730   1.22264   14.099
 4434.00    1.20534   1.22596   14.328
 4435.00    1.22575   1.24066   14.924
 4436.00    1.25256   1.26346   14.891
 4437.00    1.27007   1.28639   14.260
 4438.00    1.27271   1.30057   14.134
 4439.00    1.26713   1.30136   14.570
 4440.00    1.26582   1.29124   14.697
 4441.00    1.26941   1.27863   14.464
 4442.00    1.27031   1.27300   14.536
 4443.00    1.27097   1.27963   14.813
 4444.00    1.27929   1.29730   14.735
 4445.00    1.29331   1.31972   14.456
 4446.00    1.30559   1.33941   14.387
 4447.00    1.31397   1.35101   14.265
 4448.00    1.31824   1.35232   13.817
 4449.00    1.31436   1.34348   13.582
 4450.00    1.29910   1.32547   14.060
 4451.00    1.27524   1.29966   15.032
 4452.00    1.24777   1.26828   15.807
 4453.00    1.22014   1.23489   15.715
 4454.00    1.19442   1.20394   14.879
 4455.00    1.17174   1.17914   14.170
 4456.00    1.15294   1.16214   13.990
 4457.00    1.13935   1.15251   14.116
 4458.00    1.13455   1.14922   14.323
 4459.00    1.14358   1.15194   14.582
 4460.00    1.16608   1.16119   14.802
 4461.00    1.19513   1.17700    0.000
 4462.00    1.22265   1.19755    0.000
 4463.00    1.24275   1.21901    0.000
 4464.00    1.25499   1.23716    0.000
 4465.00    1.26249   1.24936    0.000
 4466.00    1.26531   1.25609    0.000
 4467.00    1.26240   1.26066    0.000
 4468.00    1.25825   1.26775    0.000
 4469.00    1.26054   1.28124    0.000
 4470.00    1.27416   1.30247    0.000
 4471.00    1.29845   1.32973    0.000
 4472.00    1.32545   1.35900    0.000
 4473.00    1.34768   1.38563    0.000
 4474.00    1.36619   1.40531    0.000
 4475.00    1.38084   1.41457    0.000
 4476.00    1.38237   1.41110    0.000
 4477.00    1.36695   1.39483    0.000
 4478.00    1.34562   1.36931    0.000
 4479.00    1.32945   1.34213    0.000
 4480.00    1.32044   1.32267    0.000
 4481.00    1.31787   1.31791    0.000
 4482.00    1.32211   1.32885   12.977
 4483.00    1.33524   1.34950   13.419
 4484.00    1.35851   1.36993   14.154
 4485.00    1.38257   1.38106   14.658
 4486.00    1.39085   1.37885   14.610
 4487.00    1.37983   1.36563   14.227
 4488.00    1.35930   1.34780   13.986
 4489.00    1.33746   1.33179   13.972
 4490.00    1.31906   1.32080   13.985
 4491.00    1.30933   1.31433   13.946
 4492.00    1.31027   1.31060   13.958
 4493.00    1.31366   1.30911   14.269
 4494.00    1.31075   1.31155   14.973
 4495.00    1.30703   1.32006   15.470
 4496.00    1.31319   1.33510   15.111
 4497.00    1.33219   1.35480   14.392
 4498.00    1.36059   1.37641   14.017
 4499.00    1.39173   1.39833   14.122
 4500.00    1.41961   1.42065   14.412
 4501.00    1.44143   1.44377   14.255
 4502.00    1.45503   1.46654   13.634
 4503.00    1.45829   1.48597   13.405
 4504.00    1.45604   1.49881   13.861
 4505.00    1.45984   1.50375   14.380
 4506.00    1.46892   1.50210   14.605
 4507.00    1.46774   1.49650   14.966
 4508.00    1.45189   1.48887   15.433
 4509.00    1.43246   1.47938   15.294
 4510.00    1.41698   1.46714   14.706
 4511.00    1.40569   1.45180   14.526
 4512.00    1.39844   1.43468   14.874
 4513.00    1.39559   1.41854   15.283
 4514.00    1.39594   1.40627   15.490
 4515.00    1.39753   1.39973   15.513
 4516.00    1.39976   1.39908   15.326
 4517.00    1.40197   1.40287   14.973
 4518.00    1.40094   1.40815   14.770
 4519.00    1.39408   1.41112   14.908
 4520.00    1.38340   1.40798   15.040
 4521.00    1.37027   1.39608   14.893
 4522.00    1.35029   1.37470   14.917
 4523.00    1.32133   1.34522   15.435
 4524.00    1.28992   1.31078   15.918
 4525.00    1.26295   1.27576   15.740
 4526.00    1.24193   1.24498   15.044
 4527.00    1.22698   1.22258   14.456
 4528.00    1.21906   1.21075   14.571
 4529.00    1.21757   1.20892   15.285
 4530.00    1.21992   1.21440   15.624
 4531.00    1.22514   1.22418   15.304
 4532.00    1.23447   1.23696   15.180
 4533.00    1.24824   1.25363   15.535
 4534.00    1.26485   1.27560   15.924
 4535.00    1.28100   1.30227   16.139
 4536.00    1.29339   1.32995   16.321
 4537.00    1.30266   1.35336   16.379
 4538.00    1.31255   1.36854   16.076
 4539.00    1.32664   1.37485   15.532
 4540.00    1.34541   1.37455   15.082
 4541.00    1.36301   1.37065   14.974
 4542.00    1.37121   1.36501   15.289
 4543.00    1.36573   1.35815   15.837
 4544.00    1.34921   1.34996   16.278
 4545.00    1.33253   1.34053   16.368
 4546.00    1.32406   1.33051   16.097
 4547.00    1.32043   1.32108   15.699
 4548.00    1.31468   1.31348   15.497
 4549.00    1.30359   1.30837   15.776
 4550.00    1.29090   1.30583    0.000
 4551.00    1.28688   1.30574    0.000
 4552.00    1.29684   1.30871    0.000
 4553.00    1.31640   1.31636    0.000
 4554.00    1.33834   1.33037    0.000
 4555.00    1.35706   1.35096    0.000
 4556.00    1.37330   1.37586    0.000
 4557.00    1.39177   1.40056    0.000
 4558.00    1.40962   1.41994    0.000
 4559.00    1.41897   1.43010    0.000
 4560.00    1.42161   1.42960    0.000
 4561.00    1.42474   1.42019    0.000
 4562.00    1.42489   1.40645    0.000
 4563.00    1.41554   1.39444    0.000
 4564.00    1.40483   1.38926    0.000
 4565.00    1.40450   1.39255    0.000
 4566.00    1.41069   1.40177    0.000
 4567.00    1.41354   1.41206    0.000
 4568.00    1.41152   1.41916    0.000
 4569.00    1.40938   1.42176    0.000
 4570.00    1.41378   1.42180    0.000
 4571.00    1.42670   1.42234    0.000
 4572.00    1.44115   1.42487    0.000
 4573.00    1.44718   1.42813    0.000
 4574.00    1.43737   1.42889    0.000
 4575.00    1.41354   1.42385    0.000
 4576.00    1.38747   1.41149    0.000
 4577.00    1.36761   1.39277    0.000
 4578.00    1.35383   1.37085    0.000
 4579.00    1.34243   1.34989    0.000
 4580.00    1.33023   1.33362    0.000
 4581.00    1.32057   1.32417    0.000
 4582.00    1.32065   1.32211    0.000
 4583.00    1.32928   1.32701    0.000
 4584.00    1.33889   1.33781    0.000
 4585.00    1.34696   1.35275    0.000
 4586.00    1.35500   1.36903    0.000
 4587.00    1.36212   1.38292    0.000
 4588.00    1.36588   1.39089    0.000
 4589.00    1.36542   1.39094    0.000
 4590.00    1.36129   1.38353    0.000
 4591.00    1.35471   1.37147    0.000
 4592.00    1.34801   1.35851    0.000
 4593.00    1.34468   1.34776    0.000
 4594.00    1.34571   1.34101    0.000
 4595.00    1.34729   1.33828    0.000
 4596.00    1.34768   1.33870    0.000
 4597.00    1.35087   1.34106    0.000
 4598.00    1.35693   1.34416    0.000
 4599.00    1.35896   1.34740    0.000
 4600.00    1.35721   1.35080    0.000
 4601.00    1.36193   1.35507    0.000
 4602.00    1.37507   1.36150    0.000
 4603.00    1.38744   1.37167    0.000
 4604.00    1.39505   1.38680    0.000
 4605.00    1.40151   1.40675    0.000
 4606.00    1.40861   1.42923    0.000
 4607.00    1.41497   1.45032    0.000
 4608.00    1.41954   1.46582    0.000
 4609.00    1.42311   1.47338    0.000
 4610.00    1.42934   1.47368    0.000
 4611.00    1.44194   1.46969    0.000
 4612.00    1.45980   1.46507    0.000
 4613.00    1.47714   1.46240    0.000
 4614.00    1.48544   1.46205    0.000
 4615.00    1.48144   1.46307    0.000
 4616.00    1.47458   1.46449    0.000
 4617.00    1.47486   1.46594    0.000
 4618.00    1.48165   1.46757    0.000
 4619.00    1.48981   1.46983    0.000
 4620.00    1.49505   1.47252    0.000
 4621.00    1.49340   1.47463    0.000
 4622.00    1.48187   1.47517    0.000
 4623.00    1.46537   1.47373    0.000
 4624.00    1.45620   1.47043    0.000
 4625.00    1.45577   1.46607    0.000
 4626.00    1.45213   1.46199    0.000
 4627.00    1.44058   1.45905    0.000
 4628.00    1.42823   1.45686    0.000
 4629.00    1.42410   1.45427    0.000
 4630.00    1.43218   1.45009    0.000
 4631.00    1.44230   1.44323    0.000
 4632.00    1.43844   1.43327    0.000
 4633.00    1.41976   1.42067    0.000
 4634.00    1.39652   1.40670    0.000
 4635.00    1.37584   1.39287    0.000
 4636.00    1.36133   1.38077    0.000
 4637.00    1.35601   1.37198    0.000
 4638.00    1.36106   1.36712    0.000
 4639.00    1.37380   1.36519    0.000
 4640.00    1.38796   1.36381    0.000
 4641.00    1.39466   1.35967    0.000
 4642.00    1.38637   1.34984    0.000
 4643.00    1.36118   1.33414    0.000
 4644.00    1.32951   1.31565    0.000
 4645.00    1.31403   1.29962    0.000
 4646.00    1.32418   1.29147    0.000
 4647.00    1.34660   1.29427    0.000
 4648.00    1.36835   1.30749    0.000
 4649.00    1.38611   1.32709    0.000
 4650.00    1.39751   1.34684    0.000
 4651.00    1.40003   1.36171    0.000
 4652.00    1.39839   1.37001    0.000
 4653.00    1.40178   1.37382    0.000
 4654.00    1.41049   1.37789    0.000
 4655.00    1.41756   1.38660    0.000
 4656.00    1.42019   1.40111    0.000
 4657.00    1.42058   1.41848    0.000
 4658.00    1.42254   1.43290    0.000
 4659.00    1.42717   1.43846    0.000
 4660.00    1.42778   1.43167    0.000
 4661.00    1.41670   1.41219    0.000
 4662.00    1.39428   1.38179    0.000
 4663.00    1.36514   1.34442    0.000
 4664.00    1.33325   1.30600    0.000
 4665.00    1.30395   1.27354    0.000
 4666.00    1.28525   1.25308    0.000
 4667.00    1.28137   1.24832    0.000
 4668.00    1.28899   1.25894    0.000
 4669.00    1.30342   1.28067    0.000
 4670.00    1.32234   1.30746    0.000
 4671.00    1.34447   1.33382    0.000
 4672.00    1.36779   1.35626    0.000
 4673.00    1.38526   1.37299    0.000
 4674.00    1.38825   1.38292    0.000
 4675.00    1.38306   1.38564    0.000
 4676.00    1.38578   1.38165    0.000
 4677.00    1.39221   1.37253    0.000
 4678.00    1.38432   1.36145    0.000
 4679.00    1.36479   1.35243    0.000
 4680.00    1.35146   1.34853    0.000
 4681.00    1.35094   1.35051    0.000
 4682.00    1.35824   1.35697    0.000
 4683.00    1.36497   1.36507    0.000
 4684.00    1.36613   1.37184    0.000
 4685.00    1.36684   1.37550    0.000
 4686.00    1.37308   1.37572    0.000
 4687.00    1.38119   1.37317    0.000
 4688.00    1.38344   1.36939    0.000
 4689.00    1.37501   1.36639    0.000
 4690.00    1.35932   1.36575    0.000
 4691.00    1.34969   1.36819    0.000
 4692.00    1.35580   1.37311    0.000
 4693.00    1.37527   1.37807    0.000
 4694.00    1.39594   1.37954    0.000
 4695.00    1.40121   1.37494    0.000
 4696.00    1.38645   1.36416    0.000
 4697.00    1.36187   1.34899    0.000
 4698.00    1.33694   1.33203    0.000
 4699.00    1.31602   1.31618    0.000
 4700.00    1.30295   1.30422    0.000
 4701.00    1.30068   1.29779    0.000
 4702.00    1.30690   1.29643    0.000
 4703.00    1.31507   1.29806    0.000
 4704.00    1.31896   1.30061    0.000
 4705.00    1.31697   1.30308    0.000
 4706.00    1.31725   1.30591    0.000
 4707.00    1.32810   1.31056    0.000
 4708.00    1.34403   1.31791    0.000
 4709.00    1.35592   1.32701    0.000
 4710.00    1.36457   1.33612    0.000
 4711.00    1.37403   1.34419    0.000
 4712.00    1.38385   1.35229    0.000
 4713.00    1.39248   1.36263    0.000
 4714.00    1.40048   1.37672    0.000
 4715.00    1.40957   1.39496    0.000
 4716.00    1.42152   1.41634    0.000
 4717.00    1.43640   1.43794    0.000
 4718.00    1.45208   1.45632    0.000
 4719.00    1.46608   1.46928    0.000
 4720.00    1.47620   1.47655    0.000
 4721.00    1.47944   1.47856    0.000
 4722.00    1.47359   1.47488    0.000
 4723.00    1.46354   1.46395    0.000
 4724.00    1.45717   1.44448    0.000
 4725.00    1.44971   1.41781    0.000
 4726.00    1.42894   1.38796    0.000
 4727.00    1.39531   1.36007    0.000
 4728.00    1.36143   1.33927    0.000
 4729.00    1.34248   1.32907    0.000
 4730.00    1.34648   1.32966    0.000
 4731.00    1.36347   1.33845    0.000
 4732.00    1.37785   1.35156    0.000
 4733.00    1.38548   1.36481    0.000
 4734.00    1.38939   1.37661    0.000
 4735.00    1.39284   1.38774    0.000
 4736.00    1.39777   1.39801    0.000
 4737.00    1.40434   1.40673    0.000
 4738.00    1.41306   1.41427    0.000
 4739.00    1.42582   1.42123    0.000
 4740.00    1.44148   1.42775    0.000
 4741.00    1.45451   1.43353    0.000
 4742.00    1.46132   1.43885    0.000
 4743.00    1.46301   1.44461    0.000
 4744.00    1.46342   1.45059    0.000
 4745.00    1.46601   1.45567    0.000
 4746.00    1.46646   1.45922    0.000
 4747.00    1.45622   1.46052    0.000
 4748.00    1.43887   1.45825    0.000
 4749.00    1.42596   1.45168    0.000
 4750.00    1.41674   1.44148    0.000
 4751.00    1.40371   1.42907    0.000
 4752.00    1.39187   1.41655    0.000
 4753.00    1.39127   1.40617    0.000
 4754.00    1.39952   1.39965    0.000
 4755.00    1.40817   1.39745    0.000
 4756.00    1.41464   1.39845    0.000
 4757.00    1.41953   1.39990    0.000
 4758.00    1.42190   1.39791    0.000
 4759.00    1.41939   1.38993    0.000
 4760.00    1.40945   1.37629    0.000
 4761.00    1.39452   1.35889   16.997
 4762.00    1.38410   1.34072   16.909
 4763.00    1.38361   1.32605   16.877
 4764.00    1.38851   1.31919   17.141
 4765.00    1.39280   1.32213   17.684
 4766.00    1.39402   1.33412   18.170
 4767.00    1.39468   1.35199   18.241
 4768.00    1.40040   1.37120   17.831
 4769.00    1.41188   1.38900   17.400
 4770.00    1.42430   1.40524   17.565
 4771.00    1.43432   1.42062   18.259
 4772.00    1.44112   1.43510   18.728
 4773.00    1.44343   1.44828   18.369
 4774.00    1.44133   1.46004   17.321
 4775.00    1.44108   1.46930   16.389
 4776.00    1.44813   1.47419   16.194
 4777.00    1.45452   1.47392   16.586
 4778.00    1.45036   1.46878   17.024
 4779.00    1.44199   1.45898   17.073
 4780.00    1.43829   1.44535   16.740
 4781.00    1.43296   1.43040   16.585
 4782.00    1.41968   1.41628   16.860
 4783.00    1.40714   1.40349   16.897
 4784.00    1.40352   1.39325   16.353
 4785.00    1.40405   1.38693   16.081
 4786.00    1.40172   1.38454   16.541
 4787.00    1.39544   1.38634   17.132
 4788.00    1.39154   1.39324   17.370
 4789.00    1.40106   1.40551   17.619
 4790.00    1.42457   1.42285   18.144
 4791.00    1.44981   1.44367   18.649
 4792.00    1.46954   1.46427   18.698
 4793.00    1.48491   1.48008   18.142
 4794.00    1.49349   1.48779   17.503
 4795.00    1.49023   1.48644   17.476
 4796.00    1.48005   1.47785   18.026
 4797.00    1.47407   1.46639   18.568
 4798.00    1.47443   1.45702   18.787
 4799.00    1.47521   1.45257   18.762
 4800.00    1.47052   1.45231   18.597
 4801.00    1.45822   1.45305   18.431
 4802.00    1.44295   1.45165   18.557
 4803.00    1.43065   1.44699   19.080
 4804.00    1.42166   1.43947   19.452
 4805.00    1.41564   1.43071   19.235
 4806.00    1.41693   1.42361   19.027
 4807.00    1.42835   1.42050   19.324
 4808.00    1.44581   1.42170   19.664
 4809.00    1.46186   1.42631   19.532
 4810.00    1.46966   1.43327   19.132
 4811.00    1.46942   1.44173   18.933
 4812.00    1.46970   1.45130   19.260
 4813.00    1.47530   1.46181   19.766
 4814.00    1.48274   1.47294   19.450
 4815.00    1.48729   1.48378   18.564
 4816.00    1.48612   1.49289   18.414
 4817.00    1.47893   1.49822   19.122
 4818.00    1.46751   1.49760   19.658
 4819.00    1.45432   1.48983   19.602
 4820.00    1.44151   1.47523   19.449
 4821.00    1.42981   1.45705   19.423
 4822.00    1.41875   1.44086   19.444
 4823.00    1.40780   1.43025   19.628
 4824.00    1.39730   1.42508   20.105
 4825.00    1.38960   1.42337   20.575
 4826.00    1.38714   1.42309   20.641
 4827.00    1.38980   1.42280   20.498
 4828.00    1.39607   1.42132   20.444
 4829.00    1.40465   1.41823   20.288
 4830.00    1.41269   1.41532   19.875
 4831.00    1.41486   1.41481   19.518
 4832.00    1.40995   1.41667   19.437
 4833.00    1.40453   1.41926   19.451
 4834.00    1.40319   1.42096   19.436
 4835.00    1.40319   1.42029   19.563
 4836.00    1.40062   1.41584   19.977
 4837.00    1.39434   1.40813   20.597
 4838.00    1.38760   1.39982   21.002
 4839.00    1.38621   1.39330   20.646
 4840.00    1.38974   1.38941   19.912
 4841.00    1.39218   1.38883   19.724
 4842.00    1.39336   1.39216   20.037
 4843.00    1.39844   1.39772   20.065
 4844.00    1.40818   1.40213   19.716
 4845.00    1.41879   1.40290   19.505
 4846.00    1.42688   1.40004   19.579
 4847.00    1.42984   1.39563   19.771
 4848.00    1.42486   1.39069    0.000
 4849.00    1.41020   1.38392    0.000
 4850.00    1.38707   1.37371    0.000
 4851.00    1.35860   1.35849    0.000
 4852.00    1.32814   1.33674    0.000
 4853.00    1.29716   1.30967    0.000
 4854.00    1.26398   1.28043    0.000
 4855.00    1.22805   1.24980    0.000
 4856.00    1.19312   1.21601    0.000
 4857.00    1.16394   1.17852    0.000
 4858.00    1.14358   1.14040    0.000
 4859.00    1.13220   1.10904    0.000
 4860.00    1.12742   1.09275    0.000
 4861.00    1.12863   1.09465    0.000
 4862.00    1.13822   1.11241    0.000
 4863.00    1.15837   1.14197    0.000
 4864.00    1.18852   1.17701    0.000
 4865.00    1.22165   1.21011    0.000
 4866.00    1.24697   1.23560    0.000
 4867.00    1.25961   1.25051    0.000
 4868.00    1.26185   1.25408    0.000
 4869.00    1.25957   1.25006    0.000
 4870.00    1.25894   1.24651    0.000
 4871.00    1.26194   1.24912    0.000
 4872.00    1.26888   1.25867    0.000
 4873.00    1.28303   1.27445    0.000
 4874.00    1.30604   1.29538    0.000
 4875.00    1.33196   1.31893   21.717
 4876.00    1.35364   1.34215   21.147
 4877.00    1.36980   1.36232   20.105
 4878.00    1.38091   1.37547   19.349
 4879.00    1.38565   1.37948   19.110
 4880.00    1.38434   1.37619   19.302
 4881.00    1.38056   1.36736   19.636
 4882.00    1.37405   1.35319   19.813
 4883.00    1.35899   1.33548   19.716
 4884.00    1.33690   1.31791   19.531
 4885.00    1.31896   1.30337   19.648
 4886.00    1.30879   1.29264   20.190
 4887.00    1.30012   1.28546   20.896
 4888.00    1.29360   1.28254   21.357
 4889.00    1.29709   1.28751   21.261
 4890.00    1.31021   1.30534   20.752
 4891.00    1.32637   1.33553   20.251
 4892.00    1.34736   1.37286   19.917
 4893.00    1.37828   1.41114   19.775
 4894.00    1.41165   1.44402   20.064
 4895.00    1.43517   1.46704   20.925
 4896.00    1.44841   1.47821   21.659
 4897.00    1.45565   1.47777   21.421
 4898.00    1.45355   1.46967   20.770
 4899.00    1.44016   1.45933   20.583
 4900.00    1.42522   1.44923   20.888
 4901.00    1.41725   1.44090   21.313
 4902.00    1.41203   1.43679   21.487
 4903.00    1.40455   1.43700   21.345
 4904.00    1.39790   1.43781   21.259
 4905.00    1.39538   1.43453   21.424
 4906.00    1.39561   1.42533   21.585
 4907.00    1.39536   1.41148   21.532
 4908.00    1.39205   1.39663   21.340
 4909.00    1.38750   1.38600   21.059
 4910.00    1.38664   1.38271   20.675
 4911.00    1.38767   1.38575   20.445
 4912.00    1.38318   1.39180   20.764
 4913.00    1.37413   1.39607   21.549
 4914.00    1.36752   1.39231   22.240
 4915.00    1.36034   1.37578   22.503
 4916.00    1.34353   1.34668   22.411
 4917.00    1.31803   1.31125   22.112
 4918.00    1.29310   1.27895   21.758
 4919.00    1.27752   1.25835   21.538
 4920.00    1.27653   1.25320   21.565
 4921.00    1.28966   1.26123   21.724
 4922.00    1.31282   1.27930   21.852
 4923.00    1.34106   1.30636   21.962
 4924.00    1.36931   1.33981   22.036
 4925.00    1.39313   1.37419   21.845
 4926.00    1.41092   1.40554   21.374
 4927.00    1.42508   1.43137   21.043
 4928.00    1.43806   1.44821   21.044
 4929.00    1.44919   1.45439   21.080
 4930.00    1.45269   1.44948   20.981
 4931.00    1.43969   1.43448   20.964
 4932.00    1.41186   1.41478   21.133
 4933.00    1.38342   1.39561   21.333
 4934.00    1.36434   1.37679   21.482
 4935.00    1.35564   1.35810   21.646
 4936.00    1.35597   1.34306   21.820
 4937.00    1.36336   1.33722   21.868
 4938.00    1.37390   1.34428   21.607
 4939.00    1.38440   1.36230   20.997
 4940.00    1.39856   1.38586    0.000
 4941.00    1.42121   1.41114    0.000
 4942.00    1.44602   1.43433    0.000
 4943.00    1.46297   1.45171    0.000
 4944.00    1.47229   1.46367    0.000
 4945.00    1.47855   1.47302    0.000
 4946.00    1.48107   1.48040    0.000
 4947.00    1.47794   1.48553    0.000
 4948.00    1.47121   1.48853    0.000
 4949.00    1.46480   1.48862    0.000
 4950.00    1.46158   1.48323    0.000
 4951.00    1.45879   1.47106    0.000
 4952.00    1.44695   1.45310    0.000
 4953.00    1.42195   1.43042    0.000
 4954.00    1.39132   1.40352    0.000
 4955.00    1.36812   1.37609    0.000
 4956.00    1.36452   1.35891    0.000
 4957.00    1.37930   1.35878    0.000
 4958.00    1.39806   1.37074    0.000
 4959.00    1.41112   1.38728    0.000
 4960.00    1.41769   1.40360    0.000
 4961.00    1.42001   1.41604    0.000
 4962.00    1.42004   1.42056    0.000
 4963.00    1.41629   1.41577    0.000
 4964.00    1.40607   1.40577    0.000
 4965.00    1.39126   1.39575    0.000
 4966.00    1.37835   1.38860    0.000
 4967.00    1.37607   1.38655    0.000
 4968.00    1.38771   1.39035    0.000
 4969.00    1.40237   1.39961    0.000
 4970.00    1.40828   1.41259    0.000
 4971.00    1.40779   1.42579    0.000
 4972.00    1.40827   1.43615    0.000
 4973.00    1.41227   1.44070    0.000
 4974.00    1.41765   1.43740    0.000
 4975.00    1.41888   1.42564    0.000
 4976.00    1.41142   1.40558    0.000
 4977.00    1.39441   1.37962    0.000
 4978.00    1.37033   1.35062    0.000
 4979.00    1.34360   1.31985    0.000
 4980.00    1.31536   1.28973    0.000
 4981.00    1.28424   1.26632    0.000
 4982.00    1.25712   1.25529    0.000
 4983.00    1.24764   1.25764    0.000
 4984.00    1.26043   1.27162    0.000
 4985.00    1.28910   1.29392    0.000
 4986.00    1.32351   1.31824    0.000
 4987.00    1.35371   1.33917    0.000
 4988.00    1.37381   1.35446    0.000
 4989.00    1.38219   1.36434    0.000
 4990.00    1.38020   1.37085    0.000
 4991.00    1.37154   1.37443    0.000
 4992.00    1.36137   1.37570    0.000
 4993.00    1.35413   1.37663    0.000
 4994.00    1.35101   1.37612    0.000
 4995.00    1.35041   1.37190    0.000
 4996.00    1.34882   1.36273    0.000
 4997.00    1.34307   1.34800    0.000
 4998.00    1.33203   1.32952    0.000
 4999.00    1.31621   1.31033    0.000
 5000.00    1.29787   1.29250    0.000
 5001.00    1.28403   1.27729    0.000
 5002.00    1.28556   1.26468    0.000
 5003.00    1.30527   1.25419    0.000
 5004.00    1.33426   1.24777    0.000
 5005.00    1.35973   1.24879    0.000
 5006.00    1.37078   1.25671    0.000
 5007.00    1.36627   1.26573    0.000
 5008.00    1.35311   1.27036    0.000
 5009.00    1.33541   1.26816    0.000
 5010.00    1.31386   1.25866    0.000
 5011.00    1.29095   1.24454    0.000
 5012.00    1.27080   1.23040    0.000
 5013.00    1.25679   1.22065    0.000
 5014.00    1.24995   1.21649    0.000
 5015.00    1.24745   1.21578    0.000
 5016.00    1.24651   1.21802    0.000
 5017.00    1.24908   1.22467    0.000
 5018.00    1.25754   1.23486    0.000
 5019.00    1.26979   1.24564    0.000
 5020.00    1.28068   1.25572    0.000
 5021.00    1.28454   1.26660    0.000
 5022.00    1.28234   1.27866    0.000
 5023.00    1.28458   1.28993    0.000
 5024.00    1.29891   1.29910    0.000
 5025.00    1.32319   1.30613    0.000
 5026.00    1.34931   1.31390    0.000
 5027.00    1.36766   1.32544    0.000
 5028.00    1.37642   1.33943    0.000
 5029.00    1.38184   1.35364   22.054
 5030.00    1.38657   1.36671   22.404
 5031.00    1.38763   1.37573   22.826
 5032.00    1.38221   1.37624   22.933
 5033.00    1.36912   1.36520   22.621
 5034.00    1.34821   1.34497   22.241
 5035.00    1.32127   1.32101   22.232
 5036.00    1.29387   1.29540   22.511
 5037.00    1.27199   1.26904   22.750
 5038.00    1.25650   1.24588   22.956
 5039.00    1.24686   1.23202   23.213
 5040.00    1.24667   1.23413   23.193
 5041.00    1.25950   1.25285   22.739
 5042.00    1.28353   1.28114   22.455
 5043.00    1.31211   1.31139   22.797
 5044.00    1.33557   1.33692   23.407
 5045.00    1.34786   1.35151   23.852
 5046.00    1.35072   1.35278   24.243
 5047.00    1.34853   1.34483   24.642
 5048.00    1.34480   1.33452   24.708
 5049.00    1.34193   1.32649   24.445
 5050.00    1.34159   1.32387   24.386
 5051.00    1.34606   1.32941   24.582
 5052.00    1.35775   1.34289   24.470
 5053.00    1.37496   1.36096   23.931
 5054.00    1.39197   1.37987   23.428
 5055.00    1.40367   1.39759   23.249
 5056.00    1.40810   1.41308   23.387
 5057.00    1.40897   1.42492   23.652
 5058.00    1.41231   1.43215   23.782
 5059.00    1.41857   1.43430   23.673
 5060.00    1.42307   1.43002   23.379
 5061.00    1.41975   1.41787   22.992
 5062.00    1.40514   1.39823   22.678
 5063.00    1.38269   1.37570   22.738
 5064.00    1.35937   1.35659   23.300
 5065.00    1.34081   1.34253   23.952
 5066.00    1.33082   1.33254   24.205
 5067.00    1.33093   1.32739   24.149
 5068.00    1.33761   1.32725   24.113
 5069.00    1.34157   1.32863   24.254
 5070.00    1.33892   1.32855   24.408
 5071.00    1.33628   1.32814   24.135
 5072.00    1.33648   1.32773   23.525
 5073.00    1.33312   1.32455   23.293
 5074.00    1.32395   1.31764   23.640
 5075.00    1.31441   1.30783   24.060
 5076.00    1.30640   1.29389   24.280
 5077.00    1.29631   1.27490   24.489
 5078.00    1.28284   1.25604   24.619
 5079.00    1.26905   1.24466   24.363
 5080.00    1.26045   1.24263   23.884
 5081.00    1.26190   1.24784   23.623
 5082.00    1.27237   1.25938   23.596
 5083.00    1.28620   1.27647   23.514
 5084.00    1.29800   1.29606   23.175
 5085.00    1.30646   1.31485   22.636
 5086.00    1.31833   1.33186   22.262
 5087.00    1.33919   1.34725   22.304
 5088.00    1.36212   1.36050   22.508
 5089.00    1.37676   1.37101   22.568
 5090.00    1.37990   1.37884   22.642
 5091.00    1.37455   1.38300   22.903
 5092.00    1.36718   1.38114   23.146
 5093.00    1.36096   1.37183   23.188
 5094.00    1.35242   1.35577   23.156
 5095.00    1.33994   1.33527   23.146
 5096.00    1.32790   1.31372   23.061
 5097.00    1.32051   1.29594   22.947
 5098.00    1.31865   1.28706   23.053
 5099.00    1.31980   1.28824   23.435
 5100.00    1.31962   1.29513   23.868
 5101.00    1.31654   1.30239   24.124
 5102.00    1.31236   1.30707   24.122
 5103.00    1.30931   1.30836   23.971
 5104.00    1.30828   1.30595   23.864
 5105.00    1.30702   1.30009   23.822
 5106.00    1.30241   1.29324   23.774
 5107.00    1.29557   1.28868   23.786
 5108.00    1.29219   1.28817   23.946
 5109.00    1.30088   1.29353   24.111
 5110.00    1.32424   1.30522   24.052
 5111.00    1.34885   1.32059   23.728
 5112.00    1.36134   1.33712   23.289
 5113.00    1.36613   1.35321   22.994
 5114.00    1.37151   1.36723   22.974
 5115.00    1.37599   1.37781   23.076
 5116.00    1.37524   1.38294   23.096
 5117.00    1.36822   1.38035   22.963
 5118.00    1.35613   1.36939   22.770
 5119.00    1.34110   1.35140   22.739
 5120.00    1.32398   1.32859   23.020
 5121.00    1.30411   1.30323   23.593
 5122.00    1.28284   1.27877   24.167
 5123.00    1.26458   1.25932   24.266
 5124.00    1.25473   1.24662   23.888
 5125.00    1.25687   1.23992   23.505
 5126.00    1.26698   1.23826   23.290
 5127.00    1.27617   1.24127   23.077
 5128.00    1.28116   1.24876   22.721
 5129.00    1.28444   1.26004   22.234
 5130.00    1.28905   1.27284   21.860
 5131.00    1.29686   1.28441   21.800
 5132.00    1.30756   1.29375   21.830
 5133.00    1.31769   1.30050   21.618
 5134.00    1.31999   1.30220   21.235
 5135.00    1.31000   1.29721   20.883
 5136.00    1.29319   1.28771   20.550
 5137.00    1.27785   1.27679   20.293
 5138.00    1.26757   1.26766   20.442
 5139.00    1.26274   1.26147   21.038
 5140.00    1.26239   1.25551   21.424
 5141.00    1.26473   1.25001   21.233
 5142.00    1.26757   1.24810   21.066
 5143.00    1.26959   1.24817   21.325
 5144.00    1.27075   1.24682   21.734
 5145.00    1.27074   1.24452   21.987
 5146.00    1.26888   1.24308   22.058
 5147.00    1.26609   1.24319   22.027
 5148.00    1.26514   1.24406   21.966
 5149.00    1.26893   1.24435   21.869
 5150.00    1.27824   1.24492   21.668
 5151.00    1.28777   1.24782   21.333
 5152.00    1.29166   1.25426   20.995
 5153.00    1.29727   1.26507   21.098
 5154.00    1.31547   1.27983   21.955
 5155.00    1.33883   1.29620   22.778
 5156.00    1.35186   1.31086   22.362
 5157.00    1.35193   1.32053   21.164
 5158.00    1.34502   1.32307   20.253
 5159.00    1.33604   1.31655   19.909
 5160.00    1.32455   1.29879   20.036
 5161.00    1.30254   1.27037   20.470
 5162.00    1.26407   1.23355   20.948
 5163.00    1.21320   1.18913   21.135
 5164.00    1.15864   1.13917   21.183
 5165.00    1.10875   1.08950   21.938
 5166.00    1.06729   1.04811   23.684
 5167.00    1.03280   1.02151   25.236
 5168.00    1.00676   1.00999   25.565
 5169.00    0.99559   1.00745   25.319
 5170.00    1.00192   1.00978   25.193
 5171.00    1.02244   1.02201   25.215
 5172.00    1.05338   1.05081   25.251
 5173.00    1.09149   1.09240   25.224
 5174.00    1.13157   1.13525   25.210
 5175.00    1.16655   1.17081   25.334
 5176.00    1.18939   1.19569   25.469
 5177.00    1.19527   1.20737   25.395
 5178.00    1.18485   1.20403   25.241
 5179.00    1.16327   1.18659   25.299
 5180.00    1.13746   1.15854   25.616
 5181.00    1.11493   1.12695   25.993
 5182.00    1.10238   1.10442   26.075
 5183.00    1.10389   1.10248   25.738
 5184.00    1.11919   1.12065   25.428
 5185.00    1.14643   1.14887   25.498
 5186.00    1.18409   1.17783   25.734
 5187.00    1.22559   1.20328   25.843
 5188.00    1.25694   1.22300   25.841
 5189.00    1.26916   1.23287   25.784
 5190.00    1.26527   1.23162    0.000
 5191.00    1.25498   1.22667    0.000
 5192.00    1.24930   1.22569    0.000
 5193.00    1.25123   1.22885    0.000
 5194.00    1.25568   1.23559    0.000
 5195.00    1.26344   1.24714    0.000
 5196.00    1.28095   1.26187    0.000
 5197.00    1.30468   1.27649    0.000
 5198.00    1.32172   1.28757    0.000
 5199.00    1.32288   1.29131    0.000
 5200.00    1.30649   1.28598    0.000
 5201.00    1.27890   1.27255    0.000
 5202.00    1.25034   1.25203    0.000
 5203.00    1.22789   1.22633    0.000
 5204.00    1.21393   1.20158    0.000
 5205.00    1.20611   1.18436    0.000
 5206.00    1.20231   1.17610    0.000
 5207.00    1.20590   1.17713    0.000
 5208.00    1.21986   1.18918    0.000
 5209.00    1.24109   1.21029    0.000
 5210.00    1.26435   1.23555    0.000
 5211.00    1.28591   1.26036   25.377
 5212.00    1.30287   1.28013   25.556
 5213.00    1.31293   1.29268   25.533
 5214.00    1.31627   1.30037   25.568
 5215.00    1.31638   1.30760   25.879
 5216.00    1.31892   1.31657   26.287
 5217.00    1.32868   1.32614   26.251
 5218.00    1.34082   1.33300   25.875
 5219.00    1.34260   1.33416   25.849
 5220.00    1.32924   1.32803   26.169
 5221.00    1.30593   1.31373   26.203
 5222.00    1.27939   1.29179   25.911
 5223.00    1.25511   1.26539   25.775
 5224.00    1.23669   1.23971   25.907
 5225.00    1.22664   1.22106   26.053
 5226.00    1.22808   1.21603   25.913
 5227.00    1.24146   1.22512   25.428
 5228.00    1.25972   1.24110   25.034
 5229.00    1.27460   1.25791   25.115
 5230.00    1.28495   1.27268   25.461
 5231.00    1.29335   1.28372   25.636
 5232.00    1.30162   1.29325   -2.000
 5233.00    1.31205   1.30460   -2.000
 5234.00    1.32825   1.31833   -2.000
 5235.00    1.35167   1.33394   -2.000
 5236.00    1.37887   1.34971   -2.000
 5237.00    1.40136   1.36364   -2.000
 5238.00    1.40819   1.37506   -2.000
 5239.00    1.39854   1.38358   -2.000
 5240.00    1.38401   1.38805   -2.000
 5241.00    1.37251   1.38774   -2.000
 5242.00    1.36355   1.38381   -2.000
 5243.00    1.35521   1.37680   -2.000
 5244.00    1.34663   1.36471   -2.000
 5245.00    1.33781   1.34746   -2.000
 5246.00    1.32925   1.33016   -2.000
 5247.00    1.32121   1.31674   23.833
 5248.00    1.31367   1.30606   24.074
 5249.00    1.30667   1.29857   24.421
 5250.00    1.30091   1.29769   24.687
 5251.00    1.29856   1.30332   24.987
 5252.00    1.30202   1.31207   25.487
 5253.00    1.31231   1.32183   25.928
 5254.00    1.32884   1.33340   25.954
 5255.00    1.34944   1.34700   25.617
 5256.00    1.36962   1.35757   25.186
 5257.00    1.38216   1.35868   24.873
 5258.00    1.37948   1.34729   24.827
 5259.00    1.35653   1.32349   25.152
 5260.00    1.31732   1.28969   25.799
 5261.00    1.27596   1.24957   26.516
 5262.00    1.24094   1.20757   27.071
 5263.00    1.20928   1.16859   27.429
 5264.00    1.17833   1.13746   27.692
 5265.00    1.15068   1.11806   27.993
 5266.00    1.13277   1.10983   28.240
 5267.00    1.13096   1.10673   28.174
 5268.00    1.14216   1.10795   27.866
 5269.00    1.15727   1.12093   27.624
 5270.00    1.17598   1.14704   27.443
 5271.00    1.20402   1.17758   27.147
 5272.00    1.23992   1.20632   26.875
 5273.00    1.27601   1.23304   26.824
 5274.00    1.30497   1.25933   26.731
 5275.00    1.32375   1.28655   26.275
 5276.00    1.33703   1.31119   25.716
 5277.00    1.35006   1.32716   25.495
 5278.00    1.36026   1.33379   25.789
 5279.00    1.36306   1.33478   26.519
 5280.00    1.35842   1.33415   27.315
 5281.00    1.35151   1.33477   27.750
 5282.00    1.35146   1.33887   27.651
 5283.00    1.36309   1.35007   27.149
 5284.00    1.38271   1.36976   26.578
 5285.00    1.40627   1.39265   26.244
 5286.00    1.43284   1.41274   26.299
 5287.00    1.45880   1.42866   26.492
 5288.00    1.47657   1.44092   26.273
 5289.00    1.48057   1.44786   25.772
 5290.00    1.47002   1.44612   25.692
 5291.00    1.45013   1.43499   26.051
 5292.00    1.42901   1.41773   26.253
 5293.00    1.40892   1.39744   26.238
 5294.00    1.38775   1.37428   26.414
 5295.00    1.36711   1.34899   26.724
 5296.00    1.35097   1.32693   26.792
 5297.00    1.34025   1.31562   26.612
 5298.00    1.33528   1.31716   26.396
 5299.00    1.34065   1.32635   26.174
 5300.00    1.35882   1.33945   25.956
 5301.00    1.38230   1.35769   25.979
 5302.00    1.40219   1.38088   26.299
 5303.00    1.41768   1.40454   26.418
 5304.00    1.43183   1.42349   26.042
 5305.00    1.44692   1.43618   25.688
 5306.00    1.46260   1.44491   25.750
 5307.00    1.47526   1.45217   25.979
 5308.00    1.48083   1.45726   25.992
 5309.00    1.47709   1.45799   25.693
 5310.00    1.46591   1.45425   25.680
 5311.00    1.45319   1.44758   26.792
 5312.00    1.44438   1.43928   27.415
 5313.00    1.44163   1.43030   24.873
 5314.00    1.44090   1.42046   24.211
 5315.00    1.43520   1.41041   33.106
 5316.00    1.42568   1.40236   34.000
 5317.00    1.41951   1.39612   13.903
 5318.00    1.41765   1.38943    7.594
 5319.00    1.41497   1.38090    6.494
 5320.00    1.40594   1.36885    7.015
 5321.00    1.38806   1.35132    7.428
 5322.00    1.36512   1.32834    7.342
 5323.00    1.34263   1.30345    7.391
 5324.00    1.32139   1.28100    7.568
 5325.00    1.30021   1.26026    7.638
 5326.00    1.27988   1.24049    7.830
 5327.00    1.26460   1.22951    8.160
 5328.00    1.26186   1.23666    7.814
 5329.00    1.27519   1.25866    7.180
 5330.00    1.29965   1.28470    8.286
 5331.00    1.32835   1.30912   14.872
 5332.00    1.35670   1.33247   34.069
 5333.00    1.38120   1.35398   31.869
 5334.00    1.39893   1.36843   23.559
 5335.00    1.40863   1.37288   24.050
 5336.00    1.41105   1.37011   26.223
 5337.00    1.40824   1.36357   25.665
 5338.00    1.40257   1.35413   24.865
 5339.00    1.39460   1.34481   25.111
 5340.00    1.38401   1.34157   -2.000
 5341.00    1.37352   1.34484   -2.000
 5342.00    1.36847   1.34930   -2.000
 5343.00    1.37402   1.35195   -2.000
 5344.00    1.38926   1.35344   -2.000
 5345.00    1.39963   1.35612   -2.000
 5346.00    1.39459   1.36032   -2.000
 5347.00    1.39189   1.36433   -2.000
 5348.00    1.41002   1.37077   -2.000
 5349.00    1.43486   1.38370   -2.000
 5350.00    1.44626   1.40198   -2.000
 5351.00    1.44624   1.42150   -2.000
 5352.00    1.44579   1.44038   -2.000
 5353.00    1.45193   1.45907   -2.000
 5354.00    1.46587   1.47561   -2.000
 5355.00    1.48317   1.48648   -2.000
 5356.00    1.49760   1.49080   -2.000
 5357.00    1.50401   1.48933   -2.000
 5358.00    1.50139   1.48255   -2.000
 5359.00    1.49300   1.47042   -2.000
 5360.00    1.48172   1.45364   -2.000
 5361.00    1.46846   1.43493   -2.000
 5362.00    1.45289   1.41650   -2.000
 5363.00    1.43448   1.39758   27.151
 5364.00    1.41435   1.37807   27.545
 5365.00    1.39457   1.35990   27.735
 5366.00    1.37574   1.34383   27.841
 5367.00    1.35800   1.33012   28.040
 5368.00    1.34374   1.31866   28.260
 5369.00    1.33643   1.31130   28.279
 5370.00    1.33825   1.31328   27.984
 5371.00    1.35022   1.32715   27.482
 5372.00    1.37241   1.34872   27.100
 5373.00    1.40041   1.37078   27.014
 5374.00    1.42259   1.38973   26.982
 5375.00    1.43033   1.40429   26.772
 5376.00    1.42617   1.41440   26.502
 5377.00    1.41714   1.42019   26.241
 5378.00    1.40929   1.42087   25.822
 5379.00    1.40612   1.41739   25.403
 5380.00    1.40823   1.41275   25.512
 5381.00    1.41476   1.40878   25.944
 5382.00    1.42387   1.40590   25.627
 5383.00    1.43177   1.40456   24.622
 5384.00    1.43385   1.40305   24.176
 5385.00    1.42957   1.39893   24.731
 5386.00    1.42224   1.39190   25.858
 5387.00    1.41369   1.38215   26.893
 5388.00    1.40395   1.37007   27.247
 5389.00    1.39379   1.35683   26.980
 5390.00    1.38478   1.34333   26.627
 5391.00    1.37818   1.33055   26.507
 5392.00    1.37365   1.31968   26.548
 5393.00    1.36784   1.31111   26.255
 5394.00    1.35752   1.30400   25.564
 5395.00    1.34394   1.29737   25.631
 5396.00    1.33204   1.29398   26.676
 5397.00    1.32823   1.29654   25.915
 5398.00    1.33352   1.30023   24.024
 5399.00    1.33883   1.29968   27.884
 5400.00    1.33662   1.29592   37.362
 5401.00    1.32881   1.29018   21.085
 5402.00    1.31949   1.28001    9.887
 5403.00    1.31017   1.26518    7.193
 5404.00    1.30194   1.25173    7.271
 5405.00    1.29650   1.24675    7.918
 5406.00    1.29494   1.25092    7.888
 5407.00    1.29760   1.25897    7.585
 5408.00    1.30540   1.26833    7.546
 5409.00    1.31952   1.28260    7.767
 5410.00    1.33908   1.30416    7.662
 5411.00    1.36118   1.32795    6.897
 5412.00    1.38279   1.34755    6.839
 5413.00    1.40092   1.36222    9.767
 5414.00    1.41195   1.37509   22.892
 5415.00    1.41399   1.38731   40.000
 5416.00    1.41069   1.39539   27.977
 5417.00    1.40735   1.39650   24.048
 5418.00    1.40488   1.39244   26.980
 5419.00    1.40203   1.38724   28.798
 5420.00    1.39884   1.38386   27.827
 5421.00    1.39573   1.38138   27.197
 5422.00    1.39232   1.37609   27.348
 5423.00    1.38919   1.36930   27.582
 5424.00    1.38873   1.36644   27.507
 5425.00    1.39123   1.36663   27.201
 5426.00    1.39297   1.36316   27.098
 5427.00    1.39089   1.35163   27.317
 5428.00    1.38478   1.33596   27.467
 5429.00    1.37475   1.32541   27.356
 5430.00    1.36094   1.32065   27.227
 5431.00    1.34701   1.31526   27.217
 5432.00    1.33971   1.31032   27.217
 5433.00    1.34303   1.31163   27.069
 5434.00    1.35649   1.32205   26.703
 5435.00    1.37548   1.33966   26.297
 5436.00    1.39401   1.36073   26.119
 5437.00    1.41012   1.38304   26.197
 5438.00    1.42417   1.40301   26.351
 5439.00    1.43389   1.41659   26.322
 5440.00    1.43612   1.42160   26.020
 5441.00    1.43078   1.41853   25.784
 5442.00    1.42007   1.40903   25.931
 5443.00    1.40674   1.39383   26.246
 5444.00    1.39369   1.37530   26.371
 5445.00    1.38360   1.35849   26.273
 5446.00    1.37796   1.34986   26.095
 5447.00    1.37626   1.35107   25.933
 5448.00    1.37677   1.35542   25.681
 5449.00    1.37736   1.35733   25.057
 5450.00    1.37733   1.35687   24.212
 5451.00    1.37770   1.35567   23.747
 5452.00    1.37748   1.35294   23.765
 5453.00    1.37328   1.34690   23.737
 5454.00    1.36497   1.34039   23.398
 5455.00    1.35659   1.34014   22.966
 5456.00    1.35117   1.34663   22.642
 5457.00    1.34926   1.35346   22.499
 5458.00    1.34967   1.35718   22.626
 5459.00    1.35064   1.35832   23.098
 5460.00    1.35194   1.35788   23.763
 5461.00    1.35464   1.35552   24.301
 5462.00    1.35970   1.35285   24.524
 5463.00    1.36677   1.35348   24.481
 5464.00    1.37284   1.35607   24.421
 5465.00    1.37412   1.35771   24.545
 5466.00    1.36899   1.35917   24.748
 5467.00    1.35984   1.36016   24.875
 5468.00    1.35388   1.35829   25.036
 5469.00    1.35456   1.35224   25.312
 5470.00    1.35497   1.34261   25.498
 5471.00    1.34819   1.33038   25.569
 5472.00    1.33475   1.31686   25.950
 5473.00    1.31805   1.30491   26.652
 5474.00    1.30113   1.29392   26.894
 5475.00    1.28723   1.28253   26.808
 5476.00    1.27957   1.27689   27.659
 5477.00    1.27843   1.28125   28.335
 5478.00    1.28136   1.29002   26.133
 5479.00    1.28796   1.29694   25.725
 5480.00    1.29969   1.30310   35.486
 5481.00    1.31433   1.31320   37.554
 5482.00    1.32670   1.32614   15.183
 5483.00    1.33466   1.33756    8.138
 5484.00    1.33942   1.34499    6.865
 5485.00    1.34327   1.34795    7.327
 5486.00    1.34747   1.34824    7.645
 5487.00    1.35007   1.34898    7.428
 5488.00    1.34897   1.35073    7.361
 5489.00    1.34650   1.35190    7.427
 5490.00    1.34583   1.35265    7.378
 5491.00    1.34615   1.35274    7.439
 5492.00    1.34581   1.35239    7.660
 5493.00    1.34547   1.35385    7.348
 5494.00    1.34634   1.35636    6.813
 5495.00    1.34840   1.35624    7.912
 5496.00    1.35043   1.35352   14.528
 5497.00    1.35032   1.35284   38.371
 5498.00    1.34714   1.35398   39.062
 5499.00    1.34178   1.35103   27.048
 5500.00    1.33527   1.34285   26.911
 5501.00    1.32839   1.33532   29.412
 5502.00    1.32350   1.33162   28.885
 5503.00    1.32365   1.32880   27.665
 5504.00    1.32772   1.32410   27.344
 5505.00    1.33148   1.31888   27.060
 5506.00    1.33426   1.31696   26.497
 5507.00    1.33792   1.31754   26.054
 5508.00    1.34115   1.31624   25.820
 5509.00    1.34109   1.31292   25.673
 5510.00    1.33831   1.30951   25.717
 5511.00    1.33512   1.30753   26.105
 5512.00    1.33172   1.30946   26.682
 5513.00    1.32829   1.31564   27.181
 5514.00    1.32783   1.32485   27.604
 5515.00    1.33332   1.33625   28.052
 5516.00    1.34445   1.34937   28.456
 5517.00    1.35830   1.36336   28.561
 5518.00    1.37071   1.37451   28.043
 5519.00    1.37932   1.38040   27.152
 5520.00    1.38504   1.38182   26.749
 5521.00    1.38783   1.37930   27.062
 5522.00    1.38501   1.37265   27.365
 5523.00    1.37611   1.36287   27.333
 5524.00    1.36453   1.35194   27.496
 5525.00    1.35406   1.34138   27.954
 5526.00    1.34735   1.33188   28.110
 5527.00    1.34562   1.32566   27.760
 5528.00    1.34816   1.32594   27.291
 5529.00    1.35144   1.33073   26.995
 5530.00    1.35139   1.33554   26.881
 5531.00    1.34900   1.33932   26.653
 5532.00    1.34821   1.34316   25.990
 5533.00    1.34946   1.34696   25.022
 5534.00    1.35095   1.35045   24.103
 5535.00    1.35265   1.35520   23.440
 5536.00    1.35571   1.36038   23.161
 5537.00    1.36080   1.36469   23.440
 5538.00    1.36709   1.36956   24.323
 5539.00    1.37168   1.37499   25.459
 5540.00    1.37329   1.37858   26.368
 5541.00    1.37504   1.37906   26.916
 5542.00    1.37969   1.37863   27.176
 5543.00    1.38629   1.38026   27.201
 5544.00    1.39337   1.38331   27.049
 5545.00    1.40055   1.38644   26.805
 5546.00    1.40605   1.39123   26.594
 5547.00    1.40658   1.39761   26.542
 5548.00    1.40296   1.40234   26.627
 5549.00    1.40033   1.40421   26.648
 5550.00    1.40010   1.40387   26.368
 5551.00    1.39921   1.40118   25.676
 5552.00    1.39642   1.39593   24.831
 5553.00    1.39317   1.38978   24.231
 5554.00    1.39080   1.38489   23.974
 5555.00    1.38936   1.38101   23.967
 5556.00    1.38672   1.37637   24.223
 5557.00    1.38032   1.37149   24.768
 5558.00    1.37043   1.36773   25.394
 5559.00    1.35904   1.36373   25.817
 5560.00    1.34779   1.35798   26.042
 5561.00    1.33826   1.35104   26.292
 5562.00    1.33252   1.34493   26.786
 5563.00    1.33153   1.34036   27.496
 5564.00    1.33369   1.33562   27.945
 5565.00    1.33720   1.33145   27.864
 5566.00    1.34170   1.32949   27.729
 5567.00    1.34668   1.32871   27.858
 5568.00    1.35054   1.32841   27.936
 5569.00    1.35241   1.33052   27.746
 5570.00    1.35299   1.33457   27.509
 5571.00    1.35363   1.33671   27.400
 5572.00    1.35579   1.33916   27.369
 5573.00    1.36093   1.34578   27.324
 5574.00    1.36967   1.35264   27.201
 5575.00    1.37937   1.35661   26.965
 5576.00    1.38520   1.35999   26.636
 5577.00    1.38475   1.36292   26.333
 5578.00    1.37912   1.36372   26.212
 5579.00    1.37253   1.36168   26.332
 5580.00    1.36820   1.35508   26.593
 5581.00    1.36178   1.34401   26.675
 5582.00    1.34772   1.33059   26.393
 5583.00    1.32990   1.31495   26.188
 5584.00    1.31517   1.29713   26.473
 5585.00    1.30374   1.27903   26.868
 5586.00    1.29335   1.26403   26.887
 5587.00    1.28465   1.25507   26.776
 5588.00    1.28013   1.25217   26.809
 5589.00    1.28224   1.25524   26.710
 5590.00    1.29006   1.26350   26.360
 5591.00    1.29796   1.27391   26.187
 5592.00    1.30213   1.28376   26.393
 5593.00    1.30385   1.29229   26.660
 5594.00    1.30605   1.30117   26.797
 5595.00    1.31087   1.30834   26.970
 5596.00    1.31654   1.30840   27.198
 5597.00    1.31850   1.30300   27.250
 5598.00    1.31681   1.29945   27.147
 5599.00    1.31632   1.29943   27.163
 5600.00    1.32016   1.30043   27.364
 5601.00    1.32877   1.30430   27.587
 5602.00    1.34185   1.31480   27.702
 5603.00    1.35880   1.33206   27.684
 5604.00    1.37873   1.35109   27.633
 5605.00    1.39942   1.36799   27.591
 5606.00    1.41609   1.38197   27.308
 5607.00    1.42347   1.39229   26.693
 5608.00    1.41904   1.39692   26.316
 5609.00    1.40473   1.39412   26.571
 5610.00    1.38768   1.38553   26.947
 5611.00    1.37370   1.37433   26.915
 5612.00    1.36188   1.36067   26.817
 5613.00    1.35013   1.34265   26.995
 5614.00    1.33944   1.32385   27.165
 5615.00    1.33225   1.31346   27.069
 5616.00    1.33068   1.31219   26.851
 5617.00    1.33379   1.31193   26.615
 5618.00    1.33735   1.31002   26.269
 5619.00    1.33886   1.31001   25.924
 5620.00    1.33898   1.31324   25.879
 5621.00    1.33882   1.31578   26.115
 5622.00    1.33881   1.31400   26.260
 5623.00    1.33888   1.31034   26.055
 5624.00    1.33939   1.31162   25.500
 5625.00    1.34328   1.31950   24.770
 5626.00    1.35358   1.32900   24.091
 5627.00    1.36750   1.33802   23.632
 5628.00    1.37908   1.34816   23.475
 5629.00    1.38557   1.35780   23.585
 5630.00    1.38714   1.36317   23.894
 5631.00    1.38477   1.36309   24.398
 5632.00    1.37952   1.35884   25.079
 5633.00    1.37195   1.35213   25.782
 5634.00    1.36344   1.34409   26.287
 5635.00    1.35704   1.33492   26.449
 5636.00    1.35440   1.32587   26.360
 5637.00    1.35362   1.31993   26.367
 5638.00    1.35191   1.31758   26.677
 5639.00    1.34776   1.31593   27.137
 5640.00    1.34185   1.31454   27.463
 5641.00    1.33688   1.31659   27.458
 5642.00    1.33523   1.32183   27.301
 5643.00    1.33760   1.32685   27.420
 5644.00    1.34225   1.33115   27.620
 5645.00    1.34569   1.33597   -2.000
 5646.00    1.34544   1.34149   -2.000
 5647.00    1.34086   1.34555   -2.000
 5648.00    1.33284   1.34654   -2.000
 5649.00    1.32283   1.34561   -2.000
 5650.00    1.31088   1.34480   -2.000
 5651.00    1.29696   1.34274   -2.000
 5652.00    1.28396   1.33554   -2.000
 5653.00    1.27496   1.32309   -2.000
 5654.00    1.26875   1.31145   -2.000
 5655.00    1.26279   1.30376   -2.000
 5656.00    1.25754   1.29388   -2.000
 5657.00    1.25489   1.28086   -2.000
 5658.00    1.25581   1.27523   -2.000
 5659.00    1.26001   1.28001   -2.000
 5660.00    1.26610   1.28527   -2.000
 5661.00    1.27316   1.28783   -2.000
 5662.00    1.28174   1.29386   -2.000
 5663.00    1.29314   1.30466   -2.000
 5664.00    1.30827   1.31429   25.792
 5665.00    1.32508   1.31978   25.650
 5666.00    1.33813   1.32398   25.818
 5667.00    1.34222   1.33063   26.050
 5668.00    1.33551   1.33921   26.103
 5669.00    1.32437   1.34723   26.083
 5670.00    1.32060   1.35490   26.300
 5671.00    1.32948   1.36434   26.535
 5672.00    1.34788   1.37409   26.224
 5673.00    1.36795   1.37988   25.467
 5674.00    1.38159   1.38159   24.793
 5675.00    1.38713   1.38254   24.403
 5676.00    1.38719   1.38154   24.267
 5677.00    1.38325   1.37512   24.368
 5678.00    1.37534   1.36570   24.709
 5679.00    1.36287   1.35746   25.272
 5680.00    1.34737   1.34892   25.852
 5681.00    1.33486   1.33775   25.923
 5682.00    1.33072   1.32791   25.337
 5683.00    1.33498   1.32307   24.806
 5684.00    1.34457   1.32115   24.758
 5685.00    1.35564   1.31958   24.801
 5686.00    1.36557   1.31983   24.611
 5687.00    1.37388   1.32462   24.387
 5688.00    1.38069   1.33302   24.178
 5689.00    1.38597   1.34201   23.702
 5690.00    1.38968   1.35008   23.030
 5691.00    1.39181   1.35794   22.599
 5692.00    1.39225   1.36358   22.540
 5693.00    1.39067   1.36475   22.697
 5694.00    1.38618   1.36283   23.146
 5695.00    1.37796   1.35890   24.122
 5696.00    1.36700   1.35133   25.381
 5697.00    1.35503   1.34055   26.254
 5698.00    1.34171   1.33093   26.614
 5699.00    1.32635   1.32258   26.822
 5700.00    1.31169   1.31266   26.909
 5701.00    1.30108   1.30307   26.732
 5702.00    1.29399   1.29631   26.418
 5703.00    1.28783   1.28979   26.215
 5704.00    1.28099   1.28062   26.263
 5705.00    1.27347   1.27079   26.539
 5706.00    1.26700   1.26298   26.825
 5707.00    1.26301   1.25708   26.869
 5708.00    1.26130   1.25457   26.562
 5709.00    1.26212   1.25800   26.011
 5710.00    1.26737   1.26559   25.485
 5711.00    1.27869   1.27676   25.118
 5712.00    1.29632   1.29303   24.855
 5713.00    1.31869   1.31110   24.749
 5714.00    1.34265   1.32763   24.979
 5715.00    1.36519   1.34313   25.428
 5716.00    1.38420   1.35738   25.701
 5717.00    1.39906   1.36936   25.820
 5718.00    1.40996   1.37947   26.149
 5719.00    1.41584   1.38767   26.508
 5720.00    1.41541   1.39391   26.381
 5721.00    1.41049   1.39802   26.004
 5722.00    1.40463   1.39922   25.924
 5723.00    1.39947   1.39844   25.901
 5724.00    1.39482   1.39675   25.548
 5725.00    1.38998   1.39255   25.408
 5726.00    1.38538   1.38581   26.029
 5727.00    1.38398   1.38130   26.796
 5728.00    1.38705   1.38028   26.920
 5729.00    1.39025   1.37863   26.829
 5730.00    1.38974   1.37552   27.026
 5731.00    1.38730   1.37543   27.058
 5732.00    1.38642   1.37921   26.561
 5733.00    1.38906   1.38264   25.968
 5734.00    1.39421   1.38400   25.730
 5735.00    1.39828   1.38482   25.946
 5736.00    1.40053   1.38573   26.429
 5737.00    1.40407   1.38575   26.776
 5738.00    1.40876   1.38457   26.751
 5739.00    1.41040   1.38340   26.472
 5740.00    1.40750   1.38280    0.000
 5741.00    1.40239   1.38177    0.000
 5742.00    1.39773   1.37972    0.000
 5743.00    1.39499   1.37804    0.000
 5744.00    1.39318   1.37752    0.000
 5745.00    1.39026   1.37599    0.000
 5746.00    1.38614   1.37106    0.000
 5747.00    1.38175   1.36429    0.000
 5748.00    1.37669   1.35911    0.000
 5749.00    1.37006   1.35523    0.000
 5750.00    1.36224   1.35058    0.000
 5751.00    1.35512   1.34535    0.000
 5752.00    1.35184   1.34169    0.000
 5753.00    1.35352   1.34152    0.000
 5754.00    1.35697   1.34482    0.000
 5755.00    1.36000   1.34875    0.000
 5756.00    1.36468   1.35070    0.000
 5757.00    1.37161   1.35103    0.000
 5758.00    1.37676   1.35067    0.000
 5759.00    1.37551   1.35009    0.000
 5760.00    1.36561   1.34929    0.000
 5761.00    1.35043   1.34932    0.000
 5762.00    1.33847   1.35290    0.000
 5763.00    1.33707   1.36128    0.000
 5764.00    1.34891   1.37073    0.000
 5765.00    1.36878   1.37834    0.000
 5766.00    1.38671   1.38459    0.000
 5767.00    1.39767   1.38913    0.000
 5768.00    1.40201   1.39052    0.000
 5769.00    1.40161   1.38881    0.000
 5770.00    1.39857   1.38508    0.000
 5771.00    1.39454   1.38063    0.000
 5772.00    1.39075   1.37648    0.000
 5773.00    1.38811   1.37195    0.000
 5774.00    1.38589   1.36630    0.000
 5775.00    1.38044   1.35917    0.000
 5776.00    1.36935   1.34960    0.000
 5777.00    1.35506   1.33808    0.000
 5778.00    1.34076   1.32511    0.000
 5779.00    1.32701   1.30955    0.000
 5780.00    1.31306   1.29311    0.000
 5781.00    1.29848   1.28211    0.000
 5782.00    1.28558   1.27787    0.000
 5783.00    1.27955   1.27608    0.000
 5784.00    1.28224   1.27683    0.000
 5785.00    1.29080   1.28401    0.000
 5786.00    1.30314   1.29590    0.000
 5787.00    1.31898   1.30767    0.000
 5788.00    1.33662   1.31840    0.000
 5789.00    1.35287   1.32819    0.000
 5790.00    1.36570   1.33728    0.000
 5791.00    1.37484   1.34601    0.000
 5792.00    1.38148   1.35273    0.000
 5793.00    1.38745   1.35755    0.000
 5794.00    1.39386   1.36324    0.000
 5795.00    1.40069   1.36877    0.000
 5796.00    1.40655   1.37157    0.000
 5797.00    1.40985   1.37435    0.000
 5798.00    1.41023   1.37968    0.000
 5799.00    1.40828   1.38388    0.000
 5800.00    1.40498   1.38467    0.000
 5801.00    1.40094   1.38441    0.000
 5802.00    1.39595   1.38339    0.000
 5803.00    1.39014   1.38000    0.000
 5804.00    1.38461   1.37610    0.000
 5805.00    1.38047   1.37415    0.000
 5806.00    1.37835   1.37365    0.000
 5807.00    1.37856   1.37349    0.000
 5808.00    1.38108   1.37426    0.000
 5809.00    1.38506   1.37612    0.000
 5810.00    1.38887   1.37718    0.000
 5811.00    1.39088   1.37630    0.000
 5812.00    1.39055   1.37541    0.000
 5813.00    1.39038   1.37557    0.000
 5814.00    1.39314   1.37541    0.000
 5815.00    1.39443   1.37559    0.000
 5816.00    1.38733   1.37905    0.000
 5817.00    1.37420   1.38525    0.000
 5818.00    1.36412   1.39076    0.000
 5819.00    1.36507   1.39527    0.000
 5820.00    1.37874   1.40000    0.000
 5821.00    1.39625   1.40373    0.000
 5822.00    1.40777   1.40536    0.000
 5823.00    1.41302   1.40626    0.000
 5824.00    1.41497   1.40752    0.000
 5825.00    1.41348   1.40804    0.000
 5826.00    1.40748   1.40753    0.000
 5827.00    1.39729   1.40722    0.000
 5828.00    1.38661   1.40726    0.000
 5829.00    1.38221   1.40579    0.000
 5830.00    1.38680   1.40281    0.000
 5831.00    1.39639   1.40056    0.000
 5832.00    1.40556   1.39878    0.000
 5833.00    1.41037   1.39551    0.000
 5834.00    1.41021   1.39284    0.000
 5835.00    1.40793   1.39353    0.000
 5836.00    1.40793   1.39530    0.000
 5837.00    1.41395   1.39591    0.000
 5838.00    1.42493   1.39779    0.000
 5839.00    1.43580   1.40145    0.000
 5840.00    1.44124   1.40368    0.000
 5841.00    1.43749   1.40315    0.000
 5842.00    1.42419   1.40110    0.000
 5843.00    1.40443   1.39765    0.000
 5844.00    1.38423   1.39237    0.000
 5845.00    1.36978   1.38572    0.000
 5846.00    1.36434   1.37835    0.000
 5847.00    1.36727   1.37058    0.000
 5848.00    1.37382   1.36256    0.000
 5849.00    1.37829   1.35484    0.000
 5850.00    1.37670   1.34725    0.000
 5851.00    1.36820   1.33838    0.000
 5852.00    1.35543   1.32807    0.000
 5853.00    1.34158   1.31953    0.000
 5854.00    1.32878   1.31415    0.000
 5855.00    1.31776   1.30925    0.000
 5856.00    1.30855   1.30432    0.000
 5857.00    1.30318   1.30297    0.000
 5858.00    1.30496   1.30658    0.000
 5859.00    1.31330   1.31228    0.000
 5860.00    1.32345   1.31802    0.000
 5861.00    1.33033   1.32313    0.000
 5862.00    1.33111   1.32886    0.000
 5863.00    1.32844   1.33602    0.000
 5864.00    1.32779   1.34255    0.000
 5865.00    1.33176   1.34658    0.000
 5866.00    1.33944   1.35052    0.000
 5867.00    1.34729   1.35622    0.000
 5868.00    1.35244   1.36129    0.000
 5869.00    1.35623   1.36452    0.000
 5870.00    1.36055   1.36687    0.000
 5871.00    1.36406   1.36786    0.000
 5872.00    1.36451   1.36682    0.000
 5873.00    1.36114   1.36495    0.000
 5874.00    1.35516   1.36187    0.000
 5875.00    1.34934   1.35603    0.000
 5876.00    1.34432   1.34923    0.000
 5877.00    1.33744   1.34324    0.000
 5878.00    1.32758   1.33627    0.000
 5879.00    1.31666   1.32707    0.000
 5880.00    1.30626   1.31794    0.000
 5881.00    1.29624   1.30830    0.000
 5882.00    1.28533   1.29418    0.000
 5883.00    1.27143   1.27379    0.000
 5884.00    1.25215   1.24723    0.000
 5885.00    1.22609   1.21534    0.000
 5886.00    1.19550   1.18160    0.000
 5887.00    1.16470   1.14731    0.000
 5888.00    1.13612   1.11201    0.000
 5889.00    1.11122   1.08325    0.000
 5890.00    1.09291   1.06836    0.000
 5891.00    1.08435   1.06220    0.000
 5892.00    1.08682   1.06186    0.000
 5893.00    1.09937   1.07050    0.000
 5894.00    1.11906   1.08407    0.000
 5895.00    1.14254   1.10117    0.000
 5896.00    1.16760   1.12860    0.000
 5897.00    1.19267   1.16151    0.000
 5898.00    1.21640   1.19030    0.000
 5899.00    1.23773   1.21818    0.000
 5900.00    1.25603   1.24794    0.000
 5901.00    1.27145   1.27256   28.144
 5902.00    1.28488   1.28976   27.881
 5903.00    1.29706   1.30321   27.704
 5904.00    1.30816   1.31282   27.446
 5905.00    1.31751   1.31857   27.299
 5906.00    1.32421   1.32325   27.655
 5907.00    1.32906   1.32711   28.283
 5908.00    1.33352   1.32785   28.455
 5909.00    1.33574   1.32624   28.148
 5910.00    1.33240   1.32464   27.920
 5911.00    1.32408   1.32238   27.963
 5912.00    1.31429   1.31812   28.165
 5913.00    1.30604   1.31368   28.490
 5914.00    1.30116   1.31190   28.945
 5915.00    1.30024   1.31263   29.467
 5916.00    1.30302   1.31489   29.888
 5917.00    1.30879   1.31812   29.956
 5918.00    1.31646   1.32252   29.604
 5919.00    1.32453   1.32775   29.154
 5920.00    1.33162   1.33209   28.910
 5921.00    1.33696   1.33470   28.906
 5922.00    1.34086   1.33650   29.080
 5923.00    1.34466   1.33755   29.363
 5924.00    1.34874   1.33685   29.539
 5925.00    1.35179   1.33472   29.295
 5926.00    1.35292   1.33226   28.842
 5927.00    1.35227   1.32995   28.838
 5928.00    1.34972   1.32724   29.337
 5929.00    1.34497   1.32415   29.744
 5930.00    1.33956   1.32312   29.907
 5931.00    1.33611   1.32461   30.206
 5932.00    1.33471   1.32567   30.659
 5933.00    1.33329   1.32551   30.885
 5934.00    1.33035   1.32737   30.672
 5935.00    1.32579   1.33120   30.167
 5936.00    1.32120   1.33295   29.857
 5937.00    1.31862   1.33292   30.111
 5938.00    1.31851   1.33410   30.636
 5939.00    1.32012   1.33506   30.845
 5940.00    1.32232   1.33408   30.507
 5941.00    1.32498   1.33367   29.882
 5942.00    1.32994   1.33464   29.578
 5943.00    1.33806   1.33450   29.951
 5944.00    1.34680   1.33297   30.748
 5945.00    1.35221   1.33207   31.343
 5946.00    1.35109   1.33118   31.058
 5947.00    1.34456   1.32776   29.961
 5948.00    1.33866   1.32296   28.906
 5949.00    1.33737   1.32093   28.314
 5950.00    1.33949   1.32062   28.010
 5951.00    1.34020   1.31786   27.942
 5952.00    1.33372   1.31484   28.308
 5953.00    1.31967   1.31626   29.178
 5954.00    1.30385   1.31947   30.342
 5955.00    1.29444   1.32070   31.214
 5956.00    1.29756   1.32261   31.157
 5957.00    1.31004   1.32763   30.457
 5958.00    1.32326   1.33341   29.938
 5959.00    1.33341   1.33831   29.942
 5960.00    1.34134   1.34281   30.313
 5961.00    1.34910   1.34672   30.494
 5962.00    1.35745   1.34991   30.139
 5963.00    1.36362   1.35277   29.862
 5964.00    1.36458   1.35449   30.201
 5965.00    1.36082   1.35574   30.600
 5966.00    1.35499   1.35826   30.386
 5967.00    1.35002   1.36084   29.805
 5968.00    1.34684   1.36198   29.364
 5969.00    1.34342   1.36245   29.299
 5970.00    1.33894   1.36198   29.669
 5971.00    1.33560   1.35891   30.421
 5972.00    1.33458   1.35391   31.307
 5973.00    1.33418   1.34814   31.900
 5974.00    1.33185   1.34150   32.067
 5975.00    1.32585   1.33473   32.050
 5976.00    1.31804   1.32933   31.752
 5977.00    1.31314   1.32531   30.781
 5978.00    1.31364   1.32177   29.274
 5979.00    1.31843   1.31832   27.699
 5980.00    1.32330   1.31508   26.156
 5981.00    1.32386   1.31252   24.671
 5982.00    1.32099   1.30953   23.674
 5983.00    1.31881   1.30626   23.592
 5984.00    1.31936   1.30605   24.406
 5985.00    1.32203   1.30908   25.772
 5986.00    1.32418   1.31167   27.085
 5987.00    1.32407   1.31444   27.735
 5988.00    1.32398   1.31994   27.716
 5989.00    1.32688   1.32572   27.473
 5990.00    1.33306   1.32845   27.472
 5991.00    1.33968   1.33002   27.958
 5992.00    1.34164   1.33201   28.854
 5993.00    1.33730   1.33213   29.894
 5994.00    1.33117   1.32975   30.732
 5995.00    1.32767   1.32681   31.168
 5996.00    1.32764   1.32394   31.301
 5997.00    1.32942   1.32072   31.314
 5998.00    1.33015   1.31767   31.242
 5999.00    1.32859   1.31559   30.666
 6000.00    1.32565   1.31392   29.049
 6001.00    1.32277   1.31116   26.823
 6002.00    1.32082   1.30785   24.927
 6003.00    1.31878   1.30536   23.906
 6004.00    1.31480   1.30271   23.959
 6005.00    1.30900   1.29978   24.954
 6006.00    1.30343   1.29747   26.537
 6007.00    1.30081   1.29553   28.311
 6008.00    1.30263   1.29493   29.742
 6009.00    1.30677   1.29619   30.122
 6010.00    1.30940   1.29708   29.361
 6011.00    1.30775   1.29577   28.593
 6012.00    1.30117   1.29369   28.747
 6013.00    1.29184   1.29328   29.646
 6014.00    1.28413   1.29291   30.627
 6015.00    1.28338   1.28978   31.088
 6016.00    1.29056   1.28651   30.908
 6017.00    1.29956   1.28656   30.605
 6018.00    1.30283   1.28703   30.548
 6019.00    1.29567   1.28612   30.629
 6020.00    1.27958   1.28763   30.698
 6021.00    1.26202   1.29248   30.764
 6022.00    1.24894   1.29728   30.907
 6023.00    1.24231   1.30195   31.214
 6024.00    1.24198   1.30938   31.703
 6025.00    1.24692   1.31748   32.319
 6026.00    1.25659   1.32368   32.980
 6027.00    1.27084   1.33031   33.390
 6028.00    1.28877   1.33790   32.636
 6029.00    1.30806   1.34375   30.278
 6030.00    1.32433   1.34791   27.717
 6031.00    1.33326   1.35239   26.189
 6032.00    1.33405   1.35634   25.521
 6033.00    1.32931   1.35838   25.359
 6034.00    1.32388   1.35924   26.127
 6035.00    1.32182   1.35974   28.227
 6036.00    1.32335   1.35962   30.757
 6037.00    1.32653   1.35868   32.255
 6038.00    1.32927   1.35739   32.753
 6039.00    1.33060   1.35687   -2.000
 6040.00    1.33152   1.35710   -2.000
 6041.00    1.33416   1.35747   -2.000
 6042.00    1.34075   1.35914   -2.000
 6043.00    1.35068   1.36185   -2.000
 6044.00    1.36004   1.36374   -2.000
 6045.00    1.36567   1.36504   -2.000
 6046.00    1.36694   1.36666   -2.000
 6047.00    1.36539   1.36682   -2.000
 6048.00    1.36365   1.36457   -2.000
 6049.00    1.36274   1.36172   -2.000
 6050.00    1.36159   1.35847   -2.000
 6051.00    1.35795   1.35348   24.345
 6052.00    1.34973   1.34759   24.650
 6053.00    1.33735   1.34322   26.401
 6054.00    1.32358   1.34013   29.080
 6055.00    1.31244   1.33719   31.642
 6056.00    1.30713   1.33545   32.972
 6057.00    1.30760   1.33511   33.315
 6058.00    1.31107   1.33489   33.555
 6059.00    1.31328   1.33424   33.641
 6060.00    1.31165   1.33277   33.199
 6061.00    1.30790   1.33049   32.354
 6062.00    1.30618   1.32953   31.469
 6063.00    1.31078   1.33036   30.841
 6064.00    1.32166   1.33139   30.544
 6065.00    1.33300   1.33505   30.430
 6066.00    1.34130   1.34283   30.493
 6067.00    1.34860   1.35097   30.880
 6068.00    1.35689   1.35773   31.004
 6069.00    1.36560   1.36429   29.712
 6070.00    1.37290   1.36954   27.541
 6071.00    1.37649   1.37161   26.049
 6072.00    1.37483   1.37076   25.632
 6073.00    1.36777   1.36722   25.958
 6074.00    1.35736   1.36085   26.926
 6075.00    1.34690   1.35335   28.603
 6076.00    1.33843   1.34555   30.577
 6077.00    1.33242   1.33608   32.021
 6078.00    1.32828   1.32708   32.798
 6079.00    1.32532   1.32152   33.357
 6080.00    1.32394   1.31675   33.705
 6081.00    1.32390   1.31128   33.694
 6082.00    1.32229   1.30866   33.618
 6083.00    1.31708   1.30878   33.712
 6084.00    1.31067   1.30797   33.635
 6085.00    1.30669   1.30640   33.071
 6086.00    1.30692   1.30628   32.246
 6087.00    1.31038   1.30713   31.527
 6088.00    1.31352   1.30671   31.117
 6089.00    1.31431   1.30562   30.932
 6090.00    1.31404   1.30689   30.665
 6091.00    1.31403   1.30978   30.405
 6092.00    1.31438   1.31151   30.638
 6093.00    1.31547   1.31343   31.213
 6094.00    1.31805   1.31656   31.216
 6095.00    1.32169   1.31788   30.324
 6096.00    1.32456   1.31665   29.098
 6097.00    1.32447   1.31382   28.194
 6098.00    1.31992   1.30856   28.034
 6099.00    1.31177   1.30254   28.674
 6100.00    1.30243   1.29769   29.614
 6101.00    1.29374   1.29197   29.363
 6102.00    1.28748   1.28787   27.015
 6103.00    1.28674   1.28989   24.225
 6104.00    1.29332   1.29459   22.531
 6105.00    1.30423   1.29916   22.115
 6106.00    1.31449   1.30492   22.806
 6107.00    1.32080   1.31148   24.423
 6108.00    1.32316   1.31784   26.753
 6109.00    1.32529   1.32312   29.486
 6110.00    1.32880   1.32605   32.056
 6111.00    1.32977   1.32735   33.668
 6112.00    1.32593   1.32821   33.983
 6113.00    1.32015   1.32800   33.576
 6114.00    1.31507   1.32512   33.174
 6115.00    1.31061   1.31946   33.113
 6116.00    1.30591   1.31357   33.095
 6117.00    1.30041   1.30724   32.461
 6118.00    1.29451   1.29870   31.458
 6119.00    1.28919   1.29153   30.986
 6120.00    1.28461   1.28717   31.160
 6121.00    1.28019   1.28283   31.436
 6122.00    1.27588   1.28164   31.543
 6123.00    1.27286   1.28483   31.502
 6124.00    1.27426   1.28735   31.162
 6125.00    1.28254   1.28966   30.432
 6126.00    1.29503   1.29407   29.739
 6127.00    1.30593   1.29739   29.579
 6128.00    1.31016   1.29801   30.026
 6129.00    1.30581   1.29751   30.895
 6130.00    1.29591   1.29470   31.905
 6131.00    1.28474   1.28814   32.767
 6132.00    1.27421   1.27856   33.321
 6133.00    1.26477   1.26720   33.519
 6134.00    1.25666   1.25697   33.389
 6135.00    1.25075   1.24919   33.144
 6136.00    1.24888   1.24331   33.156
 6137.00    1.25284   1.24276   33.530
 6138.00    1.26334   1.24956   33.966
 6139.00    1.27839   1.25959   34.148
 6140.00    1.29338   1.26870   33.961
 6141.00    1.30412   1.27852   33.502
 6142.00    1.30860   1.29007   33.003
 6143.00    1.30840   1.29872   32.675
 6144.00    1.30722   1.30228   32.629
 6145.00    1.30590   1.30398   32.775
 6146.00    1.30294   1.30477   32.906
 6147.00    1.29859   1.30307   32.954
 6148.00    1.29454   1.30007   32.977
 6149.00    1.29188   1.29750   33.040
 6150.00    1.29033   1.29453   33.114
 6151.00    1.28782   1.29129   32.978
 6152.00    1.28178   1.28845   32.576
 6153.00    1.27085   1.28335   32.369
 6154.00    1.25607   1.27574   32.647
 6155.00    1.24138   1.26788   32.922
 6156.00    1.22974   1.25736   32.770
 6157.00    1.22014   1.24244   32.553
 6158.00    1.21079   1.22757   32.689
 6159.00    1.20143   1.21486   33.153
 6160.00    1.19339   1.20235   33.684
 6161.00    1.18869   1.19214   33.968
 6162.00    1.18670   1.18805   34.022
 6163.00    1.18389   1.18960   34.198
 6164.00    1.17968   1.19277   34.439
 6165.00    1.17744   1.19558   34.233
 6166.00    1.17976   1.20139   33.570
 6167.00    1.18666   1.20949   32.983
 6168.00    1.19537   1.21417   32.823
 6169.00    1.20215   1.21761   33.090
 6170.00    1.20664   1.22571   33.378
 6171.00    1.21117   1.23459   33.214
 6172.00    1.21768   1.23982   32.809
 6173.00    1.22657   1.24612   32.633
 6174.00    1.23624   1.25514   32.608
 6175.00    1.24461   1.26161   32.442
 6176.00    1.25130   1.26555   32.171
 6177.00    1.25696   1.27140   32.026
 6178.00    1.26229   1.27689   32.202
 6179.00    1.26798   1.27876   32.700
 6180.00    1.27447   1.28013   33.207
 6181.00    1.28042   1.28138   33.449
 6182.00    1.28206   1.27886   33.491
 6183.00    1.27671   1.27347   33.491
 6184.00    1.26496   1.26750   33.518
 6185.00    1.25040   1.26007   33.556
 6186.00    1.23816   1.25092   33.529
 6187.00    1.22992   1.24151   33.342
 6188.00    1.22339   1.23530   32.963
 6189.00    1.21808   1.23271   32.598
 6190.00    1.21614   1.23049   32.563
 6191.00    1.21873   1.23152   32.805
 6192.00    1.22539   1.23835   32.929
 6193.00    1.23544   1.24579   32.605
 6194.00    1.24722   1.25129   31.844
 6195.00    1.25597   1.25702   31.189
 6196.00    1.25731   1.26270   31.126
 6197.00    1.25332   1.26652   31.342
 6198.00    1.25003   1.26863   31.206
 6199.00    1.25240   1.27064   30.626
 6200.00    1.26079   1.27377   29.842
 6201.00    1.26839   1.27741   29.038
 6202.00    1.26854   1.28047   28.406
 6203.00    1.26175   1.28290   28.196
 6204.00    1.25271   1.28479   28.387
 6205.00    1.24695   1.28510   28.508
 6206.00    1.24696   1.28249   28.409
 6207.00    1.25029   1.27751   28.623
 6208.00    1.25196   1.27053   29.386
 6209.00    1.24688   1.26053   30.235
 6210.00    1.23420   1.24899   30.948
 6211.00    1.21810   1.23765   31.881
 6212.00    1.20344   1.22608   32.958
 6213.00    1.19346   1.21610   33.449
 6214.00    1.18821   1.20919   33.202
 6215.00    1.18525   1.20402   32.815
 6216.00    1.18289   1.20151   32.715
 6217.00    1.18109   1.20228   32.980
 6218.00    1.18150   1.20403   33.431
 6219.00    1.18539   1.20625   33.747
 6220.00    1.19027   1.20983   33.703
 6221.00    1.19280   1.21415   33.320
 6222.00    1.19386   1.21704   32.937
 6223.00    1.19572   1.21792   32.875
 6224.00    1.19775   1.21843   33.102
 6225.00    1.19741   1.21705   33.484
 6226.00    1.19201   1.21219   34.030
 6227.00    1.18208   1.20773   34.726
 6228.00    1.17321   1.20478   35.338
 6229.00    1.16966   1.20097   35.417
 6230.00    1.17062   1.19995   34.447
 6231.00    1.17510   1.20351   32.310
 6232.00    1.18440   1.20706   29.501
 6233.00    1.19874   1.21070   26.968
 6234.00    1.21546   1.21538   25.539
 6235.00    1.22833   1.21708   25.398
 6236.00    1.23001   1.21479   26.351
 6237.00    1.22013   1.21199   28.022
 6238.00    1.20514   1.20723   29.736
 6239.00    1.19005   1.19921   30.770
 6240.00    1.17707   1.19377   30.794
 6241.00    1.16781   1.19070   30.249
 6242.00    1.16360   1.18637   29.975
 6243.00    1.16525   1.18555   30.606
 6244.00    1.17217   1.18887   32.245
 6245.00    1.18135   1.19087   33.694
 6246.00    1.18852   1.19314   33.568
 6247.00    1.19001   1.19659   32.874
 6248.00    1.18434   1.19648   32.988
 6249.00    1.17344   1.19350   33.458
 6250.00    1.16017   1.18975   33.528
 6251.00    1.14615   1.18330   33.588
 6252.00    1.13345   1.17544   34.133
 6253.00    1.12560   1.16905   34.891
 6254.00    1.12520   1.16386   35.083
 6255.00    1.13233   1.16110   33.967
 6256.00    1.14486   1.16258   32.101
 6257.00    1.15895   1.16618   30.925
 6258.00    1.17065   1.17269   30.830
 6259.00    1.17749   1.18346   31.221
 6260.00    1.18165   1.19364   31.725
 6261.00    1.18833   1.20197   32.352
 6262.00    1.19827   1.21175   32.776
 6263.00    1.20765   1.22019   32.283
 6264.00    1.21348   1.22402   30.446
 6265.00    1.21524   1.22720   27.764
 6266.00    1.21533   1.23132   25.638
 6267.00    1.21696   1.23331   24.964
 6268.00    1.22063   1.23449   25.496
 6269.00    1.22480   1.23709   26.678
 6270.00    1.22784   1.23942   28.435
 6271.00    1.22913   1.24118   30.830
 6272.00    1.22989   1.24306   33.267
 6273.00    1.23063   1.24385   34.677
 6274.00    1.22919   1.24387   34.540
 6275.00    1.22484   1.24329   33.282
 6276.00    1.22097   1.24113   31.835
 6277.00    1.22061   1.23926   30.726
 6278.00    1.22343   1.23839   29.942
 6279.00    1.22685   1.23760   29.651
 6280.00    1.22765   1.23859    0.000
 6281.00    1.22590   1.24140    0.000
 6282.00    1.22526   1.24518    0.000
 6283.00    1.22753   1.25016    0.000
 6284.00    1.23168   1.25518    0.000
 6285.00    1.23736   1.25956    0.000
 6286.00    1.24454   1.26271    0.000
 6287.00    1.24987   1.26419    0.000
 6288.00    1.24836   1.26406    0.000
 6289.00    1.23909   1.26168    0.000
 6290.00    1.22611   1.25792    0.000
 6291.00    1.21762   1.25346    0.000
 6292.00    1.21989   1.24727    0.000
 6293.00    1.22921   1.24058    0.000
 6294.00    1.23729   1.23461    0.000
 6295.00    1.23941   1.22859    0.000
 6296.00    1.23490   1.22280    0.000
 6297.00    1.22641   1.21799    0.000
 6298.00    1.21839   1.21475    0.000
 6299.00    1.21528   1.21386    0.000
 6300.00    1.21799   1.21453    0.000
 6301.00    1.22255   1.21621    0.000
 6302.00    1.22592   1.22049    0.000
 6303.00    1.22878   1.22680    0.000
 6304.00    1.23168   1.23221    0.000
 6305.00    1.23360   1.23692    0.000
 6306.00    1.23426   1.24144    0.000
 6307.00    1.23445   1.24331    0.000
 6308.00    1.23436   1.24226    0.000
 6309.00    1.23284   1.24003    0.000
 6310.00    1.22729   1.23501    0.000
 6311.00    1.21576   1.22729    0.000
 6312.00    1.20150   1.22108    0.000
 6313.00    1.19060   1.21486    0.000
 6314.00    1.18569   1.20655    0.000
 6315.00    1.18539   1.20202    0.000
 6316.00    1.18561   1.20176    0.000
 6317.00    1.18330   1.20105    0.000
 6318.00    1.18078   1.20276    0.000
 6319.00    1.18221   1.20939    0.000
 6320.00    1.18928   1.21696    0.000
 6321.00    1.20144   1.22409   33.219
 6322.00    1.21669   1.23249   33.238
 6323.00    1.23283   1.24047   33.396
 6324.00    1.24823   1.24687   33.512
 6325.00    1.26103   1.25228   33.481
 6326.00    1.26892   1.25528   33.447
 6327.00    1.27140   1.25660   33.370
 6328.00    1.27031   1.25707   32.959
 6329.00    1.26775   1.25529   32.339
 6330.00    1.26474   1.25161   31.993
 6331.00    1.26008   1.24639   31.804
 6332.00    1.25168   1.24035   31.197
 6333.00    1.24105   1.23503   30.315
 6334.00    1.23275   1.22949   29.774
 6335.00    1.22964   1.22390   29.603
 6336.00    1.23126   1.22150   29.495
 6337.00    1.23317   1.22094   29.578
 6338.00    1.23086   1.21972   30.212
 6339.00    1.22610   1.21966   31.446
 6340.00    1.22365   1.22081   32.970
 6341.00    1.22513   1.22195   34.173
 6342.00    1.22911   1.22295   34.618
 6343.00    1.23229   1.22405   34.710
 6344.00    1.23256   1.22689   34.997
 6345.00    1.23134   1.23069   35.404
 6346.00    1.23101   1.23363   35.684
 6347.00    1.23271   1.23697   35.833
 6348.00    1.23635   1.24040   35.877
 6349.00    1.24082   1.24163   35.738
 6350.00    1.24498   1.24030   35.454
 6351.00    1.24788   1.23703   35.210
 6352.00    1.24745   1.23240   34.950
 6353.00    1.24104   1.22556   34.407
 6354.00    1.22922   1.21592   33.790
 6355.00    1.21593   1.20634   33.618
 6356.00    1.20450   1.19795   33.717
 6357.00    1.19642   1.18856   33.446
 6358.00    1.19181   1.18011   32.991
 6359.00    1.18958   1.17572   33.019
 6360.00    1.18787   1.17392   33.367
 6361.00    1.18597   1.17429   33.386
 6362.00    1.18728   1.17851   33.014
 6363.00    1.19586   1.18604   32.629
 6364.00    1.21060   1.19554   32.482
 6365.00    1.22671   1.20597   32.650
 6366.00    1.23891   1.21661   33.072
 6367.00    1.24492   1.22726   33.599
 6368.00    1.24811   1.23713   34.043
 6369.00    1.25218   1.24536   34.221
 6370.00    1.25680   1.25198   34.039
 6371.00    1.26051   1.25735   33.682
 6372.00    1.26301   1.26153   33.593
 6373.00    1.26476   1.26375   33.800
 6374.00    1.26638   1.26383   33.733
 6375.00    1.26727   1.26346   33.229
 6376.00    1.26558   1.26245   32.790
 6377.00    1.26049   1.25970   32.627
 6378.00    1.25297   1.25766   32.513
 6379.00    1.24503   1.25696   32.357
 6380.00    1.23924   1.25562   32.306
 6381.00    1.23803   1.25533   32.516
 6382.00    1.24270   1.25699   33.007
 6383.00    1.25166   1.25812   33.460
 6384.00    1.26092   1.25887   33.479
 6385.00    1.26585   1.26012   33.240
 6386.00    1.26388   1.25997   33.172
 6387.00    1.25776   1.25825   33.282
 6388.00    1.25161   1.25569   33.376
 6389.00    1.24553   1.25123   33.433
 6390.00    1.23847   1.24647   33.475
 6391.00    1.23194   1.24298   33.378
 6392.00    1.22760   1.23858   33.090
 6393.00    1.22500   1.23483   32.808
 6394.00    1.22336   1.23446   32.672
 6395.00    1.22294   1.23362   32.593
 6396.00    1.22405   1.23139   32.440
 6397.00    1.22649   1.23271   32.164
 6398.00    1.23010   1.23489   31.771
 6399.00    1.23493   1.23456   31.327
 6400.00    1.24080   1.23646   31.042
 6401.00    1.24700   1.24010   31.179
 6402.00    1.25207   1.24173   31.652
 6403.00    1.25414   1.24236   32.028
 6404.00    1.25232   1.24233   32.045
 6405.00    1.24701   1.24193   31.793
 6406.00    1.23976   1.24038   31.626
 6407.00    1.23273   1.23657   31.887
 6408.00    1.22776   1.23452   32.478
 6409.00    1.22598   1.23442   33.036
 6410.00    1.22745   1.23224   33.419
 6411.00    1.23094   1.23118   33.695
 6412.00    1.23379   1.23283   33.972
 6413.00    1.23441   1.23261   34.187
 6414.00    1.23464   1.23154   33.964
 6415.00    1.23570   1.23209   33.252
 6416.00    1.23442   1.23164   32.753
 6417.00    1.22807   1.23032   32.896
 6418.00    1.21820   1.23107   33.268
 6419.00    1.21009   1.23325   33.357
 6420.00    1.21063   1.23552   33.086
 6421.00    1.22031   1.23953   32.619
 6422.00    1.23111   1.24519   32.182
 6423.00    1.23692   1.24944   31.976
 6424.00    1.23774   1.25222   32.102
 6425.00    1.23673   1.25444   32.377
 6426.00    1.23765   1.25382   32.415
 6427.00    1.24092   1.25075   32.165
 6428.00    1.24410   1.24791   31.938
 6429.00    1.24630   1.24451   31.982
 6430.00    1.24803   1.24101   32.352
 6431.00    1.24860   1.23942   32.841
 6432.00    1.24669   1.23892   33.134
 6433.00    1.24242   1.23939   33.185
 6434.00    1.23714   1.24041   33.163
 6435.00    1.23249   1.24127   33.221
 6436.00    1.22986   1.24370   33.429
 6437.00    1.22989   1.24669   33.738
 6438.00    1.23303   1.24903   33.993
 6439.00    1.24000   1.25328   33.982
 6440.00    1.25008   1.25847   33.612
 6441.00    1.26012   1.26181   33.032
 6442.00    1.26716   1.26347   32.468
 6443.00    1.27008   1.26351   32.104
 6444.00    1.26758   1.26082   32.080
 6445.00    1.25778   1.25416   32.449
 6446.00    1.24224   1.24558   32.919
 6447.00    1.22676   1.23807   32.905
 6448.00    1.21642   1.22998   32.535
 6449.00    1.21325   1.22291   32.580
 6450.00    1.21518   1.22097   33.015
 6451.00    1.21785   1.22121   33.065
 6452.00    1.22003   1.22221   32.672
 6453.00    1.22346   1.22680   32.445
 6454.00    1.22913   1.23219   32.552
 6455.00    1.23636   1.23544   32.763
 6456.00    1.24294   1.23911   32.924
 6457.00    1.24696   1.24260   33.025
 6458.00    1.24935   1.24249   33.165
 6459.00    1.25165   1.24152   33.430
 6460.00    1.25272   1.24214   33.755
 6461.00    1.25048   1.24096   33.941
 6462.00    1.24446   1.23954   33.751
 6463.00    1.23702   1.24163   33.261
 6464.00    1.23356   1.24381   33.001
 6465.00    1.23726   1.24495   33.173
 6466.00    1.24573   1.24805   33.264
 6467.00    1.25489   1.25059   33.028
 6468.00    1.26159   1.25093   32.928
 6469.00    1.26332   1.25217   33.086
 6470.00    1.25854   1.25314   32.999
 6471.00    1.24862   1.25229   32.646
 6472.00    1.23782   1.25267   32.631
 6473.00    1.23025   1.25369   33.063
 6474.00    1.22852   1.25255   33.478
 6475.00    1.23301   1.25123   33.759
 6476.00    1.24164   1.25057   34.192
 6477.00    1.24980   1.24772   34.812
 6478.00    1.25288   1.24343   35.350
 6479.00    1.25092   1.24035   35.510
 6480.00    1.24711   1.23732   35.206
 6481.00    1.24365   1.23385   34.764
 6482.00    1.24123   1.23197   34.515
 6483.00    1.23940   1.23132   34.306
 6484.00    1.23755   1.23005   33.954
 6485.00    1.23577   1.22799   33.741
 6486.00    1.23357   1.22423   33.880
 6487.00    1.22882   1.21724   34.060
 6488.00    1.21981   1.20724   33.965
 6489.00    1.20685   1.19403   33.702
 6490.00    1.19173   1.17756   33.476
 6491.00    1.17691   1.16095   33.361
 6492.00    1.16369   1.14565   33.344
 6493.00    1.15181   1.13192   33.384
 6494.00    1.14199   1.12351   33.528
 6495.00    1.13645   1.12107   33.882
 6496.00    1.13648   1.12353   34.256
 6497.00    1.14172   1.13189   34.247
 6498.00    1.15119   1.14405   34.016
 6499.00    1.16385   1.15832   34.122
 6500.00    1.17886   1.17420   34.528
 6501.00    1.19539   1.18898   34.697
 6502.00    1.21184   1.20209   34.373
 6503.00    1.22592   1.21370   33.742
 6504.00    1.23514   1.22233   33.266
 6505.00    1.23802   1.22856   33.268
 6506.00    1.23569   1.23336   33.506
 6507.00    1.23099   1.23612   33.571
 6508.00    1.22690   1.23708   33.429
 6509.00    1.22519   1.23745   33.215
 6510.00    1.22547   1.23701   32.952
 6511.00    1.22735   1.23487   32.621
 6512.00    1.23195   1.23216   32.252
 6513.00    1.23866   1.22992   31.990
 6514.00    1.24350   1.22685   32.072
 6515.00    1.24361   1.22387   32.495
 6516.00    1.23986   1.22307   32.914
 6517.00    1.23628   1.22308   33.216
 6518.00    1.23810   1.22357   33.646
 6519.00    1.24550   1.22587   33.956
 6520.00    1.25327   1.22855   33.484
 6521.00    1.25788   1.23067   32.694
 6522.00    1.25927   1.23231   32.725
 6523.00    1.25917   1.23297   33.395
 6524.00    1.25973   1.23295   33.562
 6525.00    1.26172   1.23203   33.216
 6526.00    1.26388   1.23030   33.150
 6527.00    1.26286   1.22896   33.294
 6528.00    1.25612   1.22783    0.000
 6529.00    1.24638   1.22671    0.000
 6530.00    1.23823   1.22640    0.000
 6531.00    1.23313   1.22689    0.000
 6532.00    1.23046   1.22787    0.000
 6533.00    1.22945   1.22922    0.000
 6534.00    1.22999   1.23101    0.000
 6535.00    1.23294   1.23294    0.000
 6536.00    1.23859   1.23405    0.000
 6537.00    1.24569   1.23421    0.000
 6538.00    1.25220   1.23346    0.000
 6539.00    1.25609   1.23089    0.000
 6540.00    1.25621   1.22682    0.000
 6541.00    1.25281   1.22190    0.000
 6542.00    1.24747   1.21574    0.000
 6543.00    1.24266   1.20955    0.000
 6544.00    1.24064   1.20418    0.000
 6545.00    1.24206   1.19870    0.000
 6546.00    1.24339   1.19409    0.000
 6547.00    1.23919   1.19040    0.000
 6548.00    1.22925   1.18604    0.000
 6549.00    1.21753   1.18120    0.000
 6550.00    1.20654   1.17543    0.000
 6551.00    1.19670   1.16788    0.000
 6552.00    1.18701   1.15860    0.000
 6553.00    1.17646   1.14737    0.000
 6554.00    1.16550   1.13397    0.000
 6555.00    1.15459   1.11767    0.000
 6556.00    1.14255   1.09898    0.000
 6557.00    1.12908   1.07969    0.000
 6558.00    1.11708   1.05866    0.000
 6559.00    1.10955   1.03804    0.000
 6560.00    1.10717   1.02448    0.000
 6561.00    1.10944   1.01613    0.000
 6562.00    1.11548   1.01266    0.000
 6563.00    1.12319   1.02105    0.000
 6564.00    1.12963   1.03657    0.000
 6565.00    1.13427   1.05290    0.000
 6566.00    1.13943   1.07345    0.000
 6567.00    1.14599   1.09453    0.000
 6568.00    1.15264   1.11022    0.000
 6569.00    1.15822   1.12350    0.000
 6570.00    1.16250   1.13510    0.000
 6571.00    1.16579   1.14281    0.000
 6572.00    1.16871   1.14948    0.000
 6573.00    1.17175   1.15661    0.000
 6574.00    1.17553   1.16275    0.000
 6575.00    1.18129   1.16921    0.000
 6576.00    1.19059   1.17593    0.000
 6577.00    1.20470   1.18137    0.000
 6578.00    1.22438   1.18641    0.000
 6579.00    1.24966   1.19072    0.000
 6580.00    1.27918   1.19355    0.000
 6581.00    1.30944   1.19625    0.000
 6582.00    1.33400   1.19833    0.000
 6583.00    1.34392   1.19950    0.000
 6584.00    1.33469   1.20074    0.000
 6585.00    1.31019   1.20067    0.000
 6586.00    1.27737   1.19908    0.000
 6587.00    1.24333   1.19700    0.000
 6588.00    1.21732   1.19302    0.000
 6589.00    1.20917   1.18744    0.000
 6590.00    1.21927   1.18258    0.000
 6591.00    1.23793   1.17817    0.000
 6592.00    1.25692   1.17410    0.000
 6593.00    1.27286   1.17290    0.000
 6594.00    1.28533   1.17437    0.000
 6595.00    1.29555   1.17676    0.000
 6596.00    1.30438   1.18110    0.000
 6597.00    1.31125   1.18658    0.000
 6598.00    1.31318   1.19103    0.000
 6599.00    1.30762   1.19479    0.000
 6600.00    1.29693   1.19735    0.000
 6601.00    1.28486   1.19754    0.000
 6602.00    1.27125   1.19621    0.000
 6603.00    1.25283   1.19385    0.000
 6604.00    1.22599   1.19053    0.000
 6605.00    1.19738   1.18723    0.000
 6606.00    1.18933   1.18510    0.000
 6607.00    1.21064   1.18450    0.000
 6608.00    1.23931   1.18528    0.000
 6609.00    1.25454   1.18784   24.036
 6610.00    1.25553   1.19204   24.091
 6611.00    1.25070   1.19692   24.474
 6612.00    1.24972   1.20197   25.450
 6613.00    1.25623   1.20677   26.909
 6614.00    1.26625   1.21120   27.992
 6615.00    1.27295   1.21454   28.074
 6616.00    1.27166   1.21639   27.331
 6617.00    1.26849   1.21734   26.173
 6618.00    1.27344   1.21696   24.950
 6619.00    1.27864   1.21516   23.972
 6620.00    1.26999   1.21239   23.441
 6621.00    1.25952   1.20871   23.365
 6622.00    1.26502   1.20493   23.730
 6623.00    1.26796   1.20087   24.744
 6624.00    1.24498   1.19648   26.535
 6625.00    1.21747   1.19304   28.404
 6626.00    1.21308   1.18945   29.278
 6627.00    1.21744   1.18528   29.220
 6628.00    1.20928   1.18188   28.634
 6629.00    1.19608   1.17833   27.156
 6630.00    1.19058   1.17457   25.010
 6631.00    1.19130   1.17230   23.322
 6632.00    1.19420   1.17101   22.702
 6633.00    1.19989   1.17043   23.153
 6634.00    1.20565   1.17181   24.514
 6635.00    1.20393   1.17410   26.429
 6636.00    1.19575   1.17606   28.094
 6637.00    1.19177   1.17855   28.273
 6638.00    1.19311   1.18077   26.401
 6639.00    1.19148   1.18141   23.346
 6640.00    1.19152   1.18189   20.653
 6641.00    1.20561   1.18257   19.222
 6642.00    1.22301   1.18226   19.062
 6643.00    1.22102   1.18231   19.961
 6644.00    1.20436   1.18351   21.836
 6645.00    1.19435   1.18452   24.525
 6646.00    1.19537   1.18566   27.257
 6647.00    1.19977   1.18738   28.769
 6648.00    1.20354   1.18895   28.901
 6649.00    1.20647   1.19004   28.602
 6650.00    1.20919   1.19065   28.652
 6651.00    1.21113   1.19114   29.232
 6652.00    1.20910   1.19109   29.757
 6653.00    1.20116   1.19006   29.509
 6654.00    1.18965   1.18884   28.414
 6655.00    1.17793   1.18703   26.949
 6656.00    1.16816   1.18386   25.717
 6657.00    1.16224   1.18031   24.934
 6658.00    1.16172   1.17645   24.460
 6659.00    1.16382   1.17147   24.355
 6660.00    1.16212   1.16682   24.922
 6661.00    1.15620   1.16340   26.016
 6662.00    1.15253   1.16012   26.719
 6663.00    1.15452   1.15843   25.924
 6664.00    1.16083   1.15922   23.524
 6665.00    1.17002   1.16072   21.027
 6666.00    1.18075   1.16354   19.673
 6667.00    1.18919   1.16775   19.415
 6668.00    1.19101   1.17151   19.875
 6669.00    1.18591   1.17478   21.154
 6670.00    1.17677   1.17717   23.522
 6671.00    1.16686   1.17760   26.223
 6672.00    1.15922   1.17655   27.738
 6673.00    1.15623   1.17415   28.459
 6674.00    1.15707   1.17017   29.507
 6675.00    1.15604   1.16645   29.941
 6676.00    1.15125   1.16358   28.959
 6677.00    1.15080   1.16099   28.157
 6678.00    1.15892   1.16081   28.645
 6679.00    1.16761   1.16284   29.725
 6680.00    1.17139   1.16517   30.449
 6681.00    1.17465   1.16900   30.695
 6682.00    1.18015   1.17367   30.485
 6683.00    1.18438   1.17732   29.665
 6684.00    1.18493   1.18044   28.488
 6685.00    1.18318   1.18312   27.510
 6686.00    1.18232   1.18460   26.846
 6687.00    1.18522   1.18490   26.314
 6688.00    1.19072   1.18462   26.109
 6689.00    1.19468   1.18338   26.576
 6690.00    1.19515   1.18108   27.311
 6691.00    1.19262   1.17842   27.292
 6692.00    1.18794   1.17508   26.047
 6693.00    1.18212   1.17162   24.144
 6694.00    1.17648   1.16872   22.748
 6695.00    1.17167   1.16594   22.553
 6696.00    1.16642   1.16432    0.000
 6697.00    1.15944   1.16377    0.000
 6698.00    1.15158   1.16333    0.000
 6699.00    1.14460   1.16384    0.000
 6700.00    1.13967   1.16452    0.000
 6701.00    1.13669   1.16464    0.000
 6702.00    1.13415   1.16503    0.000
 6703.00    1.13155   1.16495    0.000
 6704.00    1.13045   1.16431    0.000
 6705.00    1.13150   1.16385    0.000
 6706.00    1.13320   1.16260    0.000
 6707.00    1.13436   1.16062    0.000
 6708.00    1.13509   1.15848    0.000
 6709.00    1.13668   1.15507    0.000
 6710.00    1.14051   1.15086    0.000
 6711.00    1.14538   1.14661    0.000
 6712.00    1.14861   1.14183    0.000
 6713.00    1.15120   1.13752    0.000
 6714.00    1.15613   1.13436    0.000
 6715.00    1.16225   1.13250    0.000
 6716.00    1.16532   1.13226    0.000
 6717.00    1.16215   1.13368    0.000
 6718.00    1.15253   1.13674    0.000
 6719.00    1.14053   1.14053    0.000
 6720.00    1.13113   1.14455    0.000
 6721.00    1.12597   1.14886    0.000
 6722.00    1.12448   1.15256    0.000
 6723.00    1.12570   1.15558    0.000
 6724.00    1.12930   1.15816    0.000
 6725.00    1.13612   1.16013    0.000
 6726.00    1.14662   1.16186    0.000
 6727.00    1.15963   1.16326    0.000
 6728.00    1.17130   1.16412    0.000
 6729.00    1.17585   1.16482    0.000
 6730.00    1.17139   1.16510    0.000
 6731.00    1.16163   1.16456    0.000
 6732.00    1.15113   1.16354    0.000
 6733.00    1.14287   1.16206    0.000
 6734.00    1.13661   1.15993    0.000
 6735.00    1.12997   1.15754    0.000
 6736.00    1.12238   1.15496    0.000
 6737.00    1.11510   1.15231    0.000
 6738.00    1.10848   1.14993    0.000
 6739.00    1.10215   1.14767    0.000
 6740.00    1.09638   1.14570    0.000
 6741.00    1.09222   1.14401    0.000
 6742.00    1.09128   1.14236    0.000
 6743.00    1.09433   1.14099    0.000
 6744.00    1.09975   1.13958    0.000
 6745.00    1.10511   1.13819    0.000
 6746.00    1.10906   1.13706    0.000
 6747.00    1.11103   1.13624    0.000
 6748.00    1.11087   1.13607    0.000
 6749.00    1.10953   1.13624    0.000
 6750.00    1.10911   1.13763    0.000
 6751.00    1.10985   1.14024    0.000
 6752.00    1.10925   1.14293    0.000
 6753.00    1.10691   1.14710   28.594
 6754.00    1.10623   1.15195   28.354
 6755.00    1.11027   1.15605   28.127
 6756.00    1.11972   1.16060   27.765
 6757.00    1.13184   1.16457   27.335
 6758.00    1.14191   1.16686   27.039
 6759.00    1.14802   1.16836   26.840
 6760.00    1.15118   1.16860   26.526
 6761.00    1.15193   1.16702   26.068
 6762.00    1.15004   1.16471   25.695
 6763.00    1.14560   1.16171   25.871
 6764.00    1.13937   1.15796   26.794
 6765.00    1.13295   1.15472   27.464
 6766.00    1.12810   1.15214   26.929
 6767.00    1.12570   1.15034   26.580
 6768.00    1.12607   1.15020   27.798
 6769.00    1.12939   1.15134   29.547
 6770.00    1.13455   1.15364   29.958
 6771.00    1.13841   1.15724   29.296
 6772.00    1.13883   1.16133   28.685
 6773.00    1.13676   1.16529   28.460
 6774.00    1.13383   1.16875   28.412
 6775.00    1.13076   1.17137   28.090
 6776.00    1.12835   1.17232   27.470
 6777.00    1.12780   1.17134   27.058
 6778.00    1.12936   1.16915   27.008
 6779.00    1.13191   1.16537   26.996
 6780.00    1.13369   1.16038   26.921
 6781.00    1.13312   1.15560   27.020
 6782.00    1.13045   1.15112   27.423
 6783.00    1.12759   1.14735   28.042
 6784.00    1.12619   1.14535   28.589
 6785.00    1.12666   1.14465   28.753
 6786.00    1.12718   1.14479   28.612
 6787.00    1.12525   1.14599   28.462
 6788.00    1.12053   1.14734   28.351
 6789.00    1.11437   1.14821   28.220
 6790.00    1.10819   1.14901   28.175
 6791.00    1.10381   1.14936   28.179
 6792.00    1.10394   1.14903   27.729
 6793.00    1.10934   1.14896   26.805
 6794.00    1.11651   1.14925   26.468
 6795.00    1.12140   1.14936   27.196
 6796.00    1.12273   1.15025   27.888
 6797.00    1.12131   1.15160   27.551
 6798.00    1.11904   1.15262   26.775
 6799.00    1.11745   1.15406   26.253
 6800.00    1.11685   1.15510   26.047
 6801.00    1.11655   1.15557   26.118
 6802.00    1.11537   1.15610   26.507
 6803.00    1.11280   1.15576   27.081
 6804.00    1.10933   1.15528   27.529
 6805.00    1.10579   1.15485   27.816
 6806.00    1.10296   1.15361   28.210
 6807.00    1.10112   1.15302   28.795
 6808.00    1.10028   1.15254   29.376
 6809.00    1.10070   1.15140   29.620
 6810.00    1.10259   1.15141   29.301
 6811.00    1.10511   1.15158   28.650
 6812.00    1.10693   1.15145   28.124
 6813.00    1.10729   1.15235   28.026
 6814.00    1.10697   1.15335   28.376
 6815.00    1.10891   1.15450   28.765
 6816.00    1.11516   1.15613   28.754
 6817.00    1.12371   1.15756   28.408
 6818.00    1.13099   1.15928   28.157
 6819.00    1.13445   1.16086   28.515
 6820.00    1.13327   1.16208   29.524
 6821.00    1.12859   1.16312   30.371
 6822.00    1.12327   1.16350   30.370
 6823.00    1.12100   1.16342   29.813
 6824.00    1.12279   1.16288   29.343
 6825.00    1.12618   1.16193   29.405
 6826.00    1.12946   1.16088   29.788
 6827.00    1.13254   1.15971   29.715
 6828.00    1.13354   1.15896   29.006
 6829.00    1.12959   1.15846   28.227
 6830.00    1.12232   1.15757   27.807
 6831.00    1.11649   1.15663   27.852
 6832.00    1.11275   1.15522   28.146
 6833.00    1.10856   1.15264   28.338
 6834.00    1.10331   1.14910   28.371
 6835.00    1.09837   1.14445   28.355
 6836.00    1.09536   1.13912   28.191
 6837.00    1.09432   1.13392   27.722
 6838.00    1.09197   1.12889   27.017
 6839.00    1.08623   1.12517   26.338
 6840.00    1.08107   1.12334   26.006
 6841.00    1.08133   1.12322   26.014
 6842.00    1.08734   1.12516   25.825
 6843.00    1.09642   1.12852   25.532
 6844.00    1.10485   1.13268   26.412
 6845.00    1.11065   1.13710   28.818
 6846.00    1.11465   1.14089   30.416
 6847.00    1.11672   1.14387   29.571
 6848.00    1.11458   1.14527   28.331
 6849.00    1.10820   1.14496   27.928
 6850.00    1.10069   1.14383   27.765
 6851.00    1.09426   1.14122   27.285
 6852.00    1.08962   1.13759   26.492
 6853.00    1.08887   1.13426   25.603
 6854.00    1.09345   1.13059   24.893
 6855.00    1.09686   1.12746   24.662
 6856.00    1.09084   1.12548   25.097
 6857.00    1.08158   1.12380   25.924
 6858.00    1.08181   1.12335   26.553
 6859.00    1.09127   1.12394   26.718
 6860.00    1.10109   1.12451   26.637
 6861.00    1.10526   1.12555   26.840
 6862.00    1.10376   1.12673   27.571
 6863.00    1.10352   1.12735   28.113
 6864.00    1.11053   1.12751   27.889
 6865.00    1.12225   1.12749   27.721
 6866.00    1.13156   1.12704   28.129
 6867.00    1.13167   1.12622   28.113
 6868.00    1.12243   1.12586   27.154
 6869.00    1.11253   1.12558   26.340
 6870.00    1.10723   1.12537   26.291
 6871.00    1.10336   1.12607   26.554
 6872.00    1.09957   1.12718   -2.000
 6873.00    1.09938   1.12816   -2.000
 6874.00    1.10250   1.12932   -2.000
 6875.00    1.10388   1.13060   -2.000
 6876.00    1.10218   1.13155   -2.000
 6877.00    1.10012   1.13204   -2.000
 6878.00    1.09784   1.13233   -2.000
 6879.00    1.09352   1.13259   -2.000
 6880.00    1.08875   1.13281   -2.000
 6881.00    1.08706   1.13357   -2.000
 6882.00    1.08912   1.13500   -2.000
 6883.00    1.09464   1.13715   -2.000
 6884.00    1.10638   1.14022   -2.000
 6885.00    1.12366   1.14359   -2.000
 6886.00    1.13452   1.14745   -2.000
 6887.00    1.13015   1.15134   -2.000
 6888.00    1.11972   1.15428   -2.000
 6889.00    1.11421   1.15673   -2.000
 6890.00    1.11188   1.15861   -2.000
 6891.00    1.10894   1.15934   -2.000
 6892.00    1.10745   1.15952   -2.000
 6893.00    1.10989   1.15949   -2.000
 6894.00    1.11550   1.15887   -2.000
 6895.00    1.12131   1.15841   -2.000
 6896.00    1.12363   1.15849   -2.000
 6897.00    1.12179   1.15832   -2.000
 6898.00    1.11840   1.15842   -2.000
 6899.00    1.11458   1.15903   -2.000
 6900.00    1.11003   1.15974   -2.000
 6901.00    1.10777   1.16048   -2.000
 6902.00    1.11187   1.16093   -2.000
 6903.00    1.11885   1.16168   -2.000
 6904.00    1.12063   1.16239   -2.000
 6905.00    1.11431   1.16212   -2.000
 6906.00    1.10424   1.16181   -2.000
 6907.00    1.10142   1.16091   -2.000
 6908.00    1.11313   1.15898   -2.000
 6909.00    1.12981   1.15713   -2.000
 6910.00    1.13712   1.15454   -2.000
 6911.00    1.13148   1.15166   -2.000
 6912.00    1.11927   1.14977   -2.000
 6913.00    1.11312   1.14800   -2.000
 6914.00    1.12067   1.14697   -2.000
 6915.00    1.13683   1.14723   -2.000
 6916.00    1.15042   1.14752   -2.000
 6917.00    1.15079   1.14844   -2.000
 6918.00    1.13761   1.14940   -2.000
 6919.00    1.12232   1.14924   -2.000
 6920.00    1.11153   1.14884   -2.000
 6921.00    1.10242   1.14791   -2.000
 6922.00    1.09405   1.14609   -2.000
 6923.00    1.08985   1.14406   -2.000
 6924.00    1.09134   1.14236   -2.000
 6925.00    1.09675   1.14109   -2.000
 6926.00    1.10256   1.14022   -2.000
 6927.00    1.10496   1.13973   -2.000
 6928.00    1.10221   1.14006   -2.000
 6929.00    1.09548   1.14094   -2.000
 6930.00    1.08925   1.14150   -2.000
 6931.00    1.08760   1.14237   -2.000
 6932.00    1.08893   1.14342   -2.000
 6933.00    1.08936   1.14448   -2.000
 6934.00    1.08749   1.14582   -2.000
 6935.00    1.08278   1.14665   -2.000
 6936.00    1.07369   1.14730   -2.000
 6937.00    1.06236   1.14788   -2.000
 6938.00    1.05716   1.14744   -2.000
 6939.00    1.06265   1.14593   -2.000
 6940.00    1.07380   1.14435   -2.000
 6941.00    1.08489   1.14233   -2.000
 6942.00    1.09419   1.13968   -2.000
 6943.00    1.10087   1.13781   -2.000
 6944.00    1.10307   1.13604   -2.000
 6945.00    1.09722   1.13442   -2.000
 6946.00    1.08091   1.13402   -2.000
 6947.00    1.06278   1.13344   -2.000
 6948.00    1.05839   1.13304   -2.000
 6949.00    1.07056   1.13350   -2.000
 6950.00    1.08912   1.13356   -2.000
 6951.00    1.10276   1.13393   -2.000
 6952.00    1.10389   1.13504   -2.000
 6953.00    1.09260   1.13617   -2.000
 6954.00    1.07512   1.13805   -2.000
 6955.00    1.06004   1.14074   -2.000
 6956.00    1.05471   1.14331   -2.000
 6957.00    1.06124   1.14589   -2.000
 6958.00    1.07644   1.14886   -2.000
 6959.00    1.09286   1.15112   -2.000
 6960.00    1.10436   1.15277   -2.000
 6961.00    1.11036   1.15463   -2.000
 6962.00    1.11153   1.15586   -2.000
 6963.00    1.10680   1.15673   -2.000
 6964.00    1.09709   1.15747   -2.000
 6965.00    1.08659   1.15745   -2.000
 6966.00    1.07722   1.15756   -2.000
 6967.00    1.06703   1.15721   -2.000
 6968.00    1.05595   1.15516   -2.000
 6969.00    1.04740   1.15266   -2.000
 6970.00    1.04530   1.14938   -2.000
 6971.00    1.05219   1.14442   -2.000
 6972.00    1.06714   1.13825   -2.000
 6973.00    1.08473   1.13148   -2.000
 6974.00    1.09429   1.12550   -2.000
 6975.00    1.08656   1.12027   -2.000
 6976.00    1.06655   1.11614   -2.000
 6977.00    1.04796   1.11451   -2.000
 6978.00    1.03972   1.11532   -2.000
 6979.00    1.04528   1.11875   -2.000
 6980.00    1.06470   1.12363   -2.000
 6981.00    1.09431   1.12941   -2.000
 6982.00    1.12634   1.13633   -2.000
 6983.00    1.15250   1.14226   -2.000
 6984.00    1.16778   1.14687   -2.000
 6985.00    1.17335   1.15078   -2.000
 6986.00    1.17720   1.15324   -2.000
 6987.00    1.18389   1.15459   -2.000
 6988.00    1.18854   1.15525   -2.000
 6989.00    1.18129   1.15551   -2.000
 6990.00    1.15334   1.15549   -2.000
 6991.00    1.11111   1.15473   -2.000
 6992.00    1.07612   1.15361   -2.000
 6993.00    1.06065   1.15194   -2.000
 6994.00    1.06166   1.14957   -2.000
 6995.00    1.07075   1.14695   -2.000
 6996.00    1.07985   1.14365   -2.000
 6997.00    1.08702   1.13995   -2.000
 6998.00    1.09337   1.13647   -2.000
 6999.00    1.09391   1.13330   -2.000
 7000.00    1.08217   1.13065   -2.000
 7001.00    1.06141   1.12834   -2.000
 7002.00    1.04095   1.12655   -2.000
 7003.00    1.02780   1.12595   -2.000
 7004.00    1.02500   1.12604   -2.000
 7005.00    1.03123   1.12602   -2.000
 7006.00    1.04132   1.12632   -2.000
 7007.00    1.04767   1.12678   -2.000
 7008.00    1.04718   1.12691   -2.000
 7009.00    1.04534   1.12639   -2.000
 7010.00    1.04494   1.12478   -2.000
 7011.00    1.03985   1.12333   -2.000
 7012.00    1.02689   1.12190   -2.000
 7013.00    1.01152   1.11961   -2.000
 7014.00    1.00071   1.11826   -2.000
 7015.00    0.99912   1.11817   -2.000
 7016.00    1.00844   1.11859   -2.000
 7017.00    1.02676   1.11953   -2.000
 7018.00    1.04757   1.12023   -2.000
 7019.00    1.06229   1.12147   -2.000
 7020.00    1.06806   1.12319   -2.000
 7021.00    1.06713   1.12380   -2.000
 7022.00    1.06095   1.12399   -2.000
 7023.00    1.05145   1.12470   -2.000
 7024.00    1.04559   1.12553   -2.000
 7025.00    1.04792   1.12657   -2.000
 7026.00    1.04891   1.12796   -2.000
 7027.00    1.03881   1.13001   -2.000
 7028.00    1.02650   1.13241   -2.000
 7029.00    1.02423   1.13415   -2.000
 7030.00    1.02964   1.13587   -2.000
 7031.00    1.03473   1.13721   -2.000
 7032.00    1.03558   1.13770   -2.000
 7033.00    1.03297   1.13891   -2.000
 7034.00    1.03152   1.14041   -2.000
 7035.00    1.03525   1.14187   -2.000
 7036.00    1.04438   1.14448   -2.000
 7037.00    1.05410   1.14785   -2.000
 7038.00    1.05644   1.15214   -2.000
 7039.00    1.05086   1.15694   -2.000
 7040.00    1.04598   1.16109   -2.000
 7041.00    1.04968   1.16520   -2.000
 7042.00    1.06392   1.16933   -2.000
 7043.00    1.08014   1.17213   -2.000
 7044.00    1.08545   1.17319   -2.000
 7045.00    1.07964   1.17320   -2.000
 7046.00    1.07109   1.17125   -2.000
 7047.00    1.06074   1.16734   -2.000
 7048.00    1.04592   1.16261   -2.000
 7049.00    1.03135   1.15620   -2.000
 7050.00    1.02316   1.14877   -2.000
 7051.00    1.01865   1.14101   -2.000
 7052.00    1.01309   1.13290   -2.000
 7053.00    1.00816   1.12562   -2.000
 7054.00    1.00593   1.11887   -2.000
 7055.00    1.00304   1.11313   -2.000
 7056.00    0.99752   1.10875   -2.000
 7057.00    0.99344   1.10488   -2.000
 7058.00    0.99317   1.10220   -2.000
 7059.00    0.99337   1.10010   -2.000
 7060.00    0.99243   1.09791   -2.000
 7061.00    0.99301   1.09609   -2.000
 7062.00    0.99447   1.09410   -2.000
 7063.00    0.99154   1.09263   -2.000
 7064.00    0.98254   1.09198   -2.000
 7065.00    0.97178   1.09102   -2.000
 7066.00    0.96713   1.09108   -2.000
 7067.00    0.97519   1.09266   -2.000
 7068.00    0.99142   1.09466   -2.000
 7069.00    1.00541   1.09755   -2.000
 7070.00    1.01662   1.10118   -2.000
 7071.00    1.02927   1.10510   -2.000
 7072.00    1.03806   1.10950   -2.000
 7073.00    1.03580   1.11307   -2.000
 7074.00    1.02741   1.11538   -2.000
 7075.00    1.02075   1.11699   -2.000
 7076.00    1.01398   1.11706   -2.000
 7077.00    1.00348   1.11552   -2.000
 7078.00    0.99270   1.11233   -2.000
 7079.00    0.98544   1.10751   -2.000
 7080.00    0.98008   1.10172   -2.000
 7081.00    0.97343   1.09421   -2.000
 7082.00    0.96395   1.08610   -2.000
 7083.00    0.95305   1.07885   -2.000
 7084.00    0.94474   1.07132   -2.000
 7085.00    0.94104   1.06466   -2.000
 7086.00    0.94036   1.05926   -2.000
 7087.00    0.94021   1.05462   -2.000
 7088.00    0.93901   1.05244   -2.000
 7089.00    0.93814   1.05098   -2.000
 7090.00    0.94073   1.04967   -2.000
 7091.00    0.94693   1.05022   -2.000
 7092.00    0.95359   1.05094   -2.000
 7093.00    0.95683   1.05251   -2.000
 7094.00    0.95471   1.05488   -2.000
 7095.00    0.95091   1.05681   -2.000
 7096.00    0.95044   1.05938   -2.000
 7097.00    0.95237   1.06171   -2.000
 7098.00    0.95395   1.06373   -2.000
 7099.00    0.95684   1.06540   -2.000
 7100.00    0.96357   1.06630   -2.000
 7101.00    0.97290   1.06701   -2.000
 7102.00    0.98049   1.06714   -2.000
 7103.00    0.98059   1.06647   -2.000
 7104.00    0.97145   1.06500   -2.000
 7105.00    0.95809   1.06318   -2.000
 7106.00    0.94574   1.06165   -2.000
 7107.00    0.93608   1.06002   -2.000
 7108.00    0.93007   1.05815   -2.000
 7109.00    0.92923   1.05651   -2.000
 7110.00    0.93440   1.05585   -2.000
 7111.00    0.94465   1.05603   -2.000
 7112.00    0.95536   1.05622   -2.000
 7113.00    0.96013   1.05664   -2.000
 7114.00    0.95755   1.05717   -2.000
 7115.00    0.95114   1.05787   -2.000
 7116.00    0.94397   1.05813   -2.000
 7117.00    0.93773   1.05771   -2.000
 7118.00    0.93335   1.05723   -2.000
 7119.00    0.93100   1.05573   -2.000
 7120.00    0.92993   1.05413   -2.000
 7121.00    0.92902   1.05257   -2.000
 7122.00    0.92765   1.05028   -2.000
 7123.00    0.92663   1.04799   -2.000
 7124.00    0.92882   1.04508   -2.000
 7125.00    0.93421   1.04251   -2.000
 7126.00    0.93638   1.04094   -2.000
 7127.00    0.93153   1.03873   -2.000
 7128.00    0.92465   1.03723   -2.000
 7129.00    0.92150   1.03740   -2.000
 7130.00    0.92305   1.03847   -2.000
 7131.00    0.92579   1.04097   -2.000
 7132.00    0.92401   1.04350   -2.000
 7133.00    0.91852   1.04626   -2.000
 7134.00    0.91718   1.05030   -2.000
 7135.00    0.92244   1.05374   -2.000
 7136.00    0.92936   1.05623   -2.000
 7137.00    0.93390   1.05806   -2.000
 7138.00    0.93510   1.05923   -2.000
 7139.00    0.93342   1.05980   -2.000
 7140.00    0.93009   1.05953   -2.000
 7141.00    0.92643   1.05832   -2.000
 7142.00    0.92294   1.05646   -2.000
 7143.00    0.91807   1.05534   -2.000
 7144.00    0.91042   1.05379   -2.000
 7145.00    0.90214   1.05162   -2.000
 7146.00    0.89680   1.05108   -2.000
 7147.00    0.89631   1.05115   -2.000
 7148.00    0.89993   1.05208   -2.000
 7149.00    0.90430   1.05420   -2.000
 7150.00    0.90835   1.05626   -2.000
 7151.00    0.91608   1.05938   -2.000
 7152.00    0.92718   1.06245   -2.000
 7153.00    0.93287   1.06463   -2.000
 7154.00    0.93092   1.06684   -2.000
 7155.00    0.93074   1.06784   -2.000
 7156.00    0.93542   1.06769   -2.000
 7157.00    0.93685   1.06616   -2.000
 7158.00    0.93126   1.06392   -2.000
 7159.00    0.92272   1.06216   -2.000
 7160.00    0.91374   1.05978   -2.000
 7161.00    0.90446   1.05694   -2.000
 7162.00    0.89899   1.05492   -2.000
 7163.00    0.90272   1.05456   -2.000
 7164.00    0.91272   1.05591   -2.000
 7165.00    0.92171   1.05847   -2.000
 7166.00    0.92922   1.06131   -2.000
 7167.00    0.93819   1.06467   -2.000
 7168.00    0.94680   1.06903   -2.000
 7169.00    0.95105   1.07327   -2.000
 7170.00    0.94970   1.07639   -2.000
 7171.00    0.94412   1.07798   -2.000
 7172.00    0.93746   1.07817   -2.000
 7173.00    0.93330   1.07708   -2.000
 7174.00    0.93415   1.07536   -2.000
 7175.00    0.93833   1.07322   -2.000
 7176.00    0.93940   1.07006   -2.000
 7177.00    0.93622   1.06655   -2.000
 7178.00    0.93644   1.06278   -2.000
 7179.00    0.94227   1.05968   -2.000
 7180.00    0.94605   1.05789   -2.000
 7181.00    0.94315   1.05534   -2.000
 7182.00    0.93563   1.05238   -2.000
 7183.00    0.92543   1.04980   -2.000
 7184.00    0.91387   1.04705   -2.000
 7185.00    0.90723   1.04534   -2.000
 7186.00    0.91175   1.04358   -2.000
 7187.00    0.91865   1.04179   -2.000
 7188.00    0.91549   1.04148   -2.000
 7189.00    0.91414   1.04119   -2.000
 7190.00    0.92340   1.04183   -2.000
 7191.00    0.90110   1.04372   -2.000
 7192.00    0.84324   1.04619   -2.000
 7193.00    0.89272   1.04912   -2.000
 7194.00    1.04761   1.05136   -2.000
 7195.00    0.88558   1.05367   -2.000
 7196.00    0.28836   1.05610   -2.000
 7197.00    0.00000   1.05846   -2.000
 7198.00    0.00000   1.06007   -2.000
 7199.00    0.00000   1.06005   -2.000
 7200.00    0.00000   1.06017   -2.000
 7201.00    0.00000   1.05986   -2.000
 7202.00    0.00000   1.05872   -2.000
 7203.00    0.00000   1.05705   -2.000
 7204.00    0.00000   1.05413   -2.000
 7205.00    0.00000   1.05248   -2.000
 7206.00    0.00000   1.05183   -2.000
 7207.00    0.00000   1.05156   -2.000
 7208.00    0.00000   1.05235   -2.000
 7209.00    0.00000   1.05282   -2.000
 7210.00    0.00000   1.05450   -2.000
 7211.00    0.00000   1.05714   -2.000
 7212.00    0.00000   1.05951   -2.000
 7213.00    0.00000   1.06202   -2.000
 7214.00    0.00000   1.06404   -2.000
 7215.00    0.00000   1.06560   -2.000
 7216.00    0.00000   1.06695   -2.000
 7217.00    0.00000   1.06815   -2.000
 7218.00    0.00000   1.06910   -2.000
