###################################################################
## OUTPUT of StarlightChains_v04.for    [Cid@UFSC - 01/Apr/2007] ##
###################################################################

## Some input info
ASASSN-15fs.txt                          [arq_obs]
Base.CB07.vall.4m                        [arq_base]
Masks.EmLines.NEW.gm                     [arq_masks]
StCv04.C11.config                        [arq_config]
   66                                    [N_base]
    0                                    [N_YAV_components = # of components with extra extinction!]
    0                                    [i_FitPowerLaw (1/0 = Yes/No)]
-9.99                                    [alpha_PowerLaw]
CCM                                      [red_law_option]
 1.458241                                [q_norm = A(l_norm)/A(V)]

## (Re)Sampling Parameters
 3741.00                                 [l_ini (A)]
 7218.00                                 [l_fin (A)]
    1.00                                 [dl    (A)]     (OBS: dl_cushion =    50.00 A)

## Normalization info
 4020.00                                 [l_norm (A) - for base]
 4010.00                                 [llow_norm (A) - window for f_obs]
 4060.00                                 [lupp_norm (A) - window for f_obs]
1.169727E-16                             [fobs_norm (in input units)]

## S/N
 3691.00                                 [llow_SN (A) - window for S/N]
 7268.00                                 [lupp_SN (A) - window for S/N]
   9.809                                 [S/N in S/N window]
   9.818                                 [S/N in norm. window]
  23.241                                 [S/N_err in S/N window]
  23.262                                 [S/N_err in norm. window]
  1.0000                                 [fscale_chi2]

## etc...
    -2007444                             [idum_orig]
  2327                                   [NOl_eff]
  2318                                   [Nl_eff]
     9    NSIGMA                         [Ntot_cliped & clip_method]
  2332400                                [Nglobal_steps]
   7                                     [N_chains]
  35                                     [NEX0s_base = N_base in EX0s-fits]
 0   0   1       10   2.0   5.699E+01    [Clip-Bug, RC-Crash & Burn-In warning-flags, n_censored_weights, wei_nsig_threshold & wei_limit]
    19     18.895     18.399      0.496  [idt_all, wdt_TotTime, wdt_UsrTime & wdt_SysTime (sec)]

## Synthesis Results - Best model ##

 3.99647E-01                             [chi2/Nl_eff]
     1.94317                             [adev (%)]

   100.92294                             [sum-of-x (%)]
 2.64968E-16                             [Flux_tot (units of input spectrum!)]
 4.50565E-12                             [Mini_tot (???)]
 2.35381E-12                             [Mcor_tot (???)]

 -67.37                                  [v0_min  (km/s)]
 175.31                                  [vd_min  (km/s)]
 0.6020                                  [AV_min  (mag)]
 0.0000                                  [YAV_min (mag)]

# j     x_j(%)      Mini_j(%)     Mcor_j(%)     age_j(yr)     Z_j      (L/M)_j    YAV?  Mstars   component_j        a/Fe...       SSP_chi2r SSP_adev(%)   SSP_AV   SSP_x(%)
  1      0.0728     3.8755E-04    7.4184E-04    1.000000E+06  0.00400  1.094E-02    0   1.0000   age020_m42            0.0000     3.1078E+00     5.5995   3.3673    81.1990
  2      0.0008     1.1577E-06    2.2158E-06    3.160000E+06  0.00400  4.007E-02    0   0.9999   age045_m42            0.0000     2.4100E+00     4.5917   2.6305    87.3969
  3      0.0000     0.0000E+00    0.0000E+00    5.010000E+06  0.00400  2.539E-02    0   0.9488   age055_m42            0.0000     2.5695E+00     4.8602   2.9476    85.3196
  4      0.0025     5.4996E-06    9.7062E-06    6.610000E+06  0.00400  2.620E-02    0   0.9220   age061_m42            0.0000     2.1588E+00     4.3795   2.5419    88.2686
  5      1.1556     5.0935E-03    8.6403E-03    1.000000E+07  0.00400  1.322E-02    0   0.8862   age070_m42            0.0000     1.3356E+00     3.6041   2.1559    94.8821
  6      0.0000     0.0000E+00    0.0000E+00    1.445000E+07  0.00400  7.883E-03    0   0.8571   age078_m42            0.0000     1.6264E+00     3.9875   2.4990    91.7281
  7      3.2051     3.5567E-02    5.5650E-02    2.512000E+07  0.00400  5.251E-03    0   0.8174   age090_m42            0.0000     1.2260E+00     3.5486   2.0052    96.4090
  8      2.1898     3.4969E-02    5.2552E-02    4.000000E+07  0.00400  3.649E-03    0   0.7851   age104_m42            0.0000     1.1205E+00     3.3352   1.7869    96.7944
  9      0.0000     0.0000E+00    0.0000E+00    5.500000E+07  0.00400  3.098E-03    0   0.7629   age110_m42            0.0000     1.3321E+00     3.4640   1.9851    94.7326
 10      0.0000     0.0000E+00    0.0000E+00    1.015200E+08  0.00400  2.228E-03    0   0.7207   age116_m42            0.0000     1.4558E+00     3.7374   2.0326    93.6832
 11      0.0000     0.0000E+00    0.0000E+00    2.861200E+08  0.00400  1.093E-03    0   0.6648   age125_m42            0.0000     1.3182E+00     3.5948   1.4301    98.2982
 12      0.0000     0.0000E+00    0.0000E+00    5.088000E+08  0.00400  6.597E-04    0   0.6365   age130_m42            0.0000     1.2948E+00     3.7772   1.4648    96.9686
 13     22.6525     6.1912E+00    6.8713E+00    1.434000E+09  0.00400  2.132E-04    0   0.5798   age139_m42            0.0000     6.2706E-01     3.0126   0.5115    98.0009
 14      0.0000     0.0000E+00    0.0000E+00    4.250000E+09  0.00400  5.895E-05    0   0.5377   age158_m42            0.0000     9.6531E-01     4.1169   0.1497    90.6525
 15      0.0005     8.1533E-04    8.1343E-04    7.500000E+09  0.00400  3.510E-05    0   0.5212   age171_m42            0.0000     1.1608E+00     4.6576  -0.0063    88.7343
 16      0.0000     0.0000E+00    0.0000E+00    1.300000E+10  0.00400  2.005E-05    0   0.5034   age193_m42            0.0000     1.4240E+00     5.2013  -0.1413    87.0534
 17      0.0000     0.0000E+00    0.0000E+00    1.800000E+10  0.00400  1.525E-05    0   0.4967   age213_m42            0.0000     1.3795E+00     5.0913  -0.1716    86.9520
 18      1.0276     4.8369E-03    9.2588E-03    1.000000E+06  0.00800  1.238E-02    0   1.0000   age020_m52            0.0000     3.0982E+00     5.5993   3.3637    81.3555
 19      2.7430     5.1995E-03    9.9191E-03    3.160000E+06  0.00800  3.074E-02    0   0.9966   age045_m52            0.0000     3.0223E+00     5.5188   3.2883    82.0291
 20      0.0000     0.0000E+00    0.0000E+00    5.010000E+06  0.00800  2.668E-02    0   0.9443   age055_m52            0.0000     2.5219E+00     4.8969   3.0261    84.6966
 21      0.0025     6.9245E-06    1.2164E-05    6.610000E+06  0.00800  2.136E-02    0   0.9177   age061_m52            0.0000     1.0309E+00     3.2091   1.6704    95.2348
 22     13.6883     6.5648E-02    1.1092E-01    1.000000E+07  0.00800  1.215E-02    0   0.8827   age070_m52            0.0000     1.2980E+00     3.7781   2.3112    95.8348
 23      0.0000     0.0000E+00    0.0000E+00    1.445000E+07  0.00800  8.717E-03    0   0.8552   age078_m52            0.0000     1.4232E+00     3.7694   2.4583    93.2819
 24      1.9801     2.0633E-02    3.2237E-02    2.512000E+07  0.00800  5.592E-03    0   0.8162   age090_m52            0.0000     1.0659E+00     3.4392   2.0628    97.9036
 25      0.0000     0.0000E+00    0.0000E+00    4.000000E+07  0.00800  3.896E-03    0   0.7841   age104_m52            0.0000     1.0910E+00     3.3300   1.9956    97.7362
 26      0.0000     0.0000E+00    0.0000E+00    1.015200E+08  0.00800  2.148E-03    0   0.7226   age116_m52            0.0000     1.2242E+00     3.3910   1.9787    95.4705
 27      0.0000     0.0000E+00    0.0000E+00    2.861200E+08  0.00800  9.925E-04    0   0.6683   age125_m52            0.0000     1.0630E+00     3.5733   1.5247    98.1168
 28      0.0000     0.0000E+00    0.0000E+00    9.047900E+08  0.00800  3.141E-04    0   0.6138   age135_m52            0.0000     8.9199E-01     3.8477   0.7887    99.2532
 29      0.0000     0.0000E+00    0.0000E+00    1.434000E+09  0.00800  1.719E-04    0   0.5853   age139_m52            0.0000     8.8602E-01     3.8176   0.2215    96.6308
 30      0.0000     0.0000E+00    0.0000E+00    2.500000E+09  0.00800  7.872E-05    0   0.5600   age150_m52            0.0000     1.2052E+00     4.9448   0.0273    90.6866
 31      0.0000     0.0000E+00    0.0000E+00    4.250000E+09  0.00800  4.336E-05    0   0.5426   age158_m52            0.0000     1.2559E+00     5.0370   0.0179    89.5727
 32      0.0000     0.0000E+00    0.0000E+00    6.250000E+09  0.00800  3.159E-05    0   0.5319   age166_m52            0.0000     1.5960E+00     5.8415  -0.1432    87.8805
 33      1.6782     7.1850E+00    6.9772E+00    1.300000E+10  0.00800  1.361E-05    0   0.5073   age193_m52            0.0000     2.1188E+00     6.8556  -0.5628    85.3437
 34      0.7638     4.5018E+00    4.3000E+00    1.800000E+10  0.00800  9.886E-06    0   0.4990   age213_m52            0.0000     2.6195E+00     7.7169  -0.6254    83.1721
 35      1.3551     5.1143E-03    9.7897E-03    1.000000E+06  0.02000  1.544E-02    0   1.0000   age020_m62            0.0000     3.1185E+00     5.6358   3.3600    81.5305
 36      0.5637     8.7318E-04    1.6477E-03    3.160000E+06  0.02000  3.762E-02    0   0.9858   age045_m62            0.0000     3.1132E+00     5.6370   3.3016    82.1598
 37      0.0000     0.0000E+00    0.0000E+00    5.010000E+06  0.02000  3.296E-02    0   0.9342   age055_m62            0.0000     2.4621E+00     4.7923   2.9179    85.9730
 38      9.3882     4.7405E-02    8.0406E-02    8.710000E+06  0.02000  1.154E-02    0   0.8861   age067_m62            0.0000     2.0232E+00     6.4019   1.5749   108.2518
 39      0.0000     0.0000E+00    0.0000E+00    1.445000E+07  0.02000  7.663E-03    0   0.8472   age078_m62            0.0000     1.2358E+00     4.1096   1.9010   100.9293
 40      0.0010     1.3121E-05    2.0342E-05    2.512000E+07  0.02000  4.532E-03    0   0.8099   age090_m62            0.0000     1.3479E+00     4.3109   1.8810   101.3274
 41      0.6040     1.2877E-02    1.8721E-02    5.500000E+07  0.02000  2.733E-03    0   0.7595   age110_m62            0.0000     1.0060E+00     3.2757   1.9787    96.9938
 42      0.0000     0.0000E+00    0.0000E+00    1.609000E+08  0.02000  1.369E-03    0   0.6985   age120_m62            0.0000     1.1012E+00     3.5169   1.8663    97.3790
 43      0.2122     1.3720E-02    1.7632E-02    2.861200E+08  0.02000  9.013E-04    0   0.6714   age125_m62            0.0000     1.0321E+00     3.7154   1.6357    99.2294
 44      0.0008     8.8881E-05    1.0972E-04    5.088000E+08  0.02000  5.028E-04    0   0.6449   age130_m62            0.0000     1.1773E+00     4.2386   1.3268    98.5982
 45      0.0000     0.0000E+00    0.0000E+00    9.047900E+08  0.02000  2.428E-04    0   0.6179   age135_m62            0.0000     9.6431E-01     4.3638   0.7814    96.1756
 46      0.0001     4.2329E-05    4.7870E-05    1.434000E+09  0.02000  1.263E-04    0   0.5908   age139_m62            0.0000     1.0277E+00     4.6416   0.3597    93.7201
 47      0.0000     0.0000E+00    0.0000E+00    2.500000E+09  0.02000  5.985E-05    0   0.5673   age150_m62            0.0000     1.5352E+00     5.7910   0.0550    89.7725
 48      0.0000     0.0000E+00    0.0000E+00    4.250000E+09  0.02000  3.271E-05    0   0.5468   age158_m62            0.0000     2.1770E+00     7.0204  -0.1893    86.5202
 49      1.1535     4.9424E+00    4.8884E+00    1.000000E+10  0.02000  1.360E-05    0   0.5167   age181_m62            0.0000     3.0435E+00     8.3802  -0.4719    83.6245
 50      2.7727     2.2679E+01    2.1763E+01    1.800000E+10  0.02000  7.124E-06    0   0.5013   age213_m62            0.0000     3.8266E+00     9.4399  -0.6250    80.8478
 51      0.0000     0.0000E+00    0.0000E+00    1.000000E+06  0.05000  2.592E-02    0   0.9998   age020_m72            0.0000     3.1468E+00     5.7135   3.3482    81.6741
 52      4.5578     5.4816E-03    1.0049E-02    3.160000E+06  0.05000  4.845E-02    0   0.9577   age045_m72            0.0000     2.9631E+00     5.3646   3.1906    83.0502
 53      0.0000     0.0000E+00    0.0000E+00    5.010000E+06  0.05000  3.072E-02    0   0.9147   age055_m72            0.0000     1.9175E+00     4.4363   2.5766    93.0222
 54      0.0000     0.0000E+00    0.0000E+00    6.610000E+06  0.05000  1.455E-02    0   0.8877   age061_m72            0.0000     6.3770E+00     9.4446   1.5859   112.2961
 55      0.0000     0.0000E+00    0.0000E+00    1.000000E+07  0.05000  9.074E-03    0   0.8524   age070_m72            0.0000     3.0440E+00     5.1315   2.7895    91.9265
 56      0.0000     0.0000E+00    0.0000E+00    2.512000E+07  0.05000  4.250E-03    0   0.7902   age090_m72            0.0000     2.1492E+00     4.3579   2.4524    95.0675
 57      0.0000     0.0000E+00    0.0000E+00    4.000000E+07  0.05000  3.087E-03    0   0.7618   age104_m72            0.0000     2.1100E+00     4.3841   2.2003    97.8250
 58      0.0000     0.0000E+00    0.0000E+00    1.015200E+08  0.05000  1.700E-03    0   0.7096   age116_m72            0.0000     1.1687E+00     3.5498   1.9801    98.3984
 59      0.0000     0.0000E+00    0.0000E+00    2.861200E+08  0.05000  7.384E-04    0   0.6633   age125_m72            0.0000     9.9754E-01     3.8797   1.5366    99.0263
 60      8.0033     1.2211E+00    1.4894E+00    5.088000E+08  0.05000  3.819E-04    0   0.6372   age130_m72            0.0000     9.5349E-01     4.2519   1.1063    97.6515
 61      8.2007     2.8512E+00    3.3347E+00    9.047900E+08  0.05000  1.676E-04    0   0.6110   age135_m72            0.0000     1.4981E+00     5.7891   0.5024    91.8176
 62      2.8916     1.9067E+00    2.1439E+00    1.434000E+09  0.05000  8.837E-05    0   0.5874   age139_m72            0.0000     1.6219E+00     5.9779   0.0598    90.8811
 63      0.5539     7.6255E-01    8.1712E-01    2.500000E+09  0.05000  4.233E-05    0   0.5598   age150_m72            0.0000     2.4410E+00     7.4475  -0.1703    86.4728
 64      8.2398     3.3459E+01    3.3618E+01    6.250000E+09  0.05000  1.435E-05    0   0.5249   age166_m72            0.0000     3.4253E+00     8.8209  -0.5487    82.5087
 65      0.5591     5.0018E+00    4.8216E+00    1.300000E+10  0.05000  6.513E-06    0   0.5036   age193_m72            0.0000     4.5280E+00    10.1473  -0.7589    80.6937
 66      0.7022     9.0390E+00    8.5561E+00    1.800000E+10  0.05000  4.527E-06    0   0.4945   age213_m72            0.0000     5.3234E+00    10.9532  -0.8758    78.9414


## Synthesis Results - Average & Chains ##

# j      x_j: min, <> & last-chain-values for 1 ...  7 chains
  1      0.0728      0.2108      0.5261      0.0000      0.2859      0.1815      0.4176      0.0000      0.0000
  2      0.0008      0.1181      0.7790      0.0480      0.3973      0.0000      0.0000      0.0000      0.0000
  3      0.0000      0.1960      0.2472      0.3444      0.1317      0.5536      0.0000      0.0000      0.2354
  4      0.0025      0.1863      0.4110      0.3760      0.0307      0.0000      1.2050      0.0336      0.0000
  5      1.1556      2.2054      2.1652      1.8960      2.2260      2.0253      2.3967      1.9469      2.4439
  6      0.0000      0.4073      0.0000      0.5285      0.2816      0.2788      0.2734      0.0000      0.3924
  7      3.2051      2.4437      2.7912      2.3281      3.4608      3.0484      2.4645      2.3000      2.1750
  8      2.1898      1.7532      1.8338      2.2970      1.5436      2.2004      1.9518      2.0172      1.7757
  9      0.0000      0.5848      0.0000      0.3398      0.7159      0.3516      0.6591      0.8443      1.1319
 10      0.0000      0.3724      0.0000      0.0465      0.4698      1.1739      0.6949      0.0000      0.0000
 11      0.0000      0.2042      0.0000      0.0000      0.1599      0.0000      0.0000      0.0000      0.0000
 12      0.0000      0.1882      0.0000      0.0000      0.0167      0.0000      0.0000      0.1150      0.0000
 13     22.6525     18.9064     19.1147     18.5486     21.6279     19.9325     19.2436     19.1016     20.7849
 14      0.0000      0.8760      0.0000      0.3216      1.3428      1.0061      0.0000      1.6130      0.8501
 15      0.0005      1.1146      0.6040      1.5739      0.9363      1.3822      1.0318      1.1606      1.0603
 16      0.0000      0.0555      0.0425      0.0000      0.0847      0.0000      0.0000      0.0000      0.0000
 17      0.0000      0.0620      0.0000      0.0000      0.0000      0.0000      0.1443      0.0157      0.0000
 18      1.0276      0.7535      1.6180      0.7213      0.6266      1.7142      0.7183      1.5324      0.6195
 19      2.7430      1.9971      2.3172      2.0612      1.9484      2.2491      2.4077      2.1048      2.2654
 20      0.0000      0.1073      0.0000      0.0000      0.1836      0.0000      0.0000      0.0000      0.0809
 21      0.0025      0.2117      0.4041      0.0000      0.0392      0.3996      0.0000      0.4926      0.2363
 22     13.6883     12.2357     12.3482     12.6325     12.2240     11.8282     12.5438     11.9148     13.3981
 23      0.0000      0.1809      0.2039      0.4705      0.0000      0.2073      0.6378      0.0000      0.0000
 24      1.9801      1.7748      2.3149      2.3440      2.0663      1.3674      1.9370      1.5628      1.9697
 25      0.0000      0.2640      0.1779      0.0398      0.1347      0.0000      0.2059      0.0000      0.1682
 26      0.0000      0.2310      0.0000      0.4611      0.0277      0.0000      0.3834      0.9147      0.0000
 27      0.0000      0.2491      0.1130      0.0000      0.0000      0.0766      0.0000      0.0000      0.2234
 28      0.0000      0.5435      0.0000      0.5139      0.3991      0.0000      0.3420      0.7689      0.0191
 29      0.0000      0.2575      0.1816      0.0000      0.0000      0.1611      0.0000      0.0000      0.0000
 30      0.0000      0.1023      0.1505      0.0000      0.3484      0.0425      0.0000      0.0000      0.0000
 31      0.0000      0.0820      0.0000      0.0000      0.0000      0.0000      0.0000      0.0000      0.0000
 32      0.0000      0.0489      0.0000      0.0000      0.0000      0.0000      0.3107      0.2214      0.1031
 33      1.6782      1.4653      2.0585      1.4394      1.6061      1.6342      1.2965      1.5599      1.6167
 34      0.7638      1.3643      1.2418      1.3797      1.6927      1.4137      1.2078      1.4594      1.2151
 35      1.3551      1.6081      1.5371      1.6272      1.7382      1.5205      1.2793      1.5748      1.5381
 36      0.5637      1.2781      1.0390      1.3957      1.3541      1.4656      0.6604      1.1561      1.3011
 37      0.0000      0.1616      0.0000      0.0000      0.0000      0.0000      0.3492      0.1009      0.0000
 38      9.3882      5.5583      6.4455      6.4194      5.5738      6.1282      5.7042      6.5959      5.7556
 39      0.0000      0.3729      0.0000      0.0000      0.1183      0.0000      0.8045      0.6580      0.0000
 40      0.0010      1.0795      0.6494      1.7262      1.0339      0.0000      1.2721      1.0689      1.0809
 41      0.6040      0.9272      1.5177      1.2318      0.4698      1.8100      1.1182      1.2544      0.3481
 42      0.0000      0.1060      0.0000      0.0413      0.5101      0.0000      0.0000      0.0000      0.0253
 43      0.2122      0.5406      0.8217      0.3960      0.6807      0.4536      0.5408      0.4671      0.5588
 44      0.0008      0.3909      0.4498      0.0000      0.4109      0.4539      0.5595      0.6070      1.3053
 45      0.0000      0.6140      0.7493      0.0000      0.1280      1.1870      0.3960      0.2349      0.0000
 46      0.0001      0.4216      0.3856      0.1245      0.0000      0.1646      0.5309      0.0000      0.0000
 47      0.0000      2.6694      2.9049      3.7897      1.4548      1.3423      2.5852      0.9629      2.4276
 48      0.0000      0.3994      0.3293      0.0000      0.2129      0.7012      0.0000      0.1876      0.9357
 49      1.1535      1.4944      1.5263      1.7113      1.3542      1.6176      1.2344      1.5390      1.5987
 50      2.7727      2.9614      2.9700      2.9233      3.0362      3.0742      3.1547      3.2521      3.1610
 51      0.0000      0.0968      0.1484      0.0219      0.2162      0.0000      0.0000      0.0000      0.0784
 52      4.5578      4.5755      4.2804      4.7170      4.7128      4.6520      4.5880      4.5849      4.5058
 53      0.0000      0.1703      0.0000      0.1124      0.0000      0.0000      0.0000      0.0000      0.0000
 54      0.0000      0.0892      0.0944      0.0000      0.0000      0.0000      0.0000      0.0000      0.0000
 55      0.0000      0.0964      0.0000      0.0000      0.0000      0.0000      0.0000      0.2011      0.0000
 56      0.0000      0.6277      0.0000      0.5849      0.7777      0.6635      0.0000      0.6944      1.0659
 57      0.0000      0.0997      0.0000      0.0256      0.0000      0.0925      0.0000      0.0000      0.3335
 58      0.0000      0.2220      0.0160      0.0000      0.0222      0.2739      0.0000      0.1179      0.0000
 59      0.0000      0.4880      0.1199      1.1701      0.1838      0.0000      0.6311      0.8419      0.6750
 60      8.0033      3.4799      4.0645      3.1701      3.8322      3.5529      3.4841      3.4778      3.4989
 61      8.2007      5.4651      6.3710      6.5730      5.6500      5.1276      5.3581      6.9387      4.9717
 62      2.8916      3.4753      3.2372      2.8817      2.8986      3.3967      3.1254      3.6713      3.1572
 63      0.5539      1.8383      1.8240      1.4566      1.7278      2.0409      2.0218      1.6450      2.2554
 64      8.2398      5.8555      5.8272      6.1721      5.8067      5.9606      6.9168      5.7769      5.8983
 65      0.5591      0.7308      0.7864      0.7059      0.7490      0.7054      0.8945      0.6977      0.5388
 66      0.7022      0.7803      0.8546      0.9131      0.8705      0.7827      0.8322      0.6636      0.7276

# j      m_j: min, <> & last-chain-values for 1 ...  7 chains
  1  7.4184E-04  2.0432E-03  5.0357E-03  0.0000E+00  2.7270E-03  1.7271E-03  3.9101E-03  0.0000E+00  0.0000E+00
  2  2.2158E-06  3.1259E-04  2.0355E-03  1.2462E-04  1.0345E-03  0.0000E+00  0.0000E+00  0.0000E+00  0.0000E+00
  3  0.0000E+00  7.7676E-04  9.6744E-04  1.3384E-03  5.1343E-04  2.1535E-03  0.0000E+00  0.0000E+00  9.3223E-04
  4  9.7062E-06  6.9512E-04  1.5146E-03  1.3758E-03  1.1285E-04  0.0000E+00  4.3431E-03  1.2535E-04  0.0000E+00
  5  8.6403E-03  1.5677E-02  1.5198E-02  1.3217E-02  1.5569E-02  1.4132E-02  1.6456E-02  1.3841E-02  1.7361E-02
  6  0.0000E+00  4.6960E-03  0.0000E+00  5.9757E-03  3.1945E-03  3.1556E-03  3.0443E-03  0.0000E+00  4.5214E-03
  7  5.5650E-02  4.0336E-02  4.5496E-02  3.7686E-02  5.6209E-02  4.9395E-02  3.9294E-02  3.7971E-02  3.5879E-02
  8  5.2552E-02  3.9997E-02  4.1314E-02  5.1391E-02  3.4652E-02  4.9280E-02  4.3012E-02  4.6028E-02  4.0487E-02
  9  0.0000E+00  1.5272E-02  0.0000E+00  8.7003E-03  1.8394E-02  9.0127E-03  1.6625E-02  2.2049E-02  2.9539E-02
 10  0.0000E+00  1.2774E-02  0.0000E+00  1.5635E-03  1.5856E-02  3.9528E-02  2.3021E-02  0.0000E+00  0.0000E+00
 11  0.0000E+00  1.3170E-02  0.0000E+00  0.0000E+00  1.0148E-02  0.0000E+00  0.0000E+00  0.0000E+00  0.0000E+00
 12  0.0000E+00  1.9252E-02  0.0000E+00  0.0000E+00  1.6795E-03  0.0000E+00  0.0000E+00  1.1771E-02  0.0000E+00
 13  6.8713E+00  5.4520E+00  5.4431E+00  5.2455E+00  6.1368E+00  5.6426E+00  5.3601E+00  5.5093E+00  5.9901E+00
 14  0.0000E+00  8.4726E-01  0.0000E+00  3.0501E-01  1.2779E+00  9.5529E-01  0.0000E+00  1.5604E+00  8.2167E-01
 15  8.1343E-04  1.7551E+00  9.3908E-01  2.4303E+00  1.4506E+00  2.1365E+00  1.5692E+00  1.8277E+00  1.6684E+00
 16  0.0000E+00  1.4777E-01  1.1181E-01  0.0000E+00  2.2196E-01  0.0000E+00  0.0000E+00  0.0000E+00  0.0000E+00
 17  0.0000E+00  2.1405E-01  0.0000E+00  0.0000E+00  0.0000E+00  0.0000E+00  4.8135E-01  5.4270E-02  0.0000E+00
 18  9.2588E-03  6.4539E-03  1.3685E-02  6.0589E-03  5.2807E-03  1.4413E-02  5.9429E-03  1.3128E-02  5.3027E-03
 19  9.9191E-03  6.8654E-03  7.8663E-03  6.9491E-03  6.5906E-03  7.5903E-03  7.9950E-03  7.2371E-03  7.7831E-03
 20  0.0000E+00  4.0252E-04  0.0000E+00  0.0000E+00  6.7816E-04  0.0000E+00  0.0000E+00  0.0000E+00  3.0353E-04
 21  1.2164E-05  9.6436E-04  1.8179E-03  0.0000E+00  1.7563E-04  1.7869E-03  0.0000E+00  2.2444E-03  1.0761E-03
 22  1.1092E-01  9.4259E-02  9.3936E-02  9.5435E-02  9.2658E-02  8.9450E-02  9.3340E-02  9.1803E-02  1.0315E-01
 23  0.0000E+00  1.8823E-03  2.0950E-03  4.8001E-03  0.0000E+00  2.1172E-03  6.4093E-03  0.0000E+00  0.0000E+00
 24  3.2237E-02  2.7469E-02  3.5380E-02  3.5576E-02  3.1468E-02  2.0775E-02  2.8957E-02  2.4191E-02  3.0467E-02
 25  0.0000E+00  5.6341E-03  3.7498E-03  8.3358E-04  2.8288E-03  0.0000E+00  4.2447E-03  0.0000E+00  3.5868E-03
 26  0.0000E+00  8.2413E-03  0.0000E+00  1.6132E-02  9.7157E-04  0.0000E+00  1.3210E-02  3.2636E-02  0.0000E+00
 27  0.0000E+00  1.7784E-02  7.9640E-03  0.0000E+00  0.0000E+00  5.3682E-03  0.0000E+00  0.0000E+00  1.5943E-02
 28  0.0000E+00  1.1262E-01  0.0000E+00  1.0442E-01  8.1375E-02  0.0000E+00  6.8459E-02  1.5936E-01  3.9574E-03
 29  0.0000E+00  9.2982E-02  6.4744E-02  0.0000E+00  0.0000E+00  5.7082E-02  0.0000E+00  0.0000E+00  0.0000E+00
 30  0.0000E+00  7.7130E-02  1.1213E-01  0.0000E+00  2.5860E-01  3.1480E-02  0.0000E+00  0.0000E+00  0.0000E+00
 31  0.0000E+00  1.0877E-01  0.0000E+00  0.0000E+00  0.0000E+00  0.0000E+00  0.0000E+00  0.0000E+00  0.0000E+00
 32  0.0000E+00  8.7382E-02  0.0000E+00  0.0000E+00  0.0000E+00  0.0000E+00  5.3584E-01  3.9539E-01  1.8400E-01
 33  6.9772E+00  5.7913E+00  8.0343E+00  5.5791E+00  6.2463E+00  6.3408E+00  4.9498E+00  6.1666E+00  6.3862E+00
 34  4.3000E+00  7.3023E+00  6.5635E+00  7.2417E+00  8.9142E+00  7.4280E+00  6.2444E+00  7.8124E+00  6.4995E+00
 35  9.7897E-03  1.1044E-02  1.0424E-02  1.0959E-02  1.1746E-02  1.0251E-02  8.4867E-03  1.0817E-02  1.0557E-02
 36  1.6477E-03  3.5513E-03  2.8510E-03  3.8032E-03  3.7023E-03  3.9978E-03  1.7725E-03  3.2130E-03  3.6130E-03
 37  0.0000E+00  4.8581E-04  0.0000E+00  0.0000E+00  0.0000E+00  0.0000E+00  1.0136E-03  3.0324E-04  0.0000E+00
 38  8.0406E-02  4.5256E-02  5.1823E-02  5.1257E-02  4.4654E-02  4.8982E-02  4.4862E-02  5.3714E-02  4.6835E-02
 39  0.0000E+00  4.3718E-03  0.0000E+00  0.0000E+00  1.3645E-03  0.0000E+00  9.1104E-03  7.7156E-03  0.0000E+00
 40  2.0342E-05  2.0456E-02  1.2151E-02  3.2078E-02  1.9278E-02  0.0000E+00  2.3284E-02  2.0259E-02  2.0470E-02
 41  1.8721E-02  2.7324E-02  4.4163E-02  3.5596E-02  1.3621E-02  5.2360E-02  3.1828E-02  3.6970E-02  1.0251E-02
 42  0.0000E+00  5.7370E-03  0.0000E+00  2.1922E-03  2.7154E-02  0.0000E+00  0.0000E+00  0.0000E+00  1.3679E-03
 43  1.7632E-02  4.2699E-02  6.4097E-02  3.0676E-02  5.2902E-02  3.5172E-02  4.1264E-02  3.6906E-02  4.4109E-02
 44  1.0972E-04  5.3164E-02  6.0405E-02  0.0000E+00  5.4990E-02  6.0596E-02  7.3501E-02  8.2567E-02  1.7742E-01
 45  0.0000E+00  1.6570E-01  1.9966E-01  0.0000E+00  3.3980E-02  3.1446E-01  1.0321E-01  6.3389E-02  0.0000E+00
 46  4.7870E-05  2.0911E-01  1.8887E-01  6.0548E-02  0.0000E+00  8.0139E-02  2.5435E-01  0.0000E+00  0.0000E+00
 47  0.0000E+00  2.6830E+00  2.8832E+00  3.7354E+00  1.4387E+00  1.3244E+00  2.5099E+00  9.6801E-01  2.4385E+00
 48  0.0000E+00  7.0788E-01  5.7641E-01  0.0000E+00  3.7141E-01  1.2202E+00  0.0000E+00  3.3256E-01  1.6577E+00
 49  4.8884E+00  6.0202E+00  6.0719E+00  6.7611E+00  5.3679E+00  6.3973E+00  4.8035E+00  6.2011E+00  6.4366E+00
 50  2.1763E+01  2.2097E+01  2.1883E+01  2.1391E+01  2.2292E+01  2.2518E+01  2.2737E+01  2.4270E+01  2.3572E+01
 51  0.0000E+00  3.9612E-04  5.9950E-04  8.7908E-05  8.7025E-04  0.0000E+00  0.0000E+00  0.0000E+00  3.2061E-04
 52  1.0049E-02  9.5902E-03  8.8595E-03  9.6958E-03  9.7196E-03  9.5719E-03  9.2887E-03  9.6116E-03  9.4385E-03
 53  0.0000E+00  5.3777E-04  0.0000E+00  3.4800E-04  0.0000E+00  0.0000E+00  0.0000E+00  0.0000E+00  0.0000E+00
 54  0.0000E+00  5.7686E-04  6.0298E-04  0.0000E+00  0.0000E+00  0.0000E+00  0.0000E+00  0.0000E+00  0.0000E+00
 55  0.0000E+00  9.5993E-04  0.0000E+00  0.0000E+00  0.0000E+00  0.0000E+00  0.0000E+00  2.0039E-03  0.0000E+00
 56  0.0000E+00  1.2376E-02  0.0000E+00  1.1308E-02  1.5087E-02  1.2841E-02  0.0000E+00  1.3692E-02  2.1002E-02
 57  0.0000E+00  2.6090E-03  0.0000E+00  6.5818E-04  0.0000E+00  2.3770E-03  0.0000E+00  0.0000E+00  8.7215E-03
 58  0.0000E+00  9.8260E-03  7.0071E-04  0.0000E+00  9.6641E-04  1.1901E-02  0.0000E+00  5.2174E-03  0.0000E+00
 59  0.0000E+00  4.6483E-02  1.1280E-02  1.0930E-01  1.7223E-02  0.0000E+00  5.8061E-02  8.0204E-02  6.4258E-02
 60  1.4894E+00  6.1567E-01  7.1010E-01  5.5003E-01  6.6713E-01  6.1708E-01  5.9541E-01  6.1542E-01  6.1866E-01
 61  3.3347E+00  2.1126E+00  2.4320E+00  2.4918E+00  2.1491E+00  1.9458E+00  2.0007E+00  2.6828E+00  1.9207E+00
 62  2.1439E+00  2.4495E+00  2.2531E+00  1.9918E+00  2.0102E+00  2.3503E+00  2.1278E+00  2.5881E+00  2.2240E+00
 63  8.1712E-01  2.5779E+00  2.5259E+00  2.0031E+00  2.3840E+00  2.8095E+00  2.7385E+00  2.3072E+00  3.1608E+00
 64  3.3618E+01  2.2711E+01  2.2319E+01  2.3477E+01  2.2161E+01  2.2696E+01  2.5914E+01  2.2411E+01  2.2864E+01
 65  4.8216E+00  5.9917E+00  6.3669E+00  5.6760E+00  6.0422E+00  5.6775E+00  7.0841E+00  5.7211E+00  4.4154E+00
 66  8.5561E+00  9.0376E+00  9.7750E+00  1.0372E+01  9.9209E+00  8.8997E+00  9.3105E+00  7.6877E+00  8.4228E+00

# AV, chi2 & Mass for <> & i_chain = 1 ...  7 solutions
AV       0.6020      0.5821      0.5826      0.5826      0.5820      0.5794      0.5796      0.5837      0.5758
chi2 3.9965E-01  4.1191E-01  4.0901E-01  4.0989E-01  4.0946E-01  4.0957E-01  4.0948E-01  4.0915E-01  4.1024E-01
Mass 2.3538E-12  2.4108E-12  2.4430E-12  2.4601E-12  2.4498E-12  2.4470E-12  2.4873E-12  2.4154E-12  2.3920E-12
 -67.37                                  [v0_min (km/s) before EX0s...]
 175.31                                  [vd_min (km/s) before EX0s...]


## Synthetic spectrum (Best Model) ##l_obs f_obs f_syn wei
 3478    [Nl_obs]
 3741.00    0.58644   0.69114    0.000
 3742.00    0.59364   0.68131    0.000
 3743.00    0.56583   0.66137    0.000
 3744.00    0.52644   0.63458    0.000
 3745.00    0.51231   0.60382    1.203
 3746.00    0.52898   0.57272    1.112
 3747.00    0.55432   0.54643    1.660
 3748.00    0.56766   0.53067    5.389
 3749.00    0.56072   0.53071   35.093
 3750.00    0.54564   0.54886   10.057
 3751.00    0.54297   0.58176    7.023
 3752.00    0.56100   0.62120    8.886
 3753.00    0.59523   0.65809   10.455
 3754.00    0.63278   0.68600    9.353
 3755.00    0.66126   0.70215    8.543
 3756.00    0.67831   0.70772    8.603
 3757.00    0.68602   0.70712    9.187
 3758.00    0.68415   0.70582   10.010
 3759.00    0.67413   0.70701   10.737
 3760.00    0.66278   0.70990   11.027
 3761.00    0.65584   0.71139   10.724
 3762.00    0.65283   0.70855    9.989
 3763.00    0.65007   0.69967    9.248
 3764.00    0.64394   0.68449    8.929
 3765.00    0.63555   0.66386    9.001
 3766.00    0.63220   0.63957    8.946
 3767.00    0.63947   0.61539    8.660
 3768.00    0.65622   0.59646    8.698
 3769.00    0.67307   0.58714    9.084
 3770.00    0.67712   0.59025    8.969
 3771.00    0.67440   0.60659    8.143
 3772.00    0.68802   0.63335    7.377
 3773.00    0.71539   0.66501    7.131
 3774.00    0.72762   0.69683    7.551
 3775.00    0.72170   0.72666    8.436
 3776.00    0.72275   0.75401    8.977
 3777.00    0.73984   0.77866    8.837
 3778.00    0.76198   0.80016    8.613
 3779.00    0.78181   0.81791    8.507
 3780.00    0.79749   0.83095    8.342
 3781.00    0.80358   0.83807    8.183
 3782.00    0.79579   0.83857    8.252
 3783.00    0.78381   0.83246    8.608
 3784.00    0.77981   0.82029    9.131
 3785.00    0.77547   0.80339    9.525
 3786.00    0.75752   0.78442    9.435
 3787.00    0.73571   0.76639    8.835
 3788.00    0.72376   0.75036    8.076
 3789.00    0.71026   0.73500    7.604
 3790.00    0.67992   0.71782    7.645
 3791.00    0.64141   0.69619    8.167
 3792.00    0.61000   0.66837    8.930
 3793.00    0.58773   0.63488    9.348
 3794.00    0.57358   0.59916    9.108
 3795.00    0.57276   0.56691    8.812
 3796.00    0.58219   0.54459    8.320
 3797.00    0.58245   0.53777    6.657
 3798.00    0.56865   0.54962    5.030
 3799.00    0.56681   0.57895    4.606
 3800.00    0.59717   0.61951    5.338
 3801.00    0.65269   0.66260    6.439
 3802.00    0.71116   0.70120    6.679
 3803.00    0.74777   0.73178    6.754
 3804.00    0.75928   0.75408    7.575
 3805.00    0.76735   0.77050    9.014
 3806.00    0.78482   0.78455    9.580
 3807.00    0.80552   0.79866    7.907
 3808.00    0.81963   0.81244    6.282
 3809.00    0.82163   0.82281    6.139
 3810.00    0.81586   0.82657    7.188
 3811.00    0.81268   0.82276    7.867
 3812.00    0.81282   0.81305    7.288
 3813.00    0.80902   0.80075    6.763
 3814.00    0.80046   0.78893    6.906
 3815.00    0.79164   0.77859    7.779
 3816.00    0.78215   0.76904    9.218
 3817.00    0.76813   0.75949   10.459
 3818.00    0.74924   0.75006   10.883
 3819.00    0.72889   0.74230   10.850
 3820.00    0.71215   0.73813   10.989
 3821.00    0.70174   0.73706   11.532
 3822.00    0.69295   0.73541   11.726
 3823.00    0.67905   0.72942   10.653
 3824.00    0.65885   0.71842    8.920
 3825.00    0.63488   0.70439    7.426
 3826.00    0.61028   0.68906    6.442
 3827.00    0.58949   0.67216    5.996
 3828.00    0.57865   0.65200    6.162
 3829.00    0.57967   0.62697    6.946
 3830.00    0.58596   0.59673    7.765
 3831.00    0.58968   0.56308    7.950
 3832.00    0.58739   0.53026    8.181
 3833.00    0.57810   0.50417    9.087
 3834.00    0.56247   0.48992    9.932
 3835.00    0.54731   0.49015    9.880
 3836.00    0.54544   0.50457    9.739
 3837.00    0.56002   0.53025   10.220
 3838.00    0.58018   0.56335   11.173
 3839.00    0.59855   0.60061   11.959
 3840.00    0.61761   0.63922   11.752
 3841.00    0.64181   0.67653   10.616
 3842.00    0.67276   0.71015    9.405
 3843.00    0.70460   0.73808    8.629
 3844.00    0.72688   0.75963    8.415
 3845.00    0.73773   0.77539    8.635
 3846.00    0.74303   0.78652    9.011
 3847.00    0.74279   0.79438    0.000
 3848.00    0.73353   0.80019    0.000
 3849.00    0.72220   0.80502    0.000
 3850.00    0.72112   0.80975    0.000
 3851.00    0.73084   0.81427    0.000
 3852.00    0.74209   0.81709    0.000
 3853.00    0.74610   0.81684    0.000
 3854.00    0.74007   0.81372    0.000
 3855.00    0.73225   0.80902    0.000
 3856.00    0.73602   0.80434    0.000
 3857.00    0.75975   0.80138    0.000
 3858.00    0.79818   0.80127    0.000
 3859.00    0.82561   0.80465    0.000
 3860.00    0.82339   0.81165    0.000
 3861.00    0.80804   0.82075    0.000
 3862.00    0.80352   0.82895    0.000
 3863.00    0.81284   0.83385    0.000
 3864.00    0.82851   0.83489    0.000
 3865.00    0.84349   0.83296    0.000
 3866.00    0.85000   0.82909    0.000
 3867.00    0.83987   0.82365    0.000
 3868.00    0.81632   0.81666    0.000
 3869.00    0.79776   0.80842    0.000
 3870.00    0.79470   0.80011    0.000
 3871.00    0.79913   0.79370    0.000
 3872.00    0.79982   0.79051    0.000
 3873.00    0.79161   0.78984    0.000
 3874.00    0.78039   0.78884    0.000
 3875.00    0.77888   0.78436    0.000
 3876.00    0.78316   0.77539    0.000
 3877.00    0.77398   0.76329    0.000
 3878.00    0.75152   0.75019    0.000
 3879.00    0.73515   0.73718    0.000
 3880.00    0.72723   0.72328    0.000
 3881.00    0.71237   0.70614   10.274
 3882.00    0.68401   0.68404    9.996
 3883.00    0.64870   0.65660   10.063
 3884.00    0.61896   0.62447   10.215
 3885.00    0.60608   0.59032    9.888
 3886.00    0.60951   0.55993    9.049
 3887.00    0.62180   0.54050    8.180
 3888.00    0.64063   0.53722    7.794
 3889.00    0.66499   0.55131    8.133
 3890.00    0.68651   0.57979    8.919
 3891.00    0.69719   0.61608    9.538
 3892.00    0.70136   0.65290    9.966
 3893.00    0.70966   0.68549   10.554
 3894.00    0.72951   0.71239   11.019
 3895.00    0.75847   0.73419   10.850
 3896.00    0.78016   0.75214   10.272
 3897.00    0.78275   0.76723    9.722
 3898.00    0.77429   0.78002    9.308
 3899.00    0.76471   0.79114    8.946
 3900.00    0.75197   0.80104    8.509
 3901.00    0.73771   0.80933    8.149
 3902.00    0.73644   0.81535    8.266
 3903.00    0.75729   0.81980    8.638
 3904.00    0.79387   0.82487    8.064
 3905.00    0.83492   0.83256    6.906
 3906.00    0.87090   0.84371    6.634
 3907.00    0.89530   0.85764    7.601
 3908.00    0.90535   0.87181    9.274
 3909.00    0.90333   0.88332   10.475
 3910.00    0.89522   0.89059   10.718
 3911.00    0.88416   0.89359   10.466
 3912.00    0.87043   0.89304   10.239
 3913.00    0.85951   0.88971   10.104
 3914.00    0.86008   0.88424    9.853
 3915.00    0.87104   0.87689    9.580
 3916.00    0.88179   0.86764    9.579
 3917.00    0.88254   0.85709    9.895
 3918.00    0.86862   0.84660   10.306
 3919.00    0.84375   0.83777   10.457
 3920.00    0.81796   0.83170   10.187
 3921.00    0.80170   0.82818    9.980
 3922.00    0.79679   0.82534   10.392
 3923.00    0.78440   0.82039   11.280
 3924.00    0.74821   0.81119   11.788
 3925.00    0.70947   0.79697   11.090
 3926.00    0.69388   0.77814    9.738
 3927.00    0.68410   0.75590    9.206
 3928.00    0.65476   0.73129   10.094
 3929.00    0.61754   0.70532   11.378
 3930.00    0.59517   0.67977   11.194
 3931.00    0.59047   0.65784   10.489
 3932.00    0.59206   0.64371   10.341
 3933.00    0.58458   0.64128    9.826
 3934.00    0.56835   0.65240    8.594
 3935.00    0.56947   0.67529    7.738
 3936.00    0.60435   0.70494    7.672
 3937.00    0.65838   0.73545    8.142
 3938.00    0.71044   0.76226    8.834
 3939.00    0.74900   0.78296    9.512
 3940.00    0.77170   0.79720    9.961
 3941.00    0.78324   0.80635   10.076
 3942.00    0.78835   0.81294   10.127
 3943.00    0.78963   0.81946   10.639
 3944.00    0.79248   0.82721   11.533
 3945.00    0.80451   0.83606   11.734
 3946.00    0.82630   0.84470   10.908
 3947.00    0.85057   0.85159   10.011
 3948.00    0.87019   0.85632    9.648
 3949.00    0.88102   0.85940    9.972
 3950.00    0.88196   0.86100   10.772
 3951.00    0.87437   0.86072   11.404
 3952.00    0.86063   0.85823   11.465
 3953.00    0.84335   0.85369   11.173
 3954.00    0.82469   0.84716   10.933
 3955.00    0.80780   0.83821   11.020
 3956.00    0.79951   0.82635   11.395
 3957.00    0.80235   0.81118   11.830
 3958.00    0.80171   0.79172   12.166
 3959.00    0.78099   0.76676   12.205
 3960.00    0.74529   0.73602    0.000
 3961.00    0.70799   0.70060    0.000
 3962.00    0.67001   0.66216    0.000
 3963.00    0.62788   0.62152    0.000
 3964.00    0.58533   0.57873    0.000
 3965.00    0.55083   0.53484    0.000
 3966.00    0.53339   0.49329    0.000
 3967.00    0.53730   0.45956    0.000
 3968.00    0.55793   0.43973    0.000
 3969.00    0.58183   0.43836    0.000
 3970.00    0.59039   0.45666    0.000
 3971.00    0.58271   0.49177    0.000
 3972.00    0.58439   0.53791    0.000
 3973.00    0.60901   0.58870    0.000
 3974.00    0.64135   0.63910    0.000
 3975.00    0.67162   0.68600    0.000
 3976.00    0.70815   0.72764    0.000
 3977.00    0.75116   0.76311    0.000
 3978.00    0.78642   0.79206    0.000
 3979.00    0.80896   0.81444    0.000
 3980.00    0.82845   0.83094    0.000
 3981.00    0.85413   0.84320   11.519
 3982.00    0.88729   0.85353   11.316
 3983.00    0.91569   0.86394   11.888
 3984.00    0.92236   0.87521   12.523
 3985.00    0.91254   0.88686   12.444
 3986.00    0.90828   0.89785   11.707
 3987.00    0.91899   0.90748   11.025
 3988.00    0.93844   0.91558   10.954
 3989.00    0.95341   0.92215   11.339
 3990.00    0.95257   0.92721   11.691
 3991.00    0.93858   0.93069   11.996
 3992.00    0.92148   0.93210   12.482
 3993.00    0.90526   0.93111   12.738
 3994.00    0.89241   0.92846   12.171
 3995.00    0.89236   0.92613   11.133
 3996.00    0.90981   0.92639   10.320
 3997.00    0.93059   0.93043   10.130
 3998.00    0.94008   0.93768   10.632
 3999.00    0.94355   0.94592   11.356
 4000.00    0.95146   0.95192   11.597
 4001.00    0.96405   0.95303   11.274
 4002.00    0.97674   0.94883   10.865
 4003.00    0.98549   0.94112   10.896
 4004.00    0.98548   0.93303   11.555
 4005.00    0.97133   0.92784   12.470
 4006.00    0.94712   0.92784   13.027
 4007.00    0.92990   0.93299   12.953
 4008.00    0.93256   0.94119   12.458
 4009.00    0.95410   0.95012   11.978
 4010.00    0.98201   0.95861   11.867
 4011.00    0.99840   0.96625   12.335
 4012.00    1.00061   0.97272   13.186
 4013.00    1.00398   0.97793   13.655
 4014.00    1.01822   0.98200   13.530
 4015.00    1.03946   0.98514   13.442
 4016.00    1.05538   0.98750   13.279
 4017.00    1.05301   0.98896   12.353
 4018.00    1.03543   0.98907   11.122
 4019.00    1.01926   0.98696   10.463
 4020.00    1.01572   0.98162   10.578
 4021.00    1.02496   0.97299   11.285
 4022.00    1.03542   0.96269   11.923
 4023.00    1.03311   0.95330   11.595
 4024.00    1.01971   0.94709   10.697
 4025.00    1.00729   0.94491   10.182
 4026.00    1.00297   0.94552   10.425
 4027.00    1.00549   0.94594   11.429
 4028.00    1.00475   0.94321   12.444
 4029.00    0.99001   0.93661   12.312
 4030.00    0.96099   0.92854   11.553
 4031.00    0.93056   0.92323   11.219
 4032.00    0.92389   0.92432   11.494
 4033.00    0.95248   0.93299   12.132
 4034.00    0.99082   0.94777   12.618
 4035.00    1.01300   0.96540   12.559
 4036.00    1.02530   0.98178   12.266
 4037.00    1.03834   0.99327   12.111
 4038.00    1.04428   0.99781   12.058
 4039.00    1.03354   0.99514   11.979
 4040.00    1.00738   0.98626   11.872
 4041.00    0.97467   0.97267   11.848
 4042.00    0.94755   0.95643   12.079
 4043.00    0.93163   0.94060   12.479
 4044.00    0.92297   0.92920   12.588
 4045.00    0.91937   0.92610   12.235
 4046.00    0.92457   0.93269   11.790
 4047.00    0.94240   0.94643   11.536
 4048.00    0.97151   0.96185   11.502
 4049.00    0.99601   0.97353   11.594
 4050.00    0.99247   0.97877   11.673
 4051.00    0.96258   0.97764   11.737
 4052.00    0.93375   0.97187   11.862
 4053.00    0.92997   0.96396   11.841
 4054.00    0.95863   0.95635   11.355
 4055.00    1.00000   0.95065   10.636
 4056.00    1.02144   0.94744   10.167
 4057.00    1.01323   0.94612   10.175
 4058.00    0.98814   0.94508   10.711
 4059.00    0.96476   0.94249   11.605
 4060.00    0.95487   0.93714   12.434
 4061.00    0.94891   0.92946   12.829
 4062.00    0.93364   0.92186   12.771
 4063.00    0.92020   0.91753   12.636
 4064.00    0.92522   0.91833   12.687
 4065.00    0.94202   0.92356   12.593
 4066.00    0.95450   0.93017   12.165
 4067.00    0.95700   0.93486   12.055
 4068.00    0.95171   0.93609   12.567
 4069.00    0.94343   0.93409   12.628
 4070.00    0.93440   0.92999   11.596
 4071.00    0.92131   0.92513   10.770
 4072.00    0.90413   0.92029   10.836
 4073.00    0.89203   0.91515   11.263
 4074.00    0.89453   0.90906   11.318
 4075.00    0.91431   0.90284   10.876
 4076.00    0.94305   0.89945   10.413
 4077.00    0.96330   0.90192   10.566
 4078.00    0.97008   0.91065   11.502
 4079.00    0.97648   0.92280   12.614
 4080.00    0.98599   0.93383   13.199
 4081.00    0.98580   0.94030   13.333
 4082.00    0.97310   0.94166   13.305
 4083.00    0.96111   0.94004   13.199
 4084.00    0.96085   0.93850   13.086
 4085.00    0.97323   0.93892   13.059
 4086.00    0.98631   0.94093   13.090
 4087.00    0.98358   0.94253   13.052
 4088.00    0.96817   0.94138   12.901
 4089.00    0.95784   0.93584   12.710
 4090.00    0.95732   0.92543   12.619
 4091.00    0.95745   0.91030   12.655
 4092.00    0.94779   0.89054    0.000
 4093.00    0.92330   0.86605    0.000
 4094.00    0.89109   0.83692    0.000
 4095.00    0.86386   0.80351    0.000
 4096.00    0.84753   0.76668    0.000
 4097.00    0.84162   0.72826    0.000
 4098.00    0.84295   0.69115    0.000
 4099.00    0.84799   0.65966    0.000
 4100.00    0.85499   0.63935    0.000
 4101.00    0.86211   0.63507    0.000
 4102.00    0.86528   0.64861    0.000
 4103.00    0.86029   0.67723    0.000
 4104.00    0.84546   0.71429    0.000
 4105.00    0.82467   0.75217    0.000
 4106.00    0.80888   0.78539    0.000
 4107.00    0.80921   0.81177    0.000
 4108.00    0.83092   0.83194    0.000
 4109.00    0.86981   0.84819    0.000
 4110.00    0.91181   0.86298    0.000
 4111.00    0.94306   0.87771    0.000
 4112.00    0.95699   0.89227    0.000
 4113.00    0.95923   0.90531   13.262
 4114.00    0.96511   0.91508   13.318
 4115.00    0.97849   0.92034   13.112
 4116.00    0.98746   0.92114   13.270
 4117.00    0.98554   0.91902   13.912
 4118.00    0.97724   0.91630   14.459
 4119.00    0.96752   0.91527   14.476
 4120.00    0.95906   0.91742   14.124
 4121.00    0.95509   0.92273   13.770
 4122.00    0.95852   0.92963   13.646
 4123.00    0.96727   0.93599   13.537
 4124.00    0.97562   0.93983   13.109
 4125.00    0.98013   0.93995   12.698
 4126.00    0.98003   0.93623   12.832
 4127.00    0.97501   0.92959   13.310
 4128.00    0.96695   0.92165   13.469
 4129.00    0.96318   0.91416   13.193
 4130.00    0.96940   0.90883   12.854
 4131.00    0.97836   0.90730   12.718
 4132.00    0.98127   0.91080   12.755
 4133.00    0.98495   0.91955   12.534
 4134.00    0.99746   0.93220   11.894
 4135.00    1.00951   0.94593   11.513
 4136.00    1.01160   0.95746   11.885
 4137.00    1.01275   0.96382   12.658
 4138.00    1.01894   0.96299   13.205
 4139.00    1.01416   0.95454   13.499
 4140.00    0.98657   0.94005   13.702
 4141.00    0.94875   0.92343   13.608
 4142.00    0.91572   0.90997   13.250
 4143.00    0.88963   0.90406   13.186
 4144.00    0.87261   0.90696   13.599
 4145.00    0.87317   0.91629   13.911
 4146.00    0.89165   0.92737   13.828
 4147.00    0.91500   0.93591   13.894
 4148.00    0.93300   0.94008   14.354
 4149.00    0.94508   0.94040   14.724
 4150.00    0.95407   0.93835   14.600
 4151.00    0.96184   0.93537   14.135
 4152.00    0.96454   0.93261   13.722
 4153.00    0.95550   0.93101   13.698
 4154.00    0.94085   0.93150   14.076
 4155.00    0.93665   0.93479   14.565
 4156.00    0.94583   0.94089   14.835
 4157.00    0.95849   0.94896   14.745
 4158.00    0.97003   0.95765   14.601
 4159.00    0.98197   0.96560   14.789
 4160.00    0.99323   0.97174   14.973
 4161.00    1.00004   0.97543   14.570
 4162.00    0.99964   0.97646   14.113
 4163.00    0.99118   0.97494   14.418
 4164.00    0.97601   0.97131   15.272
 4165.00    0.95904   0.96630   15.807
 4166.00    0.95028   0.96063   15.754
 4167.00    0.95447   0.95444   15.507
 4168.00    0.95856   0.94718   15.448
 4169.00    0.95066   0.93830   15.664
 4170.00    0.94227   0.92812   15.781
 4171.00    0.94640   0.91815   15.543
 4172.00    0.95419   0.91056   15.416
 4173.00    0.95132   0.90693   15.801
 4174.00    0.93507   0.90737   16.434
 4175.00    0.91394   0.91077   16.916
 4176.00    0.90402   0.91562   17.266
 4177.00    0.91333   0.92088   17.409
 4178.00    0.93288   0.92609   16.863
 4179.00    0.94967   0.93099   15.783
 4180.00    0.95589   0.93534   15.022
 4181.00    0.95234   0.93892   14.772
 4182.00    0.94779   0.94149   14.527
 4183.00    0.94774   0.94279   14.236
 4184.00    0.95077   0.94277   14.474
 4185.00    0.95559   0.94180   15.389
 4186.00    0.96296   0.94096   16.396
 4187.00    0.97148   0.94163   16.994
 4188.00    0.97708   0.94468   17.262
 4189.00    0.97651   0.94990   17.231
 4190.00    0.96908   0.95588   16.753
 4191.00    0.95807   0.96041   15.960
 4192.00    0.94812   0.96131   15.186
 4193.00    0.93794   0.95728   14.662
 4194.00    0.92400   0.94847   14.447
 4195.00    0.91173   0.93658   14.369
 4196.00    0.91001   0.92424   14.259
 4197.00    0.91642   0.91408   14.394
 4198.00    0.92333   0.90786   15.130
 4199.00    0.93225   0.90606   16.106
 4200.00    0.94667   0.90834   16.487
 4201.00    0.95894   0.91411   16.240
 4202.00    0.95978   0.92269   15.962
 4203.00    0.95257   0.93321   16.026
 4204.00    0.94809   0.94456   16.268
 4205.00    0.95589   0.95538   15.797
 4206.00    0.97625   0.96439   14.524
 4207.00    0.99490   0.97074   13.859
 4208.00    1.00096   0.97425   14.447
 4209.00    1.00109   0.97517   15.367
 4210.00    1.00285   0.97371   15.477
 4211.00    1.00254   0.97008   15.188
 4212.00    0.99694   0.96489   15.244
 4213.00    0.99030   0.95968   15.730
 4214.00    0.98499   0.95677   16.503
 4215.00    0.97775   0.95814   17.372
 4216.00    0.97098   0.96398   17.894
 4217.00    0.97514   0.97212   17.502
 4218.00    0.99180   0.97871   16.508
 4219.00    1.00913   0.97976   15.857
 4220.00    1.01606   0.97251   15.755
 4221.00    1.00874   0.95633   15.696
 4222.00    0.99209   0.93312   15.181
 4223.00    0.97624   0.90720   14.176
 4224.00    0.96457   0.88460   13.364
 4225.00    0.95319   0.87134   13.457
 4226.00    0.93987   0.87108   14.334
 4227.00    0.92665   0.88323   15.159
 4228.00    0.92001   0.90292   -2.000
 4229.00    0.92690   0.92317   -2.000
 4230.00    0.94671   0.93807   -2.000
 4231.00    0.97186   0.94510   -2.000
 4232.00    0.99216   0.94528   -2.000
 4233.00    0.99876   0.94177   -2.000
 4234.00    0.98897   0.93795   -2.000
 4235.00    0.96739   0.93623   -2.000
 4236.00    0.94581   0.93769   -2.000
 4237.00    0.93494   0.94242   -2.000
 4238.00    0.93483   0.94991   -2.000
 4239.00    0.94226   0.95928   -2.000
 4240.00    0.95919   0.96934   -2.000
 4241.00    0.98319   0.97861   -2.000
 4242.00    0.99922   0.98536   -2.000
 4243.00    0.99707   0.98789   14.686
 4244.00    0.98499   0.98518   14.892
 4245.00    0.97465   0.97741   15.232
 4246.00    0.96936   0.96616   15.596
 4247.00    0.96577   0.95391   15.948
 4248.00    0.95747   0.94318   16.442
 4249.00    0.94568   0.93564   17.047
 4250.00    0.94185   0.93176   17.345
 4251.00    0.94986   0.93108   17.095
 4252.00    0.96091   0.93277   16.530
 4253.00    0.97201   0.93602   15.808
 4254.00    0.98842   0.93989   14.972
 4255.00    1.00089   0.94308   14.492
 4256.00    0.98819   0.94427   15.036
 4257.00    0.95599   0.94321   16.487
 4258.00    0.93497   0.94149   17.595
 4259.00    0.93583   0.94207   17.735
 4260.00    0.94735   0.94744   17.688
 4261.00    0.96705   0.95786   17.646
 4262.00    0.99924   0.97074   17.140
 4263.00    1.03204   0.98186   16.279
 4264.00    1.04552   0.98729   15.600
 4265.00    1.03818   0.98483   15.467
 4266.00    1.02290   0.97440   15.969
 4267.00    1.01010   0.95764   16.646
 4268.00    1.00175   0.93728   16.764
 4269.00    0.98763   0.91675   16.332
 4270.00    0.95768   0.89965   15.924
 4271.00    0.91903   0.88919   16.029
 4272.00    0.88882   0.88722   16.742
 4273.00    0.88202   0.89378   17.361
 4274.00    0.90340   0.90698   17.130
 4275.00    0.94144   0.92350   16.523
 4276.00    0.98016   0.93942   16.253
 4277.00    1.01040   0.95143   16.400
 4278.00    1.02782   0.95784   16.647
 4279.00    1.03039   0.95897   16.460
 4280.00    1.01812   0.95651   15.821
 4281.00    0.99292   0.95233   15.462
 4282.00    0.95851   0.94748   15.814
 4283.00    0.92079   0.94193   16.674
 4284.00    0.89039   0.93507   17.436
 4285.00    0.88075   0.92636   17.358
 4286.00    0.89266   0.91614   16.653
 4287.00    0.91089   0.90590   16.383
 4288.00    0.92275   0.89803   16.746
 4289.00    0.92523   0.89469   16.956
 4290.00    0.92094   0.89646   16.706
 4291.00    0.91429   0.90169   16.524
 4292.00    0.90480   0.90716   16.682
 4293.00    0.88911   0.90945   16.991
 4294.00    0.87272   0.90626   17.086
 4295.00    0.86620   0.89695   16.696
 4296.00    0.86739   0.88252   16.078
 4297.00    0.86573   0.86527   15.757
 4298.00    0.86148   0.84832   16.045
 4299.00    0.86153   0.83462   16.730
 4300.00    0.86330   0.82590   16.275
 4301.00    0.85854   0.82206   13.953
 4302.00    0.84534   0.82134   12.020
 4303.00    0.82935   0.82135   11.628
 4304.00    0.82179   0.82031   12.120
 4305.00    0.82751   0.81800   12.370
 4306.00    0.83140   0.81597   12.048
 4307.00    0.82177   0.81668   11.717
 4308.00    0.81675   0.82231   12.267
 4309.00    0.83569   0.83363   14.318
 4310.00    0.86885   0.85000   16.884
 4311.00    0.89755   0.87016   17.577
 4312.00    0.91499   0.89299   17.229
 4313.00    0.92543   0.91750   17.668
 4314.00    0.94052   0.94220   18.616
 4315.00    0.96638   0.96466   19.029
 4316.00    0.99591   0.98183   18.482
 4317.00    1.01570   0.99105   17.585
 4318.00    1.01338   0.99096   17.382
 4319.00    0.99140   0.98170   18.063
 4320.00    0.96904   0.96453   18.724
 4321.00    0.95711   0.94184   18.754
 4322.00    0.94948   0.91728   18.632
 4323.00    0.93858   0.89579   18.704
 4324.00    0.92301   0.88232   18.794
 4325.00    0.91014   0.87970   18.744
 4326.00    0.91069   0.88708   18.624
 4327.00    0.91936   0.90022   18.679
 4328.00    0.91914   0.91359   19.134
 4329.00    0.91010   0.92278   19.670
 4330.00    0.90673   0.92550    0.000
 4331.00    0.91216   0.92106    0.000
 4332.00    0.91808   0.90896    0.000
 4333.00    0.91850   0.88803    0.000
 4334.00    0.91445   0.85724    0.000
 4335.00    0.91660   0.81735    0.000
 4336.00    0.93574   0.77220    0.000
 4337.00    0.96689   0.72862    0.000
 4338.00    0.99654   0.69485    0.000
 4339.00    1.01674   0.67780    0.000
 4340.00    1.02524   0.68038    0.000
 4341.00    1.02300   0.70068    0.000
 4342.00    1.01315   0.73334    0.000
 4343.00    1.00008   0.77170    0.000
 4344.00    0.98761   0.80975    0.000
 4345.00    0.97712   0.84321    0.000
 4346.00    0.96707   0.86951    0.000
 4347.00    0.95348   0.88721    0.000
 4348.00    0.93612   0.89621    0.000
 4349.00    0.92200   0.89856    0.000
 4350.00    0.91660   0.89838    0.000
 4351.00    0.91843   0.90032   19.571
 4352.00    0.92328   0.90734   19.782
 4353.00    0.92774   0.91957   20.024
 4354.00    0.93360   0.93484   20.276
 4355.00    0.94743   0.94999   20.100
 4356.00    0.96891   0.96270   19.451
 4357.00    0.98888   0.97270   18.839
 4358.00    1.00291   0.98142   18.621
 4359.00    1.01422   0.99041   18.848
 4360.00    1.02450   1.00014   19.283
 4361.00    1.03164   1.00984   19.508
 4362.00    1.03303   1.01788   19.505
 4363.00    1.02794   1.02241   19.635
 4364.00    1.02089   1.02219   19.983
 4365.00    1.01886   1.01751   20.320
 4366.00    1.02297   1.01012   20.455
 4367.00    1.02790   1.00221   20.353
 4368.00    1.02519   0.99518   20.128
 4369.00    1.00958   0.98915   19.946
 4370.00    0.98885   0.98334   19.885
 4371.00    0.97622   0.97705   19.972
 4372.00    0.97580   0.97082   20.256
 4373.00    0.98349   0.96657   20.649
 4374.00    0.99193   0.96638   20.682
 4375.00    0.99645   0.97052   20.157
 4376.00    1.00068   0.97652   19.842
 4377.00    1.00706   0.98007   20.248
 4378.00    1.00694   0.97695   20.583
 4379.00    0.99217   0.96493   20.069
 4380.00    0.96643   0.94481   19.417
 4381.00    0.93910   0.92068   19.298
 4382.00    0.91858   0.89890   19.410
 4383.00    0.90742   0.88546   19.379
 4384.00    0.90069   0.88307   19.359
 4385.00    0.89644   0.89021   19.513
 4386.00    0.90020   0.90304   19.715
 4387.00    0.91084   0.91768   19.859
 4388.00    0.91640   0.93162   20.021
 4389.00    0.91459   0.94380   20.229
 4390.00    0.91818   0.95419   20.368
 4391.00    0.93242   0.96302   20.335
 4392.00    0.94880   0.97058   20.130
 4393.00    0.96016   0.97749   19.877
 4394.00    0.96582   0.98437   19.773
 4395.00    0.96843   0.99096   19.935
 4396.00    0.97152   0.99570   20.352
 4397.00    0.97598   0.99688   20.803
 4398.00    0.97910   0.99392   20.955
 4399.00    0.97496   0.98752   20.809
 4400.00    0.95877   0.97895   20.625
 4401.00    0.93595   0.96911   20.424
 4402.00    0.91921   0.95875   20.093
 4403.00    0.91832   0.94972   19.753
 4404.00    0.93494   0.94476   19.639
 4405.00    0.95806   0.94568   19.825
 4406.00    0.97579   0.95262   20.196
 4407.00    0.99366   0.96447   20.431
 4408.00    1.01943   0.97911   20.242
 4409.00    1.04019   0.99316   19.750
 4410.00    1.04155   1.00292   19.268
 4411.00    1.03218   1.00595   19.006
 4412.00    1.02468   1.00212   19.092
 4413.00    1.01433   0.99407   19.604
 4414.00    0.99611   0.98661   20.399
 4415.00    0.98046   0.98417   20.891
 4416.00    0.97622   0.98817   20.745
 4417.00    0.97759   0.99684   20.504
 4418.00    0.97811   1.00657   20.550
 4419.00    0.98012   1.01371   20.546
 4420.00    0.98645   1.01651   20.372
 4421.00    0.99487   1.01576   20.547
 4422.00    0.99911   1.01359   21.235
 4423.00    0.99223   1.01172   21.824
 4424.00    0.97877   1.01067   21.886
 4425.00    0.97531   1.01022   21.711
 4426.00    0.98828   1.00993   21.584
 4427.00    1.00791   1.00921   21.504
 4428.00    1.02174   1.00742   21.421
 4429.00    1.02207   1.00425   21.331
 4430.00    1.01264   1.00001   21.276
 4431.00    1.00482   0.99507   21.316
 4432.00    1.00098   0.99014   21.448
 4433.00    0.99609   0.98708   21.587
 4434.00    0.99339   0.98819   21.592
 4435.00    1.00079   0.99446   21.391
 4436.00    1.01458   1.00428   21.238
 4437.00    1.02537   1.01386   21.432
 4438.00    1.03578   1.01942   21.768
 4439.00    1.05218   1.01915   21.798
 4440.00    1.06578   1.01445   21.536
 4441.00    1.06399   1.00915   21.251
 4442.00    1.05130   1.00726   20.979
 4443.00    1.03857   1.01078   20.703
 4444.00    1.02595   1.01874   20.627
 4445.00    1.01157   1.02795   20.882
 4446.00    1.00305   1.03533   21.206
 4447.00    1.00627   1.03932   21.346
 4448.00    1.01385   1.03919   21.528
 4449.00    1.01578   1.03479   22.000
 4450.00    1.00934   1.02678   22.581
 4451.00    0.99501   1.01581   22.922
 4452.00    0.97354   1.00262   22.840
 4453.00    0.95177   0.98878   22.429
 4454.00    0.94371   0.97656   22.006
 4455.00    0.95185   0.96775   21.767
 4456.00    0.96038   0.96254   21.663
 4457.00    0.96099   0.96007   21.568
 4458.00    0.96233   0.95982   21.391
 4459.00    0.96816   0.96179   21.222
 4460.00    0.97055   0.96607   21.297
 4461.00    0.96528   0.97271    0.000
 4462.00    0.95700   0.98099    0.000
 4463.00    0.95393   0.98865    0.000
 4464.00    0.96268   0.99356    0.000
 4465.00    0.97850   0.99504    0.000
 4466.00    0.98923   0.99366    0.000
 4467.00    0.99383   0.99109    0.000
 4468.00    1.00142   0.98981    0.000
 4469.00    1.01627   0.99238    0.000
 4470.00    1.03581   1.00020    0.000
 4471.00    1.05449   1.01290    0.000
 4472.00    1.06590   1.02845    0.000
 4473.00    1.06524   1.04356    0.000
 4474.00    1.05194   1.05515    0.000
 4475.00    1.03286   1.06124    0.000
 4476.00    1.01732   1.06079    0.000
 4477.00    1.00921   1.05377    0.000
 4478.00    1.00802   1.04214    0.000
 4479.00    1.01175   1.03000    0.000
 4480.00    1.01969   1.02231    0.000
 4481.00    1.03447   1.02237    0.000
 4482.00    1.05523   1.02997   21.870
 4483.00    1.07190   1.04139   21.143
 4484.00    1.07610   1.05169   20.928
 4485.00    1.07017   1.05714   21.021
 4486.00    1.06089   1.05646   21.308
 4487.00    1.05358   1.05104   22.069
 4488.00    1.04860   1.04400   23.203
 4489.00    1.04086   1.03829   23.676
 4490.00    1.02934   1.03508   23.180
 4491.00    1.02107   1.03362   22.928
 4492.00    1.02252   1.03266   23.275
 4493.00    1.03468   1.03206   23.138
 4494.00    1.05167   1.03308   22.318
 4495.00    1.06304   1.03698   21.950
 4496.00    1.06422   1.04381   22.423
 4497.00    1.05968   1.05253   23.112
 4498.00    1.05916   1.06181   23.372
 4499.00    1.07240   1.07088   23.069
 4500.00    1.09829   1.07996   22.742
 4501.00    1.12680   1.08975   23.056
 4502.00    1.15308   1.09979   23.648
 4503.00    1.17543   1.10809   23.472
 4504.00    1.18248   1.11293   22.722
 4505.00    1.16292   1.11404   22.387
 4506.00    1.13050   1.11232   22.628
 4507.00    1.10998   1.10918   23.012
 4508.00    1.10359   1.10550   23.177
 4509.00    1.09909   1.10124   23.017
 4510.00    1.09183   1.09577   22.763
 4511.00    1.08415   1.08892   22.711
 4512.00    1.07945   1.08149   22.908
 4513.00    1.07786   1.07482   23.276
 4514.00    1.07276   1.07007   23.790
 4515.00    1.06152   1.06777   24.402
 4516.00    1.05568   1.06748   24.916
 4517.00    1.06411   1.06840   25.050
 4518.00    1.07782   1.06959   24.599
 4519.00    1.08574   1.06962   23.875
 4520.00    1.08747   1.06688   23.718
 4521.00    1.08210   1.06028   24.331
 4522.00    1.06145   1.05002   24.694
 4523.00    1.02485   1.03726   24.128
 4524.00    0.98635   1.02307   23.348
 4525.00    0.95900   1.00878   22.943
 4526.00    0.94645   0.99627   22.799
 4527.00    0.94670   0.98720   22.750
 4528.00    0.95550   0.98251   22.789
 4529.00    0.97154   0.98197   22.808
 4530.00    0.99601   0.98432   22.602
 4531.00    1.02253   0.98827   22.357
 4532.00    1.03853   0.99318   22.568
 4533.00    1.04247   0.99966   23.310
 4534.00    1.04444   1.00902   24.129
 4535.00    1.05076   1.02146   24.521
 4536.00    1.06077   1.03500   24.295
 4537.00    1.07034   1.04628   23.866
 4538.00    1.07496   1.05308   23.789
 4539.00    1.07428   1.05556   23.879
 4540.00    1.07161   1.05536   23.596
 4541.00    1.07075   1.05409   23.107
 4542.00    1.07356   1.05227   22.925
 4543.00    1.07715   1.04945   23.070
 4544.00    1.07671   1.04552   23.260
 4545.00    1.07050   1.04097   23.332
 4546.00    1.06008   1.03606   23.314
 4547.00    1.04932   1.03094   23.412
 4548.00    1.04053   1.02618   23.756
 4549.00    1.03073   1.02289   24.133
 4550.00    1.01929   1.02149    0.000
 4551.00    1.01508   1.02140    0.000
 4552.00    1.02518   1.02263    0.000
 4553.00    1.04449   1.02619    0.000
 4554.00    1.06196   1.03304    0.000
 4555.00    1.06773   1.04330    0.000
 4556.00    1.06354   1.05561    0.000
 4557.00    1.06595   1.06733    0.000
 4558.00    1.08217   1.07600    0.000
 4559.00    1.09866   1.08030    0.000
 4560.00    1.10296   1.08016    0.000
 4561.00    1.09521   1.07650    0.000
 4562.00    1.08374   1.07109    0.000
 4563.00    1.07977   1.06648    0.000
 4564.00    1.08593   1.06501    0.000
 4565.00    1.09463   1.06728    0.000
 4566.00    1.10008   1.07183    0.000
 4567.00    1.10156   1.07608    0.000
 4568.00    1.09959   1.07824    0.000
 4569.00    1.09447   1.07816    0.000
 4570.00    1.08606   1.07698    0.000
 4571.00    1.07543   1.07657    0.000
 4572.00    1.06885   1.07797    0.000
 4573.00    1.07317   1.07982    0.000
 4574.00    1.08406   1.08007    0.000
 4575.00    1.09095   1.07766    0.000
 4576.00    1.09115   1.07235    0.000
 4577.00    1.08823   1.06444    0.000
 4578.00    1.08495   1.05512    0.000
 4579.00    1.08090   1.04630    0.000
 4580.00    1.07133   1.03991    0.000
 4581.00    1.05535   1.03687    0.000
 4582.00    1.04539   1.03690    0.000
 4583.00    1.05094   1.03946    0.000
 4584.00    1.06049   1.04418    0.000
 4585.00    1.05999   1.05038    0.000
 4586.00    1.05225   1.05701    0.000
 4587.00    1.04664   1.06259    0.000
 4588.00    1.04820   1.06553    0.000
 4589.00    1.05578   1.06501    0.000
 4590.00    1.06252   1.06155    0.000
 4591.00    1.06468   1.05677    0.000
 4592.00    1.06588   1.05244    0.000
 4593.00    1.06632   1.04952    0.000
 4594.00    1.05870   1.04813    0.000
 4595.00    1.04262   1.04816    0.000
 4596.00    1.02881   1.04921    0.000
 4597.00    1.02347   1.05061    0.000
 4598.00    1.02363   1.05179    0.000
 4599.00    1.02888   1.05249    0.000
 4600.00    1.04278   1.05323    0.000
 4601.00    1.06049   1.05494    0.000
 4602.00    1.06996   1.05809    0.000
 4603.00    1.06937   1.06281    0.000
 4604.00    1.06754   1.06925    0.000
 4605.00    1.07039   1.07741    0.000
 4606.00    1.07883   1.08662    0.000
 4607.00    1.09268   1.09540    0.000
 4608.00    1.11030   1.10189    0.000
 4609.00    1.12578   1.10487    0.000
 4610.00    1.13220   1.10465    0.000
 4611.00    1.12839   1.10271    0.000
 4612.00    1.11754   1.10054    0.000
 4613.00    1.10294   1.09908    0.000
 4614.00    1.08885   1.09848    0.000
 4615.00    1.08241   1.09816    0.000
 4616.00    1.08817   1.09785    0.000
 4617.00    1.10159   1.09775    0.000
 4618.00    1.11482   1.09801    0.000
 4619.00    1.12373   1.09916    0.000
 4620.00    1.12646   1.10125    0.000
 4621.00    1.12148   1.10320    0.000
 4622.00    1.11007   1.10409    0.000
 4623.00    1.09783   1.10377    0.000
 4624.00    1.08943   1.10228    0.000
 4625.00    1.08478   1.10010    0.000
 4626.00    1.08061   1.09796    0.000
 4627.00    1.07290   1.09609    0.000
 4628.00    1.06367   1.09431    0.000
 4629.00    1.06188   1.09269    0.000
 4630.00    1.06863   1.09109    0.000
 4631.00    1.07312   1.08846    0.000
 4632.00    1.06952   1.08406    0.000
 4633.00    1.06211   1.07848    0.000
 4634.00    1.05568   1.07273    0.000
 4635.00    1.05237   1.06727    0.000
 4636.00    1.05456   1.06240    0.000
 4637.00    1.06403   1.05866    0.000
 4638.00    1.07668   1.05660    0.000
 4639.00    1.08403   1.05609    0.000
 4640.00    1.08140   1.05618    0.000
 4641.00    1.06921   1.05530    0.000
 4642.00    1.05090   1.05180    0.000
 4643.00    1.03304   1.04539    0.000
 4644.00    1.02622   1.03731    0.000
 4645.00    1.03593   1.02964    0.000
 4646.00    1.04729   1.02492    0.000
 4647.00    1.04098   1.02502    0.000
 4648.00    1.02112   1.02982    0.000
 4649.00    1.00375   1.03746    0.000
 4650.00    0.99529   1.04553    0.000
 4651.00    0.99479   1.05220    0.000
 4652.00    1.00033   1.05686    0.000
 4653.00    1.01081   1.06000    0.000
 4654.00    1.02687   1.06325    0.000
 4655.00    1.04782   1.06852    0.000
 4656.00    1.06906   1.07625    0.000
 4657.00    1.08516   1.08505    0.000
 4658.00    1.09278   1.09210    0.000
 4659.00    1.09131   1.09442    0.000
 4660.00    1.08319   1.09045    0.000
 4661.00    1.07354   1.08059    0.000
 4662.00    1.06847   1.06671    0.000
 4663.00    1.06697   1.05108    0.000
 4664.00    1.05918   1.03576    0.000
 4665.00    1.04005   1.02253    0.000
 4666.00    1.01467   1.01364    0.000
 4667.00    0.99168   1.01149    0.000
 4668.00    0.97936   1.01669    0.000
 4669.00    0.98255   1.02704    0.000
 4670.00    1.00126   1.03917    0.000
 4671.00    1.03005   1.05025    0.000
 4672.00    1.05942   1.05880    0.000
 4673.00    1.08016   1.06469    0.000
 4674.00    1.08689   1.06824    0.000
 4675.00    1.08343   1.06946    0.000
 4676.00    1.07879   1.06807    0.000
 4677.00    1.07585   1.06424    0.000
 4678.00    1.07219   1.05932    0.000
 4679.00    1.06683   1.05519    0.000
 4680.00    1.06066   1.05309    0.000
 4681.00    1.05509   1.05336    0.000
 4682.00    1.05247   1.05561    0.000
 4683.00    1.05684   1.05861    0.000
 4684.00    1.06893   1.06102    0.000
 4685.00    1.08002   1.06239    0.000
 4686.00    1.08186   1.06294    0.000
 4687.00    1.07807   1.06305    0.000
 4688.00    1.07478   1.06325    0.000
 4689.00    1.07044   1.06396    0.000
 4690.00    1.06226   1.06532    0.000
 4691.00    1.05266   1.06753    0.000
 4692.00    1.04606   1.07033    0.000
 4693.00    1.04552   1.07260    0.000
 4694.00    1.05003   1.07304    0.000
 4695.00    1.05362   1.07066    0.000
 4696.00    1.05019   1.06503    0.000
 4697.00    1.03728   1.05682    0.000
 4698.00    1.01946   1.04799    0.000
 4699.00    1.00781   1.04062    0.000
 4700.00    1.00946   1.03538    0.000
 4701.00    1.02324   1.03198    0.000
 4702.00    1.04262   1.03035    0.000
 4703.00    1.05867   1.03057    0.000
 4704.00    1.06587   1.03204    0.000
 4705.00    1.06438   1.03355    0.000
 4706.00    1.06032   1.03464    0.000
 4707.00    1.06113   1.03598    0.000
 4708.00    1.06276   1.03835    0.000
 4709.00    1.05465   1.04190    0.000
 4710.00    1.03976   1.04616    0.000
 4711.00    1.03083   1.05024    0.000
 4712.00    1.03169   1.05390    0.000
 4713.00    1.03802   1.05828    0.000
 4714.00    1.04643   1.06488    0.000
 4715.00    1.05532   1.07406    0.000
 4716.00    1.06348   1.08455    0.000
 4717.00    1.07031   1.09440    0.000
 4718.00    1.07648   1.10242    0.000
 4719.00    1.08211   1.10800    0.000
 4720.00    1.08480   1.11067    0.000
 4721.00    1.08282   1.11036    0.000
 4722.00    1.07874   1.10739    0.000
 4723.00    1.07649   1.10201    0.000
 4724.00    1.07777   1.09398    0.000
 4725.00    1.08020   1.08314    0.000
 4726.00    1.07700   1.07055    0.000
 4727.00    1.06580   1.05879    0.000
 4728.00    1.05377   1.05070    0.000
 4729.00    1.04613   1.04743    0.000
 4730.00    1.03981   1.04838    0.000
 4731.00    1.03358   1.05237    0.000
 4732.00    1.03238   1.05788    0.000
 4733.00    1.03733   1.06340    0.000
 4734.00    1.04265   1.06810    0.000
 4735.00    1.04653   1.07174    0.000
 4736.00    1.05311   1.07470    0.000
 4737.00    1.06050   1.07796    0.000
 4738.00    1.06041   1.08151    0.000
 4739.00    1.05395   1.08439    0.000
 4740.00    1.05143   1.08664    0.000
 4741.00    1.05481   1.08918    0.000
 4742.00    1.05810   1.09228    0.000
 4743.00    1.06309   1.09548    0.000
 4744.00    1.07720   1.09831    0.000
 4745.00    1.09826   1.10083    0.000
 4746.00    1.11686   1.10283    0.000
 4747.00    1.12850   1.10344    0.000
 4748.00    1.13290   1.10222    0.000
 4749.00    1.12840   1.09938    0.000
 4750.00    1.11496   1.09502    0.000
 4751.00    1.10019   1.08947    0.000
 4752.00    1.09198   1.08368    0.000
 4753.00    1.08745   1.07879    0.000
 4754.00    1.08092   1.07543    0.000
 4755.00    1.07496   1.07362    0.000
 4756.00    1.07379   1.07275    0.000
 4757.00    1.07516   1.07183    0.000
 4758.00    1.07510   1.06973    0.000
 4759.00    1.07297   1.06556    0.000
 4760.00    1.06857   1.05896    0.000
 4761.00    1.05983   1.05070   29.367
 4762.00    1.04705   1.04281   29.795
 4763.00    1.03536   1.03732   30.310
 4764.00    1.03003   1.03512   30.409
 4765.00    1.03310   1.03650   29.910
 4766.00    1.04295   1.04140   29.177
 4767.00    1.05463   1.04878   28.912
 4768.00    1.06279   1.05695   29.295
 4769.00    1.06417   1.06447   29.814
 4770.00    1.06192   1.07062   30.057
 4771.00    1.06438   1.07578   30.052
 4772.00    1.07273   1.08105   29.907
 4773.00    1.08027   1.08661   29.664
 4774.00    1.08561   1.09137   29.385
 4775.00    1.09327   1.09414   29.188
 4776.00    1.10180   1.09482   29.262
 4777.00    1.10392   1.09359   29.767
 4778.00    1.09624   1.09027   30.526
 4779.00    1.08079   1.08525   31.088
 4780.00    1.06250   1.07953   31.257
 4781.00    1.04738   1.07365   31.174
 4782.00    1.03991   1.06793   31.088
 4783.00    1.04132   1.06323   31.160
 4784.00    1.04777   1.06019   31.242
 4785.00    1.05332   1.05847   31.103
 4786.00    1.05498   1.05812   30.814
 4787.00    1.05291   1.06004   30.568
 4788.00    1.04953   1.06425   30.366
 4789.00    1.04853   1.07040   30.142
 4790.00    1.05354   1.07842   29.932
 4791.00    1.06548   1.08741   29.908
 4792.00    1.08037   1.09594   30.347
 4793.00    1.09374   1.10256   31.174
 4794.00    1.10456   1.10587   31.517
 4795.00    1.11238   1.10525   30.835
 4796.00    1.11514   1.10163   29.867
 4797.00    1.11192   1.09685   29.372
 4798.00    1.10482   1.09270   29.433
 4799.00    1.09685   1.09041   29.752
 4800.00    1.09022   1.09014   29.839
 4801.00    1.08496   1.09075   29.595
 4802.00    1.07884   1.09050   29.477
 4803.00    1.07083   1.08832   29.649
 4804.00    1.06248   1.08465   29.772
 4805.00    1.05652   1.08098   29.819
 4806.00    1.05537   1.07847   30.191
 4807.00    1.05805   1.07740   30.748
 4808.00    1.06105   1.07803   30.772
 4809.00    1.06477   1.08027   30.311
 4810.00    1.07282   1.08337   30.077
 4811.00    1.08419   1.08682   29.899
 4812.00    1.09356   1.09061   29.119
 4813.00    1.09761   1.09483   28.391
 4814.00    1.09640   1.09926   28.786
 4815.00    1.09242   1.10336   29.600
 4816.00    1.08903   1.10635   29.264
 4817.00    1.08780   1.10735   28.582
 4818.00    1.08854   1.10569   29.157
 4819.00    1.09015   1.10131   30.194
 4820.00    1.09126   1.09469   29.923
 4821.00    1.09093   1.08692   29.148
 4822.00    1.08878   1.07926   29.347
 4823.00    1.08519   1.07338   29.919
 4824.00    1.08166   1.07071   29.680
 4825.00    1.08080   1.07047   29.021
 4826.00    1.08205   1.07043   28.738
 4827.00    1.07822   1.06945   28.751
 4828.00    1.06385   1.06788   28.741
 4829.00    1.04259   1.06646   28.720
 4830.00    1.02331   1.06542   28.767
 4831.00    1.01546   1.06467   28.814
 4832.00    1.02128   1.06474   28.719
 4833.00    1.03215   1.06566   28.374
 4834.00    1.03889   1.06604   27.914
 4835.00    1.03831   1.06471   27.710
 4836.00    1.03356   1.06174   27.932
 4837.00    1.03223   1.05763   28.425
 4838.00    1.03808   1.05281   29.033
 4839.00    1.04775   1.04830   29.700
 4840.00    1.05381   1.04534   30.144
 4841.00    1.04911   1.04400   29.935
 4842.00    1.03699   1.04331   29.370
 4843.00    1.02892   1.04273   29.253
 4844.00    1.02591   1.04210   29.583
 4845.00    1.01945   1.04035   29.627
 4846.00    1.01035   1.03632   29.139
 4847.00    1.00699   1.03000   28.499
 4848.00    1.00853   1.02232    0.000
 4849.00    1.00686   1.01391    0.000
 4850.00    0.99926   1.00379    0.000
 4851.00    0.98854   0.99036    0.000
 4852.00    0.97795   0.97312    0.000
 4853.00    0.97279   0.95199    0.000
 4854.00    0.98439   0.92700    0.000
 4855.00    1.02727   0.89952    0.000
 4856.00    1.11353   0.87132    0.000
 4857.00    1.24271   0.84311    0.000
 4858.00    1.39072   0.81617    0.000
 4859.00    1.51989   0.79416    0.000
 4860.00    1.59306   0.78209    0.000
 4861.00    1.58817   0.78414    0.000
 4862.00    1.51042   0.80054    0.000
 4863.00    1.38362   0.82603    0.000
 4864.00    1.24052   0.85418    0.000
 4865.00    1.11210   0.88091    0.000
 4866.00    1.01895   0.90338    0.000
 4867.00    0.96535   0.91999    0.000
 4868.00    0.93852   0.93117    0.000
 4869.00    0.92651   0.93845    0.000
 4870.00    0.92703   0.94372    0.000
 4871.00    0.93846   0.95014    0.000
 4872.00    0.95568   0.96041    0.000
 4873.00    0.97349   0.97387    0.000
 4874.00    0.98847   0.98806    0.000
 4875.00    0.99928   1.00171   32.094
 4876.00    1.00640   1.01430   31.788
 4877.00    1.01065   1.02483   32.027
 4878.00    1.01241   1.03246   32.237
 4879.00    1.01095   1.03666   32.187
 4880.00    1.00480   1.03668   32.143
 4881.00    0.99359   1.03339   32.236
 4882.00    0.97930   1.02887   32.419
 4883.00    0.96800   1.02370   32.774
 4884.00    0.96563   1.01770   33.367
 4885.00    0.96877   1.01190   33.792
 4886.00    0.96859   1.00792   33.638
 4887.00    0.96137   1.00657   33.564
 4888.00    0.95017   1.00792   34.352
 4889.00    0.94392   1.01234   35.212
 4890.00    0.95011   1.02091   34.885
 4891.00    0.96524   1.03490   34.004
 4892.00    0.98166   1.05373   33.685
 4893.00    0.99719   1.07330   33.732
 4894.00    1.01357   1.08947   33.591
 4895.00    1.03316   1.10022   33.397
 4896.00    1.05461   1.10507   33.433
 4897.00    1.07009   1.10487   33.566
 4898.00    1.07383   1.10114   33.484
 4899.00    1.06871   1.09581   32.985
 4900.00    1.06027   1.09131   32.187
 4901.00    1.05222   1.08879   31.539
 4902.00    1.04772   1.08744   31.416
 4903.00    1.04962   1.08681   31.918
 4904.00    1.05628   1.08690   32.690
 4905.00    1.06082   1.08650   32.903
 4906.00    1.05933   1.08386   32.391
 4907.00    1.05378   1.07883   31.979
 4908.00    1.04684   1.07320   32.095
 4909.00    1.04020   1.06895   32.464
 4910.00    1.03753   1.06747   32.778
 4911.00    1.04358   1.06877   32.902
 4912.00    1.05739   1.07066   32.643
 4913.00    1.07176   1.07013   31.877
 4914.00    1.07825   1.06528   31.042
 4915.00    1.07050   1.05522   30.786
 4916.00    1.04851   1.03992   31.144
 4917.00    1.01902   1.02137   31.646
 4918.00    0.99338   1.00363   31.888
 4919.00    0.98208   0.99126   31.754
 4920.00    0.98505   0.98741   31.548
 4921.00    0.99491   0.99272   31.652
 4922.00    1.00589   1.00511   31.981
 4923.00    1.01557   1.02124   32.173
 4924.00    1.02495   1.03925   32.047
 4925.00    1.03644   1.05815   31.633
 4926.00    1.05092   1.07564   31.084
 4927.00    1.06611   1.08891   30.636
 4928.00    1.07556   1.09692   30.574
 4929.00    1.07375   1.09954   30.942
 4930.00    1.06147   1.09677   31.284
 4931.00    1.04443   1.08963   31.266
 4932.00    1.03084   1.07952   31.263
 4933.00    1.02557   1.06862   31.478
 4934.00    1.02605   1.05985   31.348
 4935.00    1.02592   1.05400   30.795
 4936.00    1.01922   1.05003   30.811
 4937.00    1.00886   1.04836   31.726
 4938.00    1.00837   1.05095   32.427
 4939.00    1.02278   1.05891   32.207
 4940.00    1.04161   1.07081    0.000
 4941.00    1.05600   1.08323    0.000
 4942.00    1.06573   1.09383    0.000
 4943.00    1.07207   1.10241    0.000
 4944.00    1.07481   1.10878    0.000
 4945.00    1.07284   1.11307    0.000
 4946.00    1.06613   1.11651    0.000
 4947.00    1.06092   1.11962    0.000
 4948.00    1.06601   1.12128    0.000
 4949.00    1.07817   1.12037    0.000
 4950.00    1.08545   1.11631    0.000
 4951.00    1.08555   1.10870    0.000
 4952.00    1.08463   1.09756    0.000
 4953.00    1.08492   1.08433    0.000
 4954.00    1.08427   1.07105    0.000
 4955.00    1.08069   1.05925    0.000
 4956.00    1.07445   1.05050    0.000
 4957.00    1.06987   1.04749    0.000
 4958.00    1.07182   1.05240    0.000
 4959.00    1.08017   1.06228    0.000
 4960.00    1.08950   1.07118    0.000
 4961.00    1.09034   1.07628    0.000
 4962.00    1.07730   1.07781    0.000
 4963.00    1.05724   1.07636    0.000
 4964.00    1.04077   1.07248    0.000
 4965.00    1.03275   1.06803    0.000
 4966.00    1.03320   1.06554    0.000
 4967.00    1.03889   1.06600    0.000
 4968.00    1.04493   1.06904    0.000
 4969.00    1.04649   1.07413    0.000
 4970.00    1.04367   1.08032    0.000
 4971.00    1.04323   1.08636    0.000
 4972.00    1.04910   1.09080    0.000
 4973.00    1.05755   1.09233    0.000
 4974.00    1.06251   1.09015    0.000
 4975.00    1.05920   1.08379    0.000
 4976.00    1.04657   1.07354    0.000
 4977.00    1.02789   1.06027    0.000
 4978.00    1.00863   1.04537    0.000
 4979.00    0.99478   1.03088    0.000
 4980.00    0.98985   1.01832    0.000
 4981.00    0.99394   1.00856    0.000
 4982.00    1.00403   1.00350    0.000
 4983.00    1.01564   1.00500    0.000
 4984.00    1.02692   1.01230    0.000
 4985.00    1.03842   1.02273    0.000
 4986.00    1.04987   1.03383    0.000
 4987.00    1.05909   1.04347    0.000
 4988.00    1.06144   1.05008    0.000
 4989.00    1.05426   1.05386    0.000
 4990.00    1.04459   1.05605    0.000
 4991.00    1.04160   1.05777    0.000
 4992.00    1.04256   1.05918    0.000
 4993.00    1.04004   1.05933    0.000
 4994.00    1.03487   1.05814    0.000
 4995.00    1.03064   1.05572    0.000
 4996.00    1.02491   1.05110    0.000
 4997.00    1.01491   1.04404    0.000
 4998.00    1.00452   1.03504    0.000
 4999.00    1.00105   1.02503    0.000
 5000.00    1.01119   1.01583    0.000
 5001.00    1.03876   1.00877    0.000
 5002.00    1.08274   1.00397    0.000
 5003.00    1.13445   1.00107    0.000
 5004.00    1.17724   0.99947    0.000
 5005.00    1.19862   0.99905    0.000
 5006.00    1.19725   1.00054    0.000
 5007.00    1.17727   1.00361    0.000
 5008.00    1.14409   1.00558    0.000
 5009.00    1.10206   1.00388    0.000
 5010.00    1.05468   0.99843    0.000
 5011.00    1.01078   0.99067    0.000
 5012.00    0.98337   0.98257    0.000
 5013.00    0.97503   0.97649    0.000
 5014.00    0.97654   0.97382    0.000
 5015.00    0.98233   0.97468    0.000
 5016.00    0.99260   0.97797    0.000
 5017.00    1.00335   0.98234    0.000
 5018.00    1.00766   0.98795    0.000
 5019.00    1.00685   0.99497    0.000
 5020.00    1.00764   1.00197    0.000
 5021.00    1.00918   1.00776    0.000
 5022.00    1.00634   1.01307    0.000
 5023.00    1.00211   1.01888    0.000
 5024.00    1.00323   1.02462    0.000
 5025.00    1.00808   1.02953    0.000
 5026.00    1.01113   1.03404    0.000
 5027.00    1.01296   1.03903    0.000
 5028.00    1.01708   1.04532    0.000
 5029.00    1.02360   1.05190   34.176
 5030.00    1.03073   1.05658   34.359
 5031.00    1.03752   1.05847   34.982
 5032.00    1.04244   1.05703   35.285
 5033.00    1.04173   1.05105   35.306
 5034.00    1.03257   1.03992   35.515
 5035.00    1.01610   1.02548   36.255
 5036.00    0.99714   1.01152   37.380
 5037.00    0.98292   1.00034   37.987
 5038.00    0.97732   0.99187   37.582
 5039.00    0.97760   0.98706   36.947
 5040.00    0.97963   0.98802   36.795
 5041.00    0.98175   0.99608   37.077
 5042.00    0.98627   1.01007   37.452
 5043.00    0.99819   1.02517   37.604
 5044.00    1.01596   1.03670   37.652
 5045.00    1.02978   1.04326   38.099
 5046.00    1.03408   1.04454   38.674
 5047.00    1.03132   1.04128   38.265
 5048.00    1.02558   1.03641   36.967
 5049.00    1.02003   1.03339   36.042
 5050.00    1.01736   1.03380   35.777
 5051.00    1.01938   1.03752   35.572
 5052.00    1.02523   1.04418   35.338
 5053.00    1.03209   1.05297   35.422
 5054.00    1.03802   1.06219   35.516
 5055.00    1.04326   1.07038   35.095
 5056.00    1.05131   1.07709   34.955
 5057.00    1.06522   1.08205   36.209
 5058.00    1.08014   1.08446   37.835
 5059.00    1.08772   1.08371   37.671
 5060.00    1.08571   1.08017   36.503
 5061.00    1.07632   1.07396   36.280
 5062.00    1.06117   1.06510   36.717
 5063.00    1.04179   1.05461   36.690
 5064.00    1.02137   1.04462   36.421
 5065.00    1.00491   1.03770   36.521
 5066.00    0.99870   1.03441   36.605
 5067.00    1.00489   1.03289   36.169
 5068.00    1.01666   1.03238   35.583
 5069.00    1.02625   1.03318   35.281
 5070.00    1.03204   1.03427   35.098
 5071.00    1.03430   1.03403   34.812
 5072.00    1.03151   1.03258   34.536
 5073.00    1.02254   1.03054   34.399
 5074.00    1.00839   1.02689   34.369
 5075.00    0.99232   1.02103   34.507
 5076.00    0.97911   1.01410   35.041
 5077.00    0.97097   1.00681   35.846
 5078.00    0.96642   0.99922   36.259
 5079.00    0.96562   0.99322   36.028
 5080.00    0.97123   0.99211   35.649
 5081.00    0.98168   0.99621   35.428
 5082.00    0.99058   1.00307   35.244
 5083.00    0.99499   1.01127   35.069
 5084.00    0.99732   1.02063   35.021
 5085.00    1.00149   1.03018   34.988
 5086.00    1.01034   1.03861   34.727
 5087.00    1.02204   1.04572   34.480
 5088.00    1.03217   1.05188   34.709
 5089.00    1.04096   1.05683   35.164
 5090.00    1.05188   1.05985   35.162
 5091.00    1.06453   1.06060   34.817
 5092.00    1.07434   1.05882   34.713
 5093.00    1.07490   1.05391   34.813
 5094.00    1.06236   1.04603   34.787
 5095.00    1.04154   1.03664   34.831
 5096.00    1.02139   1.02760   35.312
 5097.00    1.00709   1.02028   36.070
 5098.00    1.00013   1.01569   36.626
 5099.00    0.99990   1.01484   36.675
 5100.00    1.00389   1.01745   36.331
 5101.00    1.00786   1.02080   36.164
 5102.00    1.00840   1.02238   36.493
 5103.00    1.00544   1.02169   36.808
 5104.00    1.00146   1.01949   36.640
 5105.00    1.00012   1.01685   36.327
 5106.00    1.00309   1.01438   36.183
 5107.00    1.00797   1.01291   35.951
 5108.00    1.01183   1.01388   35.646
 5109.00    1.01379   1.01741   35.923
 5110.00    1.01604   1.02313   36.934
 5111.00    1.02296   1.03112   37.812
 5112.00    1.03425   1.03989   38.063
 5113.00    1.04343   1.04770   38.265
 5114.00    1.04749   1.05403   38.578
 5115.00    1.04956   1.05811   38.362
 5116.00    1.05110   1.05930   37.749
 5117.00    1.04968   1.05701   37.740
 5118.00    1.04281   1.05070   38.568
 5119.00    1.02930   1.04098   39.534
 5120.00    1.00907   1.02934   40.137
 5121.00    0.98431   1.01723   40.359
 5122.00    0.96254   1.00584   40.122
 5123.00    0.95319   0.99624   39.375
 5124.00    0.95793   0.99004   38.626
 5125.00    0.97144   0.98780   38.447
 5126.00    0.98790   0.98826   38.491
 5127.00    1.00298   0.99048   38.041
 5128.00    1.01502   0.99446   37.309
 5129.00    1.02396   1.00019   36.892
 5130.00    1.02961   1.00692   36.720
 5131.00    1.03164   1.01327   36.483
 5132.00    1.03014   1.01768   36.334
 5133.00    1.02513   1.01968   36.500
 5134.00    1.01613   1.02011   36.739
 5135.00    1.00468   1.01872   36.693
 5136.00    0.99653   1.01426   36.365
 5137.00    0.99467   1.00823   36.014
 5138.00    0.99335   1.00299   35.951
 5139.00    0.98751   0.99928   36.182
 5140.00    0.98025   0.99733   36.196
 5141.00    0.97590   0.99547   35.644
 5142.00    0.97473   0.99303   34.838
 5143.00    0.97602   0.99227   34.363
 5144.00    0.97982   0.99278   34.727
 5145.00    0.98523   0.99220   35.755
 5146.00    0.98960   0.99085   36.373
 5147.00    0.99052   0.98995   36.250
 5148.00    0.98726   0.98984   36.421
 5149.00    0.98291   0.99029   37.212
 5150.00    0.98309   0.99086   37.676
 5151.00    0.98796   0.99253   37.297
 5152.00    0.99210   0.99653   36.576
 5153.00    0.99457   1.00276   36.028
 5154.00    0.99963   1.01091   35.877
 5155.00    1.00829   1.02020   36.194
 5156.00    1.01738   1.02856   36.838
 5157.00    1.02381   1.03416   37.168
 5158.00    1.02551   1.03543   36.542
 5159.00    1.02105   1.03119   35.672
 5160.00    1.00913   1.02100   35.733
 5161.00    0.98801   1.00420   36.599
 5162.00    0.95831   0.98190   37.361
 5163.00    0.92784   0.95725   37.813
 5164.00    0.90560   0.93185   38.264
 5165.00    0.89148   0.90598   38.590
 5166.00    0.88070   0.88173   38.560
 5167.00    0.87169   0.86350   38.496
 5168.00    0.86556   0.85514   38.782
 5169.00    0.86401   0.85603   39.218
 5170.00    0.86881   0.86183   39.416
 5171.00    0.88119   0.86980   39.346
 5172.00    0.89932   0.88213   39.254
 5173.00    0.91681   0.90160   39.481
 5174.00    0.92887   0.92491   40.067
 5175.00    0.93687   0.94449   40.505
 5176.00    0.94387   0.95574   40.438
 5177.00    0.95075   0.95830   40.139
 5178.00    0.95414   0.95353   39.755
 5179.00    0.94704   0.94363   39.001
 5180.00    0.92848   0.93141   38.166
 5181.00    0.90718   0.91964   38.211
 5182.00    0.89287   0.91104   39.252
 5183.00    0.89138   0.90980   40.156
 5184.00    0.90268   0.91960   40.156
 5185.00    0.92130   0.93708   39.616
 5186.00    0.94099   0.95430   38.993
 5187.00    0.95714   0.96719   38.442
 5188.00    0.96890   0.97594   38.003
 5189.00    0.97792   0.98150   37.683
 5190.00    0.98301   0.98347    0.000
 5191.00    0.98160   0.98191    0.000
 5192.00    0.97722   0.98104    0.000
 5193.00    0.97830   0.98463    0.000
 5194.00    0.99140   0.99103    0.000
 5195.00    1.01755   0.99784    0.000
 5196.00    1.04852   1.00507    0.000
 5197.00    1.07214   1.01185    0.000
 5198.00    1.08221   1.01590    0.000
 5199.00    1.07797   1.01549    0.000
 5200.00    1.06063   1.01003    0.000
 5201.00    1.03306   1.00039    0.000
 5202.00    1.00007   0.98783    0.000
 5203.00    0.96860   0.97386    0.000
 5204.00    0.94732   0.96042    0.000
 5205.00    0.94053   0.95081    0.000
 5206.00    0.94287   0.94807    0.000
 5207.00    0.94806   0.95169    0.000
 5208.00    0.95641   0.95979    0.000
 5209.00    0.96866   0.97199    0.000
 5210.00    0.98106   0.98669    0.000
 5211.00    0.98972   1.00135   35.994
 5212.00    0.99390   1.01426   35.936
 5213.00    0.99670   1.02413   36.115
 5214.00    1.00387   1.03072   36.115
 5215.00    1.01635   1.03532   35.840
 5216.00    1.02813   1.03997   35.945
 5217.00    1.03566   1.04505   36.596
 5218.00    1.04073   1.04871   37.125
 5219.00    1.04412   1.04865   37.200
 5220.00    1.04391   1.04372   37.200
 5221.00    1.03935   1.03441   37.355
 5222.00    1.03197   1.02226   37.539
 5223.00    1.02442   1.00940   37.649
 5224.00    1.01914   0.99799   37.687
 5225.00    1.01617   0.99013   37.624
 5226.00    1.01385   0.98742   37.446
 5227.00    1.01223   0.99094   37.334
 5228.00    1.01261   0.99981   37.529
 5229.00    1.01501   1.00974   37.977
 5230.00    1.01778   1.01803   38.385
 5231.00    1.01793   1.02490   38.513
 5232.00    1.01422   1.03035   38.313
 5233.00    1.01155   1.03591   38.036
 5234.00    1.01565   1.04334   37.959
 5235.00    1.02473   1.05226   38.037
 5236.00    1.03329   1.06147   38.133
 5237.00    1.03849   1.06930   38.346
 5238.00    1.04153   1.07503   38.718
 5239.00    1.04771   1.07907   38.875
 5240.00    1.06006   1.08110   38.508
 5241.00    1.07386   1.08023   37.868
 5242.00    1.08296   1.07647   37.358
 5243.00    1.08544   1.07121   37.164
 5244.00    1.08112   1.06493   37.185
 5245.00    1.06969   1.05651   37.063
 5246.00    1.05286   1.04653   36.725
 5247.00    1.03530   1.03840   36.594
 5248.00    1.02018   1.03405   36.709
 5249.00    1.00744   1.03161   36.486
 5250.00    0.99848   1.03054   36.032
 5251.00    0.99768   1.03324   36.363
 5252.00    1.00773   1.03953   37.544
 5253.00    1.02711   1.04657   38.221
 5254.00    1.04854   1.05245   37.820
 5255.00    1.06167   1.05726   37.240
 5256.00    1.06381   1.06085   36.944
 5257.00    1.06042   1.06028   36.659
 5258.00    1.05500   1.05288   36.260
 5259.00    1.04642   1.03880   35.903
 5260.00    1.03028   1.01966   35.674
 5261.00    1.00319   0.99816   35.600
 5262.00    0.97136   0.97703   35.838
 5263.00    0.94662   0.95758   36.502
 5264.00    0.93420   0.94072   37.175
 5265.00    0.93210   0.92884   37.275
 5266.00    0.93463   0.92437   37.070
 5267.00    0.93702   0.92621   37.198
 5268.00    0.94114   0.92999   37.628
 5269.00    0.95071   0.93519   37.996
 5270.00    0.96350   0.94638   38.278
 5271.00    0.97436   0.96432   38.601
 5272.00    0.98032   0.98362   38.865
 5273.00    0.98287   1.00044   38.943
 5274.00    0.98900   1.01493   38.928
 5275.00    1.00306   1.02773   38.894
 5276.00    1.01975   1.03939   38.682
 5277.00    1.03133   1.04858   38.399
 5278.00    1.03434   1.05286   38.689
 5279.00    1.03071   1.05320   39.707
 5280.00    1.02703   1.05292   40.463
 5281.00    1.02736   1.05429   40.300
 5282.00    1.02967   1.05778   39.932
 5283.00    1.03215   1.06351   39.989
 5284.00    1.03646   1.07269   40.307
 5285.00    1.04518   1.08503   40.502
 5286.00    1.05970   1.09666   40.311
 5287.00    1.07714   1.10441   39.804
 5288.00    1.09086   1.10851   39.358
 5289.00    1.09709   1.11022   39.349
 5290.00    1.09681   1.10895   39.922
 5291.00    1.09292   1.10284   40.466
 5292.00    1.08824   1.09211   39.965
 5293.00    1.08240   1.07966   38.854
 5294.00    1.07289   1.06811   38.459
 5295.00    1.05970   1.05731   38.805
 5296.00    1.04595   1.04706   38.960
 5297.00    1.03641   1.04025   38.704
 5298.00    1.03542   1.04048   38.456
 5299.00    1.04363   1.04754   38.282
 5300.00    1.05775   1.05709   -2.000
 5301.00    1.07158   1.06657   -2.000
 5302.00    1.07951   1.07696   -2.000
 5303.00    1.08148   1.08857   -2.000
 5304.00    1.08057   1.09936   -2.000
 5305.00    1.07877   1.10699   -2.000
 5306.00    1.07736   1.11129   -2.000
 5307.00    1.07790   1.11382   -2.000
 5308.00    1.08060   1.11575   -2.000
 5309.00    1.08294   1.11660   -2.000
 5310.00    1.08265   1.11515   -2.000
 5311.00    1.08053   1.11138   -2.000
 5312.00    1.07870   1.10662   -2.000
 5313.00    1.07894   1.10195   -2.000
 5314.00    1.08154   1.09748   36.904
 5315.00    1.08497   1.09279   36.491
 5316.00    1.08779   1.08814   36.254
 5317.00    1.08962   1.08432   36.386
 5318.00    1.08965   1.08032   36.953
 5319.00    1.08611   1.07437   37.804
 5320.00    1.07851   1.06679   38.663
 5321.00    1.06826   1.05756   39.238
 5322.00    1.05713   1.04492   39.514
 5323.00    1.04641   1.02910   39.744
 5324.00    1.03614   1.01462   39.863
 5325.00    1.02580   1.00533   39.522
 5326.00    1.01693   0.99944   38.972
 5327.00    1.01242   0.99511   38.901
 5328.00    1.01223   0.99634   39.382
 5329.00    1.01370   1.00750   39.936
 5330.00    1.01556   1.02447   40.339
 5331.00    1.01838   1.03984   40.692
 5332.00    1.02326   1.05155   41.025
 5333.00    1.03050   1.06121   41.190
 5334.00    1.03787   1.06829   40.898
 5335.00    1.04215   1.07018   40.161
 5336.00    1.04225   1.06768   39.849
 5337.00    1.03947   1.06421   40.642
 5338.00    1.03684   1.06102   41.568
 5339.00    1.03670   1.05740   41.283
 5340.00    1.03800   1.05429   40.425
 5341.00    1.03951   1.05466   40.051
 5342.00    1.04361   1.05822   39.777
 5343.00    1.05187   1.06106   39.083
 5344.00    1.06071   1.06201   38.539
 5345.00    1.06462   1.06294   38.779
 5346.00    1.06001   1.06583   39.694
 5347.00    1.04916   1.07029   40.582
 5348.00    1.04175   1.07489   40.391
 5349.00    1.04556   1.08129   39.013
 5350.00    1.06051   1.09118   37.693
 5351.00    1.08293   1.10259   37.155
 5352.00    1.10832   1.11284   37.081
 5353.00    1.13117   1.12150   37.113
 5354.00    1.14574   1.12923   37.236
 5355.00    1.15036   1.13483   37.474
 5356.00    1.14818   1.13649   37.748
 5357.00    1.14194   1.13453   37.881
 5358.00    1.13242   1.13015   37.731
 5359.00    1.12054   1.12359   37.590
 5360.00    1.10766   1.11464   37.974
 5361.00    1.09392   1.10422   38.604
 5362.00    1.07868   1.09385   38.592
 5363.00    1.06328   1.08426   38.113
 5364.00    1.05073   1.07442   38.160
 5365.00    1.04323   1.06378   38.918
 5366.00    1.04058   1.05395   39.824
 5367.00    1.03831   1.04664   40.443
 5368.00    1.03161   1.04259   40.664
 5369.00    1.02301   1.04106   40.618
 5370.00    1.01933   1.04252   40.537
 5371.00    1.02445   1.04882   40.563
 5372.00    1.03812   1.06028   40.668
 5373.00    1.05608   1.07394   40.613
 5374.00    1.07255   1.08568   40.305
 5375.00    1.08341   1.09396   40.196
 5376.00    1.08778   1.09900   40.639
 5377.00    1.08894   1.10148   41.216
 5378.00    1.09063   1.10183   41.261
 5379.00    1.09348   1.10045   40.579
 5380.00    1.09655   1.09821   39.547
 5381.00    1.09901   1.09606   38.898
 5382.00    1.10085   1.09430   38.986
 5383.00    1.10297   1.09278   39.455
 5384.00    1.10476   1.09145   39.737
 5385.00    1.10313   1.08948   39.489
 5386.00    1.09627   1.08584   39.019
 5387.00    1.08560   1.08065   39.186
 5388.00    1.07383   1.07422   40.129
 5389.00    1.06340   1.06695   40.884
 5390.00    1.05434   1.05967   40.817
 5391.00    1.04451   1.05224   40.299
 5392.00    1.03435   1.04465   39.810
 5393.00    1.02729   1.03900   39.540
 5394.00    1.02458   1.03592   39.423
 5395.00    1.02446   1.03370   39.276
 5396.00    1.02519   1.03155   39.136
 5397.00    1.02582   1.03148   39.176
 5398.00    1.02559   1.03397   39.258
 5399.00    1.02360   1.03473   39.069
 5400.00    1.01836   1.03122   38.725
 5401.00    1.00939   1.02612   38.612
 5402.00    1.00057   1.02153   38.836
 5403.00    0.99789   1.01588   39.148
 5404.00    1.00430   1.00884   38.999
 5405.00    1.01873   1.00408   38.116
 5406.00    1.03620   1.00538   37.226
 5407.00    1.05196   1.01201   37.051
 5408.00    1.06676   1.01995   37.185
 5409.00    1.08301   1.02757   -2.000
 5410.00    1.09940   1.03703   -2.000
 5411.00    1.11202   1.04974   -2.000
 5412.00    1.11675   1.06257   -2.000
 5413.00    1.11556   1.07227   -2.000
 5414.00    1.11857   1.07894   -2.000
 5415.00    1.11261   1.08420   -2.000
 5416.00    1.04528   1.08865   -2.000
 5417.00    0.90336   1.09117   -2.000
 5418.00    0.75750   1.09044   -2.000
 5419.00    0.67237   1.08715   -2.000
 5420.00    0.65464   1.08388   -2.000
 5421.00    0.69877   1.08239   -2.000
 5422.00    0.80653   1.08155   -2.000
 5423.00    0.94642   1.07844   -2.000
 5424.00    1.05057   1.07306   -2.000
 5425.00    1.08950   1.06900   -2.000
 5426.00    1.09081   1.06671   -2.000
 5427.00    1.08423   1.06234   -2.000
 5428.00    1.08115   1.05403   -2.000
 5429.00    1.07949   1.04501   -2.000
 5430.00    1.07112   1.04038   -2.000
 5431.00    1.05747   1.03994   -2.000
 5432.00    1.04867   1.04029   38.845
 5433.00    1.05003   1.04255   38.994
 5434.00    1.06031   1.04909   38.921
 5435.00    1.07610   1.05952   38.667
 5436.00    1.09292   1.07172   38.520
 5437.00    1.10554   1.08381   38.671
 5438.00    1.11016   1.09435   39.107
 5439.00    1.10810   1.10126   39.508
 5440.00    1.10327   1.10294   39.554
 5441.00    1.09748   1.09914   39.451
 5442.00    1.09018   1.09168   39.486
 5443.00    1.07922   1.08326   39.376
 5444.00    1.06470   1.07483   38.867
 5445.00    1.05276   1.06674   38.440
 5446.00    1.04918   1.06070   38.524
 5447.00    1.05278   1.05921   38.785
 5448.00    1.05902   1.06175   38.755
 5449.00    1.06406   1.06372   38.478
 5450.00    1.06614   1.06255   38.255
 5451.00    1.06616   1.06000   38.353
 5452.00    1.06669   1.05837   38.731
 5453.00    1.07081   1.05719   38.957
 5454.00    1.07958   1.05539   38.912
 5455.00    1.09087   1.05434   39.080
 5456.00    1.10069   1.05676   39.444
 5457.00    1.10485   1.06133   39.188
 5458.00    1.10263   1.06421   38.384
 5459.00    1.09736   1.06503   38.235
 5460.00    1.09153   1.06540   39.117
 5461.00    1.08525   1.06541   40.171
 5462.00    1.07842   1.06474   40.377
 5463.00    1.07180   1.06489   39.555
 5464.00    1.06801   1.06702   39.392
 5465.00    1.07019   1.06903   41.655
 5466.00    1.07768   1.06947   42.409
 5467.00    1.08622   1.06932   37.284
 5468.00    1.09153   1.06800   37.227
 5469.00    1.09110   1.06428   56.991
 5470.00    1.08589   1.05875   53.650
 5471.00    1.07880   1.05204   18.400
 5472.00    1.07107   1.04418    9.922
 5473.00    1.06271   1.03704    8.579
 5474.00    1.05426   1.03289    9.361
 5475.00    1.04706   1.03010    9.923
 5476.00    1.04295   1.02697    9.623
 5477.00    1.04322   1.02713    9.367
 5478.00    1.04727   1.03251    9.537
 5479.00    1.05353   1.03908    9.852
 5480.00    1.06075   1.04391    9.403
 5481.00    1.06814   1.04841    8.553
 5482.00    1.07531   1.05400    9.528
 5483.00    1.08118   1.05952   16.706
 5484.00    1.08345   1.06395   48.179
 5485.00    1.08122   1.06682   56.991
 5486.00    1.07675   1.06785   36.378
 5487.00    1.07354   1.06808   35.352
 5488.00    1.07428   1.06887   40.336
 5489.00    1.07792   1.06997   39.545
 5490.00    1.07934   1.07081   37.736
 5491.00    1.07641   1.07164   39.398
 5492.00    1.07254   1.07162   41.013
 5493.00    1.07131   1.07065   39.978
 5494.00    1.07385   1.07078   38.950
 5495.00    1.07909   1.07152   39.317
 5496.00    1.08417   1.07005   39.897
 5497.00    1.08524   1.06694   39.957
 5498.00    1.07952   1.06553   39.987
 5499.00    1.07029   1.06513   40.381
 5500.00    1.06521   1.06234   41.020
 5501.00    1.06753   1.05747   41.325
 5502.00    1.07455   1.05390   40.777
 5503.00    1.07974   1.05272   40.094
 5504.00    1.07645   1.05185   40.413
 5505.00    1.06405   1.04981   41.496
 5506.00    1.04737   1.04750   42.228
 5507.00    1.03309   1.04656   42.407
 5508.00    1.02682   1.04617   42.520
 5509.00    1.02952   1.04480   42.573
 5510.00    1.03890   1.04333   42.291
 5511.00    1.05196   1.04288   41.711
 5512.00    1.06561   1.04396   41.112
 5513.00    1.07700   1.04769   40.803
 5514.00    1.08414   1.05400   40.898
 5515.00    1.08656   1.06137   41.125
 5516.00    1.08626   1.06870   41.150
 5517.00    1.08792   1.07583   40.915
 5518.00    1.09472   1.08209   40.447
 5519.00    1.10498   1.08566   39.699
 5520.00    1.11457   1.08598   38.819
 5521.00    1.11923   1.08396   38.214
 5522.00    1.11652   1.07999   38.019
 5523.00    1.10680   1.07405   37.908
 5524.00    1.09178   1.06744   37.691
 5525.00    1.07396   1.06208   37.538
 5526.00    1.05806   1.05831   37.436
 5527.00    1.05031   1.05550   37.070
 5528.00    1.05191   1.05463   36.537
 5529.00    1.05750   1.05697   36.396
 5530.00    1.06055   1.06059   36.861
 5531.00    1.05736   1.06328   37.616
 5532.00    1.05259   1.06559   38.067
 5533.00    1.05595   1.06815   37.767
 5534.00    1.06702   1.07048   37.374
 5535.00    1.07649   1.07303   38.010
 5536.00    1.08125   1.07664   39.250
 5537.00    1.08517   1.08000   39.500
 5538.00    1.09169   1.08208   38.823
 5539.00    1.10126   1.08402   38.523
 5540.00    1.10989   1.08613   38.707
 5541.00    1.11253   1.08713   38.816
 5542.00    1.10922   1.08681   39.172
 5543.00    1.10362   1.08713   40.344
 5544.00    1.09908   1.08915   41.650
 5545.00    1.09740   1.09158   41.950
 5546.00    1.09814   1.09376   41.578
 5547.00    1.10065   1.09643   41.453
 5548.00    1.10626   1.09895   41.601
 5549.00    1.11475   1.09958   41.663
 5550.00    1.12090   1.09862   41.557
 5551.00    1.11956   1.09719   41.340
 5552.00    1.11059   1.09501   41.045
 5553.00    1.09776   1.09180   40.837
 5554.00    1.08695   1.08880   41.074
 5555.00    1.08220   1.08697   41.654
 5556.00    1.08315   1.08534   41.690
 5557.00    1.08702   1.08283   40.938
 5558.00    1.09014   1.07996   40.392
 5559.00    1.08874   1.07741   40.437
 5560.00    1.08020   1.07453   40.304
 5561.00    1.06688   1.07065   39.795
 5562.00    1.05600   1.06646   39.715
 5563.00    1.05098   1.06322   40.217
 5564.00    1.04923   1.06071   40.488
 5565.00    1.04848   1.05812   40.206
 5566.00    1.04866   1.05652   39.899
 5567.00    1.05031   1.05640   40.023
 5568.00    1.05395   1.05613   40.597
 5569.00    1.05973   1.05610   40.923
 5570.00    1.06736   1.05827   40.151
 5571.00    1.07582   1.06116   38.995
 5572.00    1.08368   1.06267   38.847
 5573.00    1.08972   1.06506   39.731
 5574.00    1.09315   1.06938   40.663
 5575.00    1.09369   1.07285   40.953
 5576.00    1.09170   1.07464   40.565
 5577.00    1.08819   1.07588   40.001
 5578.00    1.08473   1.07595   39.796
 5579.00    1.08323   1.07421   39.984
 5580.00    1.08465   1.07051   40.290
 5581.00    1.08748   1.06407   40.440
 5582.00    1.08874   1.05523   40.350
 5583.00    1.08554   1.04564   40.260
 5584.00    1.07634   1.03598   40.397
 5585.00    1.06203   1.02657   40.650
 5586.00    1.04595   1.01885   40.949
 5587.00    1.03341   1.01439   41.574
 5588.00    1.02847   1.01351   42.593
 5589.00    1.03148   1.01544   43.398
 5590.00    1.03931   1.01973   43.483
 5591.00    1.04659   1.02603   43.089
 5592.00    1.05082   1.03254   42.675
 5593.00    1.05448   1.03690   42.499
 5594.00    1.05955   1.03926   42.485
 5595.00    1.06481   1.04175   42.289
 5596.00    1.06788   1.04326   41.860
 5597.00    1.06679   1.04135   41.552
 5598.00    1.06217   1.03831   41.543
 5599.00    1.05738   1.03843   41.653
 5600.00    1.05576   1.04175   41.503
 5601.00    1.05898   1.04621   40.740
 5602.00    1.06523   1.05246   39.537
 5603.00    1.07030   1.06165   38.441
 5604.00    1.07216   1.07258   37.785
 5605.00    1.07137   1.08227   37.622
 5606.00    1.06908   1.08933   37.778
 5607.00    1.06651   1.09377   37.956
 5608.00    1.06500   1.09566   37.965
 5609.00    1.06569   1.09411   37.833
 5610.00    1.06896   1.08827   37.880
 5611.00    1.07356   1.07964   38.415
 5612.00    1.07562   1.07149   39.224
 5613.00    1.07203   1.06426   39.817
 5614.00    1.06539   1.05615   39.999
 5615.00    1.06020   1.04901   39.819
 5616.00    1.05728   1.04707   39.339
 5617.00    1.05564   1.04916   38.842
 5618.00    1.05526   1.05068   38.999
 5619.00    1.05710   1.05048   40.032
 5620.00    1.06256   1.05050   40.901
 5621.00    1.07055   1.05179   40.674
 5622.00    1.07585   1.05311   40.050
 5623.00    1.07516   1.05308   40.328
 5624.00    1.07128   1.05330   42.349
 5625.00    1.06913   1.05680   43.734
 5626.00    1.07234   1.06290   39.108
 5627.00    1.08090   1.06841   35.278
 5628.00    1.09065   1.07287   46.295
 5629.00    1.09766   1.07703   56.991
 5630.00    1.10049   1.07977   26.443
 5631.00    1.10014   1.07988   11.458
 5632.00    1.09903   1.07762    8.399
 5633.00    1.09709   1.07389    8.595
 5634.00    1.09182   1.06979    9.590
 5635.00    1.08378   1.06587    9.641
 5636.00    1.07666   1.06175    8.741
 5637.00    1.07182   1.05802    8.647
 5638.00    1.06770   1.05637   11.922
 5639.00    1.06301   1.05642   27.512
 5640.00    1.05791   1.05646   56.991
 5641.00    1.05460   1.05699   46.332
 5642.00    1.05605   1.05928   35.799
 5643.00    1.06322   1.06247   38.854
 5644.00    1.07448   1.06511   41.488
 5645.00    1.08579   1.06735   39.426
 5646.00    1.09294   1.06967   38.325
 5647.00    1.09507   1.07203   38.976
 5648.00    1.09373   1.07365   39.442
 5649.00    1.09091   1.07356   39.441
 5650.00    1.08834   1.07176   39.670
 5651.00    1.08689   1.06954   40.084
 5652.00    1.08594   1.06693   40.344
 5653.00    1.08301   1.06129   40.539
 5654.00    1.07685   1.05267   40.843
 5655.00    1.06989   1.04598   41.129
 5656.00    1.06487   1.04268   41.350
 5657.00    1.06185   1.03817   41.825
 5658.00    1.05933   1.03291   42.573
 5659.00    1.05568   1.03292   42.879
 5660.00    1.05136   1.03773   42.376
 5661.00    1.04954   1.04142   41.671
 5662.00    1.05137   1.04371   41.225
 5663.00    1.05417   1.04787   40.924
 5664.00    1.05616   1.05355   40.783
 5665.00    1.05818   1.05802   41.126
 5666.00    1.06086   1.06092   41.862
 5667.00    1.06375   1.06383   42.338
 5668.00    1.06716   1.06825   42.273
 5669.00    1.07252   1.07352   41.970
 5670.00    1.08104   1.07796   41.518
 5671.00    1.09255   1.08170   40.748
 5672.00    1.10344   1.08616   39.859
 5673.00    1.10875   1.09014   39.317
 5674.00    1.10873   1.09117   39.301
 5675.00    1.10805   1.09009   39.661
 5676.00    1.10990   1.08908   39.986
 5677.00    1.11463   1.08693   39.855
 5678.00    1.11981   1.08181   39.356
 5679.00    1.12163   1.07610   38.940
 5680.00    1.11710   1.07207   38.973
 5681.00    1.10569   1.06817   39.555
 5682.00    1.09073   1.06323   40.319
 5683.00    1.07648   1.05959   40.807
 5684.00    1.06400   1.05880   41.123
 5685.00    1.05420   1.05951   41.451
 5686.00    1.05160   1.06060   41.355
 5687.00    1.05937   1.06286   40.585
 5688.00    1.07402   1.06723   39.864
 5689.00    1.08920   1.07251   39.851
 5690.00    1.10005   1.07690   40.398
 5691.00    1.10524   1.08024   41.139
 5692.00    1.10773   1.08290   41.940
 5693.00    1.10992   1.08343   42.673
 5694.00    1.11070   1.08109   43.026
 5695.00    1.10951   1.07776   42.667
 5696.00    1.10826   1.07393   41.505
 5697.00    1.10753   1.06827   40.080
 5698.00    1.10503   1.06189   39.306
 5699.00    1.09838   1.05720   39.325
 5700.00    1.08686   1.05323   39.397
 5701.00    1.07257   1.04815   39.001
 5702.00    1.05999   1.04322   38.303
 5703.00    1.05262   1.03946   37.944
 5704.00    1.05144   1.03523   38.557
 5705.00    1.05389   1.03005   39.641
 5706.00    1.05556   1.02600   39.820
 5707.00    1.05547   1.02368   39.420
 5708.00    1.05625   1.02290   39.934
 5709.00    1.06046   1.02532   40.705
 5710.00    1.06874   1.03104   39.818
 5711.00    1.07782   1.03809   38.355
 5712.00    1.08347   1.04660   38.510
 5713.00    1.08674   1.05678   39.653
 5714.00    1.09176   1.06642   39.678
 5715.00    1.10007   1.07480   38.710
 5716.00    1.11039   1.08238   38.287
 5717.00    1.11983   1.08886   39.034
 5718.00    1.12486   1.09408   -2.000
 5719.00    1.12237   1.09818   -2.000
 5720.00    1.11062   1.10090   -2.000
 5721.00    1.09018   1.10248   -2.000
 5722.00    1.06419   1.10260   -2.000
 5723.00    1.03829   1.10083   -2.000
 5724.00    1.01919   1.09875   -2.000
 5725.00    1.01260   1.09720   -2.000
 5726.00    1.01725   1.09461   -2.000
 5727.00    1.02209   1.09123   -2.000
 5728.00    1.01892   1.09007   -2.000
 5729.00    1.01045   1.09104   -2.000
 5730.00    1.00487   1.09142   -2.000
 5731.00    1.01069   1.09132   -2.000
 5732.00    1.02917   1.09266   -2.000
 5733.00    1.05261   1.09482   -2.000
 5734.00    1.07542   1.09603   -2.000
 5735.00    1.09782   1.09627   -2.000
 5736.00    1.11923   1.09633   -2.000
 5737.00    1.13613   1.09633   40.516
 5738.00    1.14456   1.09597   39.355
 5739.00    1.14222   1.09520   39.436
 5740.00    1.13220   1.09484    0.000
 5741.00    1.12139   1.09514    0.000
 5742.00    1.11316   1.09524    0.000
 5743.00    1.10750   1.09432    0.000
 5744.00    1.10623   1.09311    0.000
 5745.00    1.11123   1.09254    0.000
 5746.00    1.11823   1.09158    0.000
 5747.00    1.12021   1.08893    0.000
 5748.00    1.11600   1.08547    0.000
 5749.00    1.10972   1.08279    0.000
 5750.00    1.10702   1.08084    0.000
 5751.00    1.11054   1.07939    0.000
 5752.00    1.11477   1.07852    0.000
 5753.00    1.11321   1.07840    0.000
 5754.00    1.10787   1.07948    0.000
 5755.00    1.10399   1.08134    0.000
 5756.00    1.10293   1.08267    0.000
 5757.00    1.10338   1.08269    0.000
 5758.00    1.10339   1.08175    0.000
 5759.00    1.10285   1.08071    0.000
 5760.00    1.10488   1.08087    0.000
 5761.00    1.11132   1.08184    0.000
 5762.00    1.11964   1.08332    0.000
 5763.00    1.12607   1.08657    0.000
 5764.00    1.12811   1.09154    0.000
 5765.00    1.12558   1.09580    0.000
 5766.00    1.12094   1.09855    0.000
 5767.00    1.11778   1.10033    0.000
 5768.00    1.11892   1.10084    0.000
 5769.00    1.12183   1.10009    0.000
 5770.00    1.11925   1.09831    0.000
 5771.00    1.10933   1.09579    0.000
 5772.00    1.09760   1.09319    0.000
 5773.00    1.08958   1.09041    0.000
 5774.00    1.08741   1.08667    0.000
 5775.00    1.08802   1.08207    0.000
 5776.00    1.08489   1.07624    0.000
 5777.00    1.07381   1.06858    0.000
 5778.00    1.05523   1.06074    0.000
 5779.00    1.03579   1.05377    0.000
 5780.00    1.02469   1.04652    0.000
 5781.00    1.02585   1.04002    0.000
 5782.00    1.03713   1.03773    0.000
 5783.00    1.05203   1.03915    0.000
 5784.00    1.06406   1.04149    0.000
 5785.00    1.07276   1.04532    0.000
 5786.00    1.08063   1.05137    0.000
 5787.00    1.08777   1.05796    0.000
 5788.00    1.09307   1.06424    0.000
 5789.00    1.09654   1.07011    0.000
 5790.00    1.09840   1.07491    0.000
 5791.00    1.09794   1.07931    0.000
 5792.00    1.09503   1.08377    0.000
 5793.00    1.09153   1.08675    0.000
 5794.00    1.09010   1.08892    0.000
 5795.00    1.09288   1.09225    0.000
 5796.00    1.10012   1.09531    0.000
 5797.00    1.10969   1.09673    0.000
 5798.00    1.11936   1.09857    0.000
 5799.00    1.12807   1.10116    0.000
 5800.00    1.13364   1.10204    0.000
 5801.00    1.13233   1.10140    0.000
 5802.00    1.12290   1.10090    0.000
 5803.00    1.10821   1.10002    0.000
 5804.00    1.09287   1.09819    0.000
 5805.00    1.08140   1.09695    0.000
 5806.00    1.07568   1.09703    0.000
 5807.00    1.07501   1.09750    0.000
 5808.00    1.07994   1.09764    0.000
 5809.00    1.09174   1.09792    0.000
 5810.00    1.10754   1.09840    0.000
 5811.00    1.12072   1.09803    0.000
 5812.00    1.12575   1.09690    0.000
 5813.00    1.12064   1.09662    0.000
 5814.00    1.10950   1.09745    0.000
 5815.00    1.10005   1.09827    0.000
 5816.00    1.09762   1.09964    0.000
 5817.00    1.10314   1.10263    0.000
 5818.00    1.11197   1.10611    0.000
 5819.00    1.11799   1.10859    0.000
 5820.00    1.11990   1.11061    0.000
 5821.00    1.11981   1.11266    0.000
 5822.00    1.11998   1.11387    0.000
 5823.00    1.12161   1.11419    0.000
 5824.00    1.12411   1.11458    0.000
 5825.00    1.12659   1.11525    0.000
 5826.00    1.12932   1.11538    0.000
 5827.00    1.13229   1.11492    0.000
 5828.00    1.13378   1.11462    0.000
 5829.00    1.13174   1.11435    0.000
 5830.00    1.12515   1.11310    0.000
 5831.00    1.11542   1.11136    0.000
 5832.00    1.10672   1.11053    0.000
 5833.00    1.10237   1.10992    0.000
 5834.00    1.10284   1.10853    0.000
 5835.00    1.10709   1.10802    0.000
 5836.00    1.11348   1.10926    0.000
 5837.00    1.12053   1.11045    0.000
 5838.00    1.12713   1.11092    0.000
 5839.00    1.13245   1.11191    0.000
 5840.00    1.13585   1.11288    0.000
 5841.00    1.13666   1.11257    0.000
 5842.00    1.13433   1.11099    0.000
 5843.00    1.12915   1.10853    0.000
 5844.00    1.12231   1.10529    0.000
 5845.00    1.11524   1.10140    0.000
 5846.00    1.10891   1.09699    0.000
 5847.00    1.10263   1.09230    0.000
 5848.00    1.09513   1.08737    0.000
 5849.00    1.08740   1.08188    0.000
 5850.00    1.08185   1.07642    0.000
 5851.00    1.07958   1.07155    0.000
 5852.00    1.08001   1.06618    0.000
 5853.00    1.08130   1.06018    0.000
 5854.00    1.08144   1.05604    0.000
 5855.00    1.07979   1.05433    0.000
 5856.00    1.07687   1.05315    0.000
 5857.00    1.07387   1.05274    0.000
 5858.00    1.07252   1.05436    0.000
 5859.00    1.07481   1.05762    0.000
 5860.00    1.08092   1.06147    0.000
 5861.00    1.08753   1.06540    0.000
 5862.00    1.09098   1.06834    0.000
 5863.00    1.09026   1.07103    0.000
 5864.00    1.08722   1.07462    0.000
 5865.00    1.08604   1.07773    0.000
 5866.00    1.08937   1.07960    0.000
 5867.00    1.09626   1.08156    0.000
 5868.00    1.10495   1.08379    0.000
 5869.00    1.11471   1.08487    0.000
 5870.00    1.12550   1.08483    0.000
 5871.00    1.13748   1.08405    0.000
 5872.00    1.14974   1.08205    0.000
 5873.00    1.16012   1.07927    0.000
 5874.00    1.16676   1.07655    0.000
 5875.00    1.16855   1.07331    0.000
 5876.00    1.16432   1.06927    0.000
 5877.00    1.15341   1.06572    0.000
 5878.00    1.13813   1.06272    0.000
 5879.00    1.12313   1.05824    0.000
 5880.00    1.11146   1.05205    0.000
 5881.00    1.10291   1.04483    0.000
 5882.00    1.09290   1.03488    0.000
 5883.00    1.07445   1.02075    0.000
 5884.00    1.04302   1.00315    0.000
 5885.00    0.99866   0.98160    0.000
 5886.00    0.94774   0.95777    0.000
 5887.00    0.90005   0.93681    0.000
 5888.00    0.86346   0.91851    0.000
 5889.00    0.84131   0.90137    0.000
 5890.00    0.83045   0.89104    0.000
 5891.00    0.82557   0.88873    0.000
 5892.00    0.82509   0.88916    0.000
 5893.00    0.83071   0.89462    0.000
 5894.00    0.84591   0.90642    0.000
 5895.00    0.87289   0.91841    0.000
 5896.00    0.90977   0.93256    0.000
 5897.00    0.95152   0.95340    0.000
 5898.00    0.99133   0.97449    0.000
 5899.00    1.02412   0.99206    0.000
 5900.00    1.04872   1.00954    0.000
 5901.00    1.06565   1.02551   42.697
 5902.00    1.07548   1.03689   42.268
 5903.00    1.07860   1.04549   42.288
 5904.00    1.07559   1.05273   42.079
 5905.00    1.06921   1.05734   41.574
 5906.00    1.06454   1.05993   41.549
 5907.00    1.06497   1.06212   42.154
 5908.00    1.07029   1.06342   42.622
 5909.00    1.07677   1.06270   42.668
 5910.00    1.07902   1.06092   42.764
 5911.00    1.07624   1.05946   42.839
 5912.00    1.07259   1.05783   42.260
 5913.00    1.07207   1.05599   41.201
 5914.00    1.07639   1.05499   40.499
 5915.00    1.08373   1.05548   40.540
 5916.00    1.09020   1.05705   41.192
 5917.00    1.09376   1.05931   41.996
 5918.00    1.09466   1.06165   42.440
 5919.00    1.09446   1.06404   42.634
 5920.00    1.09447   1.06659   43.073
 5921.00    1.09341   1.06822   43.886
 5922.00    1.08943   1.06898   44.764
 5923.00    1.08367   1.06954   45.086
 5924.00    1.07870   1.06960   44.513
 5925.00    1.07572   1.06887   43.709
 5926.00    1.07485   1.06764   43.480
 5927.00    1.07583   1.06649   43.862
 5928.00    1.07829   1.06587   44.398
 5929.00    1.08174   1.06524   44.481
 5930.00    1.08483   1.06430   43.993
 5931.00    1.08485   1.06459   43.693
 5932.00    1.08039   1.06612   43.830
 5933.00    1.07322   1.06700   43.342
 5934.00    1.06618   1.06719   42.017
 5935.00    1.06154   1.06839   41.434
 5936.00    1.06053   1.06994   42.104
 5937.00    1.06310   1.07001   42.434
 5938.00    1.06769   1.06987   41.565
 5939.00    1.07151   1.07061   40.718
 5940.00    1.07287   1.07061   40.671
 5941.00    1.07208   1.06990   41.021
 5942.00    1.07070   1.07008   41.369
 5943.00    1.07069   1.07053   41.717
 5944.00    1.07294   1.06991   42.034
 5945.00    1.07665   1.06863   42.152
 5946.00    1.07955   1.06768   42.062
 5947.00    1.07918   1.06676   41.965
 5948.00    1.07629   1.06459   42.120
 5949.00    1.07412   1.06200   42.697
 5950.00    1.07417   1.06133   43.511
 5951.00    1.07573   1.06142   44.131
 5952.00    1.07738   1.06016   44.417
 5953.00    1.07773   1.05950   44.520
 5954.00    1.07636   1.06123   44.557
 5955.00    1.07356   1.06327   44.595
 5956.00    1.06981   1.06480   44.751
 5957.00    1.06595   1.06750   45.060
 5958.00    1.06357   1.07114   45.248
 5959.00    1.06411   1.07436   45.017
 5960.00    1.06769   1.07740   44.463
 5961.00    1.07375   1.08003   43.840
 5962.00    1.08193   1.08174   43.234
 5963.00    1.09059   1.08329   42.682
 5964.00    1.09571   1.08484   42.285
 5965.00    1.09518   1.08564   41.962
 5966.00    1.09229   1.08645   41.316
 5967.00    1.09117   1.08792   40.256
 5968.00    1.09293   1.08857   39.319
 5969.00    1.09577   1.08817   38.979
 5970.00    1.09593   1.08742   39.322
 5971.00    1.09201   1.08555   40.195
 5972.00    1.08685   1.08230   41.270
 5973.00    1.08341   1.07879   42.284
 5974.00    1.08255   1.07529   43.173
 5975.00    1.08385   1.07166   43.789
 5976.00    1.08618   1.06858   43.874
 5977.00    1.08833   1.06627   43.635
 5978.00    1.08950   1.06449   43.688
 5979.00    1.08989   1.06300   44.043
 5980.00    1.09010   1.06134   44.107
 5981.00    1.08847   1.05985   43.887
 5982.00    1.08214   1.05933   43.967
 5983.00    1.07238   1.05889   44.362
 5984.00    1.06414   1.05845   44.569
 5985.00    1.06134   1.06008   44.534
 5986.00    1.06484   1.06318   44.587
 5987.00    1.07072   1.06548   44.748
 5988.00    1.07349   1.06785   44.794
 5989.00    1.07250   1.07121   44.659
 5990.00    1.07104   1.07382   44.335
 5991.00    1.07262   1.07479   43.615
 5992.00    1.07881   1.07539   42.473
 5993.00    1.08707   1.07581   41.506
 5994.00    1.09292   1.07497   41.157
 5995.00    1.09322   1.07322   40.963
 5996.00    1.08700   1.07140   40.504
 5997.00    1.07604   1.06966   40.376
 5998.00    1.06411   1.06768   40.991
 5999.00    1.05586   1.06560   41.494
 6000.00    1.05417   1.06401   41.261
 6001.00    1.05802   1.06249   41.254
 6002.00    1.06377   1.06030   42.202
 6003.00    1.06674   1.05826   43.343
 6004.00    1.06396   1.05680   43.811
 6005.00    1.05603   1.05525   43.819
 6006.00    1.04661   1.05431   43.936
 6007.00    1.04118   1.05417   44.488
 6008.00    1.04231   1.05380   45.324
 6009.00    1.04776   1.05384   45.824
 6010.00    1.05295   1.05466   45.742
 6011.00    1.05329   1.05507   45.505
 6012.00    1.04866   1.05427   45.490
 6013.00    1.04354   1.05288   45.737
 6014.00    1.04132   1.05248   45.966
 6015.00    1.04251   1.05210   45.758
 6016.00    1.04546   1.05030   45.132
 6017.00    1.04783   1.04916   44.494
 6018.00    1.04976   1.04994   44.057
 6019.00    1.05292   1.05053   43.745
 6020.00    1.05661   1.05087   43.274
 6021.00    1.05853   1.05329   42.492
 6022.00    1.05842   1.05715   41.941
 6023.00    1.05830   1.06053   42.133
 6024.00    1.06133   1.06419   42.284
 6025.00    1.06916   1.06942   41.346
 6026.00    1.07821   1.07426   40.017
 6027.00    1.08350   1.07773   39.425
 6028.00    1.08459   1.08177   39.458
 6029.00    1.08411   1.08581   39.663
 6030.00    1.08474   1.08840   40.329
 6031.00    1.08750   1.09035   41.670
 6032.00    1.09057   1.09227   42.747
 6033.00    1.09251   1.09346   42.739
 6034.00    1.09513   1.09376   42.539
 6035.00    1.10025   1.09361   43.039
 6036.00    1.10679   1.09330   43.774
 6037.00    1.11118   1.09291   44.257
 6038.00    1.10864   1.09243   44.979
 6039.00    1.09883   1.09216   46.108
 6040.00    1.08819   1.09270   46.660
 6041.00    1.08286   1.09369   46.066
 6042.00    1.08459   1.09463   45.023
 6043.00    1.09152   1.09630   44.057
 6044.00    1.09962   1.09808   43.060
 6045.00    1.10662   1.09887   42.109
 6046.00    1.11280   1.09930   41.578
 6047.00    1.11695   1.09959   41.512
 6048.00    1.11625   1.09869   41.581
 6049.00    1.11103   1.09663   41.589
 6050.00    1.10496   1.09457   41.588
 6051.00    1.10060   1.09227   41.710
 6052.00    1.09835   1.08929   42.023
 6053.00    1.09742   1.08654   42.308
 6054.00    1.09624   1.08473   42.237
 6055.00    1.09290   1.08327   41.939
 6056.00    1.08626   1.08198   41.637
 6057.00    1.07793   1.08129   40.761
 6058.00    1.07129   1.08039   38.989
 6059.00    1.06916   1.07925   37.783
 6060.00    1.07247   1.07831   38.477
 6061.00    1.07899   1.07692   40.123
 6062.00    1.08561   1.07562   40.881
 6063.00    1.09171   1.07617   41.065
 6064.00    1.09828   1.07803   41.837
 6065.00    1.10641   1.08016   42.722
 6066.00    1.11619   1.08421   42.819
 6067.00    1.12588   1.08972   42.589
 6068.00    1.13272   1.09421   42.785
 6069.00    1.13407   1.09786   43.333
 6070.00    1.12933   1.10079   43.893
 6071.00    1.12097   1.10193   44.365
 6072.00    1.11205   1.10128   44.685
 6073.00    1.10421   1.09932   44.670
 6074.00    1.09746   1.09590   44.320
 6075.00    1.09048   1.09115   43.912
 6076.00    1.08270   1.08647   43.519
 6077.00    1.07520   1.08202   42.877
 6078.00    1.06988   1.07685   41.898
 6079.00    1.06818   1.07267   40.795
 6080.00    1.06791   1.07063   39.670
 6081.00    1.06405   1.06859   38.550
 6082.00    1.05685   1.06653   37.925
 6083.00    1.05207   1.06627   38.519
 6084.00    1.05203   1.06668   40.138
 6085.00    1.05422   1.06637   41.607
 6086.00    1.05630   1.06596   42.400
 6087.00    1.05761   1.06615   42.952
 6088.00    1.05940   1.06681   43.240
 6089.00    1.06337   1.06693   42.945
 6090.00    1.06849   1.06701   42.788
 6091.00    1.07217   1.06870   43.783
 6092.00    1.07373   1.07060   45.416
 6093.00    1.07404   1.07134   46.223
 6094.00    1.07364   1.07238   46.064
 6095.00    1.07152   1.07290   45.788
 6096.00    1.06411   1.07120   45.687
 6097.00    1.04866   1.06882   45.676
 6098.00    1.02778   1.06568   45.785
 6099.00    1.00720   1.06096   45.919
 6100.00    0.99234   1.05754   45.567
 6101.00    0.98637   1.05599   -1.000
 6102.00    0.98877   1.05420   43.554
 6103.00    0.99741   1.05457   43.310
 6104.00    1.01053   1.05831   43.805
 6105.00    1.02680   1.06207   44.340
 6106.00    1.04489   1.06593   43.659
 6107.00    1.06136   1.07029   41.667
 6108.00    1.07024   1.07361   39.914
 6109.00    1.06899   1.07662   39.298
 6110.00    1.06160   1.07901   39.553
 6111.00    1.05469   1.07973   40.322
 6112.00    1.05417   1.07953   41.536
 6113.00    1.05990   1.07863   43.056
 6114.00    1.06511   1.07660   44.533
 6115.00    1.06427   1.07284   45.854
 6116.00    1.05668   1.06766   47.015
 6117.00    1.04704   1.06284   -2.000
 6118.00    1.04219   1.05780   -2.000
 6119.00    1.04081   1.05220   -2.000
 6120.00    1.03464   1.04923   -2.000
 6121.00    1.02072   1.04810   -2.000
 6122.00    1.00314   1.04691   -2.000
 6123.00    0.98884   1.04877   -2.000
 6124.00    0.98471   1.05262   -2.000
 6125.00    0.99366   1.05501   -2.000
 6126.00    1.01368   1.05778   -2.000
 6127.00    1.03755   1.06094   -2.000
 6128.00    1.05668   1.06193   -2.000
 6129.00    1.06716   1.06114   38.799
 6130.00    1.06911   1.05894   38.956
 6131.00    1.06430   1.05452   40.188
 6132.00    1.05525   1.04852   41.608
 6133.00    1.04463   1.04171   42.884
 6134.00    1.03535   1.03490   44.006
 6135.00    1.03053   1.03044   44.622
 6136.00    1.03193   1.02853   44.618
 6137.00    1.03856   1.02828   44.702
 6138.00    1.04830   1.03143   45.115
 6139.00    1.05922   1.03787   44.739
 6140.00    1.06854   1.04465   43.287
 6141.00    1.07224   1.05044   42.438
 6142.00    1.06895   1.05612   43.144
 6143.00    1.06191   1.06155   44.583
 6144.00    1.05552   1.06456   45.688
 6145.00    1.05298   1.06531   46.160
 6146.00    1.05467   1.06565   46.072
 6147.00    1.05803   1.06509   45.529
 6148.00    1.06004   1.06331   44.609
 6149.00    1.05862   1.06174   43.417
 6150.00    1.05387   1.06018   42.290
 6151.00    1.04783   1.05764   41.661
 6152.00    1.04267   1.05496   41.534
 6153.00    1.03949   1.05188   41.590
 6154.00    1.03730   1.04618   41.888
 6155.00    1.03361   1.03874   42.688
 6156.00    1.02694   1.03103   43.375
 6157.00    1.01706   1.02126   42.986
 6158.00    1.00391   1.00999   42.404
 6159.00    0.98847   1.00036   43.173
 6160.00    0.97488   0.99274   44.526
 6161.00    0.96822   0.98661   44.482
 6162.00    0.96964   0.98311   43.697
 6163.00    0.97688   0.98297   43.872
 6164.00    0.98648   0.98569   44.297
 6165.00    0.99481   0.98901   43.598
 6166.00    0.99923   0.99175   42.797
 6167.00    0.99923   0.99634   43.233
 6168.00    0.99742   1.00197   44.103
 6169.00    0.99757   1.00537   44.185
 6170.00    1.00213   1.00923   44.096
 6171.00    1.01085   1.01581   44.633
 6172.00    1.02014   1.02141   45.083
 6173.00    1.02662   1.02518   44.718
 6174.00    1.02992   1.03023   44.134
 6175.00    1.03076   1.03573   43.858
 6176.00    1.02954   1.03900   43.537
 6177.00    1.02678   1.04155   43.201
 6178.00    1.02352   1.04510   43.653
 6179.00    1.02105   1.04715   44.179
 6180.00    1.02049   1.04704   42.077
 6181.00    1.02120   1.04698   37.830
 6182.00    1.02077   1.04577   34.584
 6183.00    1.01816   1.04211   32.940
 6184.00    1.01423   1.03761   31.829
 6185.00    1.00857   1.03264   31.251
 6186.00    0.99987   1.02728   32.280
 6187.00    0.99103   1.02219   35.396
 6188.00    0.98838   1.01762   39.944
 6189.00    0.99441   1.01569   44.070
 6190.00    1.00654   1.01623   45.394
 6191.00    1.01974   1.01678   44.467
 6192.00    1.02913   1.01959   43.940
 6193.00    1.03411   1.02469   44.232
 6194.00    1.03670   1.02842   44.281
 6195.00    1.03653   1.03142   44.221
 6196.00    1.03252   1.03451   44.886
 6197.00    1.02736   1.03679   46.031
 6198.00    1.02515   1.03862   46.506
 6199.00    1.02672   1.04015   45.374
 6200.00    1.03100   1.04188   43.481
 6201.00    1.03753   1.04434   43.942
 6202.00    1.04588   1.04666   47.074
 6203.00    1.05452   1.04831   44.174
 6204.00    1.06113   1.04924   36.979
 6205.00    1.06338   1.04925   42.028
 6206.00    1.06066   1.04772   56.991
 6207.00    1.05534   1.04411   37.759
 6208.00    1.04949   1.03929   14.064
 6209.00    1.04251   1.03345    9.202
 6210.00    1.03377   1.02604    8.975
 6211.00    1.02461   1.01884    9.947
 6212.00    1.01768   1.01253   10.130
 6213.00    1.01575   1.00630    9.736
 6214.00    1.01801   1.00199    9.631
 6215.00    1.01927   0.99972    9.957
 6216.00    1.01587   0.99801   10.184
 6217.00    1.00823   0.99807    9.541
 6218.00    0.99932   0.99952    9.199
 6219.00    0.99315   1.00088   11.943
 6220.00    0.99197   1.00258   26.181
 6221.00    0.99574   1.00442   56.991
 6222.00    1.00357   1.00591   56.991
 6223.00    1.01395   1.00624   41.924
 6224.00    1.02354   1.00509   45.101
 6225.00    1.02802   1.00388   49.607
 6226.00    1.02482   1.00169   47.134
 6227.00    1.01408   0.99807   45.553
 6228.00    0.99931   0.99616   46.644
 6229.00    0.98590   0.99558   46.947
 6230.00    0.97836   0.99474   45.501
 6231.00    0.97892   0.99644   43.976
 6232.00    0.98639   0.99992   43.588
 6233.00    0.99666   1.00191   44.479
 6234.00    1.00390   1.00382   45.253
 6235.00    1.00390   1.00558   44.558
 6236.00    0.99781   1.00444   43.610
 6237.00    0.99018   1.00163   43.839
 6238.00    0.98587   0.99935   44.505
 6239.00    0.98751   0.99579   44.525
 6240.00    0.99341   0.99138   44.499
 6241.00    1.00013   0.98996   45.069
 6242.00    1.00491   0.98938   45.460
 6243.00    1.00646   0.98803   45.179
 6244.00    1.00522   0.98982   45.273
 6245.00    1.00214   0.99248   46.377
 6246.00    0.99770   0.99290   47.580
 6247.00    0.99212   0.99401   48.073
 6248.00    0.98579   0.99455   48.278
 6249.00    0.98075   0.99195   48.566
 6250.00    0.98033   0.98878   48.610
 6251.00    0.98367   0.98531   48.127
 6252.00    0.98506   0.98037   47.284
 6253.00    0.98137   0.97636   46.685
 6254.00    0.97430   0.97405   46.911
 6255.00    0.96746   0.97245   47.139
 6256.00    0.96437   0.97327   45.883
 6257.00    0.96603   0.97679   44.820
 6258.00    0.97120   0.98068   46.446
 6259.00    0.97921   0.98617   46.233
 6260.00    0.98958   0.99355   39.836
 6261.00    0.99942   0.99910   39.478
 6262.00    1.00495   1.00372   56.991
 6263.00    1.00587   1.00925   56.156
 6264.00    1.00456   1.01281   19.443
 6265.00    1.00279   1.01435   10.546
 6266.00    1.00150   1.01668    9.117
 6267.00    1.00135   1.01891    9.870
 6268.00    1.00255   1.01981   10.352
 6269.00    1.00448   1.02116    9.985
 6270.00    1.00631   1.02300    9.716
 6271.00    1.00785   1.02390    9.916
 6272.00    1.00955   1.02463   10.277
 6273.00    1.01212   1.02517    9.844
 6274.00    1.01514   1.02452    9.000
 6275.00    1.01591   1.02377   10.124
 6276.00    1.01234   1.02290   18.188
 6277.00    1.00524   1.02128   56.991
 6278.00    0.99652   1.02060   56.991
 6279.00    0.98765   1.02076   42.291
 6280.00    0.97902   1.02121    0.000
 6281.00    0.97013   1.02323    0.000
 6282.00    0.96247   1.02600    0.000
 6283.00    0.96033   1.02899    0.000
 6284.00    0.96598   1.03247    0.000
 6285.00    0.97740   1.03529    0.000
 6286.00    0.98937   1.03741    0.000
 6287.00    0.99585   1.03852    0.000
 6288.00    0.99702   1.03829    0.000
 6289.00    0.99930   1.03718    0.000
 6290.00    1.00610   1.03466    0.000
 6291.00    1.01592   1.03157    0.000
 6292.00    1.02663   1.02842    0.000
 6293.00    1.03706   1.02426    0.000
 6294.00    1.04761   1.02038    0.000
 6295.00    1.05932   1.01729    0.000
 6296.00    1.07153   1.01408    0.000
 6297.00    1.08197   1.01170    0.000
 6298.00    1.08822   1.01052    0.000
 6299.00    1.08865   1.01016    0.000
 6300.00    1.08372   1.01121    0.000
 6301.00    1.07489   1.01342    0.000
 6302.00    1.06276   1.01618    0.000
 6303.00    1.04793   1.02001    0.000
 6304.00    1.03248   1.02427    0.000
 6305.00    1.01915   1.02729    0.000
 6306.00    1.01008   1.02965    0.000
 6307.00    1.00590   1.03160    0.000
 6308.00    1.00512   1.03122    0.000
 6309.00    1.00582   1.02917    0.000
 6310.00    1.00720   1.02722    0.000
 6311.00    1.00906   1.02362    0.000
 6312.00    1.01113   1.01886    0.000
 6313.00    1.01203   1.01608    0.000
 6314.00    1.00908   1.01330    0.000
 6315.00    1.00207   1.00993    0.000
 6316.00    0.99494   1.00989    0.000
 6317.00    0.99109   1.01150    0.000
 6318.00    0.99110   1.01259    0.000
 6319.00    0.99459   1.01596    0.000
 6320.00    1.00102   1.02111    0.000
 6321.00    1.00852   1.02537   44.322
 6322.00    1.01451   1.02962   44.271
 6323.00    1.01926   1.03434   44.736
 6324.00    1.02583   1.03774   44.946
 6325.00    1.03505   1.04018   44.775
 6326.00    1.04460   1.04221   44.881
 6327.00    1.05105   1.04263   45.196
 6328.00    1.05146   1.04232   45.031
 6329.00    1.04584   1.04137   44.495
 6330.00    1.03675   1.03893   44.292
 6331.00    1.02728   1.03628   44.543
 6332.00    1.01952   1.03308   44.916
 6333.00    1.01286   1.02959   45.301
 6334.00    1.00569   1.02736   45.663
 6335.00    0.99903   1.02529   45.532
 6336.00    0.99530   1.02369   44.602
 6337.00    0.99566   1.02404   43.608
 6338.00    0.99945   1.02449   43.364
 6339.00    1.00414   1.02465   43.707
 6340.00    1.00741   1.02557   44.186
 6341.00    1.00939   1.02623   44.880
 6342.00    1.01199   1.02701   45.894
 6343.00    1.01762   1.02809   46.706
 6344.00    1.02685   1.02907   46.731
 6345.00    1.03667   1.03121   46.013
 6346.00    1.04324   1.03352   44.751
 6347.00    1.04426   1.03493   42.962
 6348.00    1.03914   1.03642   41.166
 6349.00    1.02900   1.03710   40.428
 6350.00    1.01640   1.03608   41.201
 6351.00    1.00497   1.03374   42.990
 6352.00    0.99801   1.03001   44.977
 6353.00    0.99745   1.02557   46.324
 6354.00    1.00258   1.02032   46.243
 6355.00    1.00992   1.01399   44.522
 6356.00    1.01515   1.00851   42.465
 6357.00    1.01481   1.00410   41.844
 6358.00    1.00955   0.99967   42.494
 6359.00    1.00376   0.99693   42.648
 6360.00    1.00091   0.99679   42.030
 6361.00    1.00220   0.99785   42.046
 6362.00    1.00698   1.00048   43.276
 6363.00    1.01364   1.00511   45.088
 6364.00    1.02125   1.01067   46.000
 6365.00    1.02925   1.01673   44.735
 6366.00    1.03596   1.02293   42.409
 6367.00    1.03966   1.02874   40.829
 6368.00    1.04133   1.03414   40.059
 6369.00    1.04320   1.03881   39.601
 6370.00    1.04582   1.04252   40.066
 6371.00    1.04824   1.04531   42.172
 6372.00    1.04910   1.04718   44.751
 6373.00    1.04756   1.04828   45.600
 6374.00    1.04412   1.04833   44.686
 6375.00    1.03931   1.04726   43.377
 6376.00    1.03230   1.04625   42.303
 6377.00    1.02341   1.04507   41.607
 6378.00    1.01644   1.04321   41.368
 6379.00    1.01540   1.04236   41.505
 6380.00    1.02144   1.04230   41.679
 6381.00    1.03255   1.04184   41.704
 6382.00    1.04403   1.04226   41.808
 6383.00    1.05196   1.04330   42.131
 6384.00    1.05523   1.04346   42.462
 6385.00    1.05426   1.04348   42.912
 6386.00    1.04999   1.04332   44.112
 6387.00    1.04373   1.04173   45.752
 6388.00    1.03687   1.03981   45.997
 6389.00    1.03044   1.03781   44.319
 6390.00    1.02489   1.03464   42.403
 6391.00    1.02022   1.03229   41.525
 6392.00    1.01649   1.03123   41.992
 6393.00    1.01545   1.02923   43.393
 6394.00    1.01972   1.02805   44.694
 6395.00    1.02891   1.02907   45.116
 6396.00    1.03919   1.02898   44.667
 6397.00    1.04577   1.02842   44.085
 6398.00    1.04512   1.03066   44.233
 6399.00    1.03848   1.03247   45.152
 6400.00    1.03064   1.03308   46.055
 6401.00    1.02575   1.03577   45.775
 6402.00    1.02530   1.03790   43.977
 6403.00    1.02649   1.03859   42.481
 6404.00    1.02541   1.03935   42.979
 6405.00    1.02243   1.03860   44.629
 6406.00    1.02033   1.03789   45.408
 6407.00    1.02029   1.03717   45.074
 6408.00    1.02181   1.03479   44.561
 6409.00    1.02323   1.03418   44.168
 6410.00    1.02295   1.03461   43.966
 6411.00    1.02058   1.03328   44.366
 6412.00    1.01727   1.03332   45.433
 6413.00    1.01560   1.03444   46.196
 6414.00    1.01712   1.03370   45.871
 6415.00    1.02050   1.03321   45.077
 6416.00    1.02334   1.03368   44.505
 6417.00    1.02388   1.03338   44.048
 6418.00    1.02277   1.03333   43.592
 6419.00    1.02337   1.03493   43.411
 6420.00    1.02696   1.03719   43.674
 6421.00    1.03094   1.03932   44.204
 6422.00    1.03376   1.04227   44.654
 6423.00    1.03672   1.04546   44.673
 6424.00    1.04113   1.04684   44.257
 6425.00    1.04690   1.04725   43.771
 6426.00    1.05260   1.04739   43.449
 6427.00    1.05583   1.04567   43.262
 6428.00    1.05418   1.04334   43.041
 6429.00    1.04675   1.04199   42.708
 6430.00    1.03729   1.04031   42.780
 6431.00    1.03202   1.03919   43.933
 6432.00    1.03160   1.03914   45.471
 6433.00    1.03181   1.03898   45.748
 6434.00    1.02982   1.03969   45.137
 6435.00    1.02580   1.04037   45.273
 6436.00    1.02312   1.04073   46.051
 6437.00    1.02558   1.04292   46.273
 6438.00    1.03276   1.04523   45.866
 6439.00    1.04161   1.04706   45.507
 6440.00    1.05024   1.05025   45.304
 6441.00    1.05731   1.05289   45.020
 6442.00    1.06071   1.05382   44.593
 6443.00    1.05924   1.05337   44.163
 6444.00    1.05468   1.05129   43.999
 6445.00    1.05001   1.04809   44.186
 6446.00    1.04709   1.04292   44.353
 6447.00    1.04568   1.03750   44.167
 6448.00    1.04306   1.03437   43.797
 6449.00    1.03790   1.03100   43.504
 6450.00    1.03286   1.02892   43.330
 6451.00    1.03047   1.03050   43.419
 6452.00    1.03032   1.03202   44.154
 6453.00    1.03118   1.03360   45.392
 6454.00    1.03244   1.03714   46.078
 6455.00    1.03384   1.03968   45.832
 6456.00    1.03533   1.04027   45.683
 6457.00    1.03676   1.04134   46.210
 6458.00    1.03761   1.04203   46.918
 6459.00    1.03650   1.04028   47.292
 6460.00    1.03194   1.03922   47.267
 6461.00    1.02590   1.03994   46.992
 6462.00    1.02341   1.03935   46.672
 6463.00    1.02680   1.03966   46.494
 6464.00    1.03458   1.04234   46.456
 6465.00    1.04366   1.04388   45.968
 6466.00    1.05068   1.04492   44.488
 6467.00    1.05363   1.04717   43.065
 6468.00    1.05248   1.04794   43.097
 6469.00    1.04970   1.04751   43.978
 6470.00    1.04841   1.04831   44.036
 6471.00    1.04881   1.04835   43.493
 6472.00    1.04914   1.04725   43.665
 6473.00    1.04850   1.04742   44.607
 6474.00    1.04693   1.04748   45.482
 6475.00    1.04470   1.04586   45.685
 6476.00    1.04239   1.04445   45.247
 6477.00    1.04097   1.04339   44.928
 6478.00    1.04073   1.04097   45.322
 6479.00    1.04014   1.03833   46.008
 6480.00    1.03814   1.03690   46.299
 6481.00    1.03644   1.03552   46.181
 6482.00    1.03679   1.03418   46.079
 6483.00    1.03849   1.03370   46.447
 6484.00    1.03904   1.03296   47.194
 6485.00    1.03524   1.03107   47.366
 6486.00    1.02575   1.02809   46.683
 6487.00    1.01251   1.02293   46.303
 6488.00    0.99864   1.01511   46.627
 6489.00    0.98670   1.00611   46.511
 6490.00    0.97655   0.99561   45.681
 6491.00    0.96560   0.98382   45.474
 6492.00    0.95423   0.97421   46.327
 6493.00    0.94727   0.96665   47.134
 6494.00    0.94851   0.96133   47.135
 6495.00    0.95848   0.96094   46.639
 6496.00    0.97437   0.96371   45.934
 6497.00    0.99122   0.96956   45.069
 6498.00    1.00519   0.97875   44.491
 6499.00    1.01490   0.98842   44.782
 6500.00    1.02203   0.99880   45.572
 6501.00    1.02959   1.00913   45.837
 6502.00    1.03749   1.01756   45.620
 6503.00    1.04350   1.02491   45.781
 6504.00    1.04756   1.03086   46.424
 6505.00    1.05114   1.03471   47.025
 6506.00    1.05430   1.03742   47.271
 6507.00    1.05598   1.03931   47.053
 6508.00    1.05540   1.03993   46.142
 6509.00    1.05258   1.03953   44.681
 6510.00    1.04864   1.03881   43.686
 6511.00    1.04461   1.03769   43.814
 6512.00    1.04015   1.03553   44.217
 6513.00    1.03563   1.03344   43.822
 6514.00    1.03436   1.03223   42.967
 6515.00    1.03864   1.03064   42.340
 6516.00    1.04600   1.02971   41.929
 6517.00    1.05265   1.03053   41.689
 6518.00    1.05673   1.03141   42.032
 6519.00    1.05779   1.03263   43.082
 6520.00    1.05634   1.03449   44.139
 6521.00    1.05390   1.03589   44.630
 6522.00    1.05277   1.03708   44.839
 6523.00    1.05360   1.03757   44.956
 6524.00    1.05437   1.03726   44.619
 6525.00    1.05245   1.03709   43.977
 6526.00    1.04621   1.03646   43.871
 6527.00    1.03735   1.03543   44.391
 6528.00    1.03038   1.03489    0.000
 6529.00    1.02646   1.03448    0.000
 6530.00    1.02269   1.03415    0.000
 6531.00    1.01836   1.03432    0.000
 6532.00    1.01597   1.03496    0.000
 6533.00    1.01782   1.03573    0.000
 6534.00    1.02454   1.03633    0.000
 6535.00    1.03435   1.03694    0.000
 6536.00    1.04442   1.03730    0.000
 6537.00    1.05429   1.03664    0.000
 6538.00    1.06558   1.03506    0.000
 6539.00    1.07983   1.03263    0.000
 6540.00    1.10028   1.02892    0.000
 6541.00    1.13546   1.02477    0.000
 6542.00    1.19348   1.02017    0.000
 6543.00    1.27198   1.01469    0.000
 6544.00    1.35908   1.01016    0.000
 6545.00    1.43728   1.00610    0.000
 6546.00    1.48898   1.00151    0.000
 6547.00    1.50273   0.99759    0.000
 6548.00    1.47550   0.99336    0.000
 6549.00    1.41398   0.98824    0.000
 6550.00    1.33191   0.98255    0.000
 6551.00    1.24725   0.97534    0.000
 6552.00    1.18152   0.96662    0.000
 6553.00    1.15954   0.95628    0.000
 6554.00    1.21075   0.94419    0.000
 6555.00    1.36936   0.93046    0.000
 6556.00    1.66864   0.91418    0.000
 6557.00    2.13200   0.89739    0.000
 6558.00    2.74397   0.88256    0.000
 6559.00    3.43399   0.86703    0.000
 6560.00    4.07884   0.85485    0.000
 6561.00    4.52229   0.85238    0.000
 6562.00    4.65104   0.85364    0.000
 6563.00    4.43190   0.85854    0.000
 6564.00    3.92210   0.87235    0.000
 6565.00    3.25304   0.88832    0.000
 6566.00    2.56522   0.90288    0.000
 6567.00    1.97429   0.91909    0.000
 6568.00    1.53919   0.93356    0.000
 6569.00    1.26204   0.94410    0.000
 6570.00    1.11235   0.95348    0.000
 6571.00    1.04492   0.96149    0.000
 6572.00    1.02498   0.96761    0.000
 6573.00    1.03314   0.97385    0.000
 6574.00    1.06353   0.97996    0.000
 6575.00    1.12260   0.98535    0.000
 6576.00    1.22724   0.99098    0.000
 6577.00    1.39481   0.99610    0.000
 6578.00    1.62833   1.00010    0.000
 6579.00    1.90858   1.00409    0.000
 6580.00    2.18797   1.00735    0.000
 6581.00    2.40787   1.00963    0.000
 6582.00    2.52088   1.01203    0.000
 6583.00    2.50250   1.01351    0.000
 6584.00    2.36002   1.01439    0.000
 6585.00    2.12606   1.01512    0.000
 6586.00    1.85005   1.01423    0.000
 6587.00    1.58258   1.01251    0.000
 6588.00    1.36212   1.01072    0.000
 6589.00    1.20704   1.00771    0.000
 6590.00    1.11248   1.00413    0.000
 6591.00    1.06217   1.00221    0.000
 6592.00    1.03729   1.00123    0.000
 6593.00    1.02314   1.00042    0.000
 6594.00    1.01243   1.00180    0.000
 6595.00    1.00413   1.00453    0.000
 6596.00    1.00142   1.00720    0.000
 6597.00    1.00578   1.01074    0.000
 6598.00    1.01511   1.01399    0.000
 6599.00    1.02590   1.01609    0.000
 6600.00    1.03497   1.01771    0.000
 6601.00    1.04187   1.01815    0.000
 6602.00    1.04801   1.01731    0.000
 6603.00    1.05208   1.01600    0.000
 6604.00    1.05104   1.01448    0.000
 6605.00    1.04585   1.01298    0.000
 6606.00    1.03976   1.01176    0.000
 6607.00    1.03177   1.01184    0.000
 6608.00    1.01950   1.01312    0.000
 6609.00    1.00716   1.01476   44.159
 6610.00    1.00163   1.01723   44.828
 6611.00    1.00339   1.02034   45.271
 6612.00    1.00817   1.02367   45.298
 6613.00    1.01174   1.02654   45.195
 6614.00    1.01218   1.02872   45.313
 6615.00    1.01168   1.03081   45.511
 6616.00    1.01382   1.03210   45.458
 6617.00    1.02008   1.03229   45.077
 6618.00    1.02895   1.03187   44.421
 6619.00    1.03579   1.03073   43.518
 6620.00    1.03667   1.02903   42.620
 6621.00    1.03186   1.02666   42.279
 6622.00    1.02550   1.02397   42.595
 6623.00    1.02403   1.02187   42.802
 6624.00    1.02853   1.01939   42.404
 6625.00    1.03133   1.01675   41.918
 6626.00    1.02713   1.01498   42.064
 6627.00    1.01885   1.01287   43.235
 6628.00    1.01156   1.01060   44.917
 6629.00    1.00853   1.00904   45.494
 6630.00    1.00844   1.00734   44.565
 6631.00    1.00645   1.00599   43.489
 6632.00    1.00285   1.00596   42.152
 6633.00    1.00346   1.00622   39.250
 6634.00    1.00833   1.00678   35.898
 6635.00    1.01116   1.00833   34.140
 6636.00    1.01026   1.00974   33.849
 6637.00    1.00935   1.01051   33.643
 6638.00    1.01053   1.01160   33.140
 6639.00    1.01298   1.01229   32.898
 6640.00    1.01477   1.01172   33.015
 6641.00    1.01432   1.01170   33.243
 6642.00    1.01223   1.01233   33.806
 6643.00    1.01120   1.01209   35.097
 6644.00    1.01482   1.01223   36.637
 6645.00    1.02391   1.01329   37.484
 6646.00    1.03136   1.01413   37.840
 6647.00    1.02928   1.01478   38.582
 6648.00    1.01989   1.01541   39.881
 6649.00    1.01069   1.01594   41.341
 6650.00    1.00641   1.01620   42.483
 6651.00    1.00828   1.01598   43.028
 6652.00    1.01443   1.01567   43.173
 6653.00    1.02144   1.01502   43.261
 6654.00    1.02587   1.01380   43.388
 6655.00    1.02552   1.01250   43.467
 6656.00    1.02021   1.01072   43.328
 6657.00    1.01155   1.00819   42.846
 6658.00    1.00247   1.00578   42.035
 6659.00    0.99610   1.00344   40.977
 6660.00    0.99472   1.00051   39.818
 6661.00    0.99809   0.99860   39.007
 6662.00    1.00301   0.99793   39.225
 6663.00    1.00610   0.99719   40.529
 6664.00    1.00595   0.99779   41.890
 6665.00    1.00620   0.99975   41.521
 6666.00    1.01399   1.00171   38.310
 6667.00    1.02845   1.00405   34.034
 6668.00    1.03921   1.00634   31.067
 6669.00    1.03678   1.00776   29.730
 6670.00    1.01826   1.00847   29.416
 6671.00    0.99309   1.00796   29.864
 6672.00    0.97816   1.00614   31.124
 6673.00    0.98100   1.00391   32.911
 6674.00    0.99858   1.00077   34.396
 6675.00    1.02528   0.99734   34.673
 6676.00    1.05496   0.99562   33.600
 6677.00    1.08124   0.99463   32.393
 6678.00    1.09881   0.99391   -1.000
 6679.00    1.10588   0.99540   -1.000
 6680.00    1.10521   0.99809   -1.000
 6681.00    1.10463   1.00053   -1.000
 6682.00    1.10992   1.00335   -1.000
 6683.00    1.11536   1.00620   -1.000
 6684.00    1.11136   1.00843   -1.000
 6685.00    1.09512   1.01000   -1.000
 6686.00    1.07139   1.01115   36.218
 6687.00    1.05080   1.01165   36.940
 6688.00    1.03874   1.01141   37.856
 6689.00    1.02704   1.01086   39.007
 6690.00    1.01279   1.00972   39.930
 6691.00    1.01102   1.00827   39.363
 6692.00    1.02810   1.00665   37.287
 6693.00    1.04560   1.00466   35.554
 6694.00    1.04669   1.00333   35.195
 6695.00    1.03259   1.00229   35.875
 6696.00    1.01471   1.00123    0.000
 6697.00    1.00713   1.00123    0.000
 6698.00    1.01458   1.00136    0.000
 6699.00    1.02896   1.00144    0.000
 6700.00    1.03959   1.00193    0.000
 6701.00    1.04016   1.00197    0.000
 6702.00    1.03672   1.00196    0.000
 6703.00    1.04316   1.00205    0.000
 6704.00    1.05678   1.00151    0.000
 6705.00    1.06142   1.00090    0.000
 6706.00    1.05968   1.00036    0.000
 6707.00    1.06951   0.99884    0.000
 6708.00    1.09183   0.99703    0.000
 6709.00    1.11784   0.99501    0.000
 6710.00    1.16303   0.99189    0.000
 6711.00    1.25038   0.98878    0.000
 6712.00    1.36387   0.98579    0.000
 6713.00    1.46420   0.98272    0.000
 6714.00    1.53113   0.98026    0.000
 6715.00    1.55971   0.97880    0.000
 6716.00    1.54373   0.97878    0.000
 6717.00    1.48119   0.97940    0.000
 6718.00    1.38439   0.98079    0.000
 6719.00    1.27495   0.98341    0.000
 6720.00    1.17606   0.98619    0.000
 6721.00    1.10661   0.98876    0.000
 6722.00    1.07596   0.99113    0.000
 6723.00    1.08206   0.99322    0.000
 6724.00    1.11214   0.99525    0.000
 6725.00    1.15823   0.99678    0.000
 6726.00    1.22627   0.99776    0.000
 6727.00    1.31127   0.99886    0.000
 6728.00    1.38410   0.99973    0.000
 6729.00    1.42159   1.00009    0.000
 6730.00    1.42322   1.00019    0.000
 6731.00    1.39605   0.99996    0.000
 6732.00    1.34627   0.99932    0.000
 6733.00    1.28084   0.99840    0.000
 6734.00    1.20839   0.99708    0.000
 6735.00    1.13896   0.99548    0.000
 6736.00    1.08255   0.99396    0.000
 6737.00    1.04418   0.99231    0.000
 6738.00    1.02283   0.99077    0.000
 6739.00    1.01410   0.98926    0.000
 6740.00    1.01209   0.98781    0.000
 6741.00    1.01231   0.98699    0.000
 6742.00    1.01209   0.98598    0.000
 6743.00    1.00965   0.98476    0.000
 6744.00    1.00460   0.98402    0.000
 6745.00    0.99951   0.98329    0.000
 6746.00    0.99782   0.98263    0.000
 6747.00    0.99963   0.98199    0.000
 6748.00    1.00268   0.98208    0.000
 6749.00    1.00549   0.98276    0.000
 6750.00    1.00847   0.98331    0.000
 6751.00    1.01446   0.98537    0.000
 6752.00    1.02413   0.98785    0.000
 6753.00    1.03070   0.99011   32.126
 6754.00    1.02726   0.99343   32.746
 6755.00    1.01556   0.99651   34.291
 6756.00    1.00356   0.99903   37.294
 6757.00    1.00099   1.00143   39.878
 6758.00    1.01085   1.00300   39.805
 6759.00    1.02369   1.00355   38.580
 6760.00    1.02942   1.00352   38.177
 6761.00    1.02641   1.00267   38.539
 6762.00    1.01847   1.00098   38.949
 6763.00    1.01152   0.99909   38.906
 6764.00    1.00872   0.99693   38.545
 6765.00    1.00834   0.99498   38.600
 6766.00    1.00795   0.99375   39.262
 6767.00    1.00649   0.99283   39.829
 6768.00    1.00408   0.99267   39.858
 6769.00    1.00169   0.99390   39.624
 6770.00    1.00098   0.99566   39.209
 6771.00    1.00370   0.99769   38.392
 6772.00    1.01021   1.00020   37.515
 6773.00    1.01887   1.00270   37.315
 6774.00    1.02606   1.00465   37.890
 6775.00    1.02771   1.00575   38.717
 6776.00    1.02301   1.00606   39.346
 6777.00    1.01500   1.00521   39.450
 6778.00    1.00923   1.00328   38.436
 6779.00    1.01012   1.00079   36.241
 6780.00    1.01453   0.99770   34.383
 6781.00    1.01486   0.99449   34.018
 6782.00    1.00737   0.99184   33.884
 6783.00    0.99411   0.98966   32.336
 6784.00    0.98306   0.98828   30.662
 6785.00    0.98043   0.98798   30.407
 6786.00    0.98049   0.98814   30.755
 6787.00    0.97580   0.98865   30.645
 6788.00    0.97087   0.98958   31.412
 6789.00    0.97242   0.99037   34.577
 6790.00    0.97763   0.99070   38.545
 6791.00    0.98103   0.99115   40.041
 6792.00    0.98201   0.99172   40.039
 6793.00    0.98264   0.99184   40.832
 6794.00    0.98505   0.99237   41.755
 6795.00    0.98954   0.99317   41.671
 6796.00    0.99383   0.99379   41.245
 6797.00    0.99609   0.99490   41.254
 6798.00    0.99657   0.99579   41.536
 6799.00    0.99540   0.99639   41.828
 6800.00    0.99177   0.99711   42.161
 6801.00    0.98669   0.99719   42.259
 6802.00    0.98343   0.99721   41.484
 6803.00    0.98328   0.99709   40.007
 6804.00    0.98420   0.99625   38.778
 6805.00    0.98324   0.99599   38.184
 6806.00    0.97851   0.99557   37.943
 6807.00    0.97269   0.99457   37.672
 6808.00    0.97205   0.99450   37.185
 6809.00    0.98007   0.99432   36.843
 6810.00    0.99526   0.99388   37.160
 6811.00    1.01070   0.99407   37.678
 6812.00    1.01729   0.99415   37.469
 6813.00    1.01122   0.99460   37.165
 6814.00    0.99572   0.99531   38.093
 6815.00    0.98068   0.99572   39.809
 6816.00    0.97595   0.99663   40.714
 6817.00    0.98013   0.99770   40.887
 6818.00    0.98528   0.99862   41.395
 6819.00    0.98708   0.99956   41.831
 6820.00    0.98579   1.00017   41.353
 6821.00    0.98511   1.00077   40.702
 6822.00    0.98903   1.00125   40.684
 6823.00    0.99830   1.00126   40.413
 6824.00    1.00902   1.00097   39.164
 6825.00    1.01256   1.00038   38.135
 6826.00    1.00448   1.00001   38.223
 6827.00    0.99173   0.99974   38.562
 6828.00    0.98333   0.99922   38.279
 6829.00    0.98229   0.99896   37.904
 6830.00    0.98660   0.99884   37.987
 6831.00    0.99126   0.99843   38.229
 6832.00    0.99358   0.99760   38.462
 6833.00    0.99556   0.99598   39.144
 6834.00    0.99849   0.99387   40.294
 6835.00    1.00027   0.99150   41.008
 6836.00    0.99792   0.98845   40.882
 6837.00    0.98970   0.98546   40.590
 6838.00    0.97912   0.98287   40.366
 6839.00    0.97384   0.98086   39.679
 6840.00    0.97566   0.98013   38.433
 6841.00    0.97951   0.98025   37.165
 6842.00    0.98228   0.98135   36.418
 6843.00    0.98475   0.98333   36.435
 6844.00    0.98813   0.98559   36.736
 6845.00    0.99329   0.98803   36.415
 6846.00    1.00118   0.98979   35.414
 6847.00    1.01104   0.99072   34.389
 6848.00    1.01662   0.99129   33.741
 6849.00    1.01090   0.99084   33.558
 6850.00    0.99676   0.98954   33.778
 6851.00    0.98296   0.98788   34.355
 6852.00    0.97396   0.98555   35.490
 6853.00    0.96969   0.98348   37.169
 6854.00    0.96786   0.98162   38.192
 6855.00    0.96617   0.97961   37.535
 6856.00    0.96457   0.97869   36.702
 6857.00    0.96412   0.97836   37.178
 6858.00    0.96532   0.97807   37.980
 6859.00    0.96809   0.97862   37.708
 6860.00    0.97185   0.97949   37.055
 6861.00    0.97585   0.98020   36.762
 6862.00    0.97935   0.98100   35.995
 6863.00    0.98151   0.98172   34.829
 6864.00    0.98158   0.98213   35.257
 6865.00    0.98068   0.98212   36.874
 6866.00    0.98223   0.98194   35.015
 6867.00    0.98669   0.98173   32.473
 6868.00    0.98976   0.98146   39.521
 6869.00    0.99045   0.98151   51.442
 6870.00    0.99345   0.98213   25.806
 6871.00    0.99961   0.98286   12.384
 6872.00    1.00324   0.98352    9.312
 6873.00    1.00023   0.98457    9.535
 6874.00    0.99159   0.98579   10.373
 6875.00    0.98319   0.98673   10.363
 6876.00    0.98271   0.98741   10.017
 6877.00    0.99066   0.98785    9.963
 6878.00    0.99985   0.98797   10.222
 6879.00    1.00193   0.98801   10.208
 6880.00    0.99239   0.98817    9.537
 6881.00    0.97757   0.98856    9.681
 6882.00    0.96953   0.98933   13.478
 6883.00    0.97159   0.99053   28.442
 6884.00    0.97880   0.99251   49.500
 6885.00    0.98469   0.99480   37.232
 6886.00    0.98564   0.99689   31.888
 6887.00    0.98540   0.99902   34.200
 6888.00    0.98898   1.00108   35.231
 6889.00    0.99315   1.00261   33.761
 6890.00    0.99291   1.00355   33.592
 6891.00    0.99097   1.00420   34.618
 6892.00    0.99192   1.00428   35.199
 6893.00    0.99487   1.00409   35.466
 6894.00    0.99728   1.00408   36.160
 6895.00    0.99939   1.00385   36.905
 6896.00    1.00257   1.00376   37.094
 6897.00    1.00731   1.00388   36.914
 6898.00    1.01051   1.00427   36.727
 6899.00    1.00527   1.00506   36.535
 6900.00    0.99208   1.00560   36.309
 6901.00    0.98367   1.00630   36.159
 6902.00    0.98836   1.00735   35.980
 6903.00    1.00159   1.00803   35.377
 6904.00    1.01488   1.00863   34.340
 6905.00    1.02150   1.00871   33.375
 6906.00    1.01938   1.00824   32.884
 6907.00    1.01160   1.00788   32.960
 6908.00    1.00298   1.00668   33.329
 6909.00    0.99760   1.00493   33.465
 6910.00    0.99519   1.00339   33.307
 6911.00    0.99196   1.00147   33.302
 6912.00    0.98700   1.00005   33.698
 6913.00    0.98276   0.99924   34.410
 6914.00    0.98120   0.99827   35.185
 6915.00    0.98279   0.99840   35.533
 6916.00    0.98687   0.99893   34.611
 6917.00    0.99179   0.99917   32.351
 6918.00    0.99501   0.99986   30.665
 6919.00    0.99426   1.00012   31.161
 6920.00    0.98948   1.00009   33.030
 6921.00    0.98280   0.99986   33.946
 6922.00    0.97769   0.99937   33.171
 6923.00    0.97591   0.99898   31.747
 6924.00    0.97380   0.99859   30.618
 6925.00    0.96855   0.99838   30.153
 6926.00    0.96551   0.99863   30.168
 6927.00    0.96868   0.99935   30.471
 6928.00    0.97076   0.99994   31.325
 6929.00    0.96604   1.00057   32.563
 6930.00    0.96226   1.00124   32.682
 6931.00    0.96654   1.00197   31.558
 6932.00    0.97410   1.00289   32.034
 6933.00    0.97877   1.00337   35.352
 6934.00    0.98085   1.00406   37.674
 6935.00    0.98256   1.00488   35.656
 6936.00    0.98470   1.00523   33.260
 6937.00    0.98560   1.00524   32.830
 6938.00    0.98191   1.00498   33.051
 6939.00    0.97398   1.00440   32.798
 6940.00    0.96755   1.00346   32.398
 6941.00    0.96861   1.00250   32.030
 6942.00    0.97936   1.00134   31.337
 6943.00    0.99183   1.00035   30.555
 6944.00    0.99169   0.99987   30.434
 6945.00    0.97861   0.99926   31.075
 6946.00    0.96662   0.99915   31.888
 6947.00    0.96487   0.99952   32.458
 6948.00    0.97194   0.99951   32.771
 6949.00    0.97684   0.99972   32.884
 6950.00    0.96892   1.00007   32.929
 6951.00    0.95869   1.00028   33.355
 6952.00    0.96491   1.00104   34.435
 6953.00    0.98071   1.00213   35.033
 6954.00    0.98609   1.00326   33.735
 6955.00    0.98075   1.00469   31.711
 6956.00    0.97644   1.00643   30.660
 6957.00    0.97671   1.00806   30.551
 6958.00    0.97968   1.00957   30.553
 6959.00    0.98572   1.01109   30.003
 6960.00    0.99531   1.01226   28.965
 6961.00    1.00539   1.01334   -2.000
 6962.00    1.01216   1.01427   -2.000
 6963.00    1.01438   1.01482   -2.000
 6964.00    1.01238   1.01542   -2.000
 6965.00    1.00702   1.01572   -2.000
 6966.00    1.00002   1.01529   -2.000
 6967.00    0.99407   1.01480   -2.000
 6968.00    0.99126   1.01386   -2.000
 6969.00    0.99207   1.01201   -2.000
 6970.00    0.99696   1.00939   -2.000
 6971.00    1.00725   1.00582   -2.000
 6972.00    1.02431   1.00211   -2.000
 6973.00    1.04738   0.99827   -2.000
 6974.00    1.06508   0.99433   -2.000
 6975.00    1.05839   0.99110   -2.000
 6976.00    1.02932   0.98904   -2.000
 6977.00    1.00379   0.98876   -2.000
 6978.00    0.99637   0.98962   -2.000
 6979.00    1.00137   0.99172   -2.000
 6980.00    1.00772   0.99549   -2.000
 6981.00    1.00735   0.99959   -2.000
 6982.00    1.00407   1.00355   -2.000
 6983.00    1.00827   1.00712   -2.000
 6984.00    1.01807   1.00983   -2.000
 6985.00    1.02355   1.01198   -2.000
 6986.00    1.02602   1.01338   -2.000
 6987.00    1.03206   1.01421   -2.000
 6988.00    1.03439   1.01474   -2.000
 6989.00    1.02255   1.01468   -2.000
 6990.00    1.00593   1.01460   -2.000
 6991.00    1.00111   1.01441   -2.000
 6992.00    1.00790   1.01399   -2.000
 6993.00    1.01545   1.01339   -2.000
 6994.00    1.01516   1.01204   -2.000
 6995.00    1.00580   1.01048   -2.000
 6996.00    0.99655   1.00897   -2.000
 6997.00    0.99519   1.00733   -2.000
 6998.00    0.99693   1.00580   -2.000
 6999.00    0.99534   1.00405   -2.000
 7000.00    0.99225   1.00256   -2.000
 7001.00    0.99214   1.00179   -2.000
 7002.00    0.99720   1.00150   -2.000
 7003.00    1.00821   1.00139   -2.000
 7004.00    1.02464   1.00131   -2.000
 7005.00    1.03973   1.00152   -2.000
 7006.00    1.04056   1.00184   -2.000
 7007.00    1.02392   1.00210   -2.000
 7008.00    1.00161   1.00195   -2.000
 7009.00    0.98543   1.00151   -2.000
 7010.00    0.97954   1.00078   -2.000
 7011.00    0.97965   0.99927   -2.000
 7012.00    0.97648   0.99800   -2.000
 7013.00    0.96862   0.99724   -2.000
 7014.00    0.96330   0.99676   -2.000
 7015.00    0.96407   0.99675   -2.000
 7016.00    0.96720   0.99667   -2.000
 7017.00    0.96294   0.99736   -2.000
 7018.00    0.94456   0.99888   -2.000
 7019.00    0.92786   0.99998   -2.000
 7020.00    0.93627   1.00079   -2.000
 7021.00    0.96048   1.00154   -2.000
 7022.00    0.97281   1.00224   -2.000
 7023.00    0.96877   1.00308   -2.000
 7024.00    0.96128   1.00393   -2.000
 7025.00    0.95850   1.00509   -2.000
 7026.00    0.96108   1.00677   -2.000
 7027.00    0.96368   1.00822   -2.000
 7028.00    0.96122   1.00957   -2.000
 7029.00    0.95617   1.01078   -2.000
 7030.00    0.95636   1.01174   -2.000
 7031.00    0.97056   1.01286   -2.000
 7032.00    0.99815   1.01353   -2.000
 7033.00    1.02138   1.01392   -2.000
 7034.00    1.02222   1.01483   -2.000
 7035.00    0.99810   1.01615   -2.000
 7036.00    0.96618   1.01831   -2.000
 7037.00    0.95945   1.02101   -2.000
 7038.00    0.98486   1.02357   -2.000
 7039.00    1.00603   1.02675   -2.000
 7040.00    1.00530   1.03043   -2.000
 7041.00    1.00889   1.03385   -2.000
 7042.00    1.02380   1.03653   -2.000
 7043.00    1.01879   1.03833   -2.000
 7044.00    0.98867   1.03913   -2.000
 7045.00    0.96899   1.03878   -2.000
 7046.00    0.97695   1.03760   -2.000
 7047.00    0.99743   1.03494   -2.000
 7048.00    1.01825   1.03110   -2.000
 7049.00    1.03628   1.02640   -2.000
 7050.00    1.03837   1.02070   -2.000
 7051.00    1.00840   1.01518   -2.000
 7052.00    0.96080   1.00949   -2.000
 7053.00    0.92934   1.00398   -2.000
 7054.00    0.92119   0.99932   -2.000
 7055.00    0.92052   0.99504   -2.000
 7056.00    0.91809   0.99185   -2.000
 7057.00    0.91513   0.98926   -2.000
 7058.00    0.91885   0.98693   -2.000
 7059.00    0.93350   0.98521   -2.000
 7060.00    0.94853   0.98356   -2.000
 7061.00    0.95078   0.98238   -2.000
 7062.00    0.94294   0.98168   -2.000
 7063.00    0.93409   0.98078   -2.000
 7064.00    0.92542   0.98047   -2.000
 7065.00    0.91474   0.98082   -2.000
 7066.00    0.90356   0.98144   -2.000
 7067.00    0.90220   0.98279   -2.000
 7068.00    0.93010   0.98454   -2.000
 7069.00    0.98241   0.98682   -2.000
 7070.00    1.01117   0.98978   -2.000
 7071.00    0.99488   0.99255   -2.000
 7072.00    0.97838   0.99483   -2.000
 7073.00    0.99242   0.99678   -2.000
 7074.00    1.01148   0.99795   -2.000
 7075.00    1.02093   0.99837   -2.000
 7076.00    1.04373   0.99787   -2.000
 7077.00    1.07642   0.99603   -2.000
 7078.00    1.07408   0.99325   -2.000
 7079.00    1.02669   0.98912   -2.000
 7080.00    0.97474   0.98409   -2.000
 7081.00    0.93953   0.97891   -2.000
 7082.00    0.90976   0.97299   -2.000
 7083.00    0.88735   0.96702   -2.000
 7084.00    0.88939   0.96129   -2.000
 7085.00    0.90869   0.95597   -2.000
 7086.00    0.92006   0.95217   -2.000
 7087.00    0.92556   0.94908   -2.000
 7088.00    0.94381   0.94632   -2.000
 7089.00    0.96104   0.94502   -2.000
 7090.00    0.94914   0.94408   -2.000
 7091.00    0.92130   0.94420   -2.000
 7092.00    0.91072   0.94528   -2.000
 7093.00    0.91617   0.94611   -2.000
 7094.00    0.91727   0.94828   -2.000
 7095.00    0.91144   0.95016   -2.000
 7096.00    0.90811   0.95239   -2.000
 7097.00    0.91329   0.95468   -2.000
 7098.00    0.92447   0.95639   -2.000
 7099.00    0.92848   0.95868   -2.000
 7100.00    0.91953   0.96015   -2.000
 7101.00    0.91475   0.96122   -2.000
 7102.00    0.92030   0.96168   -2.000
 7103.00    0.90578   0.96174   -2.000
 7104.00    0.86017   0.96188   -2.000
 7105.00    0.82916   0.96156   -2.000
 7106.00    0.84573   0.96080   -2.000
 7107.00    0.88736   0.95991   -2.000
 7108.00    0.92970   0.95939   -2.000
 7109.00    0.97453   0.95932   -2.000
 7110.00    1.00916   0.95931   -2.000
 7111.00    0.99630   0.95952   -2.000
 7112.00    0.93555   0.95997   -2.000
 7113.00    0.87741   0.96086   -2.000
 7114.00    0.85608   0.96178   -2.000
 7115.00    0.86581   0.96221   -2.000
 7116.00    0.88115   0.96253   -2.000
 7117.00    0.87639   0.96212   -2.000
 7118.00    0.86029   0.96159   -2.000
 7119.00    0.86574   0.96075   -2.000
 7120.00    0.89042   0.95896   -2.000
 7121.00    0.90182   0.95707   -2.000
 7122.00    0.89092   0.95455   -2.000
 7123.00    0.87201   0.95225   -2.000
 7124.00    0.85329   0.95010   -2.000
 7125.00    0.83801   0.94733   -2.000
 7126.00    0.83810   0.94494   -2.000
 7127.00    0.85824   0.94336   -2.000
 7128.00    0.86754   0.94257   -2.000
 7129.00    0.83893   0.94270   -2.000
 7130.00    0.81002   0.94316   -2.000
 7131.00    0.83104   0.94418   -2.000
 7132.00    0.88944   0.94646   -2.000
 7133.00    0.94294   0.94875   -2.000
 7134.00    0.96768   0.95104   -2.000
 7135.00    0.95878   0.95311   -2.000
 7136.00    0.92519   0.95483   -2.000
 7137.00    0.88352   0.95634   -2.000
 7138.00    0.85179   0.95706   -2.000
 7139.00    0.83941   0.95724   -2.000
 7140.00    0.84118   0.95691   -2.000
 7141.00    0.84748   0.95658   -2.000
 7142.00    0.85170   0.95570   -2.000
 7143.00    0.85100   0.95416   -2.000
 7144.00    0.84605   0.95329   -2.000
 7145.00    0.83849   0.95261   -2.000
 7146.00    0.83057   0.95254   -2.000
 7147.00    0.82961   0.95332   -2.000
 7148.00    0.84519   0.95418   -2.000
 7149.00    0.87000   0.95624   -2.000
 7150.00    0.88126   0.95874   -2.000
 7151.00    0.87266   0.96130   -2.000
 7152.00    0.85878   0.96436   -2.000
 7153.00    0.85319   0.96655   -2.000
 7154.00    0.85929   0.96804   -2.000
 7155.00    0.86556   0.96867   -2.000
 7156.00    0.85691   0.96866   -2.000
 7157.00    0.84354   0.96861   -2.000
 7158.00    0.85043   0.96743   -2.000
 7159.00    0.88128   0.96541   -2.000
 7160.00    0.91679   0.96328   -2.000
 7161.00    0.92659   0.96189   -2.000
 7162.00    0.89404   0.96150   -2.000
 7163.00    0.84994   0.96149   -2.000
 7164.00    0.83581   0.96176   -2.000
 7165.00    0.84684   0.96275   -2.000
 7166.00    0.85953   0.96496   -2.000
 7167.00    0.87422   0.96789   -2.000
 7168.00    0.89330   0.97070   -2.000
 7169.00    0.89512   0.97286   -2.000
 7170.00    0.86952   0.97430   -2.000
 7171.00    0.84926   0.97511   -2.000
 7172.00    0.85992   0.97563   -2.000
 7173.00    0.88043   0.97563   -2.000
 7174.00    0.88805   0.97456   -2.000
 7175.00    0.88983   0.97275   -2.000
 7176.00    0.89134   0.97051   -2.000
 7177.00    0.88002   0.96864   -2.000
 7178.00    0.85700   0.96752   -2.000
 7179.00    0.84769   0.96600   -2.000
 7180.00    0.85815   0.96421   -2.000
 7181.00    0.86367   0.96258   -2.000
 7182.00    0.85869   0.96078   -2.000
 7183.00    0.86573   0.95972   -2.000
 7184.00    0.88170   0.95861   -2.000
 7185.00    0.87438   0.95726   -2.000
 7186.00    0.84232   0.95659   -2.000
 7187.00    0.81820   0.95547   -2.000
 7188.00    0.81630   0.95519   -2.000
 7189.00    0.82759   0.95579   -2.000
 7190.00    0.84886   0.95682   -2.000
 7191.00    0.87915   0.95848   -2.000
 7192.00    0.89475   0.95948   -2.000
 7193.00    0.87054   0.96095   -2.000
 7194.00    0.83247   0.96259   -2.000
 7195.00    0.82571   0.96409   -2.000
 7196.00    0.84189   0.96520   -2.000
 7197.00    0.84751   0.96527   -2.000
 7198.00    0.84636   0.96581   -2.000
 7199.00    0.85689   0.96621   -2.000
 7200.00    0.86988   0.96601   -2.000
 7201.00    0.86927   0.96530   -2.000
 7202.00    0.86230   0.96345   -2.000
 7203.00    0.85909   0.96245   -2.000
 7204.00    0.85001   0.96190   -2.000
 7205.00    0.83200   0.96132   -2.000
 7206.00    0.83023   0.96143   -2.000
 7207.00    0.85546   0.96108   -2.000
 7208.00    0.87462   0.96186   -2.000
 7209.00    0.86709   0.96344   -2.000
 7210.00    0.85832   0.96526   -2.000
 7211.00    0.86296   0.96766   -2.000
 7212.00    0.85684   0.96965   -2.000
 7213.00    0.83264   0.97168   -2.000
 7214.00    0.82071   0.97339   -2.000
 7215.00    0.83290   0.97496   -2.000
 7216.00    0.84484   0.97647   -2.000
 7217.00    0.84175   0.97789   -2.000
 7218.00    0.83209   0.97920   -2.000
