###################################################################
## OUTPUT of StarlightChains_v04.for    [Cid@UFSC - 01/Apr/2007] ##
###################################################################

## Some input info
CSS140501.txt                            [arq_obs]
Base.CB07.vall.4m                        [arq_base]
Masks.EmLines.NEW.gm                     [arq_masks]
StCv04.C11.config                        [arq_config]
   66                                    [N_base]
    0                                    [N_YAV_components = # of components with extra extinction!]
    0                                    [i_FitPowerLaw (1/0 = Yes/No)]
-9.99                                    [alpha_PowerLaw]
CCM                                      [red_law_option]
 1.458241                                [q_norm = A(l_norm)/A(V)]

## (Re)Sampling Parameters
 3741.00                                 [l_ini (A)]
 7218.00                                 [l_fin (A)]
    1.00                                 [dl    (A)]     (OBS: dl_cushion =    50.00 A)

## Normalization info
 4020.00                                 [l_norm (A) - for base]
 4010.00                                 [llow_norm (A) - window for f_obs]
 4060.00                                 [lupp_norm (A) - window for f_obs]
2.026473E-15                             [fobs_norm (in input units)]

## S/N
 3691.00                                 [llow_SN (A) - window for S/N]
 7268.00                                 [lupp_SN (A) - window for S/N]
   4.560                                 [S/N in S/N window]
   4.818                                 [S/N in norm. window]
  10.000                                 [S/N_err in S/N window]
  10.566                                 [S/N_err in norm. window]
  1.0000                                 [fscale_chi2]

## etc...
    -2007448                             [idum_orig]
  2225                                   [NOl_eff]
  2082                                   [Nl_eff]
   143    NSIGMA                         [Ntot_cliped & clip_method]
  1055110                                [Nglobal_steps]
   7                                     [N_chains]
  16                                     [NEX0s_base = N_base in EX0s-fits]
 0   0   1        1   2.0   7.710E+01    [Clip-Bug, RC-Crash & Burn-In warning-flags, n_censored_weights, wei_nsig_threshold & wei_limit]
    15     15.342     14.847      0.495  [idt_all, wdt_TotTime, wdt_UsrTime & wdt_SysTime (sec)]

## Synthesis Results - Best model ##

 1.36849E+00                             [chi2/Nl_eff]
     9.37109                             [adev (%)]

   115.00005                             [sum-of-x (%)]
 1.61797E-14                             [Flux_tot (units of input spectrum!)]
 6.53622E-12                             [Mini_tot (???)]
 4.15856E-12                             [Mcor_tot (???)]

  32.82                                  [v0_min  (km/s)]
 148.62                                  [vd_min  (km/s)]
 1.4427                                  [AV_min  (mag)]
 0.0000                                  [YAV_min (mag)]

# j     x_j(%)      Mini_j(%)     Mcor_j(%)     age_j(yr)     Z_j      (L/M)_j    YAV?  Mstars   component_j        a/Fe...       SSP_chi2r SSP_adev(%)   SSP_AV   SSP_x(%)
  1      0.0653     1.2840E-02    2.0181E-02    1.000000E+06  0.00400  1.094E-02    0   1.0000   age020_m42            0.0000     1.5592E+00    10.0292   2.3163   106.6743
  2      0.0000     0.0000E+00    0.0000E+00    3.160000E+06  0.00400  4.007E-02    0   0.9999   age045_m42            0.0000     1.6446E+00    10.2047   1.6001   113.5916
  3      0.0000     0.0000E+00    0.0000E+00    5.010000E+06  0.00400  2.539E-02    0   0.9488   age055_m42            0.0000     1.5678E+00    10.0437   1.9143   111.0986
  4      0.0000     0.0000E+00    0.0000E+00    6.610000E+06  0.00400  2.620E-02    0   0.9220   age061_m42            0.0000     1.6511E+00    10.1910   1.5284   113.8458
  5      0.0000     0.0000E+00    0.0000E+00    1.000000E+07  0.00400  1.322E-02    0   0.8862   age070_m42            0.0000     1.5070E+00     9.7613   1.2570   116.2504
  6      1.2330     3.3667E-01    4.5355E-01    1.445000E+07  0.00400  7.883E-03    0   0.8571   age078_m42            0.0000     1.4677E+00     9.6875   1.5786   113.5063
  7      0.0492     2.0155E-02    2.5895E-02    2.512000E+07  0.00400  5.251E-03    0   0.8174   age090_m42            0.0000     1.5038E+00     9.7386   1.1292   116.8820
  8      0.0000     0.0000E+00    0.0000E+00    4.000000E+07  0.00400  3.649E-03    0   0.7851   age104_m42            0.0000     1.5513E+00     9.8596   0.9022   117.7853
  9      0.0000     0.0000E+00    0.0000E+00    5.500000E+07  0.00400  3.098E-03    0   0.7629   age110_m42            0.0000     1.6718E+00    10.1429   1.0564   117.5626
 10      0.0000     0.0000E+00    0.0000E+00    1.015200E+08  0.00400  2.228E-03    0   0.7207   age116_m42            0.0000     1.7911E+00    10.3840   1.0780   117.5922
 11      0.0000     0.0000E+00    0.0000E+00    2.861200E+08  0.00400  1.093E-03    0   0.6648   age125_m42            0.0000     1.8761E+00    10.5260   0.5239   120.7096
 12      0.0000     0.0000E+00    0.0000E+00    5.088000E+08  0.00400  6.597E-04    0   0.6365   age130_m42            0.0000     2.0651E+00    10.8854   0.5162   121.3445
 13      0.0000     0.0000E+00    0.0000E+00    1.434000E+09  0.00400  2.132E-04    0   0.5798   age139_m42            0.0000     2.1975E+00    11.2509  -0.4529   123.3490
 14      0.0000     0.0000E+00    0.0000E+00    4.250000E+09  0.00400  5.895E-05    0   0.5377   age158_m42            0.0000     2.2591E+00    11.5644  -0.9055   118.8329
 15      0.0000     0.0000E+00    0.0000E+00    7.500000E+09  0.00400  3.510E-05    0   0.5212   age171_m42            0.0000     2.4581E+00    11.8659  -1.0000   114.1501
 16      0.0000     0.0000E+00    0.0000E+00    1.300000E+10  0.00400  2.005E-05    0   0.5034   age193_m42            0.0000     2.8195E+00    12.4145  -1.0000   106.8869
 17      0.0000     0.0000E+00    0.0000E+00    1.800000E+10  0.00400  1.525E-05    0   0.4967   age213_m42            0.0000     2.8144E+00    12.3996  -1.0000   105.5458
 18      0.0000     0.0000E+00    0.0000E+00    1.000000E+06  0.00800  1.238E-02    0   1.0000   age020_m52            0.0000     1.5625E+00    10.0360   2.3126   106.8786
 19      9.5291     6.6726E-01    1.0452E+00    3.160000E+06  0.00800  3.074E-02    0   0.9966   age045_m52            0.0000     1.5551E+00    10.0204   2.2327   107.9496
 20      4.3019     3.4708E-01    5.1513E-01    5.010000E+06  0.00800  2.668E-02    0   0.9443   age055_m52            0.0000     1.5453E+00     9.9797   1.9933   110.2502
 21      0.0043     4.2928E-04    6.1919E-04    6.610000E+06  0.00800  2.136E-02    0   0.9177   age061_m52            0.0000     1.5090E+00     9.8526   0.7523   117.6459
 22      0.0000     0.0000E+00    0.0000E+00    1.000000E+07  0.00800  1.215E-02    0   0.8827   age070_m52            0.0000     1.4498E+00     9.6118   1.4383   116.0545
 23      0.0000     0.0000E+00    0.0000E+00    1.445000E+07  0.00800  8.717E-03    0   0.8552   age078_m52            0.0000     1.4744E+00     9.6939   1.5462   114.9959
 24      0.0000     0.0000E+00    0.0000E+00    2.512000E+07  0.00800  5.592E-03    0   0.8162   age090_m52            0.0000     1.5131E+00     9.7482   1.1967   118.1455
 25      0.0000     0.0000E+00    0.0000E+00    4.000000E+07  0.00800  3.896E-03    0   0.7841   age104_m52            0.0000     1.5895E+00     9.9376   1.1112   118.8832
 26      0.0000     0.0000E+00    0.0000E+00    1.015200E+08  0.00800  2.148E-03    0   0.7226   age116_m52            0.0000     1.7237E+00    10.2394   1.0473   118.5670
 27      0.0000     0.0000E+00    0.0000E+00    2.861200E+08  0.00800  9.925E-04    0   0.6683   age125_m52            0.0000     2.0841E+00    10.8824   0.5801   122.4656
 28      0.0000     0.0000E+00    0.0000E+00    9.047900E+08  0.00800  3.141E-04    0   0.6138   age135_m52            0.0000     2.4317E+00    11.6913  -0.2067   126.5884
 29      0.0000     0.0000E+00    0.0000E+00    1.434000E+09  0.00800  1.719E-04    0   0.5853   age139_m52            0.0000     2.3413E+00    11.6772  -0.7895   124.1224
 30      0.0000     0.0000E+00    0.0000E+00    2.500000E+09  0.00800  7.872E-05    0   0.5600   age150_m52            0.0000     2.5932E+00    12.1600  -1.0000   118.0434
 31      0.0000     0.0000E+00    0.0000E+00    4.250000E+09  0.00800  4.336E-05    0   0.5426   age158_m52            0.0000     2.6180E+00    12.1836  -1.0000   116.3097
 32      0.0000     0.0000E+00    0.0000E+00    6.250000E+09  0.00800  3.159E-05    0   0.5319   age166_m52            0.0000     3.1406E+00    12.9308  -1.0000   107.9258
 33      0.0000     0.0000E+00    0.0000E+00    1.300000E+10  0.00800  1.361E-05    0   0.5073   age193_m52            0.0000     4.9477E+00    15.7627  -1.0000    88.9370
 34      0.0000     0.0000E+00    0.0000E+00    1.800000E+10  0.00800  9.886E-06    0   0.4990   age213_m52            0.0000     5.6673E+00    16.7628  -1.0000    84.4596
 35      0.0000     0.0000E+00    0.0000E+00    1.000000E+06  0.02000  1.544E-02    0   1.0000   age020_m62            0.0000     1.5615E+00    10.0345   2.3076   107.1786
 36     22.4494     1.2845E+00    1.9902E+00    3.160000E+06  0.02000  3.762E-02    0   0.9858   age045_m62            0.0000     1.5546E+00    10.0322   2.2432   108.2655
 37      0.0017     1.1215E-04    1.6467E-04    5.010000E+06  0.02000  3.296E-02    0   0.9342   age055_m62            0.0000     1.6233E+00    10.1601   1.8736   112.4584
 38     40.5995     7.5729E+00    1.0547E+01    8.710000E+06  0.02000  1.154E-02    0   0.8861   age067_m62            0.0000     1.4491E+00     9.5756   0.9079   119.4213
 39      0.0000     0.0000E+00    0.0000E+00    1.445000E+07  0.02000  7.663E-03    0   0.8472   age078_m62            0.0000     1.4205E+00     9.5346   1.0939   118.6405
 40      0.0000     0.0000E+00    0.0000E+00    2.512000E+07  0.02000  4.532E-03    0   0.8099   age090_m62            0.0000     1.4451E+00     9.5856   1.0888   118.2737
 41      0.0000     0.0000E+00    0.0000E+00    5.500000E+07  0.02000  2.733E-03    0   0.7595   age110_m62            0.0000     1.5771E+00     9.9098   1.0916   118.1326
 42      0.0000     0.0000E+00    0.0000E+00    1.609000E+08  0.02000  1.369E-03    0   0.6985   age120_m62            0.0000     1.9131E+00    10.5507   0.9372   120.7772
 43      0.0000     0.0000E+00    0.0000E+00    2.861200E+08  0.02000  9.013E-04    0   0.6714   age125_m62            0.0000     2.1946E+00    11.0055   0.6942   123.7003
 44      0.0000     0.0000E+00    0.0000E+00    5.088000E+08  0.02000  5.028E-04    0   0.6449   age130_m62            0.0000     2.4918E+00    11.6353   0.3229   126.3245
 45      0.0000     0.0000E+00    0.0000E+00    9.047900E+08  0.02000  2.428E-04    0   0.6179   age135_m62            0.0000     2.4951E+00    11.8798  -0.2674   125.5922
 46      0.0000     0.0000E+00    0.0000E+00    1.434000E+09  0.02000  1.263E-04    0   0.5908   age139_m62            0.0000     2.5500E+00    12.0949  -0.7137   123.7185
 47      0.0000     0.0000E+00    0.0000E+00    2.500000E+09  0.02000  5.985E-05    0   0.5673   age150_m62            0.0000     2.8705E+00    12.6653  -1.0000   118.4245
 48      0.0000     0.0000E+00    0.0000E+00    4.250000E+09  0.02000  3.271E-05    0   0.5468   age158_m62            0.0000     3.7565E+00    13.9425  -1.0000   104.6810
 49      0.0000     0.0000E+00    0.0000E+00    1.000000E+10  0.02000  1.360E-05    0   0.5167   age181_m62            0.0000     5.3818E+00    16.3145  -1.0000    90.5054
 50      0.0000     0.0000E+00    0.0000E+00    1.800000E+10  0.02000  7.124E-06    0   0.5013   age213_m62            0.0000     6.6242E+00    17.9475  -1.0000    82.0665
 51     26.4400     2.1957E+00    3.4504E+00    1.000000E+06  0.05000  2.592E-02    0   0.9998   age020_m72            0.0000     1.5588E+00    10.0166   2.2985   107.2417
 52      5.7896     2.5722E-01    3.8718E-01    3.160000E+06  0.05000  4.845E-02    0   0.9577   age045_m72            0.0000     1.5759E+00    10.0844   2.1263   109.6711
 53      0.0000     0.0000E+00    0.0000E+00    5.010000E+06  0.05000  3.072E-02    0   0.9147   age055_m72            0.0000     1.4386E+00     9.6346   1.6749   114.1460
 54      0.0000     0.0000E+00    0.0000E+00    6.610000E+06  0.05000  1.455E-02    0   0.8877   age061_m72            0.0000     1.6897E+00    10.2810   0.9815   120.2483
 55      0.0000     0.0000E+00    0.0000E+00    1.000000E+07  0.05000  9.074E-03    0   0.8524   age070_m72            0.0000     1.4932E+00     9.8155   1.8722   113.4976
 56      0.0000     0.0000E+00    0.0000E+00    2.512000E+07  0.05000  4.250E-03    0   0.7902   age090_m72            0.0000     1.5276E+00     9.8350   1.5676   115.6660
 57      0.0000     0.0000E+00    0.0000E+00    4.000000E+07  0.05000  3.087E-03    0   0.7618   age104_m72            0.0000     1.5797E+00     9.9478   1.3438   117.4884
 58      0.0000     0.0000E+00    0.0000E+00    1.015200E+08  0.05000  1.700E-03    0   0.7096   age116_m72            0.0000     1.8205E+00    10.3564   1.0806   120.4394
 59      0.0000     0.0000E+00    0.0000E+00    2.861200E+08  0.05000  7.384E-04    0   0.6633   age125_m72            0.0000     2.3683E+00    11.3679   0.5668   124.9773
 60      0.0000     0.0000E+00    0.0000E+00    5.088000E+08  0.05000  3.819E-04    0   0.6372   age130_m72            0.0000     2.5122E+00    11.8149   0.0725   126.7361
 61      2.0158     2.5889E+01    2.4862E+01    9.047900E+08  0.05000  1.676E-04    0   0.6110   age135_m72            0.0000     2.7933E+00    12.5956  -0.6274   124.2736
 62      2.5214     6.1416E+01    5.6702E+01    1.434000E+09  0.05000  8.837E-05    0   0.5874   age139_m72            0.0000     2.9864E+00    12.8581  -1.0000   120.0500
 63      0.0000     0.0000E+00    0.0000E+00    2.500000E+09  0.05000  4.233E-05    0   0.5598   age150_m72            0.0000     3.9045E+00    14.1707  -1.0000   105.4649
 64      0.0000     0.0000E+00    0.0000E+00    6.250000E+09  0.05000  1.435E-05    0   0.5249   age166_m72            0.0000     5.8680E+00    17.0442  -1.0000    86.5328
 65      0.0000     0.0000E+00    0.0000E+00    1.300000E+10  0.05000  6.513E-06    0   0.5036   age193_m72            0.0000     7.6122E+00    19.2247  -1.0000    77.2722
 66      0.0000     0.0000E+00    0.0000E+00    1.800000E+10  0.05000  4.527E-06    0   0.4945   age213_m72            0.0000     8.6733E+00    20.5482  -1.0000    71.7139


## Synthesis Results - Average & Chains ##

# j      x_j: min, <> & last-chain-values for 1 ...  7 chains
  1      0.0653      4.7265      1.2381      9.1946      4.5772      6.4157      2.6534      3.2698      9.3257
  2      0.0000      0.4914      0.4721      0.0000      0.0000      0.0000      1.1595      0.0000      0.2364
  3      0.0000      1.0020      0.2874      3.0578      1.1913      0.0000      4.6347      4.6629      3.4970
  4      0.0000      0.6754      0.0000      0.4389      2.0466      0.0000      0.0000      0.0000      0.0000
  5      0.0000      1.2323      0.0000      0.0000      0.0000      0.0000      0.7503      0.0000      0.0000
  6      1.2330      1.2722      3.9237      0.0000      0.0000      4.2504      1.6163      0.0000      0.0000
  7      0.0492      1.4920      2.8015      0.0000      0.0000      0.0000      0.0000      0.0000      0.0000
  8      0.0000      1.2523      0.0000      0.0000      0.0000      2.0962      0.0000      0.0000      3.9165
  9      0.0000      0.4837      0.0000      0.0000      0.0000      0.0000      0.0000      0.0000      0.4856
 10      0.0000      0.4333      0.0000      0.0000      0.3378      0.1682      0.0000      0.4434      0.0000
 11      0.0000      0.2570      0.0000      0.0000      0.0000      0.0000      0.0000      0.0000      0.0000
 12      0.0000      0.1654      0.0000      0.0000      0.0000      0.0000      0.0000      0.1701      0.0000
 13      0.0000      0.2084      0.0000      0.0000      0.0000      0.0000      0.0000      1.6887      0.0000
 14      0.0000      0.2432      0.0000      1.4084      0.4007      0.0000      1.3825      0.4555      0.0000
 15      0.0000      0.0865      0.0000      0.4793      0.5699      0.0000      0.0000      0.0557      0.0000
 16      0.0000      0.0641      0.0000      0.5010      0.0000      0.0000      0.0000      0.0000      0.0000
 17      0.0000      0.2140      0.1070      0.0000      0.0000      0.0000      0.0000      0.4189      0.8685
 18      0.0000      2.7450      3.5595      3.4751      0.5349      0.0000      3.7761      2.8553      3.2066
 19      9.5291      3.6020      4.9645      0.9330      5.7635      4.8100      6.6397      5.6794      4.3177
 20      4.3019      1.2937      2.4802      1.3001      0.0000      2.6298      0.0000      0.0000      0.0000
 21      0.0043      6.3843      7.6250      3.4205      6.2723      6.9052      8.5179      6.6232      0.0000
 22      0.0000      1.5586      0.0000      0.0000      0.7002      0.0000      0.0000      0.0000      0.0000
 23      0.0000      1.3798      0.7668      1.8630      0.6802      0.0000      0.0000      0.1898      0.0000
 24      0.0000      1.0420      0.0000      3.7611      0.0000      0.3227      0.0000      0.0000      0.0000
 25      0.0000      0.4794      0.0000      0.0000      0.0000      0.0000      0.0000      0.0000      0.0000
 26      0.0000      0.3252      0.2315      0.0000      0.0000      0.0000      0.0000      0.0000      1.7062
 27      0.0000      0.1614      0.0000      0.0000      0.0000      0.0000      0.0000      0.0000      0.0000
 28      0.0000      0.0714      0.1209      0.0000      0.5985      0.0000      0.0000      0.0000      0.6633
 29      0.0000      0.2248      0.0000      0.8108      0.6227      0.0000      0.4140      0.8529      0.0000
 30      0.0000      0.0467      0.0000      0.0000      0.0000      0.0000      0.1003      0.0000      0.0000
 31      0.0000      0.0704      0.0000      0.0000      0.0000      0.0000      0.0000      0.0000      1.1934
 32      0.0000      0.0672      0.0000      0.0000      0.0000      0.0000      0.0000      0.5729      0.0000
 33      0.0000      0.0194      0.3842      0.0000      0.0000      0.0000      0.0000      0.0000      0.0000
 34      0.0000      0.0446      0.0000      0.1975      0.0000      0.0000      0.0000      0.0000      0.0000
 35      0.0000      1.6643      0.3588      4.6217      0.1940      0.6041      7.8474      2.1371      1.5585
 36     22.4494      8.5913     10.9300     12.9192      9.3996      0.0000      6.3436      9.1424     13.8102
 37      0.0017      0.5381      0.5632      0.0000      0.0000      0.0000      0.0000      0.2901      1.9854
 38     40.5995     37.8355     45.0309     42.3902     42.8176     48.7633     35.4997     39.4792     42.6942
 39      0.0000      2.4594      0.0000      2.5941      0.0000      0.1259      2.5490      2.2175      2.0650
 40      0.0000      1.4168      0.0000      0.0000      1.2727      0.0000      1.4311      0.0000      0.0000
 41      0.0000      0.6955      0.0000      0.0000      0.0000      0.0000      0.0000      0.7560      0.0000
 42      0.0000      0.2167      0.0000      0.0000      0.0000      0.0000      0.0000      1.6401      0.0000
 43      0.0000      0.1212      0.0000      0.0000      0.0000      0.0000      0.0000      0.0000      0.0000
 44      0.0000      0.0778      0.0000      0.0912      0.0000      0.0000      0.0000      0.0000      0.0000
 45      0.0000      0.4677      0.0074      0.0000      0.0000      0.0000      0.0000      0.0000      0.0000
 46      0.0000      0.0903      0.0660      0.0000      0.0000      0.0000      0.0000      0.0000      0.0000
 47      0.0000      0.0475      0.0000      0.0000      0.0000      0.3495      0.3428      0.0000      0.0000
 48      0.0000      0.0380      0.0000      0.0000      0.0000      0.0000      0.0000      0.0000      0.1652
 49      0.0000      0.0341      0.0000      0.0000      0.0000      0.0000      0.0000      0.0000      0.4787
 50      0.0000      0.0066      0.0000      0.0000      0.0000      0.0000      0.0000      0.0000      0.0000
 51     26.4400     16.1160     20.8192     16.7390     20.4725     21.5901     20.0226     22.9120     19.3399
 52      5.7896      2.9820      4.5586      1.0894      3.5360      9.3012      2.4993      6.3498      0.0000
 53      0.0000      1.5184      0.0000      0.0000      7.8629      1.5317      2.2626      0.0000      0.0000
 54      0.0000      1.9216      0.0000      0.0000      2.0029      0.0000      0.0000      0.0000      0.0000
 55      0.0000      0.8054      0.0000      0.6640      0.0000      0.0000      0.0000      0.0000      0.2956
 56      0.0000      0.6808      0.0000      0.0000      0.0000      0.0000      0.0000      0.0000      0.0000
 57      0.0000      0.4556      0.0000      0.3514      0.0000      1.7517      0.0000      0.0000      0.1802
 58      0.0000      0.2090      0.7185      0.0000      0.0000      0.0000      0.0000      0.0000      0.0000
 59      0.0000      0.1949      0.0000      0.1550      0.0000      0.0000      0.0000      0.0000      0.0000
 60      0.0000      0.1670      0.0000      0.0000      0.2008      0.1859      0.7826      0.0000      0.0000
 61      2.0158      3.3467      3.6800      2.7037      3.9689      4.8109      4.7557      3.5050      3.9687
 62      2.5214      0.1437      0.9525      1.0987      0.0000      0.0000      0.0000      0.0000      0.4369
 63      0.0000      0.0537      0.0000      0.0000      0.4128      0.0000      0.0000      0.0000      0.0000
 64      0.0000      0.0358      0.0000      0.0000      0.0000      0.0000      0.0000      0.0000      0.0000
 65      0.0000      0.0349      0.0000      0.3002      0.0000      0.0000      0.3315      0.0000      0.0000
 66      0.0000      0.0150      0.0000      0.0000      0.0000      0.0000      0.0000      0.0000      0.0000

# j      m_j: min, <> & last-chain-values for 1 ...  7 chains
  1  2.0181E-02  8.3097E-01  2.5090E-01  9.0275E-01  9.9802E-01  2.0504E+00  3.5334E-01  5.3598E-01  9.4082E-01
  2  0.0000E+00  2.3583E-02  2.6115E-02  0.0000E+00  0.0000E+00  0.0000E+00  4.2153E-02  0.0000E+00  6.5102E-03
  3  0.0000E+00  7.2019E-02  2.3810E-02  1.2274E-01  1.0619E-01  0.0000E+00  2.5231E-01  3.1247E-01  1.4423E-01
  4  0.0000E+00  4.5716E-02  0.0000E+00  1.6588E-02  1.7180E-01  0.0000E+00  0.0000E+00  0.0000E+00  0.0000E+00
  5  0.0000E+00  1.5888E-01  0.0000E+00  0.0000E+00  0.0000E+00  0.0000E+00  7.3273E-02  0.0000E+00  0.0000E+00
  6  4.5355E-01  2.6605E-01  9.4575E-01  0.0000E+00  0.0000E+00  1.6158E+00  2.5602E-01  0.0000E+00  0.0000E+00
  7  2.5895E-02  4.4670E-01  9.6677E-01  0.0000E+00  0.0000E+00  0.0000E+00  0.0000E+00  0.0000E+00  0.0000E+00
  8  0.0000E+00  5.1825E-01  0.0000E+00  0.0000E+00  0.0000E+00  1.5769E+00  0.0000E+00  0.0000E+00  9.3002E-01
  9  0.0000E+00  2.2910E-01  0.0000E+00  0.0000E+00  0.0000E+00  0.0000E+00  0.0000E+00  0.0000E+00  1.3197E-01
 10  0.0000E+00  2.6961E-01  0.0000E+00  0.0000E+00  2.6068E-01  1.9023E-01  0.0000E+00  2.5722E-01  0.0000E+00
 11  0.0000E+00  3.0065E-01  0.0000E+00  0.0000E+00  0.0000E+00  0.0000E+00  0.0000E+00  0.0000E+00  0.0000E+00
 12  0.0000E+00  3.0693E-01  0.0000E+00  0.0000E+00  0.0000E+00  0.0000E+00  0.0000E+00  2.9425E-01  0.0000E+00
 13  0.0000E+00  1.0902E+00  0.0000E+00  0.0000E+00  0.0000E+00  0.0000E+00  0.0000E+00  8.2355E+00  0.0000E+00
 14  0.0000E+00  4.2674E+00  0.0000E+00  1.3799E+01  8.7194E+00  0.0000E+00  1.8371E+01  7.4504E+00  0.0000E+00
 15  0.0000E+00  2.4700E+00  0.0000E+00  7.6449E+00  2.0187E+01  0.0000E+00  0.0000E+00  1.4832E+00  0.0000E+00
 16  0.0000E+00  3.0931E+00  0.0000E+00  1.3510E+01  0.0000E+00  0.0000E+00  0.0000E+00  0.0000E+00  0.0000E+00
 17  0.0000E+00  1.3407E+01  7.7233E+00  0.0000E+00  0.0000E+00  0.0000E+00  0.0000E+00  2.4469E+01  3.1222E+01
 18  0.0000E+00  4.2646E-01  6.3740E-01  3.0151E-01  1.0307E-01  0.0000E+00  4.4435E-01  4.1359E-01  2.8587E-01
 19  1.0452E+00  2.2461E-01  3.5681E-01  3.2490E-02  4.4572E-01  5.4524E-01  3.1360E-01  3.3019E-01  1.5450E-01
 20  5.1513E-01  8.8067E-02  1.9460E-01  4.9425E-02  0.0000E+00  3.2544E-01  0.0000E+00  0.0000E+00  0.0000E+00
 21  6.1919E-04  5.2756E-01  7.2625E-01  1.5785E-01  6.4282E-01  1.0373E+00  5.3313E-01  5.1028E-01  0.0000E+00
 22  0.0000E+00  2.1779E-01  0.0000E+00  0.0000E+00  1.2135E-01  0.0000E+00  0.0000E+00  0.0000E+00  0.0000E+00
 23  0.0000E+00  2.6036E-01  1.6677E-01  1.9632E-01  1.5918E-01  0.0000E+00  0.0000E+00  3.3395E-02  0.0000E+00
 24  0.0000E+00  2.9251E-01  0.0000E+00  5.8965E-01  0.0000E+00  1.6469E-01  0.0000E+00  0.0000E+00  0.0000E+00
 25  0.0000E+00  1.8558E-01  0.0000E+00  0.0000E+00  0.0000E+00  0.0000E+00  0.0000E+00  0.0000E+00  0.0000E+00
 26  0.0000E+00  2.1039E-01  1.7265E-01  0.0000E+00  0.0000E+00  0.0000E+00  0.0000E+00  0.0000E+00  6.3348E-01
 27  0.0000E+00  2.0899E-01  0.0000E+00  0.0000E+00  0.0000E+00  0.0000E+00  0.0000E+00  0.0000E+00  0.0000E+00
 28  0.0000E+00  2.6823E-01  5.2373E-01  0.0000E+00  2.7899E+00  0.0000E+00  0.0000E+00  0.0000E+00  1.4305E+00
 29  0.0000E+00  1.4721E+00  0.0000E+00  2.9652E+00  5.0572E+00  0.0000E+00  2.0535E+00  5.2078E+00  0.0000E+00
 30  0.0000E+00  6.3902E-01  0.0000E+00  0.0000E+00  0.0000E+00  0.0000E+00  1.0398E+00  0.0000E+00  0.0000E+00
 31  0.0000E+00  1.6954E+00  0.0000E+00  0.0000E+00  0.0000E+00  0.0000E+00  0.0000E+00  0.0000E+00  1.6482E+01
 32  0.0000E+00  2.1777E+00  0.0000E+00  0.0000E+00  0.0000E+00  0.0000E+00  0.0000E+00  1.7298E+01  0.0000E+00
 33  0.0000E+00  1.3914E+00  3.1750E+01  0.0000E+00  0.0000E+00  0.0000E+00  0.0000E+00  0.0000E+00  0.0000E+00
 34  0.0000E+00  4.3334E+00  0.0000E+00  1.0708E+01  0.0000E+00  0.0000E+00  0.0000E+00  0.0000E+00  0.0000E+00
 35  0.0000E+00  2.0733E-01  5.1512E-02  3.2152E-01  2.9970E-02  1.3681E-01  7.4043E-01  2.4821E-01  1.1140E-01
 36  1.9902E+00  4.3300E-01  6.3494E-01  3.6363E-01  5.8754E-01  0.0000E+00  2.4216E-01  4.2961E-01  3.9940E-01
 37  1.6467E-04  2.9335E-02  3.5391E-02  0.0000E+00  0.0000E+00  0.0000E+00  0.0000E+00  1.4745E-02  6.2108E-02
 38  1.0547E+01  5.5878E+00  7.6653E+00  3.4962E+00  7.8426E+00  1.3092E+01  3.9710E+00  5.4361E+00  3.6182E+00
 39  0.0000E+00  5.2297E-01  0.0000E+00  3.0806E-01  0.0000E+00  4.8653E-02  4.1054E-01  4.3964E-01  2.5197E-01
 40  0.0000E+00  4.8699E-01  0.0000E+00  0.0000E+00  5.4255E-01  0.0000E+00  3.7258E-01  0.0000E+00  0.0000E+00
 41  0.0000E+00  3.7177E-01  0.0000E+00  0.0000E+00  0.0000E+00  0.0000E+00  0.0000E+00  3.7676E-01  0.0000E+00
 42  0.0000E+00  2.1270E-01  0.0000E+00  0.0000E+00  0.0000E+00  0.0000E+00  0.0000E+00  1.5006E+00  0.0000E+00
 43  0.0000E+00  1.7372E-01  0.0000E+00  0.0000E+00  0.0000E+00  0.0000E+00  0.0000E+00  0.0000E+00  0.0000E+00
 44  0.0000E+00  1.9200E-01  0.0000E+00  1.2567E-01  0.0000E+00  0.0000E+00  0.0000E+00  0.0000E+00  0.0000E+00
 45  0.0000E+00  2.2890E+00  4.1886E-02  0.0000E+00  0.0000E+00  0.0000E+00  0.0000E+00  0.0000E+00  0.0000E+00
 46  0.0000E+00  8.1249E-01  6.8435E-01  0.0000E+00  0.0000E+00  0.0000E+00  0.0000E+00  0.0000E+00  0.0000E+00
 47  0.0000E+00  8.6602E-01  0.0000E+00  0.0000E+00  0.0000E+00  1.1584E+01  4.7332E+00  0.0000E+00  0.0000E+00
 48  0.0000E+00  1.2230E+00  0.0000E+00  0.0000E+00  0.0000E+00  0.0000E+00  0.0000E+00  0.0000E+00  3.0471E+00
 49  0.0000E+00  2.4931E+00  0.0000E+00  0.0000E+00  0.0000E+00  0.0000E+00  0.0000E+00  0.0000E+00  2.0071E+01
 50  0.0000E+00  8.9661E-01  0.0000E+00  0.0000E+00  0.0000E+00  0.0000E+00  0.0000E+00  0.0000E+00  0.0000E+00
 51  3.4504E+00  1.1956E+00  1.7803E+00  6.9352E-01  1.8837E+00  2.9118E+00  1.1251E+00  1.5848E+00  8.2333E-01
 52  3.8718E-01  1.1337E-01  1.9976E-01  2.3129E-02  1.6673E-01  6.4284E-01  7.1971E-02  2.2508E-01  0.0000E+00
 53  0.0000E+00  8.6957E-02  0.0000E+00  0.0000E+00  5.5847E-01  1.5946E-01  9.8143E-02  0.0000E+00  0.0000E+00
 54  0.0000E+00  2.2550E-01  0.0000E+00  0.0000E+00  2.9149E-01  0.0000E+00  0.0000E+00  0.0000E+00  0.0000E+00
 55  0.0000E+00  1.4552E-01  0.0000E+00  6.7003E-02  0.0000E+00  0.0000E+00  0.0000E+00  0.0000E+00  3.0645E-02
 56  0.0000E+00  2.4347E-01  0.0000E+00  0.0000E+00  0.0000E+00  0.0000E+00  0.0000E+00  0.0000E+00  0.0000E+00
 57  0.0000E+00  2.1627E-01  0.0000E+00  9.3139E-02  0.0000E+00  1.5114E+00  0.0000E+00  0.0000E+00  4.9073E-02
 58  0.0000E+00  1.6779E-01  6.6485E-01  0.0000E+00  0.0000E+00  0.0000E+00  0.0000E+00  0.0000E+00  0.0000E+00
 59  0.0000E+00  3.3672E-01  0.0000E+00  1.4958E-01  0.0000E+00  0.0000E+00  0.0000E+00  0.0000E+00  0.0000E+00
 60  0.0000E+00  5.3579E-01  0.0000E+00  0.0000E+00  7.9914E-01  1.0847E+00  1.9022E+00  0.0000E+00  0.0000E+00
 61  2.4862E+01  2.3466E+01  2.9741E+01  1.0587E+01  3.4514E+01  6.1322E+01  2.5257E+01  2.2913E+01  1.5968E+01
 62  5.6702E+01  1.8370E+00  1.4036E+01  7.8441E+00  0.0000E+00  0.0000E+00  0.0000E+00  0.0000E+00  3.2053E+00
 63  0.0000E+00  1.3671E+00  0.0000E+00  0.0000E+00  1.3021E+01  0.0000E+00  0.0000E+00  0.0000E+00  0.0000E+00
 64  0.0000E+00  2.5190E+00  0.0000E+00  0.0000E+00  0.0000E+00  0.0000E+00  0.0000E+00  0.0000E+00  0.0000E+00
 65  0.0000E+00  5.1839E+00  0.0000E+00  2.4930E+01  0.0000E+00  0.0000E+00  3.7343E+01  0.0000E+00  0.0000E+00
 66  0.0000E+00  3.1466E+00  0.0000E+00  0.0000E+00  0.0000E+00  0.0000E+00  0.0000E+00  0.0000E+00  0.0000E+00

# AV, chi2 & Mass for <> & i_chain = 1 ...  7 solutions
AV       1.4427      1.2085      1.2383      1.1936      1.2255      1.2290      1.2293      1.2380      1.2209
chi2 1.3685E+00  1.3815E+00  1.3753E+00  1.3772E+00  1.3773E+00  1.3767E+00  1.3769E+00  1.3762E+00  1.3762E+00
Mass 4.1586E-12  5.3408E-12  4.8226E-12  9.3742E-12  4.4056E-12  3.0200E-12  7.2508E-12  5.9598E-12  9.4630E-12
  32.82                                  [v0_min (km/s) before EX0s...]
 148.62                                  [vd_min (km/s) before EX0s...]


## Synthetic spectrum (Best Model) ##l_obs f_obs f_syn wei
 3478    [Nl_obs]
 3741.00    0.95082   1.12807    0.000
 3742.00    1.01812   1.13772    0.000
 3743.00    1.21860   1.13719    0.000
 3744.00    1.42172   1.12651    0.000
 3745.00    1.49692   1.10583    6.680
 3746.00    1.53633   1.07549   -1.000
 3747.00    1.59922   1.03678   -1.000
 3748.00    1.48442   0.99414   -1.000
 3749.00    1.13009   0.95640    8.849
 3750.00    0.81659   0.93402   12.246
 3751.00    0.68191   0.93382   14.665
 3752.00    0.59679   0.95532   -1.000
 3753.00    0.61663   0.99059   -1.000
 3754.00    0.93199   1.02915   10.730
 3755.00    1.34437   1.06317    7.438
 3756.00    1.48891   1.08948   -1.000
 3757.00    1.44738   1.10845    6.909
 3758.00    1.46663   1.12074    6.818
 3759.00    1.48689   1.12860    6.725
 3760.00    1.40165   1.13463    7.134
 3761.00    1.31496   1.13926    7.605
 3762.00    1.31407   1.14251    7.610
 3763.00    1.32991   1.14225    7.519
 3764.00    1.25269   1.13496    7.983
 3765.00    1.03336   1.11847    9.677
 3766.00    0.81419   1.09132   12.282
 3767.00    0.81643   1.05324   12.248
 3768.00    0.99415   1.00709   10.059
 3769.00    1.14432   0.96037    8.739
 3770.00    1.21512   0.92450    8.230
 3771.00    1.23170   0.90986   -1.000
 3772.00    1.16403   0.92080    8.591
 3773.00    1.06282   0.95416    9.409
 3774.00    1.13317   0.99995    8.825
 3775.00    1.41033   1.04680   -1.000
 3776.00    1.64199   1.08790   -1.000
 3777.00    1.64082   1.12092   -1.000
 3778.00    1.44234   1.14614    6.933
 3779.00    1.29558   1.16540    7.719
 3780.00    1.44671   1.18025    6.912
 3781.00    1.71322   1.19130   -1.000
 3782.00    1.76564   1.19848   -1.000
 3783.00    1.67234   1.20165   -1.000
 3784.00    1.66788   1.20150   -1.000
 3785.00    1.81279   1.19904   -1.000
 3786.00    2.00545   1.19490   -1.000
 3787.00    2.05244   1.18920   -1.000
 3788.00    1.85207   1.18121   -1.000
 3789.00    1.47540   1.16960    6.778
 3790.00    1.08614   1.15377    9.207
 3791.00    0.85607   1.13381   11.681
 3792.00    0.83052   1.10894   -1.000
 3793.00    0.93245   1.07758   10.724
 3794.00    1.04811   1.03802    9.541
 3795.00    1.08362   0.98989    9.228
 3796.00    1.01778   0.93840    9.825
 3797.00    0.88678   0.89543   11.277
 3798.00    0.75683   0.87383   13.213
 3799.00    0.69062   0.88073   14.480
 3800.00    0.72039   0.91441   13.881
 3801.00    0.82615   0.96446   12.104
 3802.00    0.94286   1.01708   10.606
 3803.00    1.02212   1.06222    9.784
 3804.00    1.04808   1.09580    9.541
 3805.00    1.02020   1.11888    9.802
 3806.00    0.97943   1.13557   10.210
 3807.00    1.05287   1.14967    9.498
 3808.00    1.29338   1.16342    7.732
 3809.00    1.49094   1.17703    6.707
 3810.00    1.45862   1.18834    6.856
 3811.00    1.29295   1.19546    7.734
 3812.00    1.18254   1.19836    8.456
 3813.00    1.23829   1.19779    8.076
 3814.00    1.37636   1.19414    7.266
 3815.00    1.37987   1.18692    7.247
 3816.00    1.26468   1.17462    7.907
 3817.00    1.23144   1.15550    8.121
 3818.00    1.26930   1.13161    7.878
 3819.00    1.24035   1.11071    8.062
 3820.00    1.17419   1.10064    8.517
 3821.00    1.19481   1.10487    8.370
 3822.00    1.36397   1.12147    7.332
 3823.00    1.59231   1.14145   -1.000
 3824.00    1.63974   1.15550   -1.000
 3825.00    1.49028   1.16056    6.710
 3826.00    1.44966   1.15761    6.898
 3827.00    1.57219   1.14831    6.361
 3828.00    1.57907   1.13329   -1.000
 3829.00    1.38839   1.11180    7.203
 3830.00    1.16204   1.08213    8.606
 3831.00    1.03719   1.04271    9.641
 3832.00    1.03345   0.99360    9.676
 3833.00    1.01947   0.93844    9.809
 3834.00    0.90391   0.88659   11.063
 3835.00    0.82110   0.85094   12.179
 3836.00    0.87518   0.84126   11.426
 3837.00    0.96175   0.86042   10.398
 3838.00    1.00092   0.90312    9.991
 3839.00    1.03850   0.95700    9.629
 3840.00    1.08934   1.01010    9.180
 3841.00    1.11135   1.05596    8.998
 3842.00    1.11693   1.09230    8.953
 3843.00    1.15529   1.11961    8.656
 3844.00    1.21459   1.13973    8.233
 3845.00    1.25022   1.15450    7.999
 3846.00    1.25335   1.16522    7.979
 3847.00    1.25000   1.17271    0.000
 3848.00    1.28473   1.17755    0.000
 3849.00    1.38082   1.18042    0.000
 3850.00    1.51608   1.18234    0.000
 3851.00    1.64388   1.18402    0.000
 3852.00    1.70656   1.18541    0.000
 3853.00    1.64105   1.18623    0.000
 3854.00    1.42602   1.18587    0.000
 3855.00    1.19083   1.18420    0.000
 3856.00    1.10385   1.18236    0.000
 3857.00    1.12545   1.18122    0.000
 3858.00    1.13604   1.18091    0.000
 3859.00    1.15485   1.18117    0.000
 3860.00    1.24062   1.18119    0.000
 3861.00    1.37759   1.18043    0.000
 3862.00    1.52273   1.17902    0.000
 3863.00    1.63532   1.17730    0.000
 3864.00    1.63300   1.17515    0.000
 3865.00    1.43571   1.17229    0.000
 3866.00    1.17950   1.16924    0.000
 3867.00    1.11721   1.16731    0.000
 3868.00    1.21804   1.16646    0.000
 3869.00    1.27987   1.16547    0.000
 3870.00    1.27956   1.16371    0.000
 3871.00    1.29789   1.16073    0.000
 3872.00    1.35563   1.15674    0.000
 3873.00    1.42212   1.15297    0.000
 3874.00    1.44495   1.15025    0.000
 3875.00    1.38326   1.14831    0.000
 3876.00    1.23134   1.14593    0.000
 3877.00    1.03461   1.14251    0.000
 3878.00    0.87469   1.13863    0.000
 3879.00    0.80392   1.13383    0.000
 3880.00    0.84095   1.12587    0.000
 3881.00    1.00450   1.11316    9.955
 3882.00    1.25694   1.09510    7.956
 3883.00    1.41807   1.07058    7.052
 3884.00    1.33834   1.03818    7.472
 3885.00    1.09628   0.99683    9.122
 3886.00    0.89493   0.94664   11.174
 3887.00    0.91926   0.89231   10.878
 3888.00    1.10200   0.84546    9.074
 3889.00    1.13064   0.81937    8.845
 3890.00    0.99225   0.82186   10.078
 3891.00    0.99983   0.85283   10.002
 3892.00    1.22496   0.90344   -1.000
 3893.00    1.46883   0.95930   -1.000
 3894.00    1.55146   1.00941   -1.000
 3895.00    1.42750   1.04948   -1.000
 3896.00    1.24899   1.07922    8.006
 3897.00    1.19015   1.10020    8.402
 3898.00    1.26318   1.11509    7.917
 3899.00    1.37384   1.12653    7.279
 3900.00    1.39938   1.13616    7.146
 3901.00    1.30555   1.14491    7.660
 3902.00    1.16937   1.15291    8.552
 3903.00    1.03943   1.15939    9.621
 3904.00    0.90377   1.16377   11.065
 3905.00    0.74966   1.16665   -1.000
 3906.00    0.60093   1.16904   -1.000
 3907.00    0.55007   1.17136   -1.000
 3908.00    0.66849   1.17360   -1.000
 3909.00    0.88784   1.17520   -1.000
 3910.00    1.09019   1.17548    9.173
 3911.00    1.21019   1.17474    8.263
 3912.00    1.23573   1.17380    8.092
 3913.00    1.20020   1.17329    8.332
 3914.00    1.17131   1.17345    8.537
 3915.00    1.21579   1.17324    8.225
 3916.00    1.30157   1.17041    7.683
 3917.00    1.33352   1.16358    7.499
 3918.00    1.31886   1.15350    7.582
 3919.00    1.32670   1.14266    7.537
 3920.00    1.34992   1.13395    7.408
 3921.00    1.33426   1.12903    7.495
 3922.00    1.24580   1.12760    8.027
 3923.00    1.08460   1.12773    9.220
 3924.00    0.89489   1.12690   11.175
 3925.00    0.79823   1.12435   -1.000
 3926.00    0.94704   1.12206   10.559
 3927.00    1.23271   1.12181    8.112
 3928.00    1.32687   1.12367    7.537
 3929.00    1.21787   1.12707    8.211
 3930.00    1.16636   1.12984    8.574
 3931.00    1.22042   1.12970    8.194
 3932.00    1.23927   1.12660    8.069
 3933.00    1.11825   1.12236    8.943
 3934.00    0.89625   1.11953   11.158
 3935.00    0.79856   1.12003   -1.000
 3936.00    0.91094   1.12454   10.978
 3937.00    0.98650   1.13187   10.137
 3938.00    0.90665   1.13971   11.030
 3939.00    0.86590   1.14634   11.549
 3940.00    0.97539   1.15087   10.252
 3941.00    1.14919   1.15310    8.702
 3942.00    1.27799   1.15309    7.825
 3943.00    1.29572   1.15125    7.718
 3944.00    1.20369   1.14892    8.308
 3945.00    1.06492   1.14723    9.390
 3946.00    0.98057   1.14654   10.198
 3947.00    1.00026   1.14719    9.997
 3948.00    1.05005   1.14886    9.523
 3949.00    1.08107   1.15020    9.250
 3950.00    1.15493   1.15047    8.659
 3951.00    1.26544   1.14941    7.902
 3952.00    1.29353   1.14658    7.731
 3953.00    1.21472   1.14225    8.232
 3954.00    1.11492   1.13744    8.969
 3955.00    1.01520   1.13318    9.850
 3956.00    0.88755   1.12980   11.267
 3957.00    0.77319   1.12678   -1.000
 3958.00    0.71906   1.12231   -1.000
 3959.00    0.67173   1.11426   -1.000
 3960.00    0.59743   1.10164    0.000
 3961.00    0.58683   1.08454    0.000
 3962.00    0.66755   1.06291    0.000
 3963.00    0.72160   1.03707    0.000
 3964.00    0.76065   1.00804    0.000
 3965.00    0.95472   0.97475    0.000
 3966.00    1.24656   0.93475    0.000
 3967.00    1.37362   0.88852    0.000
 3968.00    1.26254   0.84022    0.000
 3969.00    1.05156   0.79844    0.000
 3970.00    0.93953   0.77455    0.000
 3971.00    1.01164   0.77643    0.000
 3972.00    1.08632   0.80502    0.000
 3973.00    1.01277   0.85342    0.000
 3974.00    0.91357   0.90883    0.000
 3975.00    0.90222   0.96054    0.000
 3976.00    0.91786   1.00397    0.000
 3977.00    0.87206   1.03804    0.000
 3978.00    0.74744   1.06341    0.000
 3979.00    0.67180   1.08180    0.000
 3980.00    0.80152   1.09465    0.000
 3981.00    1.01727   1.10325    9.830
 3982.00    1.09527   1.10929    9.130
 3983.00    1.08195   1.11437    9.243
 3984.00    1.08839   1.11956    9.188
 3985.00    1.01188   1.12553    9.883
 3986.00    0.80832   1.13202   -1.000
 3987.00    0.68789   1.13781   -1.000
 3988.00    0.76765   1.14208   -1.000
 3989.00    0.91579   1.14495   10.920
 3990.00    1.01305   1.14671    9.871
 3991.00    1.05153   1.14744    9.510
 3992.00    1.07857   1.14703    9.272
 3993.00    1.12704   1.14549    8.873
 3994.00    1.11588   1.14336    8.962
 3995.00    0.96388   1.14127   10.375
 3996.00    0.77738   1.13976   -1.000
 3997.00    0.69647   1.13964   -1.000
 3998.00    0.71240   1.14116   -1.000
 3999.00    0.76968   1.14325   -1.000
 4000.00    0.85460   1.14486   -1.000
 4001.00    0.96888   1.14559   10.321
 4002.00    1.10719   1.14483    9.032
 4003.00    1.24079   1.14213    8.059
 4004.00    1.32124   1.13783    7.569
 4005.00    1.30761   1.13239    7.648
 4006.00    1.19769   1.12573    8.349
 4007.00    1.06758   1.11799    9.367
 4008.00    0.99632   1.11102   10.037
 4009.00    0.95869   1.10713   10.431
 4010.00    0.90423   1.10766   11.059
 4011.00    0.84786   1.11315   -1.000
 4012.00    0.85242   1.12255   -1.000
 4013.00    0.98563   1.13260   10.146
 4014.00    1.19997   1.14038    8.334
 4015.00    1.33454   1.14522    7.493
 4016.00    1.33186   1.14766    7.508
 4017.00    1.25552   1.14851    7.965
 4018.00    1.13618   1.14812    8.801
 4019.00    0.98581   1.14609   10.144
 4020.00    0.88858   1.14145   11.254
 4021.00    0.91056   1.13250   10.982
 4022.00    0.97685   1.11706   10.237
 4023.00    1.00000   1.09384   10.000
 4024.00    0.99787   1.06542   10.021
 4025.00    0.99864   1.03931   10.014
 4026.00    0.98225   1.02386   10.181
 4027.00    0.93148   1.02369   10.736
 4028.00    0.86614   1.03868   11.545
 4029.00    0.86733   1.06328   -2.000
 4030.00    1.03205   1.08767   -2.000
 4031.00    1.35301   1.10487   -2.000
 4032.00    1.72488   1.11454   -2.000
 4033.00    2.00840   1.11955   -2.000
 4034.00    2.12277   1.12306   -2.000
 4035.00    2.12609   1.12698   -2.000
 4036.00    2.07580   1.13176   -2.000
 4037.00    1.92573   1.13671   -2.000
 4038.00    1.66767   1.14060   -2.000
 4039.00    1.39317   1.14220   -2.000
 4040.00    1.16694   1.14128   -2.000
 4041.00    0.99766   1.13859   -2.000
 4042.00    0.91983   1.13500   -2.000
 4043.00    0.96876   1.13139   -2.000
 4044.00    1.07666   1.12859    9.288
 4045.00    1.12880   1.12705    8.859
 4046.00    1.08369   1.12703    9.228
 4047.00    0.98258   1.12871   10.177
 4048.00    0.92644   1.13170   10.794
 4049.00    0.96764   1.13501   10.334
 4050.00    1.04410   1.13739    9.578
 4051.00    1.07835   1.13805    9.273
 4052.00    1.04265   1.13686    9.591
 4053.00    0.98100   1.13417   10.194
 4054.00    0.96795   1.13076   10.331
 4055.00    0.97920   1.12764   10.212
 4056.00    0.95390   1.12544   10.483
 4057.00    0.97890   1.12416   10.216
 4058.00    1.13420   1.12330    8.817
 4059.00    1.25076   1.12231    7.995
 4060.00    1.19527   1.12094    8.366
 4061.00    1.14565   1.11926    8.729
 4062.00    1.24849   1.11771    8.010
 4063.00    1.39555   1.11676    7.166
 4064.00    1.45520   1.11597    6.872
 4065.00    1.39987   1.11398    7.144
 4066.00    1.29732   1.10949    7.708
 4067.00    1.24217   1.10179    8.050
 4068.00    1.20189   1.09165    8.320
 4069.00    1.10061   1.08145    9.086
 4070.00    1.03263   1.07407    9.684
 4071.00    1.11096   1.07145    9.001
 4072.00    1.23766   1.07319    8.080
 4073.00    1.27868   1.07657    7.821
 4074.00    1.24141   1.07919    8.055
 4075.00    1.18690   1.08069    8.425
 4076.00    1.15498   1.08160    8.658
 4077.00    1.14072   1.08311    8.766
 4078.00    1.10686   1.08681    9.035
 4079.00    1.05424   1.09246    9.485
 4080.00    1.02188   1.09801    9.786
 4081.00    1.02983   1.10174    9.710
 4082.00    1.05844   1.10282    9.448
 4083.00    1.04314   1.10121    9.586
 4084.00    0.95425   1.09749   10.479
 4085.00    0.87925   1.09218   11.373
 4086.00    0.89264   1.08531   11.203
 4087.00    0.95110   1.07774   10.514
 4088.00    0.99253   1.07117   10.075
 4089.00    1.00017   1.06641    9.998
 4090.00    0.98936   1.06335   10.108
 4091.00    0.98869   1.06147   10.114
 4092.00    1.00603   1.05871    0.000
 4093.00    1.03514   1.05112    0.000
 4094.00    1.09122   1.03576    0.000
 4095.00    1.17853   1.01234    0.000
 4096.00    1.23474   0.98187    0.000
 4097.00    1.20849   0.94490    0.000
 4098.00    1.14484   0.90181    0.000
 4099.00    1.10075   0.85485    0.000
 4100.00    1.07735   0.81005    0.000
 4101.00    1.06042   0.77610    0.000
 4102.00    1.05209   0.76119    0.000
 4103.00    1.09087   0.77055    0.000
 4104.00    1.21691   0.80345    0.000
 4105.00    1.35785   0.85168    0.000
 4106.00    1.39070   0.90329    0.000
 4107.00    1.32653   0.94902    0.000
 4108.00    1.25896   0.98485    0.000
 4109.00    1.23580   1.01084    0.000
 4110.00    1.24926   1.02911    0.000
 4111.00    1.25245   1.04220    0.000
 4112.00    1.21813   1.05174    0.000
 4113.00    1.17628   1.05821    8.501
 4114.00    1.18767   1.06197    8.420
 4115.00    1.29669   1.06370    7.712
 4116.00    1.41988   1.06342    7.043
 4117.00    1.40844   1.06087    7.100
 4118.00    1.30972   1.05656    7.635
 4119.00    1.28165   1.05195    7.802
 4120.00    1.31393   1.04902    7.611
 4121.00    1.32253   1.04984    7.561
 4122.00    1.33297   1.05594    7.502
 4123.00    1.37237   1.06686    7.287
 4124.00    1.36418   1.07940    7.330
 4125.00    1.26388   1.08936    7.912
 4126.00    1.13820   1.09427    8.786
 4127.00    1.06870   1.09458    9.357
 4128.00    1.09457   1.09181    9.136
 4129.00    1.19009   1.08766    8.403
 4130.00    1.28182   1.08381    7.801
 4131.00    1.30743   1.08149    7.649
 4132.00    1.25327   1.08126    7.979
 4133.00    1.18690   1.08323    8.425
 4134.00    1.17434   1.08710    8.515
 4135.00    1.18178   1.09191    8.462
 4136.00    1.16023   1.09635    8.619
 4137.00    1.12732   1.09923    8.871
 4138.00    1.14954   1.09966    8.699
 4139.00    1.29618   1.09693    7.715
 4140.00    1.50863   1.09009    6.629
 4141.00    1.61792   1.07867   -1.000
 4142.00    1.57550   1.06470   -1.000
 4143.00    1.45815   1.05240    6.858
 4144.00    1.31479   1.04566    7.606
 4145.00    1.16605   1.04675    8.576
 4146.00    1.05641   1.05526    9.466
 4147.00    1.02367   1.06748    9.769
 4148.00    1.05704   1.07837    9.460
 4149.00    1.11320   1.08500    8.983
 4150.00    1.14189   1.08729    8.757
 4151.00    1.13748   1.08664    8.791
 4152.00    1.14434   1.08497    8.739
 4153.00    1.16231   1.08359    8.604
 4154.00    1.13989   1.08302    8.773
 4155.00    1.06747   1.08369    9.368
 4156.00    0.98034   1.08591   10.201
 4157.00    0.90828   1.08921   11.010
 4158.00    0.87510   1.09264   11.427
 4159.00    0.91013   1.09547   10.987
 4160.00    1.01015   1.09710    9.899
 4161.00    1.10605   1.09721    9.041
 4162.00    1.12460   1.09604    8.892
 4163.00    1.04487   1.09434    9.571
 4164.00    0.93537   1.09271   10.691
 4165.00    0.92736   1.09121   10.783
 4166.00    1.05180   1.08945    9.507
 4167.00    1.22206   1.08726    8.183
 4168.00    1.35400   1.08495    7.386
 4169.00    1.39986   1.08279    7.144
 4170.00    1.34923   1.08093    7.412
 4171.00    1.24434   1.07958    8.036
 4172.00    1.18912   1.07877    8.410
 4173.00    1.23476   1.07825    8.099
 4174.00    1.28803   1.07795    7.764
 4175.00    1.25206   1.07821    7.987
 4176.00    1.12734   1.07918    8.870
 4177.00    0.99483   1.08068   10.052
 4178.00    0.96396   1.08253   10.374
 4179.00    1.03810   1.08450    9.633
 4180.00    1.13027   1.08626    8.847
 4181.00    1.21365   1.08743    8.240
 4182.00    1.29973   1.08753    7.694
 4183.00    1.33982   1.08621    7.464
 4184.00    1.29681   1.08357    7.711
 4185.00    1.24394   1.08020    8.039
 4186.00    1.25780   1.07692    7.950
 4187.00    1.31926   1.07426    7.580
 4188.00    1.36019   1.07281    7.352
 4189.00    1.31747   1.07311    7.590
 4190.00    1.21384   1.07512    8.238
 4191.00    1.15385   1.07833    8.667
 4192.00    1.19806   1.08177    8.347
 4193.00    1.31095   1.08423    7.628
 4194.00    1.34639   1.08451    7.427
 4195.00    1.19915   1.08180    8.339
 4196.00    1.03102   1.07601    9.699
 4197.00    1.03553   1.06788    9.657
 4198.00    1.14807   1.05919    8.710
 4199.00    1.22849   1.05212    8.140
 4200.00    1.23352   1.04835    8.107
 4201.00    1.18415   1.04873    8.445
 4202.00    1.12914   1.05302    8.856
 4203.00    1.10632   1.05988    9.039
 4204.00    1.12495   1.06742    8.889
 4205.00    1.16234   1.07413    8.603
 4206.00    1.19231   1.07942    8.387
 4207.00    1.24193   1.08315    8.052
 4208.00    1.33772   1.08536    7.475
 4209.00    1.41504   1.08611    7.067
 4210.00    1.38513   1.08560    7.220
 4211.00    1.22601   1.08429    8.157
 4212.00    1.02650   1.08270    9.742
 4213.00    0.96898   1.08116   10.320
 4214.00    1.09600   1.08006    9.124
 4215.00    1.24411   1.07969    8.038
 4216.00    1.27745   1.08018    7.828
 4217.00    1.18584   1.08133    8.433
 4218.00    1.08968   1.08277    9.177
 4219.00    1.11658   1.08388    8.956
 4220.00    1.17811   1.08382    8.488
 4221.00    1.12347   1.08199    8.901
 4222.00    0.99652   1.07837   10.035
 4223.00    0.92227   1.07334   10.843
 4224.00    0.95812   1.06754   10.437
 4225.00    1.06928   1.06192    9.352
 4226.00    1.14706   1.05777    8.718
 4227.00    1.13642   1.05604    8.800
 4228.00    1.07916   1.05706    9.267
 4229.00    1.03841   1.06032    9.630
 4230.00    1.05202   1.06448    9.505
 4231.00    1.09082   1.06801    9.167
 4232.00    1.10432   1.06994    9.055
 4233.00    1.11486   1.07013    8.970
 4234.00    1.16237   1.06912    8.603
 4235.00    1.21894   1.06775    8.204
 4236.00    1.24105   1.06673    8.058
 4237.00    1.22382   1.06640    8.171
 4238.00    1.18273   1.06668    8.455
 4239.00    1.13920   1.06741    8.778
 4240.00    1.12258   1.06862    8.908
 4241.00    1.15641   1.07038    8.647
 4242.00    1.21238   1.07254    8.248
 4243.00    1.23014   1.07485    8.129
 4244.00    1.19599   1.07682    8.361
 4245.00    1.13990   1.07788    8.773
 4246.00    1.09937   1.07764    9.096
 4247.00    1.10175   1.07603    9.076
 4248.00    1.14975   1.07341    8.698
 4249.00    1.21419   1.07037    8.236
 4250.00    1.23989   1.06718    8.065
 4251.00    1.20908   1.06369    8.271
 4252.00    1.16346   1.06013    8.595
 4253.00    1.13685   1.05727    8.796
 4254.00    1.12687   1.05599    8.874
 4255.00    1.10078   1.05659    9.084
 4256.00    1.03029   1.05861    9.706
 4257.00    0.95666   1.06125   10.453
 4258.00    0.95084   1.06347   10.517
 4259.00    1.03236   1.06465    9.687
 4260.00    1.16085   1.06521    8.614
 4261.00    1.25241   1.06592    7.985
 4262.00    1.28109   1.06697    7.806
 4263.00    1.32884   1.06743    7.525
 4264.00    1.43431   1.06567    6.972
 4265.00    1.52740   1.06103    6.547
 4266.00    1.51213   1.05460    6.613
 4267.00    1.33678   1.04843    7.481
 4268.00    1.08515   1.04451    9.215
 4269.00    0.91277   1.04349   10.956
 4270.00    0.87643   1.04468   11.410
 4271.00    0.93877   1.04645   10.652
 4272.00    1.02518   1.04671    9.754
 4273.00    1.06482   1.04491    9.391
 4274.00    1.02758   1.04239    9.732
 4275.00    0.95180   1.04074   10.506
 4276.00    0.93364   1.04111   10.711
 4277.00    0.98788   1.04376   10.123
 4278.00    1.02282   1.04807    9.777
 4279.00    1.00364   1.05269    9.964
 4280.00    0.97238   1.05592   10.284
 4281.00    0.94555   1.05663   10.576
 4282.00    0.91028   1.05493   10.986
 4283.00    0.86677   1.05208   11.537
 4284.00    0.84619   1.04960   11.818
 4285.00    0.91419   1.04820   10.939
 4286.00    1.07992   1.04756    9.260
 4287.00    1.23451   1.04689    8.100
 4288.00    1.30397   1.04564    7.669
 4289.00    1.32679   1.04403    7.537
 4290.00    1.32615   1.04285    7.541
 4291.00    1.27231   1.04271    7.860
 4292.00    1.16593   1.04377    8.577
 4293.00    1.05502   1.04560    9.478
 4294.00    1.00491   1.04738    9.951
 4295.00    1.04957   1.04847    9.528
 4296.00    1.13005   1.04860    8.849
 4297.00    1.17228   1.04772    8.530
 4298.00    1.18422   1.04601    8.444
 4299.00    1.18983   1.04345    8.405
 4300.00    1.17361   1.03997    8.521
 4301.00    1.14349   1.03604    8.745
 4302.00    1.14951   1.03249    8.699
 4303.00    1.18898   1.02992    8.411
 4304.00    1.20112   1.02847    8.326
 4305.00    1.17617   1.02782    8.502
 4306.00    1.15057   1.02760    8.691
 4307.00    1.12466   1.02774    8.892
 4308.00    1.08436   1.02832    9.222
 4309.00    1.05755   1.02951    9.456
 4310.00    1.06374   1.03148    9.401
 4311.00    1.06029   1.03396    9.431
 4312.00    1.03101   1.03639    9.699
 4313.00    1.03703   1.03827    9.643
 4314.00    1.08565   1.03953    9.211
 4315.00    1.09703   1.04048    9.116
 4316.00    1.07159   1.04144    9.332
 4317.00    1.09663   1.04245    9.119
 4318.00    1.17651   1.04336    8.500
 4319.00    1.23794   1.04404    8.078
 4320.00    1.23850   1.04436    8.074
 4321.00    1.18996   1.04405    8.404
 4322.00    1.15346   1.04235    8.670
 4323.00    1.16616   1.03861    8.575
 4324.00    1.17950   1.03304    8.478
 4325.00    1.14732   1.02672    8.716
 4326.00    1.08466   1.02134    9.219
 4327.00    1.01599   1.01814    9.843
 4328.00    0.95420   1.01697   10.480
 4329.00    0.92936   1.01643   10.760
 4330.00    0.97213   1.01452    0.000
 4331.00    1.04602   1.00964    0.000
 4332.00    1.08223   1.00106    0.000
 4333.00    1.07288   0.98824    0.000
 4334.00    1.04501   0.97002    0.000
 4335.00    1.00658   0.94455    0.000
 4336.00    0.97218   0.91018    0.000
 4337.00    0.98182   0.86719    0.000
 4338.00    1.02053   0.81992    0.000
 4339.00    0.99723   0.77673    0.000
 4340.00    0.90411   0.74734    0.000
 4341.00    0.83845   0.73906    0.000
 4342.00    0.81884   0.75353    0.000
 4343.00    0.78978   0.78603    0.000
 4344.00    0.78014   0.82796    0.000
 4345.00    0.86386   0.87027    0.000
 4346.00    1.03134   0.90670    0.000
 4347.00    1.21467   0.93509    0.000
 4348.00    1.34606   0.95597    0.000
 4349.00    1.37031   0.97082    0.000
 4350.00    1.26169   0.98131    0.000
 4351.00    1.09671   0.98931    9.118
 4352.00    1.04145   0.99671    9.602
 4353.00    1.10802   1.00487    9.025
 4354.00    1.13898   1.01414    8.780
 4355.00    1.08956   1.02379    9.178
 4356.00    1.04612   1.03253    9.559
 4357.00    1.06790   1.03919    9.364
 4358.00    1.14660   1.04344    8.721
 4359.00    1.20628   1.04588    8.290
 4360.00    1.18435   1.04751    8.443
 4361.00    1.11284   1.04917    8.986
 4362.00    1.04443   1.05117    9.575
 4363.00    0.99203   1.05306   10.080
 4364.00    0.96248   1.05397   10.390
 4365.00    0.96993   1.05332   10.310
 4366.00    1.00236   1.05118    9.976
 4367.00    1.02139   1.04828    9.791
 4368.00    1.00162   1.04564    9.984
 4369.00    0.94626   1.04388   10.568
 4370.00    0.89261   1.04299   11.203
 4371.00    0.87250   1.04243   11.461
 4372.00    0.85950   1.04160   11.635
 4373.00    0.82894   1.04041   12.064
 4374.00    0.81914   1.03938   12.208
 4375.00    0.86964   1.03917   11.499
 4376.00    0.96800   1.04008   10.331
 4377.00    1.03623   1.04183    9.650
 4378.00    0.97092   1.04358   10.299
 4379.00    0.80551   1.04417   -1.000
 4380.00    0.69198   1.04259   -1.000
 4381.00    0.69603   1.03834   -1.000
 4382.00    0.78226   1.03164   -1.000
 4383.00    0.89157   1.02316   11.216
 4384.00    0.97608   1.01354   10.245
 4385.00    1.02436   1.00373    9.762
 4386.00    1.05037   0.99523    9.520
 4387.00    1.07634   0.98965    9.291
 4388.00    1.11003   0.98862    9.009
 4389.00    1.13670   0.99313    8.797
 4390.00    1.15045   1.00245    8.692
 4391.00    1.16439   1.01422    8.588
 4392.00    1.19145   1.02552    8.393
 4393.00    1.23013   1.03406    8.129
 4394.00    1.24869   1.03927    8.008
 4395.00    1.21616   1.04221    8.223
 4396.00    1.15838   1.04437    8.633
 4397.00    1.11617   1.04644    8.959
 4398.00    1.08583   1.04829    9.210
 4399.00    1.05226   1.04941    9.503
 4400.00    1.02215   1.04928    9.783
 4401.00    1.00912   1.04770    9.910
 4402.00    1.01992   1.04493    9.805
 4403.00    1.04334   1.04144    9.585
 4404.00    1.05681   1.03775    9.462
 4405.00    1.06082   1.03456    9.427
 4406.00    1.07614   1.03267    9.292
 4407.00    1.11255   1.03255    8.988
 4408.00    1.15584   1.03414    8.652
 4409.00    1.16300   1.03689    8.598
 4410.00    1.11497   1.03968    8.969
 4411.00    1.06701   1.04109    9.372
 4412.00    1.06172   1.04009    9.419
 4413.00    1.06716   1.03635    9.371
 4414.00    1.05554   1.03057    9.474
 4415.00    1.04212   1.02465    9.596
 4416.00    1.04396   1.02102    9.579
 4417.00    1.05746   1.02124    9.457
 4418.00    1.04810   1.02534    9.541
 4419.00    0.98614   1.03181   10.141
 4420.00    0.92055   1.03845   10.863
 4421.00    0.91811   1.04346   10.892
 4422.00    0.95787   1.04621   10.440
 4423.00    0.99473   1.04701   10.053
 4424.00    1.03585   1.04662    9.654
 4425.00    1.09188   1.04573    9.159
 4426.00    1.14032   1.04465    8.769
 4427.00    1.15630   1.04345    8.648
 4428.00    1.13474   1.04220    8.813
 4429.00    1.10446   1.04087    9.054
 4430.00    1.10455   1.03942    9.053
 4431.00    1.11185   1.03778    8.994
 4432.00    1.07997   1.03584    9.260
 4433.00    1.04526   1.03353    9.567
 4434.00    1.06350   1.03105    9.403
 4435.00    1.10404   1.02911    9.058
 4436.00    1.11955   1.02851    8.932
 4437.00    1.12102   1.02962    8.920
 4438.00    1.13369   1.03215    8.821
 4439.00    1.16098   1.03500    8.613
 4440.00    1.18212   1.03681    8.459
 4441.00    1.16383   1.03696    8.592
 4442.00    1.09960   1.03598    9.094
 4443.00    1.00890   1.03503    9.912
 4444.00    0.90242   1.03507   11.081
 4445.00    0.80163   1.03635   12.475
 4446.00    0.78142   1.03832   -1.000
 4447.00    0.87887   1.04016   11.378
 4448.00    0.98665   1.04143   10.135
 4449.00    1.00603   1.04204    9.940
 4450.00    0.97675   1.04197   10.238
 4451.00    0.95531   1.04116   10.468
 4452.00    0.94130   1.03953   10.624
 4453.00    0.93127   1.03714   10.738
 4454.00    0.93511   1.03434   10.694
 4455.00    0.94338   1.03167   10.600
 4456.00    0.93800   1.02963   10.661
 4457.00    0.93880   1.02835   10.652
 4458.00    0.97505   1.02765   10.256
 4459.00    1.02598   1.02722    9.747
 4460.00    1.06376   1.02699    9.401
 4461.00    1.10663   1.02700    0.000
 4462.00    1.15593   1.02732    0.000
 4463.00    1.15511   1.02784    0.000
 4464.00    1.08456   1.02795    0.000
 4465.00    1.00066   1.02655    0.000
 4466.00    0.95500   1.02229    0.000
 4467.00    0.95603   1.01390    0.000
 4468.00    0.96288   1.00087    0.000
 4469.00    0.92465   0.98460    0.000
 4470.00    0.86247   0.96871    0.000
 4471.00    0.84434   0.95806    0.000
 4472.00    0.91863   0.95699    0.000
 4473.00    1.07140   0.96686    0.000
 4474.00    1.20545   0.98473    0.000
 4475.00    1.24961   1.00500    0.000
 4476.00    1.22891   1.02209    0.000
 4477.00    1.18079   1.03231    0.000
 4478.00    1.11570   1.03472    0.000
 4479.00    1.05350   1.03122    0.000
 4480.00    1.02922   1.02524    0.000
 4481.00    1.06745   1.02053    0.000
 4482.00    1.15953   1.01988    8.624
 4483.00    1.23802   1.02401    8.077
 4484.00    1.23537   1.03135    8.095
 4485.00    1.16567   1.03905    8.579
 4486.00    1.07339   1.04450    9.316
 4487.00    0.97731   1.04645   10.232
 4488.00    0.90853   1.04534   11.007
 4489.00    0.92274   1.04282   10.837
 4490.00    1.01046   1.04053    9.896
 4491.00    1.08565   1.03931    9.211
 4492.00    1.10534   1.03906    9.047
 4493.00    1.08950   1.03911    9.179
 4494.00    1.06075   1.03895    9.427
 4495.00    1.03343   1.03866    9.676
 4496.00    1.02141   1.03874    9.790
 4497.00    1.02285   1.03964    9.777
 4498.00    1.00397   1.04135    9.960
 4499.00    0.94527   1.04357   10.579
 4500.00    0.87814   1.04595   11.388
 4501.00    0.83638   1.04842   11.956
 4502.00    0.82901   1.05110   12.063
 4503.00    0.87098   1.05392   11.481
 4504.00    0.97443   1.05638   10.262
 4505.00    1.07461   1.05781    9.306
 4506.00    1.07704   1.05780    9.285
 4507.00    1.01644   1.05645    9.838
 4508.00    0.99591   1.05421   10.041
 4509.00    1.02981   1.05148    9.710
 4510.00    1.07746   1.04840    9.281
 4511.00    1.11215   1.04487    8.992
 4512.00    1.11511   1.04099    8.968
 4513.00    1.07141   1.03715    9.334
 4514.00    1.01417   1.03404    9.860
 4515.00    1.02128   1.03234    9.792
 4516.00    1.09050   1.03239    9.170
 4517.00    1.13126   1.03402    8.840
 4518.00    1.10007   1.03661    9.090
 4519.00    1.02629   1.03935    9.744
 4520.00    0.97377   1.04146   10.269
 4521.00    0.98679   1.04226   10.134
 4522.00    1.02740   1.04135    9.733
 4523.00    1.03780   1.03882    9.636
 4524.00    1.01381   1.03501    9.864
 4525.00    0.97016   1.03034   10.308
 4526.00    0.91298   1.02518   10.953
 4527.00    0.86960   1.01996   11.500
 4528.00    0.88798   1.01535   11.261
 4529.00    0.96717   1.01216   10.339
 4530.00    1.05293   1.01091    9.497
 4531.00    1.10278   1.01143    9.068
 4532.00    1.10614   1.01298    9.040
 4533.00    1.08507   1.01470    9.216
 4534.00    1.06616   1.01625    9.379
 4535.00    1.04386   1.01783    9.580
 4536.00    1.00581   1.01952    9.942
 4537.00    0.96178   1.02077   10.397
 4538.00    0.93250   1.02053   10.724
 4539.00    0.93547   1.01810   10.690
 4540.00    0.96442   1.01395   10.369
 4541.00    0.98946   1.00980   10.106
 4542.00    0.99326   1.00771   10.068
 4543.00    0.98039   1.00874   10.200
 4544.00    0.96620   1.01246   10.350
 4545.00    0.96297   1.01732   10.385
 4546.00    0.96206   1.02169   10.394
 4547.00    0.95637   1.02450   10.456
 4548.00    0.96876   1.02534   10.322
 4549.00    1.00755   1.02440    9.925
 4550.00    1.03087   1.02224    0.000
 4551.00    1.00645   1.01950    0.000
 4552.00    0.94552   1.01698    0.000
 4553.00    0.86619   1.01560    0.000
 4554.00    0.78436   1.01617    0.000
 4555.00    0.74383   1.01904    0.000
 4556.00    0.79473   1.02383    0.000
 4557.00    0.92134   1.02961    0.000
 4558.00    1.05524   1.03526    0.000
 4559.00    1.12911   1.03979    0.000
 4560.00    1.12314   1.04253    0.000
 4561.00    1.09989   1.04332    0.000
 4562.00    1.11956   1.04236    0.000
 4563.00    1.17159   1.04010    0.000
 4564.00    1.22173   1.03725    0.000
 4565.00    1.24437   1.03455    0.000
 4566.00    1.22191   1.03256    0.000
 4567.00    1.15178   1.03146    0.000
 4568.00    1.06922   1.03117    0.000
 4569.00    1.02052   1.03140    0.000
 4570.00    0.99348   1.03180    0.000
 4571.00    0.95240   1.03215    0.000
 4572.00    0.91236   1.03244    0.000
 4573.00    0.90681   1.03277    0.000
 4574.00    0.94108   1.03324    0.000
 4575.00    1.00509   1.03378    0.000
 4576.00    1.08599   1.03418    0.000
 4577.00    1.16114   1.03412    0.000
 4578.00    1.19900   1.03332    0.000
 4579.00    1.17970   1.03178    0.000
 4580.00    1.10773   1.02990    0.000
 4581.00    1.02176   1.02826    0.000
 4582.00    0.97101   1.02724    0.000
 4583.00    0.96425   1.02697    0.000
 4584.00    0.98142   1.02731    0.000
 4585.00    1.00439   1.02804    0.000
 4586.00    1.01550   1.02890    0.000
 4587.00    0.99486   1.02962    0.000
 4588.00    0.94522   1.02983    0.000
 4589.00    0.90141   1.02923    0.000
 4590.00    0.88477   1.02776    0.000
 4591.00    0.88326   1.02571    0.000
 4592.00    0.86862   1.02361    0.000
 4593.00    0.82127   1.02185    0.000
 4594.00    0.77407   1.02060    0.000
 4595.00    0.78055   1.01990    0.000
 4596.00    0.83779   1.01984    0.000
 4597.00    0.90482   1.02043    0.000
 4598.00    0.94695   1.02137    0.000
 4599.00    0.95107   1.02211    0.000
 4600.00    0.93338   1.02223    0.000
 4601.00    0.92987   1.02178    0.000
 4602.00    0.97781   1.02127    0.000
 4603.00    1.06214   1.02125    0.000
 4604.00    1.11513   1.02196    0.000
 4605.00    1.10051   1.02330    0.000
 4606.00    1.03788   1.02503    0.000
 4607.00    0.98829   1.02692    0.000
 4608.00    1.00213   1.02878    0.000
 4609.00    1.04269   1.03039    0.000
 4610.00    1.04129   1.03157    0.000
 4611.00    0.97971   1.03232    0.000
 4612.00    0.89004   1.03281    0.000
 4613.00    0.83708   1.03326    0.000
 4614.00    0.86119   1.03373    0.000
 4615.00    0.94710   1.03401    0.000
 4616.00    1.04118   1.03374    0.000
 4617.00    1.08402   1.03268    0.000
 4618.00    1.08157   1.03105    0.000
 4619.00    1.08203   1.02957    0.000
 4620.00    1.07926   1.02905    0.000
 4621.00    1.04534   1.02987    0.000
 4622.00    1.01095   1.03173    0.000
 4623.00    1.01553   1.03383    0.000
 4624.00    1.04347   1.03535    0.000
 4625.00    1.07362   1.03575    0.000
 4626.00    1.11539   1.03495    0.000
 4627.00    1.15549   1.03308    0.000
 4628.00    1.14646   1.03046    0.000
 4629.00    1.08904   1.02754    0.000
 4630.00    1.03369   1.02488    0.000
 4631.00    0.98918   1.02298    0.000
 4632.00    0.93568   1.02201    0.000
 4633.00    0.90325   1.02172    0.000
 4634.00    0.93852   1.02155    0.000
 4635.00    1.03458   1.02087    0.000
 4636.00    1.14400   1.01915    0.000
 4637.00    1.20834   1.01616    0.000
 4638.00    1.20240   1.01215    0.000
 4639.00    1.15579   1.00791    0.000
 4640.00    1.10476   1.00444    0.000
 4641.00    1.06638   1.00247    0.000
 4642.00    1.04219   1.00190    0.000
 4643.00    1.02029   1.00164    0.000
 4644.00    0.97729   1.00004    0.000
 4645.00    0.90643   0.99569    0.000
 4646.00    0.86444   0.98839    0.000
 4647.00    0.91228   0.97951    0.000
 4648.00    1.02792   0.97141    0.000
 4649.00    1.13854   0.96647    0.000
 4650.00    1.17161   0.96610    0.000
 4651.00    1.11943   0.97025    0.000
 4652.00    1.05796   0.97759    0.000
 4653.00    1.03720   0.98624    0.000
 4654.00    1.04295   0.99461    0.000
 4655.00    1.05401   1.00203    0.000
 4656.00    1.06001   1.00860    0.000
 4657.00    1.05395   1.01461    0.000
 4658.00    1.03256   1.01990    0.000
 4659.00    1.00060   1.02376    0.000
 4660.00    0.97125   1.02542    0.000
 4661.00    0.96270   1.02459    0.000
 4662.00    0.96927   1.02165    0.000
 4663.00    0.94827   1.01741    0.000
 4664.00    0.89571   1.01264    0.000
 4665.00    0.87384   1.00793    0.000
 4666.00    0.91658   1.00384    0.000
 4667.00    0.99988   1.00106    0.000
 4668.00    1.08766   1.00030    0.000
 4669.00    1.15075   1.00178    0.000
 4670.00    1.17415   1.00492    0.000
 4671.00    1.15855   1.00844    0.000
 4672.00    1.11923   1.01106    0.000
 4673.00    1.07643   1.01219    0.000
 4674.00    1.04506   1.01210    0.000
 4675.00    1.03915   1.01158    0.000
 4676.00    1.07170   1.01131    0.000
 4677.00    1.12719   1.01148    0.000
 4678.00    1.15901   1.01172    0.000
 4679.00    1.14445   1.01141    0.000
 4680.00    1.10279   1.00997    0.000
 4681.00    1.07849   1.00695    0.000
 4682.00    1.10542   1.00215    0.000
 4683.00    1.14842   0.99579    0.000
 4684.00    1.15330   0.98885    0.000
 4685.00    1.13371   0.98304    0.000
 4686.00    1.12661   0.98028    0.000
 4687.00    1.13422   0.98163    0.000
 4688.00    1.13963   0.98663    0.000
 4689.00    1.12619   0.99355    0.000
 4690.00    1.09478   1.00041    0.000
 4691.00    1.06654   1.00592    0.000
 4692.00    1.06033   1.00982    0.000
 4693.00    1.07810   1.01243    0.000
 4694.00    1.09101   1.01400    0.000
 4695.00    1.06662   1.01441    0.000
 4696.00    1.02413   1.01333    0.000
 4697.00    1.00050   1.01062    0.000
 4698.00    0.99327   1.00674    0.000
 4699.00    0.99205   1.00259    0.000
 4700.00    1.01034   0.99915    0.000
 4701.00    1.04218   0.99690    0.000
 4702.00    1.04337   0.99573    0.000
 4703.00    0.99825   0.99525    0.000
 4704.00    0.93939   0.99513    0.000
 4705.00    0.89749   0.99525    0.000
 4706.00    0.88320   0.99559    0.000
 4707.00    0.88846   0.99599    0.000
 4708.00    0.89474   0.99606    0.000
 4709.00    0.88716   0.99528    0.000
 4710.00    0.86472   0.99321    0.000
 4711.00    0.84758   0.98989    0.000
 4712.00    0.85379   0.98610    0.000
 4713.00    0.87983   0.98339    0.000
 4714.00    0.91482   0.98339    0.000
 4715.00    0.95023   0.98690    0.000
 4716.00    0.97734   0.99342    0.000
 4717.00    0.98687   1.00145    0.000
 4718.00    0.97223   1.00928    0.000
 4719.00    0.93697   1.01565    0.000
 4720.00    0.90765   1.02006    0.000
 4721.00    0.91501   1.02258    0.000
 4722.00    0.95911   1.02361    0.000
 4723.00    1.01145   1.02353    0.000
 4724.00    1.02896   1.02251    0.000
 4725.00    0.99696   1.02044    0.000
 4726.00    0.95362   1.01721    0.000
 4727.00    0.92935   1.01304    0.000
 4728.00    0.91866   1.00860    0.000
 4729.00    0.91895   1.00487    0.000
 4730.00    0.93928   1.00265    0.000
 4731.00    0.97568   1.00221    0.000
 4732.00    1.01171   1.00326    0.000
 4733.00    1.03578   1.00515    0.000
 4734.00    1.04481   1.00716    0.000
 4735.00    1.04295   1.00882    0.000
 4736.00    1.02787   1.00996    0.000
 4737.00    0.98041   1.01065    0.000
 4738.00    0.89751   1.01100    0.000
 4739.00    0.81173   1.01109    0.000
 4740.00    0.75569   1.01098    0.000
 4741.00    0.74074   1.01080    0.000
 4742.00    0.75501   1.01076    0.000
 4743.00    0.77356   1.01105    0.000
 4744.00    0.78607   1.01174    0.000
 4745.00    0.79448   1.01270    0.000
 4746.00    0.79434   1.01371    0.000
 4747.00    0.78344   1.01451    0.000
 4748.00    0.77734   1.01488    0.000
 4749.00    0.79515   1.01467    0.000
 4750.00    0.84243   1.01385    0.000
 4751.00    0.90436   1.01246    0.000
 4752.00    0.94762   1.01072    0.000
 4753.00    0.94882   1.00890    0.000
 4754.00    0.91167   1.00729    0.000
 4755.00    0.87547   1.00609    0.000
 4756.00    0.88886   1.00538    0.000
 4757.00    0.94007   1.00504    0.000
 4758.00    0.97384   1.00482    0.000
 4759.00    0.95424   1.00437    0.000
 4760.00    0.88194   1.00336    0.000
 4761.00    0.79829   1.00156   12.527
 4762.00    0.75292   0.99906   -1.000
 4763.00    0.77112   0.99622   12.968
 4764.00    0.83772   0.99360   11.937
 4765.00    0.90161   0.99178   11.091
 4766.00    0.93593   0.99114   10.685
 4767.00    0.95166   0.99173   10.508
 4768.00    0.94958   0.99324   10.531
 4769.00    0.91892   0.99514   10.882
 4770.00    0.87130   0.99687   11.477
 4771.00    0.84005   0.99816   11.904
 4772.00    0.86309   0.99908   11.586
 4773.00    0.94626   0.99989   10.568
 4774.00    1.03108   1.00076    9.699
 4775.00    1.05784   1.00161    9.453
 4776.00    1.01963   1.00215    9.807
 4777.00    0.94635   1.00210   10.567
 4778.00    0.88175   1.00132   11.341
 4779.00    0.83978   0.99987   11.908
 4780.00    0.80542   0.99795   12.416
 4781.00    0.79136   0.99581   12.636
 4782.00    0.82357   0.99370   12.142
 4783.00    0.87579   0.99182   11.418
 4784.00    0.90441   0.99034   11.057
 4785.00    0.91919   0.98930   10.879
 4786.00    0.94700   0.98871   10.560
 4787.00    0.98279   0.98859   10.175
 4788.00    1.00602   0.98895    9.940
 4789.00    1.00031   0.98987    9.997
 4790.00    0.96874   0.99144   10.323
 4791.00    0.93308   0.99372   10.717
 4792.00    0.90084   0.99659   11.101
 4793.00    0.86224   0.99972   11.598
 4794.00    0.81826   1.00255   12.221
 4795.00    0.78379   1.00447   12.758
 4796.00    0.77702   1.00506   12.870
 4797.00    0.80439   1.00431   12.432
 4798.00    0.84465   1.00265   11.839
 4799.00    0.87069   1.00079   11.485
 4800.00    0.87350   0.99934   11.448
 4801.00    0.86169   0.99859   11.605
 4802.00    0.85526   0.99837   11.692
 4803.00    0.86445   0.99828   11.568
 4804.00    0.88320   0.99792   11.322
 4805.00    0.90420   0.99716   11.060
 4806.00    0.92438   0.99614   10.818
 4807.00    0.94417   0.99514   10.591
 4808.00    0.96752   0.99438   10.336
 4809.00    1.00164   0.99391    9.984
 4810.00    1.04193   0.99361    9.598
 4811.00    1.05671   0.99328    9.463
 4812.00    1.02549   0.99290    9.751
 4813.00    0.97046   0.99259   10.304
 4814.00    0.91674   0.99264   10.908
 4815.00    0.86795   0.99323   11.521
 4816.00    0.82531   0.99430   12.117
 4817.00    0.79800   0.99551   12.531
 4818.00    0.80425   0.99641   12.434
 4819.00    0.85547   0.99664   11.690
 4820.00    0.92120   0.99606   10.855
 4821.00    0.95922   0.99469   10.425
 4822.00    0.97708   0.99278   10.235
 4823.00    1.00255   0.99069    9.975
 4824.00    1.03727   0.98884    9.641
 4825.00    1.06790   0.98747    9.364
 4826.00    1.08110   0.98654    9.250
 4827.00    1.06878   0.98577    9.356
 4828.00    1.03228   0.98493    9.687
 4829.00    0.98867   0.98403   10.115
 4830.00    0.96153   0.98331   10.400
 4831.00    0.94583   0.98299   10.573
 4832.00    0.92488   0.98317   10.812
 4833.00    0.92740   0.98378   10.783
 4834.00    0.98659   0.98458   10.136
 4835.00    1.06272   0.98522    9.410
 4836.00    1.09839   0.98538    9.104
 4837.00    1.08926   0.98480    9.181
 4838.00    1.05576   0.98348    9.472
 4839.00    1.01490   0.98163    9.853
 4840.00    0.98217   0.97954   10.182
 4841.00    0.97186   0.97752   10.290
 4842.00    0.99019   0.97574   10.099
 4843.00    1.02918   0.97426    9.716
 4844.00    1.05864   0.97294    9.446
 4845.00    1.04800   0.97151    9.542
 4846.00    1.01195   0.96959    9.882
 4847.00    0.98498   0.96688   10.153
 4848.00    0.97373   0.96330    0.000
 4849.00    0.97374   0.95888    0.000
 4850.00    0.99144   0.95353    0.000
 4851.00    1.02921   0.94685    0.000
 4852.00    1.07497   0.93808    0.000
 4853.00    1.11337   0.92638    0.000
 4854.00    1.13526   0.91097    0.000
 4855.00    1.14836   0.89123    0.000
 4856.00    1.16841   0.86667    0.000
 4857.00    1.18704   0.83712    0.000
 4858.00    1.17582   0.80344    0.000
 4859.00    1.11101   0.76850    0.000
 4860.00    1.00014   0.73747    0.000
 4861.00    0.90454   0.71670    0.000
 4862.00    0.87334   0.71130    0.000
 4863.00    0.88582   0.72269    0.000
 4864.00    0.90213   0.74788    0.000
 4865.00    0.90607   0.78085    0.000
 4866.00    0.92590   0.81520    0.000
 4867.00    1.00839   0.84613    0.000
 4868.00    1.10518   0.87127    0.000
 4869.00    1.10762   0.89026    0.000
 4870.00    1.01867   0.90396    0.000
 4871.00    0.92215   0.91388    0.000
 4872.00    0.85952   0.92163    0.000
 4873.00    0.83000   0.92858    0.000
 4874.00    0.81911   0.93549    0.000
 4875.00    0.82302   0.94252   12.150
 4876.00    0.85975   0.94940   11.631
 4877.00    0.92488   0.95571   10.812
 4878.00    0.97437   0.96102   10.263
 4879.00    0.97356   0.96499   10.272
 4880.00    0.92052   0.96744   10.863
 4881.00    0.84681   0.96841   11.809
 4882.00    0.79883   0.96819   12.518
 4883.00    0.79772   0.96719   12.536
 4884.00    0.83575   0.96583   11.965
 4885.00    0.88634   0.96444   11.282
 4886.00    0.92302   0.96323   10.834
 4887.00    0.93761   0.96223   10.665
 4888.00    0.93027   0.96140   10.750
 4889.00    0.90267   0.96081   11.078
 4890.00    0.87459   0.96082   11.434
 4891.00    0.88162   0.96208   11.343
 4892.00    0.92706   0.96521   10.787
 4893.00    0.97573   0.97029   10.249
 4894.00    0.99361   0.97665   10.064
 4895.00    0.96746   0.98300   10.336
 4896.00    0.91833   0.98802   10.889
 4897.00    0.87937   0.99085   11.372
 4898.00    0.86081   0.99132   11.617
 4899.00    0.85786   0.98996   11.657
 4900.00    0.86491   0.98767   11.562
 4901.00    0.88024   0.98532   11.361
 4902.00    0.90573   0.98352   11.041
 4903.00    0.93271   0.98252   10.721
 4904.00    0.94557   0.98223   10.576
 4905.00    0.96198   0.98233   10.395
 4906.00    1.01683   0.98241    9.834
 4907.00    1.08265   0.98210    9.237
 4908.00    1.10066   0.98125    9.085
 4909.00    1.07635   0.98009    9.291
 4910.00    1.04900   0.97907    9.533
 4911.00    1.02777   0.97869    9.730
 4912.00    0.99989   0.97911   10.001
 4913.00    0.95104   0.98006   10.515
 4914.00    0.89518   0.98072   11.171
 4915.00    0.87949   0.97997   11.370
 4916.00    0.91452   0.97662   10.935
 4917.00    0.95975   0.96980   10.419
 4918.00    0.99230   0.95943   10.078
 4919.00    1.01608   0.94653    9.842
 4920.00    1.02463   0.93326    9.760
 4921.00    1.00629   0.92248    9.938
 4922.00    0.96852   0.91681   10.325
 4923.00    0.92694   0.91763   10.788
 4924.00    0.88720   0.92466   11.271
 4925.00    0.85081   0.93614   11.754
 4926.00    0.82244   0.94962   12.159
 4927.00    0.81147   0.96277   12.323
 4928.00    0.82801   0.97383   12.077
 4929.00    0.86339   0.98178   11.582
 4930.00    0.89147   0.98628   11.217
 4931.00    0.90005   0.98756   11.110
 4932.00    0.89446   0.98633   11.180
 4933.00    0.88206   0.98356   11.337
 4934.00    0.86583   0.98016   11.550
 4935.00    0.84072   0.97675   11.895
 4936.00    0.80487   0.97352   12.424
 4937.00    0.77148   0.97049   12.962
 4938.00    0.75635   0.96784   13.221
 4939.00    0.76748   0.96596   13.030
 4940.00    0.81051   0.96538    0.000
 4941.00    0.88912   0.96634    0.000
 4942.00    0.99209   0.96871    0.000
 4943.00    1.09177   0.97200    0.000
 4944.00    1.15601   0.97562    0.000
 4945.00    1.16036   0.97909    0.000
 4946.00    1.10499   0.98211    0.000
 4947.00    1.01235   0.98462    0.000
 4948.00    0.91735   0.98666    0.000
 4949.00    0.85582   0.98820    0.000
 4950.00    0.85216   0.98910    0.000
 4951.00    0.90727   0.98907    0.000
 4952.00    0.99554   0.98778    0.000
 4953.00    1.09294   0.98499    0.000
 4954.00    1.18721   0.98072    0.000
 4955.00    1.25789   0.97535    0.000
 4956.00    1.28120   0.96974    0.000
 4957.00    1.26326   0.96507    0.000
 4958.00    1.23202   0.96245    0.000
 4959.00    1.20470   0.96240    0.000
 4960.00    1.18265   0.96450    0.000
 4961.00    1.15470   0.96757    0.000
 4962.00    1.11313   0.97024    0.000
 4963.00    1.06691   0.97153    0.000
 4964.00    1.02733   0.97120    0.000
 4965.00    0.99970   0.96968    0.000
 4966.00    0.99583   0.96777    0.000
 4967.00    1.03018   0.96627    0.000
 4968.00    1.08494   0.96574    0.000
 4969.00    1.11957   0.96636    0.000
 4970.00    1.12403   0.96799    0.000
 4971.00    1.11616   0.97027    0.000
 4972.00    1.11260   0.97274    0.000
 4973.00    1.11406   0.97488    0.000
 4974.00    1.09731   0.97623    0.000
 4975.00    1.05006   0.97645    0.000
 4976.00    0.99695   0.97534    0.000
 4977.00    0.95804   0.97292    0.000
 4978.00    0.92759   0.96929    0.000
 4979.00    0.90742   0.96470    0.000
 4980.00    0.91320   0.95949    0.000
 4981.00    0.94384   0.95417    0.000
 4982.00    0.97874   0.94948    0.000
 4983.00    0.99554   0.94624    0.000
 4984.00    0.98507   0.94507    0.000
 4985.00    0.96687   0.94607    0.000
 4986.00    0.96705   0.94871    0.000
 4987.00    0.99023   0.95206    0.000
 4988.00    1.02405   0.95511    0.000
 4989.00    1.04593   0.95721    0.000
 4990.00    1.02555   0.95821    0.000
 4991.00    0.94049   0.95838    0.000
 4992.00    0.83432   0.95822    0.000
 4993.00    0.79799   0.95814    0.000
 4994.00    0.84495   0.95827    0.000
 4995.00    0.91696   0.95844    0.000
 4996.00    0.97597   0.95817    0.000
 4997.00    1.01788   0.95691    0.000
 4998.00    1.06066   0.95425    0.000
 4999.00    1.11342   0.95024    0.000
 5000.00    1.15038   0.94545    0.000
 5001.00    1.15114   0.94076    0.000
 5002.00    1.12999   0.93693    0.000
 5003.00    1.11354   0.93432    0.000
 5004.00    1.12243   0.93285    0.000
 5005.00    1.15374   0.93233    0.000
 5006.00    1.18404   0.93261    0.000
 5007.00    1.19567   0.93362    0.000
 5008.00    1.17902   0.93505    0.000
 5009.00    1.12375   0.93620    0.000
 5010.00    1.03433   0.93612    0.000
 5011.00    0.94980   0.93394    0.000
 5012.00    0.90132   0.92934    0.000
 5013.00    0.87300   0.92283    0.000
 5014.00    0.84246   0.91582    0.000
 5015.00    0.80909   0.91022    0.000
 5016.00    0.77677   0.90773    0.000
 5017.00    0.74569   0.90911    0.000
 5018.00    0.71807   0.91377    0.000
 5019.00    0.70266   0.92021    0.000
 5020.00    0.71953   0.92674    0.000
 5021.00    0.78492   0.93220    0.000
 5022.00    0.88330   0.93620    0.000
 5023.00    0.97751   0.93891    0.000
 5024.00    1.03037   0.94071    0.000
 5025.00    1.02576   0.94192    0.000
 5026.00    0.98247   0.94277    0.000
 5027.00    0.93427   0.94354    0.000
 5028.00    0.91236   0.94454    0.000
 5029.00    0.92977   0.94602   10.755
 5030.00    0.97589   0.94800   10.247
 5031.00    1.02229   0.95016    9.782
 5032.00    1.03752   0.95193    9.638
 5033.00    1.01564   0.95268    9.846
 5034.00    0.96973   0.95195   10.312
 5035.00    0.91076   0.94960   10.980
 5036.00    0.85610   0.94583   11.681
 5037.00    0.83998   0.94103   11.905
 5038.00    0.88011   0.93569   11.362
 5039.00    0.95176   0.93046   10.507
 5040.00    1.00910   0.92623    9.910
 5041.00    1.01237   0.92396    9.878
 5042.00    0.98064   0.92429   10.197
 5043.00    0.98186   0.92702   10.185
 5044.00    1.03750   0.93106    9.639
 5045.00    1.11623   0.93484    8.959
 5046.00    1.18438   0.93714    8.443
 5047.00    1.21667   0.93756    8.219
 5048.00    1.19632   0.93663    8.359
 5049.00    1.12634   0.93538    8.878
 5050.00    1.03870   0.93473   -2.000
 5051.00    0.96963   0.93511   -2.000
 5052.00    0.93639   0.93640   -2.000
 5053.00    0.92110   0.93818   -2.000
 5054.00    0.87666   0.94003   -2.000
 5055.00    0.78068   0.94183   -2.000
 5056.00    0.65749   0.94371   -2.000
 5057.00    0.57626   0.94591   -2.000
 5058.00    0.60047   0.94848   -2.000
 5059.00    0.69539   0.95108   -2.000
 5060.00    0.78490   0.95307   -2.000
 5061.00    0.85385   0.95376   -2.000
 5062.00    0.91272   0.95274   -2.000
 5063.00    0.95095   0.95007   -2.000
 5064.00    0.96233   0.94634   10.391
 5065.00    0.96140   0.94242   10.402
 5066.00    0.95707   0.93916   10.449
 5067.00    0.94591   0.93700   10.572
 5068.00    0.93872   0.93596   10.653
 5069.00    0.95585   0.93570   10.462
 5070.00    0.99061   0.93579   10.095
 5071.00    1.01605   0.93590    9.842
 5072.00    1.01508   0.93592    9.851
 5073.00    0.98527   0.93584   10.150
 5074.00    0.93710   0.93567   10.671
 5075.00    0.88613   0.93525   11.285
 5076.00    0.84560   0.93433   11.826
 5077.00    0.82479   0.93266   12.124
 5078.00    0.82733   0.93023   12.087
 5079.00    0.84672   0.92737   11.810
 5080.00    0.86960   0.92468   11.500
 5081.00    0.89324   0.92281   11.195
 5082.00    0.92382   0.92217   10.825
 5083.00    0.95867   0.92281   10.431
 5084.00    0.98808   0.92447   10.121
 5085.00    1.00550   0.92673    9.945
 5086.00    1.00593   0.92920    9.941
 5087.00    0.98336   0.93161   10.169
 5088.00    0.94357   0.93378   10.598
 5089.00    0.91143   0.93567   10.972
 5090.00    0.90605   0.93727   11.037
 5091.00    0.92646   0.93858   10.794
 5092.00    0.95849   0.93950   10.433
 5093.00    0.98418   0.93978   10.161
 5094.00    0.99919   0.93915   10.008
 5095.00    1.00836   0.93742    9.917
 5096.00    1.00504   0.93467    9.950
 5097.00    0.98289   0.93133   10.174
 5098.00    0.95920   0.92806   10.425
 5099.00    0.95108   0.92552   10.514
 5100.00    0.94794   0.92412   10.549
 5101.00    0.93578   0.92382   10.686
 5102.00    0.91708   0.92424   10.904
 5103.00    0.90077   0.92480   11.102
 5104.00    0.89330   0.92501   11.194
 5105.00    0.88970   0.92463   11.240
 5106.00    0.87514   0.92373   11.427
 5107.00    0.83924   0.92259   11.916
 5108.00    0.78575   0.92154   12.727
 5109.00    0.74201   0.92093   13.477
 5110.00    0.73776   0.92098   13.555
 5111.00    0.77285   0.92176   12.939
 5112.00    0.82267   0.92323   12.156
 5113.00    0.85338   0.92528   11.718
 5114.00    0.85904   0.92775   11.641
 5115.00    0.87674   0.93036   11.406
 5116.00    0.92810   0.93273   10.775
 5117.00    0.99498   0.93437   10.050
 5118.00    1.04629   0.93478    9.558
 5119.00    1.05879   0.93360    9.445
 5120.00    1.04171   0.93083    9.600
 5121.00    1.02369   0.92679    9.769
 5122.00    1.01697   0.92209    9.833
 5123.00    1.01564   0.91741    9.846
 5124.00    1.00412   0.91333    9.959
 5125.00    0.97401   0.91020   10.267
 5126.00    0.93693   0.90813   10.673
 5127.00    0.90943   0.90709   10.996
 5128.00    0.90053   0.90704   11.105
 5129.00    0.90546   0.90788   11.044
 5130.00    0.90846   0.90947   11.008
 5131.00    0.90110   0.91164   11.098
 5132.00    0.88539   0.91410   11.295
 5133.00    0.86593   0.91658   11.548
 5134.00    0.84604   0.91875   11.820
 5135.00    0.82526   0.92029   12.117
 5136.00    0.80899   0.92093   12.361
 5137.00    0.81732   0.92062   12.235
 5138.00    0.85441   0.91949   11.704
 5139.00    0.88751   0.91788   11.267
 5140.00    0.88977   0.91610   11.239
 5141.00    0.86560   0.91432   11.553
 5142.00    0.83771   0.91258   11.937
 5143.00    0.83118   0.91093   12.031
 5144.00    0.84511   0.90945   11.833
 5145.00    0.85660   0.90829   11.674
 5146.00    0.84967   0.90752   11.769
 5147.00    0.82824   0.90711   12.074
 5148.00    0.82246   0.90686   12.159
 5149.00    0.84538   0.90654   11.829
 5150.00    0.85479   0.90598   11.699
 5151.00    0.85208   0.90521   11.736
 5152.00    0.92966   0.90452   10.757
 5153.00    1.06501   0.90438    9.390
 5154.00    1.08825   0.90526   -2.000
 5155.00    1.03730   0.90742   -2.000
 5156.00    1.12326   0.91076   -2.000
 5157.00    1.22066   0.91479   -2.000
 5158.00    1.10464   0.91876   -2.000
 5159.00    1.19899   0.92188   -2.000
 5160.00    2.00823   0.92355   -2.000
 5161.00    3.11195   0.92334   -2.000
 5162.00    3.61379   0.92104   -2.000
 5163.00    2.87673   0.91655   -2.000
 5164.00    1.40941   0.90995   -2.000
 5165.00    0.97234   0.90168   -2.000
 5166.00    1.93630   0.89261   -2.000
 5167.00    2.67938   0.88392   -2.000
 5168.00    2.62274   0.87673   -2.000
 5169.00    2.58935   0.87170   -2.000
 5170.00    2.64609   0.86889   -2.000
 5171.00    2.24090   0.86798   -2.000
 5172.00    1.54703   0.86870   -2.000
 5173.00    1.09754   0.87096   -2.000
 5174.00    0.96962   0.87476   -2.000
 5175.00    0.98446   0.87978   -2.000
 5176.00    1.00963   0.88524    9.905
 5177.00    1.00014   0.89003    9.999
 5178.00    0.98879   0.89309   10.113
 5179.00    0.99108   0.89371   10.090
 5180.00    0.97828   0.89182   10.222
 5181.00    0.94697   0.88802   10.560
 5182.00    0.92588   0.88354   10.801
 5183.00    0.93156   0.88000   10.735
 5184.00    0.96247   0.87882   10.390
 5185.00    1.00875   0.88071    9.913
 5186.00    1.05625   0.88531    9.467
 5187.00    1.08996   0.89134    9.175
 5188.00    1.09867   0.89710    9.102
 5189.00    1.08007   0.90119    9.259
 5190.00    1.04891   0.90296    0.000
 5191.00    1.03318   0.90265    0.000
 5192.00    1.03631   0.90116    0.000
 5193.00    1.03411   0.89968    0.000
 5194.00    1.01952   0.89919    0.000
 5195.00    1.00070   0.90013    0.000
 5196.00    0.96495   0.90238    0.000
 5197.00    0.89842   0.90533    0.000
 5198.00    0.82830   0.90817    0.000
 5199.00    0.79003   0.91010    0.000
 5200.00    0.78463   0.91052    0.000
 5201.00    0.80009   0.90905    0.000
 5202.00    0.82938   0.90560    0.000
 5203.00    0.84977   0.90038    0.000
 5204.00    0.82476   0.89393    0.000
 5205.00    0.76425   0.88713    0.000
 5206.00    0.72399   0.88103    0.000
 5207.00    0.73035   0.87666    0.000
 5208.00    0.77318   0.87480    0.000
 5209.00    0.83800   0.87580    0.000
 5210.00    0.90468   0.87950    0.000
 5211.00    0.93821   0.88527   10.659
 5212.00    0.92460   0.89216   10.815
 5213.00    0.90265   0.89909   11.079
 5214.00    0.90315   0.90516   11.072
 5215.00    0.90846   0.90998   11.008
 5216.00    0.89743   0.91364   11.143
 5217.00    0.86983   0.91662   11.496
 5218.00    0.83911   0.91931   11.917
 5219.00    0.82334   0.92174   12.146
 5220.00    0.83046   0.92348   12.042
 5221.00    0.86192   0.92383   11.602
 5222.00    0.92612   0.92216   10.798
 5223.00    1.01662   0.91830    9.836
 5224.00    1.08399   0.91280    9.225
 5225.00    1.08823   0.90685    9.189
 5226.00    1.04842   0.90195    9.538
 5227.00    1.00371   0.89939    9.963
 5228.00    0.97959   0.89970   10.208
 5229.00    0.97441   0.90240   10.263
 5230.00    0.96263   0.90624   10.388
 5231.00    0.92623   0.90986   10.796
 5232.00    0.86791   0.91241   11.522
 5233.00    0.81394   0.91387   12.286
 5234.00    0.79294   0.91490   12.611
 5235.00    0.79898   0.91628   12.516
 5236.00    0.80959   0.91846   12.352
 5237.00    0.81649   0.92128   12.248
 5238.00    0.82426   0.92423   12.132
 5239.00    0.84270   0.92673   11.867
 5240.00    0.86714   0.92844   11.532
 5241.00    0.87609   0.92930   11.414
 5242.00    0.87658   0.92938   11.408
 5243.00    0.90295   0.92869   11.075
 5244.00    0.94621   0.92711   10.568
 5245.00    0.96288   0.92455   10.385
 5246.00    0.94779   0.92108   10.551
 5247.00    0.92408   0.91708   10.822
 5248.00    0.89979   0.91317   11.114
 5249.00    0.87381   0.90997   11.444
 5250.00    0.85083   0.90790   11.753
 5251.00    0.83920   0.90710   11.916
 5252.00    0.84740   0.90745   11.801
 5253.00    0.88282   0.90875   11.327
 5254.00    0.94712   0.91081   10.558
 5255.00    1.02082   0.91345    9.796
 5256.00    1.06711   0.91642    9.371
 5257.00    1.06274   0.91919    9.410
 5258.00    1.01116   0.92100    9.890
 5259.00    0.94835   0.92097   10.545
 5260.00    0.91711   0.91846   10.904
 5261.00    0.92779   0.91337   10.778
 5262.00    0.96704   0.90623   10.341
 5263.00    1.01491   0.89808    9.853
 5264.00    1.05484   0.89011    9.480
 5265.00    1.07779   0.88329    9.278
 5266.00    1.06933   0.87810    9.352
 5267.00    1.01202   0.87456    9.881
 5268.00    0.92175   0.87246   10.849
 5269.00    0.84638   0.87171   11.815
 5270.00    0.82211   0.87244   12.164
 5271.00    0.84846   0.87487   11.786
 5272.00    0.86853   0.87899   11.514
 5273.00    0.83604   0.88446   11.961
 5274.00    0.80452   0.89067   12.430
 5275.00    0.83597   0.89704   11.962
 5276.00    0.90579   0.90309   11.040
 5277.00    0.96070   0.90843   10.409
 5278.00    0.96993   0.91263   10.310
 5279.00    0.94129   0.91529   10.624
 5280.00    0.91484   0.91622   10.931
 5281.00    0.91760   0.91573   10.898
 5282.00    0.94700   0.91464   10.560
 5283.00    0.97288   0.91402   10.279
 5284.00    0.96484   0.91474   10.364
 5285.00    0.93758   0.91710   10.666
 5286.00    0.92696   0.92073   10.788
 5287.00    0.94849   0.92483   10.543
 5288.00    0.99386   0.92851   10.062
 5289.00    1.03665   0.93115    9.646
 5290.00    1.05878   0.93251    9.445
 5291.00    1.06420   0.93255    9.397
 5292.00    1.06162   0.93134    9.420
 5293.00    1.05287   0.92886    9.498
 5294.00    1.02385   0.92512    9.767
 5295.00    0.95691   0.92027   10.450
 5296.00    0.86477   0.91478   11.564
 5297.00    0.78041   0.90945   12.814
 5298.00    0.72657   0.90527   13.763
 5299.00    0.70882   0.90302   14.108
 5300.00    0.71603   0.90309   13.966
 5301.00    0.74399   0.90534   13.441
 5302.00    0.80913   0.90921   12.359
 5303.00    0.90941   0.91393   10.996
 5304.00    1.00677   0.91875    9.933
 5305.00    1.05782   0.92303    9.453
 5306.00    1.04292   0.92641    9.588
 5307.00    1.00856   0.92878    9.915
 5308.00    1.02588   0.93027    9.748
 5309.00    1.07858   0.93108    9.271
 5310.00    1.10534   0.93136    9.047
 5311.00    1.09932   0.93113    9.097
 5312.00    1.07988   0.93036    9.260
 5313.00    1.04752   0.92904    9.546
 5314.00    1.00376   0.92729    9.963
 5315.00    0.96711   0.92532   10.340
 5316.00    0.95389   0.92339   10.483
 5317.00    0.96443   0.92170   10.369
 5318.00    0.97521   0.92029   10.254
 5319.00    0.95464   0.91906   10.475
 5320.00    0.91310   0.91775   10.952
 5321.00    0.88806   0.91605   11.261
 5322.00    0.88772   0.91365   11.265
 5323.00    0.89862   0.91030   11.128
 5324.00    0.91238   0.90589   10.960
 5325.00    0.92449   0.90053   10.817
 5326.00    0.93039   0.89463   10.748
 5327.00    0.93341   0.88905   10.713
 5328.00    0.94695   0.88487   10.560
 5329.00    0.97430   0.88310   10.264
 5330.00    1.00082   0.88429    9.992
 5331.00    1.00418   0.88820    9.958
 5332.00    0.96643   0.89392   10.347
 5333.00    0.89358   0.90018   11.191
 5334.00    0.81029   0.90580   12.341
 5335.00    0.74106   0.90994   13.494
 5336.00    0.71129   0.91217   14.059
 5337.00    0.74988   0.91245   13.335
 5338.00    0.85559   0.91110   11.688
 5339.00    0.97198   0.90871   10.288
 5340.00    1.03491   0.90607    9.663
 5341.00    1.01128   0.90389    9.888
 5342.00    0.92175   0.90259   10.849
 5343.00    0.83441   0.90217   11.984
 5344.00    0.81078   0.90230   12.334
 5345.00    0.87354   0.90257   11.448
 5346.00    0.97771   0.90276   10.228
 5347.00    1.05008   0.90297    9.523
 5348.00    1.06607   0.90357    9.380
 5349.00    1.04951   0.90496    9.528
 5350.00    1.05049   0.90745    9.519
 5351.00    1.08951   0.91102    9.178
 5352.00    1.12248   0.91543    8.909
 5353.00    1.11039   0.92018    9.006
 5354.00    1.05933   0.92476    9.440
 5355.00    0.99690   0.92871   10.031
 5356.00    0.95497   0.93169   10.472
 5357.00    0.95230   0.93350   10.501
 5358.00    0.98598   0.93403   10.142
 5359.00    1.02573   0.93326    9.749
 5360.00    1.03519   0.93131    9.660
 5361.00    1.00566   0.92845    9.944
 5362.00    0.94547   0.92505   10.577
 5363.00    0.86434   0.92152   11.570
 5364.00    0.79054   0.91813   12.650
 5365.00    0.77338   0.91494   12.930
 5366.00    0.81174   0.91180   12.319
 5367.00    0.83847   0.90847   11.926
 5368.00    0.82173   0.90482   12.169
 5369.00    0.79057   0.90109   12.649
 5370.00    0.78659   0.89789   12.713
 5371.00    0.83155   0.89603   12.026
 5372.00    0.89490   0.89620   11.174
 5373.00    0.93573   0.89857   10.687
 5374.00    0.96821   0.90268   10.328
 5375.00    1.01971   0.90761    9.807
 5376.00    1.08041   0.91234    9.256
 5377.00    1.11963   0.91610    8.932
 5378.00    1.10838   0.91852    9.022
 5379.00    1.05393   0.91963    9.488
 5380.00    1.00058   0.91964    9.994
 5381.00    0.96845   0.91888   10.326
 5382.00    0.94482   0.91772   10.584
 5383.00    0.92260   0.91650   10.839
 5384.00    0.90725   0.91543   11.022
 5385.00    0.90891   0.91455   11.002
 5386.00    0.92463   0.91368   10.815
 5387.00    0.92162   0.91257   10.850
 5388.00    0.88459   0.91098   11.305
 5389.00    0.85385   0.90885   11.712
 5390.00    0.86241   0.90628   11.595
 5391.00    0.89831   0.90351   11.132
 5392.00    0.94260   0.90069   10.609
 5393.00    0.98308   0.89791   10.172
 5394.00    0.99429   0.89518   10.057
 5395.00    0.94904   0.89260   10.537
 5396.00    0.86186   0.89041   11.603
 5397.00    0.77961   0.88897   12.827
 5398.00    0.74530   0.88852   13.417
 5399.00    0.77366   0.88895   12.926
 5400.00    0.83313   0.88977   12.003
 5401.00    0.88377   0.89019   11.315
 5402.00    0.91120   0.88949   10.974
 5403.00    0.91797   0.88728   10.894
 5404.00    0.91531   0.88367   10.925
 5405.00    0.91912   0.87919   10.880
 5406.00    0.94367   0.87450   10.597
 5407.00    0.98773   0.87017   10.124
 5408.00    1.03671   0.86662    9.646
 5409.00    1.07740   0.86421    9.282
 5410.00    1.10352   0.86335    9.062
 5411.00    1.11848   0.86453    8.941
 5412.00    1.12926   0.86807    8.855
 5413.00    1.13890   0.87390    8.780
 5414.00    1.14635   0.88135    8.723
 5415.00    1.14828   0.88934    8.709
 5416.00    1.14648   0.89672    8.722
 5417.00    1.14669   0.90260    8.721
 5418.00    1.13690   0.90658    8.796
 5419.00    1.09316   0.90870    9.148
 5420.00    1.02084   0.90937    9.796
 5421.00    0.94705   0.90909   10.559
 5422.00    0.88086   0.90836   11.353
 5423.00    0.82147   0.90749   12.173
 5424.00    0.78136   0.90660   12.798
 5425.00    0.77679   0.90559   12.873
 5426.00    0.81315   0.90420   12.298
 5427.00    0.87653   0.90213   11.409
 5428.00    0.93362   0.89923   10.711
 5429.00    0.95816   0.89559   10.437
 5430.00    0.94772   0.89163   10.552
 5431.00    0.93121   0.88788   10.739
 5432.00    0.94978   0.88487   10.529
 5433.00    1.00137   0.88299    9.986
 5434.00    1.04757   0.88251    9.546
 5435.00    1.05608   0.88360    9.469
 5436.00    1.01988   0.88633    9.805
 5437.00    0.96880   0.89053   10.322
 5438.00    0.93742   0.89573   10.668
 5439.00    0.93350   0.90120   10.712
 5440.00    0.94651   0.90607   10.565
 5441.00    0.95821   0.90946   10.436
 5442.00    0.95616   0.91072   10.459
 5443.00    0.94133   0.90958   10.623
 5444.00    0.93176   0.90624   10.732
 5445.00    0.94768   0.90144   10.552
 5446.00    0.97436   0.89627   10.263
 5447.00    0.98000   0.89187   10.204
 5448.00    0.96242   0.88901   10.390
 5449.00    0.94675   0.88785   -2.000
 5450.00    0.96835   0.88785   -2.000
 5451.00    1.03524   0.88810   -2.000
 5452.00    1.10386   0.88781   -2.000
 5453.00    1.12865   0.88668   -2.000
 5454.00    1.09835   0.88503   -2.000
 5455.00    1.04900   0.88357   -2.000
 5456.00    1.04091   0.88305   -2.000
 5457.00    1.07258   0.88381   -2.000
 5458.00    1.08526   0.88561   -2.000
 5459.00    1.03729   0.88781   -2.000
 5460.00    0.93428   0.88965   -2.000
 5461.00    0.84296   0.89069   -2.000
 5462.00    0.81565   0.89092   -2.000
 5463.00    0.81163   0.89069   -2.000
 5464.00    0.78932   0.89046   -2.000
 5465.00    0.77748   0.89057   -2.000
 5466.00    0.80127   0.89107   -2.000
 5467.00    0.84281   0.89173   11.865
 5468.00    0.87428   0.89218   11.438
 5469.00    0.87643   0.89208   11.410
 5470.00    0.84850   0.89123   11.786
 5471.00    0.80702   0.88957   12.391
 5472.00    0.77671   0.88725   12.875
 5473.00    0.77896   0.88452   12.838
 5474.00    0.81720   0.88171   12.237
 5475.00    0.87054   0.87919   11.487
 5476.00    0.89591   0.87731   11.162
 5477.00    0.88054   0.87630   11.357
 5478.00    0.86857   0.87619   11.513
 5479.00    0.88820   0.87688   11.259
 5480.00    0.91923   0.87816   10.879
 5481.00    0.92637   0.87980   10.795
 5482.00    0.88674   0.88165   11.277
 5483.00    0.82445   0.88360   12.129
 5484.00    0.79078   0.88549   12.646
 5485.00    0.80839   0.88709   12.370
 5486.00    0.86249   0.88821   11.594
 5487.00    0.90786   0.88880   11.015
 5488.00    0.91101   0.88896   10.977
 5489.00    0.88674   0.88891   11.277
 5490.00    0.86847   0.88890   11.515
 5491.00    0.87946   0.88903   11.371
 5492.00    0.90723   0.88924   11.023
 5493.00    0.91026   0.88939   10.986
 5494.00    0.88263   0.88936   11.330
 5495.00    0.85644   0.88909   11.676
 5496.00    0.84992   0.88870   11.766
 5497.00    0.86476   0.88830   11.564
 5498.00    0.90448   0.88789   11.056
 5499.00    0.96387   0.88741   10.375
 5500.00    1.01423   0.88672    9.860
 5501.00    1.02953   0.88567    9.713
 5502.00    1.01112   0.88424    9.890
 5503.00    0.98239   0.88253   10.179
 5504.00    0.97510   0.88076   10.255
 5505.00    0.99015   0.87912   10.099
 5506.00    0.99277   0.87782   10.073
 5507.00    0.95575   0.87696   10.463
 5508.00    0.87916   0.87646   11.375
 5509.00    0.79989   0.87607   12.502
 5510.00    0.76538   0.87555   13.065
 5511.00    0.78800   0.87476   12.690
 5512.00    0.84984   0.87380   11.767
 5513.00    0.91926   0.87301   10.878
 5514.00    0.96923   0.87282   10.317
 5515.00    0.99029   0.87368   10.098
 5516.00    0.98504   0.87577   10.152
 5517.00    0.96308   0.87892   10.383
 5518.00    0.93608   0.88264   10.683
 5519.00    0.91374   0.88630   10.944
 5520.00    0.89852   0.88932   11.129
 5521.00    0.89233   0.89130   11.207
 5522.00    0.91282   0.89206   10.955
 5523.00    0.96998   0.89162   10.310
 5524.00    1.02921   0.89013    9.716
 5525.00    1.05114   0.88788    9.514
 5526.00    1.03748   0.88529    9.639
 5527.00    1.00585   0.88284    9.942
 5528.00    0.96705   0.88098   10.341
 5529.00    0.92819   0.88000   10.774
 5530.00    0.89740   0.87994   11.143
 5531.00    0.89122   0.88056   11.221
 5532.00    0.92508   0.88148   10.810
 5533.00    0.98080   0.88232   10.196
 5534.00    1.02132   0.88295    9.791
 5535.00    1.03624   0.88342    9.650
 5536.00    1.03622   0.88392    9.650
 5537.00    1.03177   0.88468    9.692
 5538.00    1.02537   0.88578    9.753
 5539.00    1.00938   0.88707    9.907
 5540.00    0.98738   0.88824   10.128
 5541.00    0.98375   0.88903   10.165
 5542.00    1.01396   0.88928    9.862
 5543.00    1.06898   0.88905    9.355
 5544.00    1.11659   0.88864    8.956
 5545.00    1.11839   0.88839    8.941
 5546.00    1.06957   0.88858    9.350
 5547.00    0.99557   0.88934   10.045
 5548.00    0.92650   0.89055   10.793
 5549.00    0.87864   0.89190   11.381
 5550.00    0.83934   0.89297   11.914
 5551.00    0.79349   0.89345   12.602
 5552.00    0.74910   0.89322   13.349
 5553.00    0.73301   0.89233   13.642
 5554.00    0.77523   0.89099   12.899
 5555.00    0.85717   0.88947   11.666
 5556.00    0.91472   0.88803   10.932
 5557.00    0.92685   0.88678   10.789
 5558.00    0.92396   0.88573   10.823
 5559.00    0.93617   0.88482   10.682
 5560.00    0.97141   0.88389   10.294
 5561.00    1.00279   0.88280    9.972
 5562.00    1.00035   0.88148    9.996
 5563.00    0.96920   0.87995   10.318
 5564.00    0.93172   0.87830   10.733
 5565.00    0.90646   0.87670   11.032
 5566.00    0.89571   0.87533   11.164
 5567.00    0.88746   0.87436   11.268
 5568.00    0.89185   0.87385   11.213
 5569.00    0.93647   0.87379   10.678
 5570.00    1.00535   0.87405    9.947
 5571.00    1.05032   0.87455    9.521
 5572.00    1.05565   0.87520    9.473
 5573.00    1.03640   0.87591    9.649
 5574.00    1.01296   0.87666    9.872
 5575.00    0.99806   0.87746   10.019
 5576.00    0.98870   0.87824   10.114
 5577.00    0.98108   0.87894   10.193
 5578.00    0.98003   0.87952   10.204
 5579.00    0.98250   0.87985   10.178
 5580.00    0.97339   0.87975   10.273
 5581.00    0.94759   0.87911   10.553
 5582.00    0.91981   0.87778   10.872
 5583.00    0.92504   0.87557   10.810
 5584.00    0.98641   0.87244   10.138
 5585.00    1.05579   0.86843    9.472
 5586.00    1.06688   0.86377    9.373
 5587.00    1.02397   0.85893    9.766
 5588.00    0.96806   0.85442   10.330
 5589.00    0.92845   0.85074   10.771
 5590.00    0.91251   0.84835   10.959
 5591.00    0.90544   0.84754   11.044
 5592.00    0.89030   0.84837   11.232
 5593.00    0.86111   0.85061   11.613
 5594.00    0.83081   0.85378   12.036
 5595.00    0.82299   0.85720   12.151
 5596.00    0.84391   0.86018   11.850
 5597.00    0.88081   0.86218   11.353
 5598.00    0.91299   0.86293   10.953
 5599.00    0.92163   0.86251   10.850
 5600.00    0.90025   0.86147   11.108
 5601.00    0.85718   0.86057   11.666
 5602.00    0.81517   0.86052   12.267
 5603.00    0.80060   0.86181   12.491
 5604.00    0.83135   0.86446   12.029
 5605.00    0.89521   0.86810   11.171
 5606.00    0.95108   0.87223   10.514
 5607.00    0.96707   0.87626   10.340
 5608.00    0.93729   0.87965   10.669
 5609.00    0.88847   0.88197   11.255
 5610.00    0.85562   0.88296   11.687
 5611.00    0.84008   0.88255   11.904
 5612.00    0.82793   0.88079   12.078
 5613.00    0.81975   0.87788   12.199
 5614.00    0.82039   0.87417   12.189
 5615.00    0.82808   0.87020   12.076
 5616.00    0.84070   0.86661   11.895
 5617.00    0.85904   0.86392   11.641
 5618.00    0.88148   0.86241   11.345
 5619.00    0.90201   0.86203   11.086
 5620.00    0.91205   0.86244   10.964
 5621.00    0.90453   0.86303   11.056
 5622.00    0.88141   0.86326   11.346
 5623.00    0.85400   0.86298   11.710
 5624.00    0.83986   0.86248   11.907
 5625.00    0.85275   0.86215   11.727
 5626.00    0.89199   0.86235   11.211
 5627.00    0.94282   0.86331   10.606
 5628.00    0.98136   0.86506   10.190
 5629.00    0.99521   0.86740   10.048
 5630.00    0.99258   0.86985   10.075
 5631.00    0.99129   0.87181   10.088
 5632.00    1.00792   0.87290    9.921
 5633.00    1.04109   0.87304    9.605
 5634.00    1.07099   0.87227    9.337
 5635.00    1.06951   0.87073    9.350
 5636.00    1.02479   0.86867    9.758
 5637.00    0.97019   0.86641   10.307
 5638.00    0.94954   0.86421   10.531
 5639.00    0.97570   0.86233   10.249
 5640.00    1.02018   0.86094    9.802
 5641.00    1.02289   0.86014    9.776
 5642.00    0.96684   0.85991   10.343
 5643.00    0.89897   0.86013   11.124
 5644.00    0.86059   0.86065   11.620
 5645.00    0.86274   0.86137   11.591
 5646.00    0.89371   0.86224   11.189
 5647.00    0.93425   0.86317   10.704
 5648.00    0.98037   0.86421   10.200
 5649.00    1.02564   0.86540    9.750
 5650.00    1.03601   0.86672    9.652
 5651.00    0.98997   0.86798   10.101
 5652.00    0.91470   0.86888   10.933
 5653.00    0.84864   0.86904   11.784
 5654.00    0.81212   0.86821   12.314
 5655.00    0.80162   0.86634   12.475
 5656.00    0.79910   0.86355   12.514
 5657.00    0.80885   0.86018   12.363
 5658.00    0.84752   0.85676   11.799
 5659.00    0.89064   0.85388   11.228
 5660.00    0.89531   0.85191   11.169
 5661.00    0.86085   0.85092   11.616
 5662.00    0.82055   0.85087   12.187
 5663.00    0.81415   0.85170   12.283
 5664.00    0.84603   0.85302   11.820
 5665.00    0.86350   0.85430   11.581
 5666.00    0.83435   0.85546   11.985
 5667.00    0.78580   0.85665   12.726
 5668.00    0.75267   0.85790   13.286
 5669.00    0.75289   0.85919   13.282
 5670.00    0.78900   0.86061   12.674
 5671.00    0.85080   0.86228   11.754
 5672.00    0.92006   0.86412   10.869
 5673.00    0.97447   0.86591   10.262
 5674.00    0.99292   0.86727   10.071
 5675.00    0.96463   0.86808   10.367
 5676.00    0.89910   0.86828   11.122
 5677.00    0.83064   0.86781   12.039
 5678.00    0.81069   0.86669   12.335
 5679.00    0.84807   0.86518   11.792
 5680.00    0.89129   0.86359   11.220
 5681.00    0.89848   0.86201   11.130
 5682.00    0.86730   0.86051   11.530
 5683.00    0.83306   0.85921   12.004
 5684.00    0.83512   0.85825   11.974
 5685.00    0.85313   0.85756   11.722
 5686.00    0.84134   0.85711   11.886
 5687.00    0.79684   0.85708   12.550
 5688.00    0.74458   0.85766   13.430
 5689.00    0.70929   0.85874   14.099
 5690.00    0.70099   0.86028   14.265
 5691.00    0.71077   0.86209   14.069
 5692.00    0.73594   0.86384   13.588
 5693.00    0.78560   0.86505   12.729
 5694.00    0.85005   0.86541   11.764
 5695.00    0.90190   0.86478   11.088
 5696.00    0.93002   0.86328   10.752
 5697.00    0.93730   0.86117   10.669
 5698.00    0.91914   0.85876   10.880
 5699.00    0.87410   0.85640   11.440
 5700.00    0.82182   0.85433   12.168
 5701.00    0.78283   0.85262   12.774
 5702.00    0.75854   0.85121   13.183
 5703.00    0.74512   0.85003   13.421
 5704.00    0.74370   0.84886   13.446
 5705.00    0.75640   0.84755   13.220
 5706.00    0.78030   0.84602   12.816
 5707.00    0.79518   0.84426   12.576
 5708.00    0.77689   0.84241   12.872
 5709.00    0.73917   0.84087   13.529
 5710.00    0.72110   0.84014   13.868
 5711.00    0.74643   0.84062   13.397
 5712.00    0.81241   0.84236   12.309
 5713.00    0.88773   0.84519   11.265
 5714.00    0.93941   0.84872   10.645
 5715.00    0.95686   0.85246   10.451
 5716.00    0.94933   0.85604   10.534
 5717.00    0.93910   0.85927   10.649
 5718.00    0.94422   0.86188   10.591
 5719.00    0.96860   0.86392   10.324
 5720.00    0.99619   0.86555   10.038
 5721.00    1.00100   0.86680    9.990
 5722.00    0.97277   0.86759   10.280
 5723.00    0.91369   0.86787   10.945
 5724.00    0.82421   0.86760   12.133
 5725.00    0.71396   0.86684   14.006
 5726.00    0.61413   0.86570   -1.000
 5727.00    0.55285   0.86436   -1.000
 5728.00    0.53569   0.86305   -1.000
 5729.00    0.55874   0.86200   -1.000
 5730.00    0.61580   0.86133   -1.000
 5731.00    0.69223   0.86118   14.446
 5732.00    0.76572   0.86149   13.060
 5733.00    0.81674   0.86198   12.244
 5734.00    0.83522   0.86238   11.973
 5735.00    0.82716   0.86264   12.090
 5736.00    0.80731   0.86271   12.387
 5737.00    0.78657   0.86243   12.713
 5738.00    0.77505   0.86175   12.902
 5739.00    0.78625   0.86089   12.719
 5740.00    0.82895   0.86018    0.000
 5741.00    0.89876   0.85990    0.000
 5742.00    0.96836   0.86009    0.000
 5743.00    0.99336   0.86066    0.000
 5744.00    0.95336   0.86139    0.000
 5745.00    0.86464   0.86202    0.000
 5746.00    0.76902   0.86236    0.000
 5747.00    0.70975   0.86237    0.000
 5748.00    0.69296   0.86209    0.000
 5749.00    0.70204   0.86140    0.000
 5750.00    0.72737   0.86038    0.000
 5751.00    0.76248   0.85932    0.000
 5752.00    0.79705   0.85854    0.000
 5753.00    0.82222   0.85815    0.000
 5754.00    0.83385   0.85809    0.000
 5755.00    0.82760   0.85838    0.000
 5756.00    0.80209   0.85898    0.000
 5757.00    0.77818   0.85972    0.000
 5758.00    0.78584   0.86022    0.000
 5759.00    0.81530   0.86010    0.000
 5760.00    0.83535   0.85926    0.000
 5761.00    0.84620   0.85800    0.000
 5762.00    0.86290   0.85689    0.000
 5763.00    0.88332   0.85649    0.000
 5764.00    0.90028   0.85708    0.000
 5765.00    0.91425   0.85862    0.000
 5766.00    0.92060   0.86075    0.000
 5767.00    0.90555   0.86291    0.000
 5768.00    0.86881   0.86453    0.000
 5769.00    0.83073   0.86530    0.000
 5770.00    0.81984   0.86529    0.000
 5771.00    0.85607   0.86470    0.000
 5772.00    0.92418   0.86372    0.000
 5773.00    0.99606   0.86255    0.000
 5774.00    1.07510   0.86133    0.000
 5775.00    1.16659   0.86003    0.000
 5776.00    1.23883   0.85850    0.000
 5777.00    1.26247   0.85652    0.000
 5778.00    1.24446   0.85399    0.000
 5779.00    1.21070   0.85088    0.000
 5780.00    1.18891   0.84727    0.000
 5781.00    1.18838   0.84340    0.000
 5782.00    1.19692   0.83974    0.000
 5783.00    1.19726   0.83682    0.000
 5784.00    1.17485   0.83509    0.000
 5785.00    1.12356   0.83486    0.000
 5786.00    1.04922   0.83593    0.000
 5787.00    0.97196   0.83779    0.000
 5788.00    0.91128   0.84012    0.000
 5789.00    0.87073   0.84280    0.000
 5790.00    0.84882   0.84560    0.000
 5791.00    0.84864   0.84822    0.000
 5792.00    0.87724   0.85050    0.000
 5793.00    0.93843   0.85236    0.000
 5794.00    1.00852   0.85381    0.000
 5795.00    1.04353   0.85497    0.000
 5796.00    1.02485   0.85566    0.000
 5797.00    0.96953   0.85575    0.000
 5798.00    0.92231   0.85546    0.000
 5799.00    0.91926   0.85509    0.000
 5800.00    0.94242   0.85485    0.000
 5801.00    0.95092   0.85502    0.000
 5802.00    0.92055   0.85563    0.000
 5803.00    0.85884   0.85628    0.000
 5804.00    0.80566   0.85676    0.000
 5805.00    0.79464   0.85715    0.000
 5806.00    0.83166   0.85739    0.000
 5807.00    0.89121   0.85728    0.000
 5808.00    0.93355   0.85695    0.000
 5809.00    0.94929   0.85656    0.000
 5810.00    0.94744   0.85607    0.000
 5811.00    0.91498   0.85536    0.000
 5812.00    0.84381   0.85450    0.000
 5813.00    0.77139   0.85368    0.000
 5814.00    0.74480   0.85310    0.000
 5815.00    0.78087   0.85302    0.000
 5816.00    0.85493   0.85353    0.000
 5817.00    0.90873   0.85457    0.000
 5818.00    0.91012   0.85584    0.000
 5819.00    0.86902   0.85726    0.000
 5820.00    0.79602   0.85874    0.000
 5821.00    0.70703   0.86005    0.000
 5822.00    0.66459   0.86092    0.000
 5823.00    0.72374   0.86134    0.000
 5824.00    0.83234   0.86148    0.000
 5825.00    0.91215   0.86150    0.000
 5826.00    0.96727   0.86153    0.000
 5827.00    1.01064   0.86161    0.000
 5828.00    1.00289   0.86171    0.000
 5829.00    0.92955   0.86162   -2.000
 5830.00    0.83807   0.86118   -2.000
 5831.00    0.77846   0.86044   -2.000
 5832.00    0.76674   0.85954   -2.000
 5833.00    0.75988   0.85852   -2.000
 5834.00    0.70201   0.85746   -2.000
 5835.00    0.63463   0.85652   -2.000
 5836.00    0.63517   0.85587   -2.000
 5837.00    0.68972   0.85556   -2.000
 5838.00    0.74133   0.85571   -2.000
 5839.00    0.76492   0.85631   -2.000
 5840.00    0.76777   0.85705    0.000
 5841.00    0.77708   0.85767    0.000
 5842.00    0.80352   0.85811    0.000
 5843.00    0.83106   0.85820    0.000
 5844.00    0.85754   0.85769    0.000
 5845.00    0.89369   0.85655    0.000
 5846.00    0.91495   0.85496    0.000
 5847.00    0.87778   0.85311    0.000
 5848.00    0.77920   0.85112    0.000
 5849.00    0.65626   0.84904    0.000
 5850.00    0.56458   0.84697    0.000
 5851.00    0.54038   0.84497    0.000
 5852.00    0.56910   0.84294    0.000
 5853.00    0.61740   0.84071    0.000
 5854.00    0.66195   0.83832    0.000
 5855.00    0.70359   0.83604    0.000
 5856.00    0.76216   0.83421    0.000
 5857.00    0.83410   0.83308    0.000
 5858.00    0.89049   0.83254    0.000
 5859.00    0.91312   0.83242    0.000
 5860.00    0.90451   0.83280    0.000
 5861.00    0.88710   0.83381    0.000
 5862.00    0.88350   0.83518    0.000
 5863.00    0.89190   0.83643    0.000
 5864.00    0.89513   0.83730    0.000
 5865.00    0.87561   0.83780    0.000
 5866.00    0.83847   0.83815    0.000
 5867.00    0.81623   0.83851    0.000
 5868.00    0.82098   0.83862    0.000
 5869.00    0.83276   0.83812    0.000
 5870.00    0.83944   0.83641    0.000
 5871.00    0.84419   0.83281    0.000
 5872.00    0.84954   0.82711    0.000
 5873.00    0.85443   0.81987    0.000
 5874.00    0.85640   0.81234    0.000
 5875.00    0.85994   0.80552    0.000
 5876.00    0.88253   0.80068    0.000
 5877.00    0.92250   0.79841    0.000
 5878.00    0.93925   0.79942    0.000
 5879.00    0.90853   0.80372    0.000
 5880.00    0.85301   0.80967    0.000
 5881.00    0.81854   0.81505    0.000
 5882.00    0.84094   0.81787    0.000
 5883.00    0.88227   0.81837    0.000
 5884.00    0.86799   0.81640    0.000
 5885.00    0.80883   0.81133    0.000
 5886.00    0.76810   0.80290    0.000
 5887.00    0.76793   0.79197    0.000
 5888.00    0.78643   0.77992    0.000
 5889.00    0.77804   0.76802    0.000
 5890.00    0.73241   0.75745    0.000
 5891.00    0.70414   0.74898    0.000
 5892.00    0.72164   0.74335    0.000
 5893.00    0.75107   0.74143    0.000
 5894.00    0.76950   0.74303    0.000
 5895.00    0.78600   0.74662    0.000
 5896.00    0.81202   0.75106    0.000
 5897.00    0.84675   0.75647    0.000
 5898.00    0.86737   0.76303    0.000
 5899.00    0.85339   0.77139    0.000
 5900.00    0.82174   0.78141    0.000
 5901.00    0.79839   0.79155   12.525
 5902.00    0.78591   0.80053   12.724
 5903.00    0.78094   0.80811   12.805
 5904.00    0.78893   0.81428   12.675
 5905.00    0.82141   0.81897   12.174
 5906.00    0.88569   0.82251   11.291
 5907.00    0.95584   0.82519   10.462
 5908.00    0.98397   0.82714   10.163
 5909.00    0.95764   0.82850   10.442
 5910.00    0.89930   0.82928   11.120
 5911.00    0.83569   0.82935   11.966
 5912.00    0.79052   0.82873   12.650
 5913.00    0.78136   0.82768   12.798
 5914.00    0.80584   0.82648   12.409
 5915.00    0.83401   0.82528   11.990
 5916.00    0.84332   0.82437   11.858
 5917.00    0.83964   0.82405   11.910
 5918.00    0.83951   0.82441   11.912
 5919.00    0.85848   0.82520   11.649
 5920.00    0.90442   0.82617   11.057
 5921.00    0.96913   0.82705   10.319
 5922.00    1.01528   0.82775    9.850
 5923.00    1.00510   0.82835    9.949
 5924.00    0.95266   0.82873   10.497
 5925.00    0.89716   0.82884   11.146
 5926.00    0.85896   0.82880   11.642
 5927.00    0.83989   0.82861   11.906
 5928.00    0.83106   0.82829   12.033
 5929.00    0.83098   0.82791   12.034
 5930.00    0.84929   0.82738   11.775
 5931.00    0.87403   0.82675   11.441
 5932.00    0.87326   0.82624   11.451
 5933.00    0.84652   0.82605   11.813
 5934.00    0.82109   0.82620   12.179
 5935.00    0.80702   0.82649   12.391
 5936.00    0.80293   0.82661   12.454
 5937.00    0.82036   0.82653   12.190
 5938.00    0.86778   0.82642   11.524
 5939.00    0.92970   0.82641   10.756
 5940.00    0.98075   0.82622   10.196
 5941.00    1.00162   0.82591    9.984
 5942.00    0.99323   0.82572   10.068
 5943.00    0.97720   0.82569   10.233
 5944.00    0.96710   0.82597   10.340
 5945.00    0.96248   0.82666   10.390
 5946.00    0.96702   0.82737   10.341
 5947.00    0.98500   0.82776   10.152
 5948.00    1.00349   0.82768    9.965
 5949.00    1.00153   0.82703    9.985
 5950.00    0.96948   0.82592   10.315
 5951.00    0.91505   0.82464   10.928
 5952.00    0.86351   0.82350   11.581
 5953.00    0.83385   0.82255   11.993
 5954.00    0.82371   0.82168   12.140
 5955.00    0.82566   0.82093   12.112
 5956.00    0.83597   0.82069   11.962
 5957.00    0.85151   0.82113   11.744
 5958.00    0.86650   0.82202   11.541
 5959.00    0.86782   0.82316   11.523
 5960.00    0.84244   0.82470   11.870
 5961.00    0.79348   0.82649   12.603
 5962.00    0.73946   0.82815   13.523
 5963.00    0.70690   0.82938   14.146
 5964.00    0.70954   0.83013   14.094
 5965.00    0.73237   0.83056   13.654
 5966.00    0.75605   0.83086   13.227
 5967.00    0.77427   0.83122   12.915
 5968.00    0.78964   0.83169   12.664
 5969.00    0.81151   0.83233   12.323
 5970.00    0.85712   0.83303   11.667
 5971.00    0.93600   0.83339   10.684
 5972.00    1.01281   0.83314    9.874
 5973.00    1.03417   0.83222    9.670
 5974.00    0.99097   0.83058   10.091
 5975.00    0.91208   0.82836   10.964
 5976.00    0.83983   0.82591   11.907
 5977.00    0.80389   0.82352   12.440
 5978.00    0.80351   0.82143   12.445
 5979.00    0.82703   0.81978   12.091
 5980.00    0.86446   0.81854   11.568
 5981.00    0.90221   0.81765   11.084
 5982.00    0.92314   0.81722   10.833
 5983.00    0.91570   0.81709   10.921
 5984.00    0.88059   0.81700   11.356
 5985.00    0.83823   0.81695   11.930
 5986.00    0.81696   0.81723   12.241
 5987.00    0.83104   0.81802   12.033
 5988.00    0.87332   0.81937   11.451
 5989.00    0.91490   0.82095   10.930
 5990.00    0.93785   0.82241   10.663
 5991.00    0.95627   0.82375   10.457
 5992.00    0.97856   0.82494   10.219
 5993.00    0.98937   0.82577   10.107
 5994.00    0.97369   0.82614   10.270
 5995.00    0.93230   0.82618   10.726
 5996.00    0.89424   0.82589   11.183
 5997.00    0.89458   0.82514   11.178
 5998.00    0.92241   0.82394   10.841
 5999.00    0.94367   0.82255   10.597
 6000.00    0.95069   0.82131   10.519
 6001.00    0.95283   0.82043   10.495
 6002.00    0.95771   0.81979   10.442
 6003.00    0.96521   0.81916   10.360
 6004.00    0.96607   0.81832   10.351
 6005.00    0.95135   0.81729   10.511
 6006.00    0.91978   0.81654   10.872
 6007.00    0.88466   0.81621   11.304
 6008.00    0.86497   0.81597   11.561
 6009.00    0.85516   0.81571   11.694
 6010.00    0.83051   0.81558   12.041
 6011.00    0.77425   0.81574   12.916
 6012.00    0.69080   0.81609   14.476
 6013.00    0.61453   0.81609   16.273
 6014.00    0.59107   0.81550   16.918
 6015.00    0.65325   0.81458   15.308
 6016.00    0.78905   0.81374   12.673
 6017.00    0.93121   0.81314   10.739
 6018.00    1.01062   0.81267    9.895
 6019.00    0.99571   0.81232   10.043
 6020.00    0.92993   0.81232   10.753
 6021.00    0.89857   0.81275   11.129
 6022.00    0.91575   0.81352   10.920
 6023.00    0.93692   0.81459   10.673
 6024.00    0.93384   0.81594   10.708
 6025.00    0.91061   0.81755   10.982
 6026.00    0.90230   0.81929   11.083
 6027.00    0.92989   0.82104   10.754
 6028.00    0.96567   0.82269   10.356
 6029.00    0.97617   0.82412   10.244
 6030.00    0.95262   0.82536   10.497
 6031.00    0.91080   0.82649   10.979
 6032.00    0.87879   0.82737   11.379
 6033.00    0.86112   0.82796   11.613
 6034.00    0.84275   0.82841   11.866
 6035.00    0.82517   0.82883   12.119
 6036.00    0.81984   0.82901   12.198
 6037.00    0.82381   0.82888   12.139
 6038.00    0.82498   0.82855   12.121
 6039.00    0.81429   0.82816   12.281
 6040.00    0.79751   0.82791   12.539
 6041.00    0.79809   0.82787   12.530
 6042.00    0.82120   0.82807   12.177
 6043.00    0.84037   0.82860   11.899
 6044.00    0.83434   0.82941   11.986
 6045.00    0.80745   0.83028   12.385
 6046.00    0.79961   0.83109   12.506
 6047.00    0.85325   0.83170   11.720
 6048.00    0.94061   0.83197   10.631
 6049.00    0.99710   0.83183   10.029
 6050.00    0.99577   0.83126   10.042
 6051.00    0.94654   0.83033   10.565
 6052.00    0.87955   0.82917   11.369
 6053.00    0.81568   0.82778   12.260
 6054.00    0.75182   0.82614   13.301
 6055.00    0.70064   0.82447   14.273
 6056.00    0.69882   0.82313   14.310
 6057.00    0.75063   0.82227   13.322
 6058.00    0.82021   0.82176   12.192
 6059.00    0.87379   0.82147   11.444
 6060.00    0.89767   0.82128   11.140
 6061.00    0.90742   0.82105   11.020
 6062.00    0.92243   0.82057   10.841
 6063.00    0.93107   0.81994   10.740
 6064.00    0.92279   0.81942   10.837
 6065.00    0.92077   0.81924   10.860
 6066.00    0.94680   0.81965   10.562
 6067.00    0.99524   0.82079   10.048
 6068.00    1.04204   0.82276    9.597
 6069.00    1.05571   0.82544    9.472
 6070.00    1.01644   0.82814    9.838
 6071.00    0.92349   0.83022   10.829
 6072.00    0.79559   0.83155   12.569
 6073.00    0.66332   0.83216   15.076
 6074.00    0.55507   0.83205   -1.000
 6075.00    0.49557   0.83115   -1.000
 6076.00    0.50542   0.82959   -1.000
 6077.00    0.58080   0.82761   17.218
 6078.00    0.67966   0.82524   14.713
 6079.00    0.75349   0.82267   13.272
 6080.00    0.77419   0.82027   12.917
 6081.00    0.75456   0.81829   13.253
 6082.00    0.74189   0.81677   13.479
 6083.00    0.76742   0.81563   13.031
 6084.00    0.82696   0.81485   12.092
 6085.00    0.87895   0.81459   11.377
 6086.00    0.88319   0.81461   11.323
 6087.00    0.86211   0.81436   11.599
 6088.00    0.85491   0.81386   11.697
 6089.00    0.85382   0.81335   11.712
 6090.00    0.83614   0.81287   11.960
 6091.00    0.79877   0.81251   12.519
 6092.00    0.76077   0.81234   13.145
 6093.00    0.75459   0.81254   13.252
 6094.00    0.78888   0.81319   12.676
 6095.00    0.84006   0.81409   11.904
 6096.00    0.87690   0.81507   11.404
 6097.00    0.87827   0.81582   11.386
 6098.00    0.85299   0.81567   11.723
 6099.00    0.82643   0.81421   12.100
 6100.00    0.81317   0.81200   12.298
 6101.00    0.81549   0.80979   12.263
 6102.00    0.82676   0.80773   12.095
 6103.00    0.83562   0.80578   11.967
 6104.00    0.83184   0.80415   12.021
 6105.00    0.82239   0.80355   12.160
 6106.00    0.83196   0.80468   12.020
 6107.00    0.87043   0.80690   11.489
 6108.00    0.92127   0.80902   10.855
 6109.00    0.94817   0.81076   10.547
 6110.00    0.92369   0.81235   10.826
 6111.00    0.87878   0.81385   11.379
 6112.00    0.86086   0.81497   11.616
 6113.00    0.86315   0.81536   11.586
 6114.00    0.85725   0.81533   11.665
 6115.00    0.83620   0.81516   11.959
 6116.00    0.80904   0.81442   12.360
 6117.00    0.79082   0.81266   12.645
 6118.00    0.78811   0.80985   12.689
 6119.00    0.79533   0.80639   12.573
 6120.00    0.80849   0.80309   12.369
 6121.00    0.82442   0.80018   12.130
 6122.00    0.82608   0.79766   12.105
 6123.00    0.80011   0.79592   12.498
 6124.00    0.77411   0.79530   12.918
 6125.00    0.78915   0.79602   12.672
 6126.00    0.85441   0.79792   11.704
 6127.00    0.94590   0.80028   10.572
 6128.00    1.01666   0.80257    9.836
 6129.00    1.03678   0.80471    9.645
 6130.00    1.01401   0.80650    9.862
 6131.00    0.96394   0.80758   10.374
 6132.00    0.89615   0.80753   11.159
 6133.00    0.81901   0.80591   12.210
 6134.00    0.74454   0.80275   13.431
 6135.00    0.69493   0.79895   14.390
 6136.00    0.68998   0.79540   14.493
 6137.00    0.72394   0.79243   13.813
 6138.00    0.77318   0.79040   12.934
 6139.00    0.81234   0.78998   12.310
 6140.00    0.83140   0.79182   12.028
 6141.00    0.84457   0.79543   11.840
 6142.00    0.86206   0.79923   11.600
 6143.00    0.87626   0.80220   11.412
 6144.00    0.88085   0.80453   11.353
 6145.00    0.87820   0.80649   11.387
 6146.00    0.87384   0.80770   11.444
 6147.00    0.87307   0.80773   11.454
 6148.00    0.87749   0.80687   11.396
 6149.00    0.88292   0.80570   11.326
 6150.00    0.87794   0.80450   11.390
 6151.00    0.85263   0.80325   11.728
 6152.00    0.80854   0.80209   12.368
 6153.00    0.75848   0.80129   13.184
 6154.00    0.72258   0.80062   13.839
 6155.00    0.71220   0.79956   14.041
 6156.00    0.72214   0.79765   13.848
 6157.00    0.73695   0.79457   13.570
 6158.00    0.74079   0.79030   13.499
 6159.00    0.73675   0.78502   13.573
 6160.00    0.73948   0.77931   13.523
 6161.00    0.74933   0.77381   13.345
 6162.00    0.75558   0.76885   13.235
 6163.00    0.74946   0.76478   13.343
 6164.00    0.72839   0.76239   13.729
 6165.00    0.69834   0.76204   14.320
 6166.00    0.67165   0.76297   14.889
 6167.00    0.66361   0.76445   15.069
 6168.00    0.68415   0.76629   14.617
 6169.00    0.73113   0.76829   13.677
 6170.00    0.78276   0.77004   12.775
 6171.00    0.80433   0.77152   12.433
 6172.00    0.77337   0.77343   12.930
 6173.00    0.69774   0.77624   14.332
 6174.00    0.63326   0.77942   15.791
 6175.00    0.63847   0.78230   15.662
 6176.00    0.71125   0.78485   14.060
 6177.00    0.80291   0.78715   12.455
 6178.00    0.84892   0.78915   11.780
 6179.00    0.83230   0.79082   12.015
 6180.00    0.80722   0.79216   12.388
 6181.00    0.80909   0.79310   12.360
 6182.00    0.82403   0.79340   12.136
 6183.00    0.84001   0.79298   11.905
 6184.00    0.85837   0.79188   11.650
 6185.00    0.87609   0.79009   11.414
 6186.00    0.88270   0.78766   11.329
 6187.00    0.86395   0.78462   11.575
 6188.00    0.81732   0.78098   12.235
 6189.00    0.76718   0.77746   13.035
 6190.00    0.73431   0.77496   13.618
 6191.00    0.71218   0.77353   14.041
 6192.00    0.70064   0.77300   14.273
 6193.00    0.71811   0.77338   13.926
 6194.00    0.75534   0.77495   13.239
 6195.00    0.77326   0.77741   12.932
 6196.00    0.76281   0.77962   13.109
 6197.00    0.74650   0.78108   13.396
 6198.00    0.73798   0.78209   13.550
 6199.00    0.74168   0.78283   13.483
 6200.00    0.76591   0.78322   13.056
 6201.00    0.80539   0.78339   12.416
 6202.00    0.82415   0.78390   12.134
 6203.00    0.80179   0.78519   12.472
 6204.00    0.76627   0.78681   13.050
 6205.00    0.75316   0.78812   13.277
 6206.00    0.77773   0.78880   12.858
 6207.00    0.82684   0.78873   12.094
 6208.00    0.87046   0.78798   11.488
 6209.00    0.90217   0.78641   11.084
 6210.00    0.93185   0.78376   10.731
 6211.00    0.94637   0.78014   10.567
 6212.00    0.92264   0.77595   10.838
 6213.00    0.85934   0.77170   11.637
 6214.00    0.78149   0.76789   12.796
 6215.00    0.73528   0.76457   13.600
 6216.00    0.74776   0.76182   13.373
 6217.00    0.80148   0.76004   12.477
 6218.00    0.86127   0.75926   11.611
 6219.00    0.89494   0.75929   11.174
 6220.00    0.89106   0.75965   11.223
 6221.00    0.85797   0.75985   11.655
 6222.00    0.80409   0.76013   12.436
 6223.00    0.74173   0.76071   13.482
 6224.00    0.70339   0.76139   14.217
 6225.00    0.71458   0.76178   13.994
 6226.00    0.75591   0.76148   13.229
 6227.00    0.79417   0.76044   12.592
 6228.00    0.81726   0.75894   12.236
 6229.00    0.82953   0.75727   12.055
 6230.00    0.84206   0.75569   11.876
 6231.00    0.85208   0.75454   11.736
 6232.00    0.84218   0.75410   11.874
 6233.00    0.81238   0.75476   12.309
 6234.00    0.78191   0.75645   12.789
 6235.00    0.76516   0.75836   13.069
 6236.00    0.76911   0.75979   13.002
 6237.00    0.79907   0.76032   12.515
 6238.00    0.84639   0.75989   11.815
 6239.00    0.87545   0.75846   11.423
 6240.00    0.85874   0.75614   11.645
 6241.00    0.80763   0.75364   12.382
 6242.00    0.75547   0.75180   13.237
 6243.00    0.73755   0.75099   13.558
 6244.00    0.75827   0.75096   13.188
 6245.00    0.78802   0.75150   12.690
 6246.00    0.80068   0.75288   12.489
 6247.00    0.78709   0.75480   12.705
 6248.00    0.75648   0.75649   13.219
 6249.00    0.72984   0.75754   13.702
 6250.00    0.72732   0.75785   13.749
 6251.00    0.74827   0.75724   13.364
 6252.00    0.75680   0.75573   13.214
 6253.00    0.73685   0.75335   13.571
 6254.00    0.72788   0.75029   13.739
 6255.00    0.75496   0.74723   13.246
 6256.00    0.79588   0.74487   12.565
 6257.00    0.82732   0.74344   12.087
 6258.00    0.84300   0.74277   11.862
 6259.00    0.84557   0.74301   11.826
 6260.00    0.84037   0.74459   11.900
 6261.00    0.82814   0.74742   12.075
 6262.00    0.80973   0.75076   12.350
 6263.00    0.79436   0.75386   12.589
 6264.00    0.78717   0.75671   12.704
 6265.00    0.77746   0.75915   12.862
 6266.00    0.76293   0.76063   13.107
 6267.00    0.76283   0.76131   13.109
 6268.00    0.78231   0.76199   12.783
 6269.00    0.80104   0.76291   12.484
 6270.00    0.80772   0.76370   12.381
 6271.00    0.80507   0.76431   12.421
 6272.00    0.78603   0.76504   12.722
 6273.00    0.74133   0.76581   13.489
 6274.00    0.68631   0.76634   14.571
 6275.00    0.64536   0.76658   15.495
 6276.00    0.62400   0.76649   16.026
 6277.00    0.61698   0.76609   16.208
 6278.00    0.62059   0.76546   16.114
 6279.00    0.63600   0.76485   15.723
 6280.00    0.66829   0.76453    0.000
 6281.00    0.71375   0.76445    0.000
 6282.00    0.75709   0.76452    0.000
 6283.00    0.78414   0.76512    0.000
 6284.00    0.78957   0.76656    0.000
 6285.00    0.78335   0.76853    0.000
 6286.00    0.78411   0.77059    0.000
 6287.00    0.80374   0.77223    0.000
 6288.00    0.83687   0.77345    0.000
 6289.00    0.85450   0.77428    0.000
 6290.00    0.83862   0.77442    0.000
 6291.00    0.80973   0.77385    0.000
 6292.00    0.79338   0.77248    0.000
 6293.00    0.79571   0.77043    0.000
 6294.00    0.80047   0.76814    0.000
 6295.00    0.78132   0.76610    0.000
 6296.00    0.74293   0.76463    0.000
 6297.00    0.71696   0.76345    0.000
 6298.00    0.72082   0.76227    0.000
 6299.00    0.74954   0.76153    0.000
 6300.00    0.78069   0.76163    0.000
 6301.00    0.79839   0.76230    0.000
 6302.00    0.81679   0.76288    0.000
 6303.00    0.84576   0.76330    0.000
 6304.00    0.86535   0.76418    0.000
 6305.00    0.86163   0.76571    0.000
 6306.00    0.84523   0.76736    0.000
 6307.00    0.83160   0.76862    0.000
 6308.00    0.82842   0.76961    0.000
 6309.00    0.82579   0.77055    0.000
 6310.00    0.80413   0.77107    0.000
 6311.00    0.75743   0.77073    0.000
 6312.00    0.70366   0.76958    0.000
 6313.00    0.68820   0.76814    0.000
 6314.00    0.72963   0.76684    0.000
 6315.00    0.77042   0.76557    0.000
 6316.00    0.76269   0.76426    0.000
 6317.00    0.72749   0.76339    0.000
 6318.00    0.68627   0.76338    0.000
 6319.00    0.63158   0.76390    0.000
 6320.00    0.57341   0.76469    0.000
 6321.00    0.55060   0.76630   18.162
 6322.00    0.60751   0.76862   16.461
 6323.00    0.75752   0.77094   13.201
 6324.00    0.92961   0.77293   10.757
 6325.00    1.03327   0.77479   -1.000
 6326.00    1.06050   0.77656   -1.000
 6327.00    1.04518   0.77783   -1.000
 6328.00    1.00746   0.77862   -1.000
 6329.00    0.95278   0.77920   10.496
 6330.00    0.87837   0.77975   11.385
 6331.00    0.78961   0.77986   12.664
 6332.00    0.70649   0.77896   14.155
 6333.00    0.65611   0.77749   15.241
 6334.00    0.65950   0.77611   15.163
 6335.00    0.70633   0.77480   14.158
 6336.00    0.76018   0.77317   13.155
 6337.00    0.78193   0.77146   12.789
 6338.00    0.75916   0.77056   13.172
 6339.00    0.73321   0.77063   13.639
 6340.00    0.74534   0.77072   13.417
 6341.00    0.78606   0.77029   12.722
 6342.00    0.81466   0.76983   12.275
 6343.00    0.78673   0.76934   12.711
 6344.00    0.70599   0.76855   14.164
 6345.00    0.62762   0.76770   15.933
 6346.00    0.58967   0.76752   16.959
 6347.00    0.59118   0.76832   16.915
 6348.00    0.59835   0.76961   16.713
 6349.00    0.56347   0.77120   17.747
 6350.00    0.45574   0.77286   -1.000
 6351.00    0.29632   0.77415   -1.000
 6352.00    0.18426   0.77450   -1.000
 6353.00    0.21006   0.77400   -1.000
 6354.00    0.38010   0.77276   -1.000
 6355.00    0.62931   0.77050   15.890
 6356.00    0.85541   0.76736   11.690
 6357.00    1.01313   0.76403   -1.000
 6358.00    1.12096   0.76098   -1.000
 6359.00    1.15668   0.75794   -1.000
 6360.00    1.07494   0.75495   -1.000
 6361.00    0.91508   0.75287   10.928
 6362.00    0.76820   0.75212   13.017
 6363.00    0.68797   0.75243   14.536
 6364.00    0.67695   0.75365   14.772
 6365.00    0.69400   0.75603   14.409
 6366.00    0.71198   0.75929   14.045
 6367.00    0.75212   0.76263   13.296
 6368.00    0.81949   0.76575   12.203
 6369.00    0.87877   0.76879   11.380
 6370.00    0.91007   0.77170   10.988
 6371.00    0.92228   0.77397   10.843
 6372.00    0.92349   0.77536   10.829
 6373.00    0.91255   0.77656   10.958
 6374.00    0.88118   0.77777   11.348
 6375.00    0.83472   0.77839   11.980
 6376.00    0.81580   0.77801   12.258
 6377.00    0.84607   0.77700   11.819
 6378.00    0.87526   0.77593   11.425
 6379.00    0.87487   0.77472   11.430
 6380.00    0.89108   0.77332   11.222
 6381.00    0.94050   0.77214   10.633
 6382.00    0.97403   0.77157   10.267
 6383.00    0.95473   0.77154   10.474
 6384.00    0.88581   0.77194   11.289
 6385.00    0.80302   0.77241   12.453
 6386.00    0.75394   0.77273   13.264
 6387.00    0.76377   0.77302   13.093
 6388.00    0.82172   0.77319   12.170
 6389.00    0.87613   0.77274   11.414
 6390.00    0.88070   0.77144   11.355
 6391.00    0.83704   0.76980   11.947
 6392.00    0.78132   0.76842   12.799
 6393.00    0.76013   0.76731   13.156
 6394.00    0.77319   0.76629   12.933
 6395.00    0.77083   0.76552   12.973
 6396.00    0.73774   0.76540   13.555
 6397.00    0.70564   0.76563   14.172
 6398.00    0.71138   0.76588   14.057
 6399.00    0.77123   0.76633   12.966
 6400.00    0.85726   0.76676   11.665
 6401.00    0.92529   0.76684   10.807
 6402.00    0.95265   0.76711   10.497
 6403.00    0.92697   0.76828   10.788
 6404.00    0.83791   0.76967   11.934
 6405.00    0.71153   0.77032   14.054
 6406.00    0.61838   0.77058   16.171
 6407.00    0.61324   0.77070   16.307
 6408.00    0.70955   0.77028   14.093
 6409.00    0.88731   0.76932   11.270
 6410.00    1.09771   0.76844   -1.000
 6411.00    1.26850   0.76823   -1.000
 6412.00    1.33866   0.76815   -1.000
 6413.00    1.30851   0.76784   -1.000
 6414.00    1.21637   0.76785   -1.000
 6415.00    1.10287   0.76821   -1.000
 6416.00    1.00805   0.76850   -1.000
 6417.00    0.96560   0.76853   10.356
 6418.00    0.96653   0.76827   10.346
 6419.00    0.95425   0.76796   10.479
 6420.00    0.89000   0.76798   11.236
 6421.00    0.78314   0.76835   12.769
 6422.00    0.69572   0.76893   14.374
 6423.00    0.69771   0.77004   14.333
 6424.00    0.77712   0.77194   12.868
 6425.00    0.87086   0.77393   11.483
 6426.00    0.93640   0.77497   10.679
 6427.00    0.94919   0.77492   10.535
 6428.00    0.89195   0.77418   11.211
 6429.00    0.77612   0.77311   12.885
 6430.00    0.65458   0.77184   15.277
 6431.00    0.59950   0.77032   16.681
 6432.00    0.67178   0.76876   14.886
 6433.00    0.85623   0.76801   11.679
 6434.00    1.07000   0.76849   -1.000
 6435.00    1.24860   0.76913   -1.000
 6436.00    1.34923   0.76915   -1.000
 6437.00    1.31604   0.76914   -1.000
 6438.00    1.13661   0.76967   -1.000
 6439.00    0.91626   0.77032   10.914
 6440.00    0.77228   0.77069   12.949
 6441.00    0.72791   0.77143   13.738
 6442.00    0.75326   0.77313   13.276
 6443.00    0.80719   0.77505   12.389
 6444.00    0.86944   0.77623   11.502
 6445.00    0.93875   0.77646   10.653
 6446.00    0.97711   0.77538   10.234
 6447.00    0.93060   0.77302   10.746
 6448.00    0.82551   0.77005   12.114
 6449.00    0.73646   0.76711   13.578
 6450.00    0.69058   0.76429   14.481
 6451.00    0.67559   0.76183   14.802
 6452.00    0.67304   0.76074   14.858
 6453.00    0.67886   0.76156   14.731
 6454.00    0.71244   0.76355   14.036
 6455.00    0.78083   0.76600   12.807
 6456.00    0.85870   0.76841   11.646
 6457.00    0.90469   0.77032   11.054
 6458.00    0.89053   0.77176   11.229
 6459.00    0.86400   0.77252   11.574
 6460.00    0.91066   0.77224   10.981
 6461.00    1.02531   0.77134   -1.000
 6462.00    1.13404   0.77025   -1.000
 6463.00    1.17846   0.76884   -1.000
 6464.00    1.13828   0.76738   -1.000
 6465.00    1.03826   0.76706   -1.000
 6466.00    0.92171   0.76818   10.849
 6467.00    0.82570   0.76949   12.111
 6468.00    0.76926   0.77051   12.999
 6469.00    0.74965   0.77148   13.340
 6470.00    0.75195   0.77236   13.299
 6471.00    0.75871   0.77277   13.180
 6472.00    0.76468   0.77266   13.077
 6473.00    0.77553   0.77237   12.894
 6474.00    0.79582   0.77239   12.566
 6475.00    0.82706   0.77263   12.091
 6476.00    0.86811   0.77247   11.519
 6477.00    0.91000   0.77205   10.989
 6478.00    0.93229   0.77164   10.726
 6479.00    0.91871   0.77079   10.885
 6480.00    0.87120   0.76928   11.478
 6481.00    0.81933   0.76789   12.205
 6482.00    0.81138   0.76684   12.325
 6483.00    0.86391   0.76574   11.575
 6484.00    0.94839   0.76491   10.544
 6485.00    1.00974   0.76507   -1.000
 6486.00    0.99554   0.76581   -1.000
 6487.00    0.90109   0.76598   11.098
 6488.00    0.77355   0.76521   12.927
 6489.00    0.69826   0.76371   14.321
 6490.00    0.72141   0.76112   13.862
 6491.00    0.78905   0.75677   12.673
 6492.00    0.84010   0.75100   11.903
 6493.00    0.86724   0.74508   11.531
 6494.00    0.87220   0.73968   11.465
 6495.00    0.84853   0.73471   11.785
 6496.00    0.80716   0.73070   12.389
 6497.00    0.77131   0.72897   12.965
 6498.00    0.74156   0.72987   13.485
 6499.00    0.70949   0.73255   14.095
 6500.00    0.69503   0.73646   14.388
 6501.00    0.71278   0.74100   14.030
 6502.00    0.72670   0.74598   13.761
 6503.00    0.70243   0.75079   14.236
 6504.00    0.65649   0.75488   15.232
 6505.00    0.63324   0.75808   15.792
 6506.00    0.67247   0.76044   14.871
 6507.00    0.74437   0.76227   13.434
 6508.00    0.76529   0.76366   13.067
 6509.00    0.74037   0.76451   13.507
 6510.00    0.74784   0.76494   13.372
 6511.00    0.79669   0.76542   12.552
 6512.00    0.83871   0.76587   11.923
 6513.00    0.84425   0.76587   11.845
 6514.00    0.82064   0.76545   12.186
 6515.00    0.81236   0.76488   12.310
 6516.00    0.84381   0.76411   11.851
 6517.00    0.88018   0.76334   11.361
 6518.00    0.88218   0.76299   11.336
 6519.00    0.84042   0.76304   11.899
 6520.00    0.77214   0.76319   12.951
 6521.00    0.71098   0.76366   14.065
 6522.00    0.68358   0.76457   14.629
 6523.00    0.70180   0.76526   14.249
 6524.00    0.76166   0.76527   13.129
 6525.00    0.84177   0.76492   11.880
 6526.00    0.90449   0.76468   11.056
 6527.00    0.93110   0.76435   10.740
 6528.00    0.95152   0.76355    0.000
 6529.00    0.97845   0.76268    0.000
 6530.00    0.96909   0.76228    0.000
 6531.00    0.90842   0.76226    0.000
 6532.00    0.83820   0.76236    0.000
 6533.00    0.78338   0.76249    0.000
 6534.00    0.73611   0.76268    0.000
 6535.00    0.69409   0.76309    0.000
 6536.00    0.66649   0.76383    0.000
 6537.00    0.66335   0.76466    0.000
 6538.00    0.68829   0.76497    0.000
 6539.00    0.73140   0.76454    0.000
 6540.00    0.76922   0.76371    0.000
 6541.00    0.77070   0.76262    0.000
 6542.00    0.73378   0.76082    0.000
 6543.00    0.69884   0.75805    0.000
 6544.00    0.68549   0.75477    0.000
 6545.00    0.67381   0.75169    0.000
 6546.00    0.65537   0.74901    0.000
 6547.00    0.64541   0.74624    0.000
 6548.00    0.66436   0.74331    0.000
 6549.00    0.72015   0.74072    0.000
 6550.00    0.78722   0.73834    0.000
 6551.00    0.82811   0.73522    0.000
 6552.00    0.82728   0.73079    0.000
 6553.00    0.80276   0.72527    0.000
 6554.00    0.80279   0.71882    0.000
 6555.00    0.83683   0.71087    0.000
 6556.00    0.85212   0.70074    0.000
 6557.00    0.83631   0.68882    0.000
 6558.00    0.83984   0.67552    0.000
 6559.00    0.88700   0.66031    0.000
 6560.00    0.96016   0.64371    0.000
 6561.00    1.03532   0.62890    0.000
 6562.00    1.09829   0.61879    0.000
 6563.00    1.15487   0.61300    0.000
 6564.00    1.20388   0.61164    0.000
 6565.00    1.20908   0.61742    0.000
 6566.00    1.14940   0.63067    0.000
 6567.00    1.05640   0.64688    0.000
 6568.00    0.96307   0.66269    0.000
 6569.00    0.87827   0.67764    0.000
 6570.00    0.81963   0.69072    0.000
 6571.00    0.81319   0.70071    0.000
 6572.00    0.84810   0.70824    0.000
 6573.00    0.88695   0.71404    0.000
 6574.00    0.91723   0.71827    0.000
 6575.00    0.94011   0.72148    0.000
 6576.00    0.93858   0.72450    0.000
 6577.00    0.90732   0.72759    0.000
 6578.00    0.88368   0.73051    0.000
 6579.00    0.88816   0.73293    0.000
 6580.00    0.88613   0.73514    0.000
 6581.00    0.85066   0.73743    0.000
 6582.00    0.79532   0.73963    0.000
 6583.00    0.75523   0.74153    0.000
 6584.00    0.75860   0.74340    0.000
 6585.00    0.77394   0.74575    0.000
 6586.00    0.74747   0.74785    0.000
 6587.00    0.70260   0.74939    0.000
 6588.00    0.69360   0.75017    0.000
 6589.00    0.71462   0.75045    0.000
 6590.00    0.72733   0.74965    0.000
 6591.00    0.70537   0.74791    0.000
 6592.00    0.66107   0.74613    0.000
 6593.00    0.64700   0.74454    0.000
 6594.00    0.68051   0.74289    0.000
 6595.00    0.72176   0.74176    0.000
 6596.00    0.73817   0.74202    0.000
 6597.00    0.72777   0.74334    0.000
 6598.00    0.71412   0.74501    0.000
 6599.00    0.72194   0.74667    0.000
 6600.00    0.73844   0.74827    0.000
 6601.00    0.74782   0.74972    0.000
 6602.00    0.77823   0.75077    0.000
 6603.00    0.82828   0.75099    0.000
 6604.00    0.81862   0.75039    0.000
 6605.00    0.76911   0.74926    0.000
 6606.00    0.84818   0.74771    0.000
 6607.00    1.03131   0.74606    0.000
 6608.00    1.06658   0.74508    0.000
 6609.00    0.91040   0.74492   10.984
 6610.00    0.74804   0.74503   13.368
 6611.00    0.68409   0.74551   14.618
 6612.00    0.70230   0.74709   14.239
 6613.00    0.73223   0.74939   13.657
 6614.00    0.72065   0.75117   13.876
 6615.00    0.69664   0.75236   14.355
 6616.00    0.71049   0.75366   14.075
 6617.00    0.77256   0.75507   12.944
 6618.00    0.84599   0.75573   11.821
 6619.00    0.86662   0.75560   11.539
 6620.00    0.83441   0.75515   11.984
 6621.00    0.81009   0.75436   12.344
 6622.00    0.78421   0.75296   12.752
 6623.00    0.72063   0.75131   13.877
 6624.00    0.73130   0.74983   13.674
 6625.00    0.90743   0.74830   11.020
 6626.00    1.02578   0.74672   -1.000
 6627.00    0.88504   0.74565   11.299
 6628.00    0.68434   0.74513   14.613
 6629.00    0.62746   0.74453   15.937
 6630.00    0.62405   0.74360   16.024
 6631.00    0.58689   0.74265   17.039
 6632.00    0.57705   0.74196   17.329
 6633.00    0.64626   0.74162   -2.000
 6634.00    0.77606   0.74150   -2.000
 6635.00    0.90176   0.74160   -2.000
 6636.00    0.95521   0.74215   -2.000
 6637.00    0.93286   0.74302   -2.000
 6638.00    0.87365   0.74393   -2.000
 6639.00    0.80735   0.74471   -2.000
 6640.00    0.75526   0.74503   -2.000
 6641.00    0.73635   0.74474   -2.000
 6642.00    0.75001   0.74453   -2.000
 6643.00    0.77019   0.74472   -2.000
 6644.00    0.78325   0.74457   -2.000
 6645.00    0.79898   0.74402   -2.000
 6646.00    0.81626   0.74404   -2.000
 6647.00    0.82015   0.74472   -2.000
 6648.00    0.80867   0.74507   -2.000
 6649.00    0.78812   0.74498   -2.000
 6650.00    0.75232   0.74507   -2.000
 6651.00    0.70124   0.74532   -2.000
 6652.00    0.66689   0.74522   -2.000
 6653.00    0.67118   0.74486   -2.000
 6654.00    0.68946   0.74449   -2.000
 6655.00    0.69937   0.74413   -2.000
 6656.00    0.70796   0.74370   -2.000
 6657.00    0.71017   0.74304   -2.000
 6658.00    0.68429   0.74208   -2.000
 6659.00    0.64742   0.74098   -2.000
 6660.00    0.64743   0.73969   -2.000
 6661.00    0.69694   0.73799   -2.000
 6662.00    0.76551   0.73636   -2.000
 6663.00    0.79837   0.73507   -2.000
 6664.00    0.77070   0.73387   -2.000
 6665.00    0.73883   0.73295   -2.000
 6666.00    0.73675   0.73302   -2.000
 6667.00    0.70275   0.73392   -2.000
 6668.00    0.62747   0.73500   -2.000
 6669.00    0.60929   0.73624   -2.000
 6670.00    0.66793   0.73764   -2.000
 6671.00    0.71394   0.73863   -2.000
 6672.00    0.72135   0.73866   -2.000
 6673.00    0.73608   0.73766   -2.000
 6674.00    0.76947   0.73526   -2.000
 6675.00    0.79290   0.73118   -2.000
 6676.00    0.77095   0.72658   -2.000
 6677.00    0.69914   0.72277   -2.000
 6678.00    0.63249   0.71965   -2.000
 6679.00    0.61699   0.71681   -2.000
 6680.00    0.63887   0.71584   -2.000
 6681.00    0.66950   0.71769   -2.000
 6682.00    0.69179   0.72095   -2.000
 6683.00    0.69088   0.72398   -2.000
 6684.00    0.65896   0.72699   -2.000
 6685.00    0.62010   0.73026   -2.000
 6686.00    0.60384   0.73299   -2.000
 6687.00    0.58178   0.73491   -2.000
 6688.00    0.55278   0.73624   -2.000
 6689.00    0.66261   0.73711   -2.000
 6690.00    0.93301   0.73761   -2.000
 6691.00    1.02962   0.73793   -2.000
 6692.00    0.80454   0.73796   -2.000
 6693.00    0.60320   0.73749   -2.000
 6694.00    0.62515   0.73668   -2.000
 6695.00    0.68875   0.73594   -2.000
 6696.00    0.69194   0.73529   -2.000
 6697.00    0.70220   0.73464   -2.000
 6698.00    0.71093   0.73422   -2.000
 6699.00    0.66413   0.73427   -2.000
 6700.00    0.64145   0.73463   -2.000
 6701.00    0.75172   0.73499   -2.000
 6702.00    0.95395   0.73536   -2.000
 6703.00    1.13943   0.73573   -2.000
 6704.00    1.23918   0.73594   -2.000
 6705.00    1.25561   0.73595   -2.000
 6706.00    1.26097   0.73590   -2.000
 6707.00    1.31434   0.73584   -2.000
 6708.00    1.42411   0.73555   -2.000
 6709.00    1.56345   0.73505   -2.000
 6710.00    1.67079   0.73432   -2.000
 6711.00    1.63988   0.73315   -2.000
 6712.00    1.40346   0.73155   -2.000
 6713.00    1.07467   0.72982   -2.000
 6714.00    0.84677   0.72785   -2.000
 6715.00    0.83124   0.72563   -2.000
 6716.00    1.00150   0.72378   -2.000
 6717.00    1.18569   0.72266   -2.000
 6718.00    1.23187   0.72190   -2.000
 6719.00    1.11427   0.72156   -2.000
 6720.00    0.92498   0.72215   -2.000
 6721.00    0.80781   0.72353   -2.000
 6722.00    0.77567   0.72486   -2.000
 6723.00    0.74328   0.72589   -2.000
 6724.00    0.73010   0.72700   -2.000
 6725.00    0.80023   0.72824   -2.000
 6726.00    0.89743   0.72918   -2.000
 6727.00    0.93324   0.72966   -2.000
 6728.00    0.91358   0.73016   -2.000
 6729.00    0.88934   0.73078   -2.000
 6730.00    0.89419   0.73128   -2.000
 6731.00    0.88994   0.73153   -2.000
 6732.00    0.78119   0.73172   -2.000
 6733.00    0.59662   0.73177   -2.000
 6734.00    0.51303   0.73166   -2.000
 6735.00    0.69656   0.73128   -2.000
 6736.00    1.15623   0.73062   -2.000
 6737.00    1.56789   0.72982   -2.000
 6738.00    1.65334   0.72906   -2.000
 6739.00    1.73603   0.72817   -2.000
 6740.00    2.05770   0.72692   -2.000
 6741.00    2.09348   0.72565   -2.000
 6742.00    1.58871   0.72491   -2.000
 6743.00    1.18914   0.72424   -2.000
 6744.00    1.25619   0.72320   -2.000
 6745.00    1.41592   0.72235   -2.000
 6746.00    1.42374   0.72199   -2.000
 6747.00    1.35870   0.72156   -2.000
 6748.00    1.20501   0.72101   -2.000
 6749.00    0.90193   0.72079   -2.000
 6750.00    0.64903   0.72059   -2.000
 6751.00    0.63412   0.72038   -2.000
 6752.00    0.63276   0.72076   -2.000
 6753.00    0.57971   0.72164   -2.000
 6754.00    1.01972   0.72254   -2.000
 6755.00    1.91672   0.72384   -2.000
 6756.00    2.16505   0.72584   -2.000
 6757.00    1.49623   0.72785   -2.000
 6758.00    0.92614   0.72953   -2.000
 6759.00    0.87201   0.73093   -2.000
 6760.00    0.91544   0.73187   -2.000
 6761.00    0.93334   0.73229   -2.000
 6762.00    1.08731   0.73221   -2.000
 6763.00    1.29437   0.73151   -2.000
 6764.00    1.35850   0.73024   -2.000
 6765.00    1.25238   0.72890   -2.000
 6766.00    1.05615   0.72779   -2.000
 6767.00    0.85955   0.72670   -2.000
 6768.00    0.69600   0.72559   -2.000
 6769.00    0.53348   0.72501   -2.000
 6770.00    0.40543   0.72535   -2.000
 6771.00    0.43351   0.72616   -2.000
 6772.00    0.70064   0.72710   -2.000
 6773.00    1.18562   0.72842   -2.000
 6774.00    1.71861   0.73017   -2.000
 6775.00    2.08144   0.73176   -2.000
 6776.00    2.18335   0.73290   -2.000
 6777.00    2.01924   0.73365   -2.000
 6778.00    1.59885   0.73379   -2.000
 6779.00    1.05247   0.73308   -2.000
 6780.00    0.67149   0.73162   -2.000
 6781.00    0.57810   0.72950   -2.000
 6782.00    0.60028   0.72697   -2.000
 6783.00    0.59793   0.72439   -2.000
 6784.00    0.58646   0.72202   -2.000
 6785.00    0.66633   0.72021   -2.000
 6786.00    0.90303   0.71920   -2.000
 6787.00    1.13620   0.71886   -2.000
 6788.00    1.15718   0.71906   -2.000
 6789.00    1.02460   0.71981   -2.000
 6790.00    0.91038   0.72061   -2.000
 6791.00    0.87319   0.72103   11.452
 6792.00    0.79384   0.72143   12.597
 6793.00    0.44127   0.72194   -1.000
 6794.00    0.00647   0.72221   -1.000
 6795.00    0.13191   0.72235   -1.000
 6796.00    0.89083   0.72273   11.225
 6797.00    1.66618   0.72331   -1.000
 6798.00    1.95418   0.72394   -1.000
 6799.00    1.76475   0.72466   -1.000
 6800.00    1.87580   0.72537   -1.000
 6801.00    2.71820   0.72599   -1.000
 6802.00    2.96005   0.72651   -1.000
 6803.00    1.69435   0.72692   -1.000
 6804.00    0.44884   0.72706   -1.000
 6805.00    0.41772   0.72692   -1.000
 6806.00    0.75374   0.72678   13.267
 6807.00    0.73759   0.72657   13.558
 6808.00    0.64792   0.72607   15.434
 6809.00    0.64306   0.72557   15.551
 6810.00    0.55772   0.72526   17.930
 6811.00    0.46458   0.72489   -1.000
 6812.00    0.57019   0.72437   17.538
 6813.00    0.77525   0.72396   12.899
 6814.00    0.87605   0.72388   11.415
 6815.00    0.90680   0.72397   -1.000
 6816.00    0.93511   0.72396   -1.000
 6817.00    0.86386   0.72404   11.576
 6818.00    0.64188   0.72450   15.579
 6819.00    0.39215   0.72516   -1.000
 6820.00    0.29944   0.72570   -1.000
 6821.00    0.49966   0.72619   20.014
 6822.00    0.91478   0.72669   -1.000
 6823.00    1.33633   0.72721   -1.000
 6824.00    1.73530   0.72756   -1.000
 6825.00    2.11256   0.72746   -1.000
 6826.00    2.15971   0.72695   -1.000
 6827.00    1.68923   0.72637   -1.000
 6828.00    1.14092   0.72583   -1.000
 6829.00    0.92558   0.72512   -1.000
 6830.00    0.89456   0.72427   11.179
 6831.00    0.84658   0.72377   11.812
 6832.00    0.81196   0.72381   12.316
 6833.00    0.81746   0.72384   12.233
 6834.00    0.81526   0.72351   12.266
 6835.00    0.80187   0.72316   12.471
 6836.00    0.81508   0.72285   12.269
 6837.00    0.84685   0.72200   11.808
 6838.00    0.85629   0.72059   11.678
 6839.00    0.81924   0.71905   12.206
 6840.00    0.72604   0.71762   13.773
 6841.00    0.57768   0.71645   17.311
 6842.00    0.44343   0.71574   -1.000
 6843.00    0.46480   0.71553   -1.000
 6844.00    0.62203   0.71586   16.076
 6845.00    0.69490   0.71679   14.391
 6846.00    0.62928   0.71800   15.891
 6847.00    0.57650   0.71906   17.346
 6848.00    0.58638   0.71986   17.054
 6849.00    0.59864   0.72049   16.705
 6850.00    0.60268   0.72088   16.592
 6851.00    0.61781   0.72082   16.186
 6852.00    0.62470   0.72022   16.008
 6853.00    0.63317   0.71932   15.793
 6854.00    0.73754   0.71850   13.559
 6855.00    0.94251   0.71753   -1.000
 6856.00    1.07877   0.71626   -1.000
 6857.00    1.04593   0.71525   -1.000
 6858.00    0.90929   0.71464   -1.000
 6859.00    0.77331   0.71396   12.931
 6860.00    0.71729   0.71358   13.941
 6861.00    0.75937   0.71386   13.169
 6862.00    0.85216   0.71421   11.735
 6863.00    0.89788   0.71443   -1.000
 6864.00    0.83982   0.71498   11.907
 6865.00    0.76341   0.71552   13.099
 6866.00    0.75291   0.71559   13.282
 6867.00    0.76283   0.71558   13.109
 6868.00    0.74677   0.71559   13.391
 6869.00    0.73457   0.71508   13.613
 6870.00    0.74769   0.71451   13.374
 6871.00    0.76667   0.71461   13.043
 6872.00    0.76826   0.71486   13.016
 6873.00    0.73961   0.71484   13.521
 6874.00    0.68030   0.71526   14.699
 6875.00    0.61245   0.71631   16.328
 6876.00    0.59244   0.71726   16.879
 6877.00    0.64954   0.71787   15.396
 6878.00    0.72128   0.71847   13.864
 6879.00    0.76198   0.71888   13.124
 6880.00    0.81920   0.71865   12.207
 6881.00    0.87999   0.71808   11.364
 6882.00    0.82487   0.71767   12.123
 6883.00    0.66128   0.71728   15.122
 6884.00    0.54328   0.71676   18.407
 6885.00    0.51015   0.71693   19.602
 6886.00    0.50088   0.71777   19.965
 6887.00    0.56382   0.71853   17.736
 6888.00    0.75837   0.71940   13.186
 6889.00    0.94353   0.72066   -1.000
 6890.00    0.96296   0.72163   -1.000
 6891.00    0.87272   0.72221   11.458
 6892.00    0.80407   0.72290   12.437
 6893.00    0.82670   0.72329   12.096
 6894.00    0.91315   0.72320   -1.000
 6895.00    0.95991   0.72336   -1.000
 6896.00    0.92981   0.72371   -1.000
 6897.00    0.87467   0.72362   11.433
 6898.00    0.83232   0.72346   12.015
 6899.00    0.78627   0.72387   12.718
 6900.00    0.65639   0.72441   15.235
 6901.00    0.45718   0.72452   -1.000
 6902.00    0.48535   0.72471   20.604
 6903.00    0.84614   0.72537   11.818
 6904.00    1.04216   0.72604   -1.000
 6905.00    0.78544   0.72641   12.732
 6906.00    0.48452   0.72677   -1.000
 6907.00    0.46350   0.72726   -1.000
 6908.00    0.61612   0.72749   16.231
 6909.00    0.74502   0.72726   13.422
 6910.00    0.73395   0.72685   13.625
 6911.00    0.63364   0.72626   15.782
 6912.00    0.57984   0.72533   17.246
 6913.00    0.60403   0.72449   16.555
 6914.00    0.67202   0.72384   14.880
 6915.00    0.77688   0.72318   12.872
 6916.00    0.87300   0.72296   11.455
 6917.00    0.83538   0.72330   11.971
 6918.00    0.69482   0.72362   14.392
 6919.00    0.70693   0.72388   14.146
 6920.00    0.89615   0.72434   11.159
 6921.00    0.98316   0.72459   -1.000
 6922.00    0.90537   0.72423   -1.000
 6923.00    0.84254   0.72365   11.869
 6924.00    0.83398   0.72311   11.991
 6925.00    0.79504   0.72263   12.578
 6926.00    0.71038   0.72210   14.077
 6927.00    0.63222   0.72186   15.817
 6928.00    0.62820   0.72215   15.918
 6929.00    0.70240   0.72269   14.237
 6930.00    0.75405   0.72317   13.262
 6931.00    0.72432   0.72356   13.806
 6932.00    0.67227   0.72420   14.875
 6933.00    0.68532   0.72483   14.592
 6934.00    0.80568   0.72509   12.412
 6935.00    0.94100   0.72535   -1.000
 6936.00    0.95420   0.72592   -1.000
 6937.00    0.91457   0.72650   -1.000
 6938.00    0.94263   0.72684   -1.000
 6939.00    0.89792   0.72711   11.137
 6940.00    0.67296   0.72724   14.860
 6941.00    0.53109   0.72708   18.829
 6942.00    0.65379   0.72662   15.295
 6943.00    0.80597   0.72587   12.407
 6944.00    0.72416   0.72526   13.809
 6945.00    0.37852   0.72479   -1.000
 6946.00    0.03728   0.72431   -2.000
 6947.00    0.00000   0.72413   -2.000
 6948.00    0.00000   0.72423   -2.000
 6949.00    0.00000   0.72419   -2.000
 6950.00    0.00000   0.72415   -2.000
 6951.00    0.00000   0.72417   -2.000
 6952.00    0.00000   0.72389   -2.000
 6953.00    0.00000   0.72367   -2.000
 6954.00    0.00000   0.72393   -2.000
 6955.00    0.00000   0.72429   -2.000
 6956.00    0.00000   0.72464   -2.000
 6957.00    0.00000   0.72547   -2.000
 6958.00    0.00000   0.72651   -2.000
 6959.00    0.00000   0.72733   -2.000
 6960.00    0.00000   0.72797   -2.000
 6961.00    0.00000   0.72857   -2.000
 6962.00    0.00000   0.72911   -2.000
 6963.00    0.00000   0.72936   -2.000
 6964.00    0.00000   0.72939   -2.000
 6965.00    0.00000   0.72958   -2.000
 6966.00    0.00000   0.72988   -2.000
 6967.00    0.00000   0.72992   -2.000
 6968.00    0.00000   0.72977   -2.000
 6969.00    0.00000   0.72959   -2.000
 6970.00    0.00000   0.72935   -2.000
 6971.00    0.00000   0.72874   -2.000
 6972.00    0.00000   0.72740   -2.000
 6973.00    0.00000   0.72557   -2.000
 6974.00    0.00000   0.72371   -2.000
 6975.00    0.00000   0.72132   -2.000
 6976.00    0.00000   0.71816   -2.000
 6977.00    0.00000   0.71545   -2.000
 6978.00    0.00000   0.71395   -2.000
 6979.00    0.00000   0.71286   -2.000
 6980.00    0.00000   0.71240   -2.000
 6981.00    0.00000   0.71357   -2.000
 6982.00    0.00000   0.71582   -2.000
 6983.00    0.00000   0.71810   -2.000
 6984.00    0.00000   0.72044   -2.000
 6985.00    0.00000   0.72287   -2.000
 6986.00    0.00000   0.72464   -2.000
 6987.00    0.00000   0.72554   -2.000
 6988.00    0.00000   0.72601   -2.000
 6989.00    0.00000   0.72628   -2.000
 6990.00    0.00000   0.72631   -2.000
 6991.00    0.00000   0.72613   -2.000
 6992.00    0.00000   0.72594   -2.000
 6993.00    0.00000   0.72595   -2.000
 6994.00    0.00000   0.72594   -2.000
 6995.00    0.00000   0.72564   -2.000
 6996.00    0.00000   0.72529   -2.000
 6997.00    0.00000   0.72482   -2.000
 6998.00    0.00000   0.72408   -2.000
 6999.00    0.00000   0.72342   -2.000
 7000.00    0.00000   0.72301   -2.000
 7001.00    0.00000   0.72247   -2.000
 7002.00    0.00000   0.72186   -2.000
 7003.00    0.00000   0.72177   -2.000
 7004.00    0.00000   0.72192   -2.000
 7005.00    0.00000   0.72179   -2.000
 7006.00    0.00000   0.72177   -2.000
 7007.00    0.00000   0.72221   -2.000
 7008.00    0.00000   0.72256   -2.000
 7009.00    0.00000   0.72249   -2.000
 7010.00    0.00000   0.72254   -2.000
 7011.00    0.00000   0.72263   -2.000
 7012.00    0.00000   0.72222   -2.000
 7013.00    0.00000   0.72130   -2.000
 7014.00    0.00000   0.72024   -2.000
 7015.00    0.00000   0.71954   -2.000
 7016.00    0.00000   0.71913   -2.000
 7017.00    0.00000   0.71869   -2.000
 7018.00    0.00000   0.71859   -2.000
 7019.00    0.00000   0.71933   -2.000
 7020.00    0.00000   0.72011   -2.000
 7021.00    0.00000   0.72024   -2.000
 7022.00    0.00000   0.72032   -2.000
 7023.00    0.00000   0.72061   -2.000
 7024.00    0.00000   0.72053   -2.000
 7025.00    0.00000   0.72012   -2.000
 7026.00    0.00000   0.72014   -2.000
 7027.00    0.00000   0.72070   -2.000
 7028.00    0.00000   0.72146   -2.000
 7029.00    0.00000   0.72234   -2.000
 7030.00    0.00000   0.72347   -2.000
 7031.00    0.00000   0.72469   -2.000
 7032.00    0.00000   0.72561   -2.000
 7033.00    0.00000   0.72626   -2.000
 7034.00    0.00000   0.72691   -2.000
 7035.00    0.00000   0.72733   -2.000
 7036.00    0.00000   0.72730   -2.000
 7037.00    0.00000   0.72766   -2.000
 7038.00    0.00000   0.72875   -2.000
 7039.00    0.00000   0.72979   -2.000
 7040.00    0.00000   0.73091   -2.000
 7041.00    0.00000   0.73287   -2.000
 7042.00    0.00000   0.73495   -2.000
 7043.00    0.00000   0.73637   -2.000
 7044.00    0.00000   0.73779   -2.000
 7045.00    0.00000   0.73917   -2.000
 7046.00    0.00000   0.73976   -2.000
 7047.00    0.00000   0.73966   -2.000
 7048.00    0.00000   0.73915   -2.000
 7049.00    0.00000   0.73798   -2.000
 7050.00    0.00000   0.73587   -2.000
 7051.00    0.00000   0.73316   -2.000
 7052.00    0.00000   0.73018   -2.000
 7053.00    0.00000   0.72696   -2.000
 7054.00    0.00000   0.72382   -2.000
 7055.00    0.00000   0.72113   -2.000
 7056.00    0.00000   0.71899   -2.000
 7057.00    0.00000   0.71720   -2.000
 7058.00    0.00000   0.71581   -2.000
 7059.00    0.00000   0.71490   -2.000
 7060.00    0.00000   0.71401   -2.000
 7061.00    0.00000   0.71297   -2.000
 7062.00    0.00000   0.71216   -2.000
 7063.00    0.00000   0.71138   -2.000
 7064.00    0.00000   0.71027   -2.000
 7065.00    0.00000   0.70936   -2.000
 7066.00    0.00000   0.70882   -2.000
 7067.00    0.00000   0.70840   -2.000
 7068.00    0.00000   0.70856   -2.000
 7069.00    0.00000   0.70947   -2.000
 7070.00    0.00000   0.71064   -2.000
 7071.00    0.00000   0.71233   -2.000
 7072.00    0.00000   0.71462   -2.000
 7073.00    0.00000   0.71667   -2.000
 7074.00    0.00000   0.71844   -2.000
 7075.00    0.00000   0.72020   -2.000
 7076.00    0.00000   0.72150   -2.000
 7077.00    0.00000   0.72204   -2.000
 7078.00    0.00000   0.72215   -2.000
 7079.00    0.00000   0.72181   -2.000
 7080.00    0.00000   0.72067   -2.000
 7081.00    0.00000   0.71879   -2.000
 7082.00    0.00000   0.71614   -2.000
 7083.00    0.00000   0.71305   -2.000
 7084.00    0.00000   0.70982   -2.000
 7085.00    0.00000   0.70618   -2.000
 7086.00    0.00000   0.70254   -2.000
 7087.00    0.00000   0.69974   -2.000
 7088.00    0.00000   0.69743   -2.000
 7089.00    0.00000   0.69536   -2.000
 7090.00    0.00000   0.69416   -2.000
 7091.00    0.00000   0.69367   -2.000
 7092.00    0.00000   0.69341   -2.000
 7093.00    0.00000   0.69353   -2.000
 7094.00    0.00000   0.69402   -2.000
 7095.00    0.00000   0.69459   -2.000
 7096.00    0.00000   0.69529   -2.000
 7097.00    0.00000   0.69618   -2.000
 7098.00    0.00000   0.69692   -2.000
 7099.00    0.00000   0.69756   -2.000
 7100.00    0.00000   0.69810   -2.000
 7101.00    0.00000   0.69847   -2.000
 7102.00    0.00000   0.69875   -2.000
 7103.00    0.00000   0.69903   -2.000
 7104.00    0.00000   0.69909   -2.000
 7105.00    0.00000   0.69891   -2.000
 7106.00    0.00000   0.69892   -2.000
 7107.00    0.00000   0.69887   -2.000
 7108.00    0.00000   0.69834   -2.000
 7109.00    0.00000   0.69776   -2.000
 7110.00    0.00000   0.69753   -2.000
 7111.00    0.00000   0.69738   -2.000
 7112.00    0.00000   0.69715   -2.000
 7113.00    0.00000   0.69724   -2.000
 7114.00    0.00000   0.69793   -2.000
 7115.00    0.00000   0.69871   -2.000
 7116.00    0.00000   0.69932   -2.000
 7117.00    0.00000   0.69997   -2.000
 7118.00    0.00000   0.70063   -2.000
 7119.00    0.00000   0.70091   -2.000
 7120.00    0.00000   0.70055   -2.000
 7121.00    0.00000   0.69999   -2.000
 7122.00    0.00000   0.69925   -2.000
 7123.00    0.00000   0.69775   -2.000
 7124.00    0.00000   0.69574   -2.000
 7125.00    0.00000   0.69383   -2.000
 7126.00    0.00000   0.69183   -2.000
 7127.00    0.00000   0.68940   -2.000
 7128.00    0.00000   0.68717   -2.000
 7129.00    0.00000   0.68562   -2.000
 7130.00    0.00000   0.68453   -2.000
 7131.00    0.00000   0.68380   -2.000
 7132.00    0.00000   0.68381   -2.000
 7133.00    0.00000   0.68452   -2.000
 7134.00    0.00000   0.68551   -2.000
 7135.00    0.00000   0.68676   -2.000
 7136.00    0.00000   0.68805   -2.000
 7137.00    0.00000   0.68904   -2.000
 7138.00    0.00000   0.69006   -2.000
 7139.00    0.00000   0.69110   -2.000
 7140.00    0.00000   0.69154   -2.000
 7141.00    0.00000   0.69180   -2.000
 7142.00    0.00000   0.69227   -2.000
 7143.00    0.00000   0.69228   -2.000
 7144.00    0.00000   0.69196   -2.000
 7145.00    0.00000   0.69159   -2.000
 7146.00    0.00000   0.69079   -2.000
 7147.00    0.00000   0.69009   -2.000
 7148.00    0.00000   0.68977   -2.000
 7149.00    0.00000   0.68939   -2.000
 7150.00    0.00000   0.68949   -2.000
 7151.00    0.00000   0.69065   -2.000
 7152.00    0.00000   0.69197   -2.000
 7153.00    0.00000   0.69311   -2.000
 7154.00    0.00000   0.69486   -2.000
 7155.00    0.00000   0.69672   -2.000
 7156.00    0.00000   0.69776   -2.000
 7157.00    0.00000   0.69841   -2.000
 7158.00    0.00000   0.69903   -2.000
 7159.00    0.00000   0.69912   -2.000
 7160.00    0.00000   0.69870   -2.000
 7161.00    0.00000   0.69820   -2.000
 7162.00    0.00000   0.69759   -2.000
 7163.00    0.00000   0.69696   -2.000
 7164.00    0.00000   0.69673   -2.000
 7165.00    0.00000   0.69681   -2.000
 7166.00    0.00000   0.69723   -2.000
 7167.00    0.00000   0.69823   -2.000
 7168.00    0.00000   0.69967   -2.000
 7169.00    0.00000   0.70133   -2.000
 7170.00    0.00000   0.70306   -2.000
 7171.00    0.00000   0.70467   -2.000
 7172.00    0.00000   0.70609   -2.000
 7173.00    0.00000   0.70714   -2.000
 7174.00    0.00000   0.70750   -2.000
 7175.00    0.00000   0.70743   -2.000
 7176.00    0.00000   0.70721   -2.000
 7177.00    0.00000   0.70651   -2.000
 7178.00    0.00000   0.70541   -2.000
 7179.00    0.00000   0.70444   -2.000
 7180.00    0.00000   0.70370   -2.000
 7181.00    0.00000   0.70301   -2.000
 7182.00    0.00000   0.70224   -2.000
 7183.00    0.00000   0.70166   -2.000
 7184.00    0.00000   0.70123   -2.000
 7185.00    0.00000   0.70026   -2.000
 7186.00    0.00000   0.69897   -2.000
 7187.00    0.00000   0.69787   -2.000
 7188.00    0.00000   0.69675   -2.000
 7189.00    0.00000   0.69579   -2.000
 7190.00    0.00000   0.69532   -2.000
 7191.00    0.00000   0.69538   -2.000
 7192.00    0.00000   0.69590   -2.000
 7193.00    0.00000   0.69699   -2.000
 7194.00    0.00000   0.69810   -2.000
 7195.00    0.00000   0.69896   -2.000
 7196.00    0.00000   0.70001   -2.000
 7197.00    0.00000   0.70087   -2.000
 7198.00    0.00000   0.70120   -2.000
 7199.00    0.00000   0.70133   -2.000
 7200.00    0.00000   0.70153   -2.000
 7201.00    0.00000   0.70153   -2.000
 7202.00    0.00000   0.70113   -2.000
 7203.00    0.00000   0.70068   -2.000
 7204.00    0.00000   0.70006   -2.000
 7205.00    0.00000   0.69903   -2.000
 7206.00    0.00000   0.69812   -2.000
 7207.00    0.00000   0.69730   -2.000
 7208.00    0.00000   0.69650   -2.000
 7209.00    0.00000   0.69636   -2.000
 7210.00    0.00000   0.69672   -2.000
 7211.00    0.00000   0.69715   -2.000
 7212.00    0.00000   0.69813   -2.000
 7213.00    0.00000   0.69955   -2.000
 7214.00    0.00000   0.70063   -2.000
 7215.00    0.00000   0.70183   -2.000
 7216.00    0.00000   0.70338   -2.000
 7217.00    0.00000   0.70452   -2.000
 7218.00    0.00000   0.70540   -2.000
