###################################################################
## OUTPUT of StarlightChains_v04.for    [Cid@UFSC - 01/Apr/2007] ##
###################################################################

## Some input info
LSQ15aae.txt                             [arq_obs]
Base.CB07.vall.4m                        [arq_base]
Masks.EmLines.NEW.gm                     [arq_masks]
StCv04.C11.config                        [arq_config]
   66                                    [N_base]
    0                                    [N_YAV_components = # of components with extra extinction!]
    0                                    [i_FitPowerLaw (1/0 = Yes/No)]
-9.99                                    [alpha_PowerLaw]
CCM                                      [red_law_option]
 1.458241                                [q_norm = A(l_norm)/A(V)]

## (Re)Sampling Parameters
 3741.00                                 [l_ini (A)]
 7218.00                                 [l_fin (A)]
    1.00                                 [dl    (A)]     (OBS: dl_cushion =    50.00 A)

## Normalization info
 4020.00                                 [l_norm (A) - for base]
 4010.00                                 [llow_norm (A) - window for f_obs]
 4060.00                                 [lupp_norm (A) - window for f_obs]
2.819321E-17                             [fobs_norm (in input units)]

## S/N
 3691.00                                 [llow_SN (A) - window for S/N]
 7268.00                                 [lupp_SN (A) - window for S/N]
   4.516                                 [S/N in S/N window]
   5.032                                 [S/N in norm. window]
  10.000                                 [S/N_err in S/N window]
  11.143                                 [S/N_err in norm. window]
  1.0000                                 [fscale_chi2]

## etc...
    -2007455                             [idum_orig]
  2214                                   [NOl_eff]
  1976                                   [Nl_eff]
   238    NSIGMA                         [Ntot_cliped & clip_method]
  1030400                                [Nglobal_steps]
   7                                     [N_chains]
  20                                     [NEX0s_base = N_base in EX0s-fits]
 0   0   1       46   2.0   2.155E+01    [Clip-Bug, RC-Crash & Burn-In warning-flags, n_censored_weights, wei_nsig_threshold & wei_limit]
    11     10.820     10.323      0.497  [idt_all, wdt_TotTime, wdt_UsrTime & wdt_SysTime (sec)]

## Synthesis Results - Best model ##

 1.50480E+00                             [chi2/Nl_eff]
     9.87851                             [adev (%)]

    95.52439                             [sum-of-x (%)]
 1.56043E-17                             [Flux_tot (units of input spectrum!)]
 2.70579E-13                             [Mini_tot (???)]
 1.48184E-13                             [Mcor_tot (???)]

-101.91                                  [v0_min  (km/s)]
 253.79                                  [vd_min  (km/s)]
-0.4063                                  [AV_min  (mag)]
 0.0000                                  [YAV_min (mag)]

# j     x_j(%)      Mini_j(%)     Mcor_j(%)     age_j(yr)     Z_j      (L/M)_j    YAV?  Mstars   component_j        a/Fe...       SSP_chi2r SSP_adev(%)   SSP_AV   SSP_x(%)
  1      0.0000     0.0000E+00    0.0000E+00    1.000000E+06  0.00400  1.094E-02    0   1.0000   age020_m42            0.0000     1.9952E+00    10.7567   2.9430    81.5569
  2      0.0000     0.0000E+00    0.0000E+00    3.160000E+06  0.00400  4.007E-02    0   0.9999   age045_m42            0.0000     1.8452E+00    10.5691   2.2107    87.3923
  3      0.0000     0.0000E+00    0.0000E+00    5.010000E+06  0.00400  2.539E-02    0   0.9488   age055_m42            0.0000     1.9053E+00    10.6484   2.5337    85.1501
  4      0.0000     0.0000E+00    0.0000E+00    6.610000E+06  0.00400  2.620E-02    0   0.9220   age061_m42            0.0000     1.8631E+00    10.6169   2.1368    87.6240
  5      0.0000     0.0000E+00    0.0000E+00    1.000000E+07  0.00400  1.322E-02    0   0.8862   age070_m42            0.0000     2.0620E+00    11.1757   1.8558    89.4816
  6      0.0000     0.0000E+00    0.0000E+00    1.445000E+07  0.00400  7.883E-03    0   0.8571   age078_m42            0.0000     2.0717E+00    11.1383   2.1870    87.0680
  7      0.0000     0.0000E+00    0.0000E+00    2.512000E+07  0.00400  5.251E-03    0   0.8174   age090_m42            0.0000     2.1058E+00    11.3184   1.7257    89.9754
  8      0.0000     0.0000E+00    0.0000E+00    4.000000E+07  0.00400  3.649E-03    0   0.7851   age104_m42            0.0000     2.0452E+00    11.1931   1.4945    90.8773
  9      3.1929     6.2222E-02    8.6677E-02    5.500000E+07  0.00400  3.098E-03    0   0.7629   age110_m42            0.0000     1.9537E+00    10.9083   1.6484    90.8836
 10      0.0000     0.0000E+00    0.0000E+00    1.015200E+08  0.00400  2.228E-03    0   0.7207   age116_m42            0.0000     1.9150E+00    10.7820   1.6690    91.0450
 11      0.0000     0.0000E+00    0.0000E+00    2.861200E+08  0.00400  1.093E-03    0   0.6648   age125_m42            0.0000     1.9545E+00    10.9475   1.0990    93.9787
 12      0.0000     0.0000E+00    0.0000E+00    5.088000E+08  0.00400  6.597E-04    0   0.6365   age130_m42            0.0000     1.8591E+00    10.6729   1.0843    94.9216
 13      0.0000     0.0000E+00    0.0000E+00    1.434000E+09  0.00400  2.132E-04    0   0.5798   age139_m42            0.0000     1.6890E+00    10.3630   0.1006    97.2360
 14     45.3164     4.6410E+01    4.5566E+01    4.250000E+09  0.00400  5.895E-05    0   0.5377   age158_m42            0.0000     1.5192E+00     9.9462  -0.3487    93.8460
 15      6.0317     1.0375E+01    9.8735E+00    7.500000E+09  0.00400  3.510E-05    0   0.5212   age171_m42            0.0000     1.5126E+00     9.9108  -0.5358    93.2606
 16      0.0000     0.0000E+00    0.0000E+00    1.300000E+10  0.00400  2.005E-05    0   0.5034   age193_m42            0.0000     1.5271E+00     9.9220  -0.6989    92.7680
 17      0.0000     0.0000E+00    0.0000E+00    1.800000E+10  0.00400  1.525E-05    0   0.4967   age213_m42            0.0000     1.5245E+00     9.9153  -0.7237    92.3921
 18      0.0000     0.0000E+00    0.0000E+00    1.000000E+06  0.00800  1.238E-02    0   1.0000   age020_m52            0.0000     1.9951E+00    10.7561   2.9394    81.7134
 19      0.0000     0.0000E+00    0.0000E+00    3.160000E+06  0.00800  3.074E-02    0   0.9966   age045_m52            0.0000     1.9766E+00    10.7230   2.8626    82.4270
 20      0.0000     0.0000E+00    0.0000E+00    5.010000E+06  0.00800  2.668E-02    0   0.9443   age055_m52            0.0000     1.9260E+00    10.6701   2.6164    84.3767
 21      0.0000     0.0000E+00    0.0000E+00    6.610000E+06  0.00800  2.136E-02    0   0.9177   age061_m52            0.0000     1.9411E+00    10.9345   1.3443    90.9240
 22      0.0000     0.0000E+00    0.0000E+00    1.000000E+07  0.00800  1.215E-02    0   0.8827   age070_m52            0.0000     2.1415E+00    11.3655   2.0391    89.1907
 23      0.0000     0.0000E+00    0.0000E+00    1.445000E+07  0.00800  8.717E-03    0   0.8552   age078_m52            0.0000     2.0618E+00    11.1376   2.1509    88.3302
 24      0.0000     0.0000E+00    0.0000E+00    2.512000E+07  0.00800  5.592E-03    0   0.8162   age090_m52            0.0000     2.1055E+00    11.3316   1.7909    91.0324
 25      0.0000     0.0000E+00    0.0000E+00    4.000000E+07  0.00800  3.896E-03    0   0.7841   age104_m52            0.0000     2.0325E+00    11.1585   1.7037    91.7606
 26      0.0000     0.0000E+00    0.0000E+00    1.015200E+08  0.00800  2.148E-03    0   0.7226   age116_m52            0.0000     1.9194E+00    10.8530   1.6371    91.7913
 27      0.0000     0.0000E+00    0.0000E+00    2.861200E+08  0.00800  9.925E-04    0   0.6683   age125_m52            0.0000     1.8565E+00    10.6434   1.1523    95.7160
 28      0.0000     0.0000E+00    0.0000E+00    9.047900E+08  0.00800  3.141E-04    0   0.6138   age135_m52            0.0000     1.6557E+00    10.2389   0.3438   100.1350
 29      0.0000     0.0000E+00    0.0000E+00    1.434000E+09  0.00800  1.719E-04    0   0.5853   age139_m52            0.0000     1.5741E+00    10.0925  -0.2377    98.1845
 30      0.0364     2.7921E-02    2.8550E-02    2.500000E+09  0.00800  7.872E-05    0   0.5600   age150_m52            0.0000     1.5116E+00     9.8776  -0.5097    95.6824
 31      0.0013     1.7902E-03    1.7737E-03    4.250000E+09  0.00800  4.336E-05    0   0.5426   age158_m52            0.0000     1.5232E+00     9.9192  -0.5279    94.8727
 32      0.0000     0.0000E+00    0.0000E+00    6.250000E+09  0.00800  3.159E-05    0   0.5319   age166_m52            0.0000     1.5595E+00     9.9958  -0.7298    94.9003
 33      0.0000     0.0000E+00    0.0000E+00    1.300000E+10  0.00800  1.361E-05    0   0.5073   age193_m52            0.0000     1.7957E+00    10.4498  -1.0000    87.5485
 34      0.0000     0.0000E+00    0.0000E+00    1.800000E+10  0.00800  9.886E-06    0   0.4990   age213_m52            0.0000     2.0588E+00    10.9820  -1.0000    83.5321
 35      2.8435     1.1118E-02    2.0301E-02    1.000000E+06  0.02000  1.544E-02    0   1.0000   age020_m62            0.0000     2.0024E+00    10.7678   2.9357    81.8921
 36      0.0000     0.0000E+00    0.0000E+00    3.160000E+06  0.02000  3.762E-02    0   0.9858   age045_m62            0.0000     1.9930E+00    10.7468   2.8750    82.6074
 37      0.0000     0.0000E+00    0.0000E+00    5.010000E+06  0.02000  3.296E-02    0   0.9342   age055_m62            0.0000     1.8611E+00    10.5443   2.4922    86.2822
 38      0.0000     0.0000E+00    0.0000E+00    8.710000E+06  0.02000  1.154E-02    0   0.8861   age067_m62            0.0000     2.8846E+00    13.3000   1.4936    91.6081
 39      0.0000     0.0000E+00    0.0000E+00    1.445000E+07  0.02000  7.663E-03    0   0.8472   age078_m62            0.0000     2.2841E+00    11.8073   1.6873    91.2482
 40      0.0000     0.0000E+00    0.0000E+00    2.512000E+07  0.02000  4.532E-03    0   0.8099   age090_m62            0.0000     2.3357E+00    11.9462   1.6822    90.9280
 41      0.0000     0.0000E+00    0.0000E+00    5.500000E+07  0.02000  2.733E-03    0   0.7595   age110_m62            0.0000     2.0352E+00    11.1453   1.6850    91.1388
 42      0.0064     2.8241E-04    3.6019E-04    1.609000E+08  0.02000  1.369E-03    0   0.6985   age120_m62            0.0000     1.9387E+00    10.8356   1.5188    93.8741
 43      0.0000     0.0000E+00    0.0000E+00    2.861200E+08  0.02000  9.013E-04    0   0.6714   age125_m62            0.0000     1.9098E+00    10.7496   1.2633    96.7671
 44      0.0000     0.0000E+00    0.0000E+00    5.088000E+08  0.02000  5.028E-04    0   0.6449   age130_m62            0.0000     1.7453E+00    10.3457   0.8816    99.5592
 45      0.0081     2.0231E-03    2.2825E-03    9.047900E+08  0.02000  2.428E-04    0   0.6179   age135_m62            0.0000     1.5679E+00     9.9753   0.2871    99.3642
 46      0.0000     0.0000E+00    0.0000E+00    1.434000E+09  0.02000  1.263E-04    0   0.5908   age139_m62            0.0000     1.5328E+00     9.9167  -0.1605    98.0464
 47      0.0000     0.0000E+00    0.0000E+00    2.500000E+09  0.02000  5.985E-05    0   0.5673   age150_m62            0.0000     1.5449E+00     9.9419  -0.5279    96.7900
 48      0.0000     0.0000E+00    0.0000E+00    4.250000E+09  0.02000  3.271E-05    0   0.5468   age158_m62            0.0000     1.6372E+00    10.1604  -0.8335    96.0014
 49      0.0000     0.0000E+00    0.0000E+00    1.000000E+10  0.02000  1.360E-05    0   0.5167   age181_m62            0.0000     1.9496E+00    10.7362  -1.0000    89.3103
 50      0.0000     0.0000E+00    0.0000E+00    1.800000E+10  0.02000  7.124E-06    0   0.5013   age213_m62            0.0000     2.4741E+00    11.7442  -1.0000    81.5894
 51      0.0000     0.0000E+00    0.0000E+00    1.000000E+06  0.05000  2.592E-02    0   0.9998   age020_m72            0.0000     2.0374E+00    10.8414   2.9275    81.8832
 52      0.0000     0.0000E+00    0.0000E+00    3.160000E+06  0.05000  4.845E-02    0   0.9577   age045_m72            0.0000     1.9243E+00    10.6227   2.7561    83.7716
 53      0.0000     0.0000E+00    0.0000E+00    5.010000E+06  0.05000  3.072E-02    0   0.9147   age055_m72            0.0000     2.1353E+00    11.2722   2.2875    87.4166
 54      0.0000     0.0000E+00    0.0000E+00    6.610000E+06  0.05000  1.455E-02    0   0.8877   age061_m72            0.0000     3.3782E+00    14.4922   1.5713    91.9827
 55      0.0000     0.0000E+00    0.0000E+00    1.000000E+07  0.05000  9.074E-03    0   0.8524   age070_m72            0.0000     2.1814E+00    11.3381   2.4908    86.8001
 56      0.0000     0.0000E+00    0.0000E+00    2.512000E+07  0.05000  4.250E-03    0   0.7902   age090_m72            0.0000     2.1301E+00    11.3334   2.1751    88.7766
 57      0.0000     0.0000E+00    0.0000E+00    4.000000E+07  0.05000  3.087E-03    0   0.7618   age104_m72            0.0000     2.1723E+00    11.4893   1.9431    90.4057
 58      0.0000     0.0000E+00    0.0000E+00    1.015200E+08  0.05000  1.700E-03    0   0.7096   age116_m72            0.0000     2.0085E+00    11.0330   1.6672    93.3195
 59      0.0000     0.0000E+00    0.0000E+00    2.861200E+08  0.05000  7.384E-04    0   0.6633   age125_m72            0.0000     1.8333E+00    10.5623   1.1309    98.1249
 60      0.0000     0.0000E+00    0.0000E+00    5.088000E+08  0.05000  3.819E-04    0   0.6372   age130_m72            0.0000     1.6414E+00    10.1317   0.6293   100.0793
 61     10.5168     3.7883E+00    4.2265E+00    9.047900E+08  0.05000  1.676E-04    0   0.6110   age135_m72            0.0000     1.5475E+00     9.9046  -0.0714    98.5498
 62      0.0000     0.0000E+00    0.0000E+00    1.434000E+09  0.05000  8.837E-05    0   0.5874   age139_m72            0.0000     1.5717E+00     9.9816  -0.5271    98.1633
 63     27.5708     3.9322E+01    4.0194E+01    2.500000E+09  0.05000  4.233E-05    0   0.5598   age150_m72            0.0000     1.6699E+00    10.2052  -0.8304    96.7090
 64      0.0000     0.0000E+00    0.0000E+00    6.250000E+09  0.05000  1.435E-05    0   0.5249   age166_m72            0.0000     2.1150E+00    11.0760  -1.0000    85.6703
 65      0.0000     0.0000E+00    0.0000E+00    1.300000E+10  0.05000  6.513E-06    0   0.5036   age193_m72            0.0000     3.0036E+00    12.8124  -1.0000    77.2098
 66      0.0000     0.0000E+00    0.0000E+00    1.800000E+10  0.05000  4.527E-06    0   0.4945   age213_m72            0.0000     3.6779E+00    14.0682  -1.0000    71.9960


## Synthesis Results - Average & Chains ##

# j      x_j: min, <> & last-chain-values for 1 ...  7 chains
  1      0.0000      0.1059      0.7415      0.0000      0.0000      0.0000      0.0000      0.0000      0.0000
  2      0.0000      0.5639      0.5915      0.0000      0.0000      0.4231      0.0000      1.3436      1.4325
  3      0.0000      0.1134      0.0000      0.2467      0.0000      0.2887      0.0000      0.0000      0.3587
  4      0.0000      0.4080      0.0000      0.0000      2.3225      0.0000      0.0000      0.3311      0.0000
  5      0.0000      0.2475      0.0000      0.0000      0.1665      0.2260      0.0000      0.0000      0.0000
  6      0.0000      0.1790      0.1515      1.3097      0.0000      0.8362      0.0000      0.0000      0.0000
  7      0.0000      0.4668      0.0000      0.4520      0.0000      0.0000      0.0000      0.0000      0.0000
  8      0.0000      0.2659      0.0000      0.0000      0.0000      0.0000      1.2816      0.0000      0.0000
  9      3.1929      0.2004      0.0000      2.7584      0.2213      0.0000      0.0000      0.0000      0.0000
 10      0.0000      0.3394      0.0596      0.0000      0.0000      0.0000      0.0000      1.0255      0.4580
 11      0.0000      0.4720      0.0000      0.0000      0.0000      0.0000      0.0000      0.0000      0.0550
 12      0.0000      0.5739      0.3797      0.0000      0.0000      0.0000      1.6971      0.0000      1.3758
 13      0.0000      1.2676      2.4107      0.6316      0.0000      0.6997      0.0000      0.0000      0.0000
 14     45.3164      8.3852      8.4303      4.6045      8.4407     16.9758     14.7176     11.9805     12.1266
 15      6.0317      1.5477      0.9878      3.9662      3.8208      0.0000      6.2352      3.0801      2.9694
 16      0.0000      0.6858      2.5366      0.0000      1.6719      1.5431      1.0671      0.0000      4.1686
 17      0.0000      0.6710      0.0000      0.0000      0.0000      0.0000      0.0000      1.0262      0.0000
 18      0.0000      0.2230      0.0000      0.0000      0.0000      0.5289      0.3363      1.4604      0.0000
 19      0.0000      0.2413      0.0000      0.0000      0.0000      0.8377      0.8218      0.0000      0.6697
 20      0.0000      0.1157      0.0000      0.0000      0.1395      0.0000      0.0000      0.0000      0.0000
 21      0.0000      0.6986      2.6684      0.0000      2.8237      0.0000      0.0000      0.2037      0.0000
 22      0.0000      0.1346      0.0000      0.1653      0.0000      0.2988      0.0000      0.0000      0.0000
 23      0.0000      0.1732      0.0000      0.6281      0.0000      1.1793      0.0000      0.0000      0.0000
 24      0.0000      0.2781      0.0000      0.0000      0.0000      0.0000      0.0000      1.5359      0.0000
 25      0.0000      0.2268      0.0000      0.0000      0.0000      0.0000      0.0000      0.5608      0.0000
 26      0.0000      0.4410      0.3866      1.7292      0.0000      0.0000      0.8559      0.0000      0.0000
 27      0.0000      0.2262      0.0000      0.0000      0.0000      0.0000      0.0000      0.0000      0.5403
 28      0.0000      0.6259      0.0000      0.5348      0.5467      0.0000      0.1138      0.0000      0.0000
 29      0.0000      1.3461      0.5559      0.0000      0.1432      0.0000      0.0000      0.0000      0.0000
 30      0.0364      1.6042      3.7761      1.6434      2.6458      0.0000      1.7141      0.6849      0.2573
 31      0.0013      1.4638      2.2865      1.7527      1.4253      0.9471      0.0000      3.0327      0.0000
 32      0.0000      0.8186      0.0000      0.0000      0.0000      1.4752      0.3937      0.6037      0.0000
 33      0.0000      0.0643      0.0000      0.0000      0.0054      0.0000      0.0000      0.0000      0.0000
 34      0.0000      0.1703      0.0000      0.0000      0.0000      0.0000      0.0000      0.0000      0.0000
 35      2.8435      0.2581      0.6591      0.7708      0.0000      0.0000      0.0000      0.0000      0.5717
 36      0.0000      0.1815      0.0000      0.0000      0.0000      0.0000      0.0000      0.2479      0.3931
 37      0.0000      0.2956      0.0000      0.0000      0.0000      0.0000      0.0000      0.1379      0.0000
 38      0.0000      0.1815      0.0000      0.0000      0.1827      0.0000      0.0000      0.0000      0.0000
 39      0.0000      0.1720      0.7646      0.8213      2.5529      0.0000      0.0000      0.0000      0.0000
 40      0.0000      0.2766      0.0000      0.1828      0.0000      1.9954      0.0000      0.0000      3.0999
 41      0.0000      0.4678      0.0000      2.3007      1.3043      0.0000      1.5266      1.5227      0.0000
 42      0.0064      0.2656      0.0000      0.6643      0.0000      0.0000      1.0235      0.0000      0.0000
 43      0.0000      0.1854      0.0000      0.0000      0.0000      0.0000      0.0000      0.1196      0.0000
 44      0.0000      0.6553      0.0000      0.0000      0.0000      1.6355      0.0000      0.0000      1.2764
 45      0.0081      2.5430      3.2415      2.7100      0.0000      2.5255      9.5057      3.3412      6.2637
 46      0.0000      5.9748      4.8918      3.5831      5.7745      0.0000      9.0821      4.6060      2.6990
 47      0.0000      7.0141      8.4499      7.2692      2.0255      9.5018      0.9350      6.0495      6.7850
 48      0.0000      0.4051      0.0000      1.3222      1.3041      0.0000      0.0000      0.0000      0.1607
 49      0.0000      0.0612      0.0000      0.0000      0.0000      0.0000      0.0000      0.0000      0.0000
 50      0.0000      0.0414      0.2504      0.0000      0.0000      0.0000      0.0000      0.0000      0.0000
 51      0.0000      0.1446      0.0000      0.0000      0.0000      0.0000      0.0000      0.0000      0.0000
 52      0.0000      0.0858      0.0000      0.0000      0.0000      0.0000      0.0000      0.9223      0.0000
 53      0.0000      0.3504      0.2746      0.0000      0.0000      0.0000      0.0000      0.0000      0.0000
 54      0.0000      0.1164      0.0790      0.0000      1.0308      0.0000      0.0000      0.0000      0.0000
 55      0.0000      0.1063      0.0000      0.0000      0.0000      0.8623      0.0000      0.0000      0.0000
 56      0.0000      0.2244      0.2561      0.0000      0.0000      0.0000      0.0000      0.0000      0.0000
 57      0.0000      0.1006      0.0000      0.0000      0.0000      0.0000      0.0000      0.0000      0.0000
 58      0.0000      0.1808      0.0000      0.0000      0.0000      0.0000      1.4311      0.0000      0.0000
 59      0.0000      0.4180      0.0000      0.0000      0.0000      0.0000      0.2850      0.2647      0.0000
 60      0.0000      0.5134      0.0000      0.0891      0.0000      0.0000      0.0000      0.3750      2.0771
 61     10.5168     41.0264     45.4214     43.0457     49.7347     47.8077     29.1944     44.7818     40.8499
 62      0.0000      4.2487      5.0574      0.8537      4.6459      1.8015      6.1514      0.5765      3.9310
 63     27.5708      5.2582      1.8099     13.6127      4.4062      5.3261      8.8215      7.2854      4.8806
 64      0.0000      0.1197      0.0000      0.0000      0.0000      0.0000      0.0102      0.0000      0.0000
 65      0.0000      0.0319      0.0000      0.0000      0.0000      0.0000      0.0000      0.0000      0.0000
 66      0.0000      0.0498      0.0000      0.0000      0.0000      0.2531      0.0000      0.0000      0.0000

# j      m_j: min, <> & last-chain-values for 1 ...  7 chains
  1  0.0000E+00  1.6707E-03  1.1848E-02  0.0000E+00  0.0000E+00  0.0000E+00  0.0000E+00  0.0000E+00  0.0000E+00
  2  0.0000E+00  2.4289E-03  2.5802E-03  0.0000E+00  0.0000E+00  1.7142E-03  0.0000E+00  5.6399E-03  5.9184E-03
  3  0.0000E+00  7.3172E-04  0.0000E+00  1.5433E-03  0.0000E+00  1.7515E-03  0.0000E+00  0.0000E+00  2.2190E-03
  4  0.0000E+00  2.4786E-03  0.0000E+00  0.0000E+00  1.4764E-02  0.0000E+00  0.0000E+00  1.9600E-03  0.0000E+00
  5  0.0000E+00  2.8643E-03  0.0000E+00  0.0000E+00  2.0161E-03  2.4603E-03  0.0000E+00  0.0000E+00  0.0000E+00
  6  0.0000E+00  3.3595E-03  2.8786E-03  2.3835E-02  0.0000E+00  1.4762E-02  0.0000E+00  0.0000E+00  0.0000E+00
  7  0.0000E+00  1.2544E-02  0.0000E+00  1.1778E-02  0.0000E+00  0.0000E+00  0.0000E+00  0.0000E+00  0.0000E+00
  8  0.0000E+00  9.8751E-03  0.0000E+00  0.0000E+00  0.0000E+00  0.0000E+00  4.4717E-02  0.0000E+00  0.0000E+00
  9  8.6677E-02  8.5187E-03  0.0000E+00  1.1370E-01  9.8457E-03  0.0000E+00  0.0000E+00  0.0000E+00  0.0000E+00
 10  0.0000E+00  1.8954E-02  3.3700E-03  0.0000E+00  0.0000E+00  0.0000E+00  0.0000E+00  5.5800E-02  2.4529E-02
 11  0.0000E+00  4.9554E-02  0.0000E+00  0.0000E+00  0.0000E+00  0.0000E+00  0.0000E+00  0.0000E+00  5.5413E-03
 12  0.0000E+00  9.5583E-02  6.4042E-02  0.0000E+00  0.0000E+00  0.0000E+00  2.6555E-01  0.0000E+00  2.1978E-01
 13  0.0000E+00  5.9511E-01  1.1460E+00  2.8750E-01  0.0000E+00  3.0894E-01  0.0000E+00  0.0000E+00  0.0000E+00
 14  4.5566E+01  1.3203E+01  1.3441E+01  7.0300E+00  1.3908E+01  2.5141E+01  2.1771E+01  1.8382E+01  1.8313E+01
 15  9.8735E+00  3.9672E+00  2.5639E+00  9.8579E+00  1.0249E+01  0.0000E+00  1.5015E+01  7.6933E+00  7.3001E+00
 16  0.0000E+00  2.9722E+00  1.1133E+01  0.0000E+00  7.5828E+00  6.2908E+00  4.3450E+00  0.0000E+00  1.7328E+01
 17  0.0000E+00  3.7728E+00  0.0000E+00  0.0000E+00  0.0000E+00  0.0000E+00  0.0000E+00  5.6221E+00  0.0000E+00
 18  0.0000E+00  3.1096E-03  0.0000E+00  0.0000E+00  0.0000E+00  6.9369E-03  4.4055E-03  1.9843E-02  0.0000E+00
 19  0.0000E+00  1.3503E-03  0.0000E+00  0.0000E+00  0.0000E+00  4.4096E-03  4.3209E-03  0.0000E+00  3.5945E-03
 20  0.0000E+00  7.0672E-04  0.0000E+00  0.0000E+00  8.9177E-04  0.0000E+00  0.0000E+00  0.0000E+00  0.0000E+00
 21  0.0000E+00  5.1816E-03  2.0040E-02  0.0000E+00  2.1914E-02  0.0000E+00  0.0000E+00  1.4718E-03  0.0000E+00
 22  0.0000E+00  1.6883E-03  0.0000E+00  2.0101E-03  0.0000E+00  3.5243E-03  0.0000E+00  0.0000E+00  0.0000E+00
 23  0.0000E+00  2.9340E-03  0.0000E+00  1.0315E-02  0.0000E+00  1.8786E-02  0.0000E+00  0.0000E+00  0.0000E+00
 24  0.0000E+00  7.0077E-03  0.0000E+00  0.0000E+00  0.0000E+00  0.0000E+00  0.0000E+00  3.7708E-02  0.0000E+00
 25  0.0000E+00  7.8803E-03  0.0000E+00  0.0000E+00  0.0000E+00  0.0000E+00  0.0000E+00  1.8985E-02  0.0000E+00
 26  0.0000E+00  2.5608E-02  2.2732E-02  9.7371E-02  0.0000E+00  0.0000E+00  4.6694E-02  0.0000E+00  0.0000E+00
 27  0.0000E+00  2.6290E-02  0.0000E+00  0.0000E+00  0.0000E+00  0.0000E+00  0.0000E+00  0.0000E+00  6.0229E-02
 28  0.0000E+00  2.1113E-01  0.0000E+00  1.7494E-01  1.9299E-01  0.0000E+00  3.6063E-02  0.0000E+00  0.0000E+00
 29  0.0000E+00  7.9120E-01  3.3089E-01  0.0000E+00  8.8083E-02  0.0000E+00  0.0000E+00  0.0000E+00  0.0000E+00
 30  2.8550E-02  1.9700E+00  4.6956E+00  1.9569E+00  3.3999E+00  0.0000E+00  1.9775E+00  8.1955E-01  3.0302E-01
 31  1.7737E-03  3.1621E+00  5.0016E+00  3.6713E+00  3.2219E+00  1.9244E+00  0.0000E+00  6.3838E+00  0.0000E+00
 32  0.0000E+00  2.3793E+00  0.0000E+00  0.0000E+00  0.0000E+00  4.0330E+00  1.0750E+00  1.7097E+00  0.0000E+00
 33  0.0000E+00  4.1368E-01  0.0000E+00  0.0000E+00  3.6196E-02  0.0000E+00  0.0000E+00  0.0000E+00  0.0000E+00
 34  0.0000E+00  1.4840E+00  0.0000E+00  0.0000E+00  0.0000E+00  0.0000E+00  0.0000E+00  0.0000E+00  0.0000E+00
 35  2.0301E-02  2.8858E-03  7.4615E-03  8.3566E-03  0.0000E+00  0.0000E+00  0.0000E+00  0.0000E+00  6.1302E-03
 36  0.0000E+00  8.2097E-04  0.0000E+00  0.0000E+00  0.0000E+00  0.0000E+00  0.0000E+00  1.0928E-03  1.7055E-03
 37  0.0000E+00  1.4462E-03  0.0000E+00  0.0000E+00  0.0000E+00  0.0000E+00  0.0000E+00  6.5748E-04  0.0000E+00
 38  0.0000E+00  2.4059E-03  0.0000E+00  0.0000E+00  2.5336E-03  0.0000E+00  0.0000E+00  0.0000E+00  0.0000E+00
 39  0.0000E+00  3.2821E-03  1.4776E-02  1.5199E-02  5.0985E-02  0.0000E+00  0.0000E+00  0.0000E+00  0.0000E+00
 40  0.0000E+00  8.5328E-03  0.0000E+00  5.4691E-03  0.0000E+00  5.7899E-02  0.0000E+00  0.0000E+00  9.1716E-02
 41  0.0000E+00  2.2440E-02  0.0000E+00  1.0702E-01  6.5475E-02  0.0000E+00  6.8801E-02  7.1179E-02  0.0000E+00
 42  3.6019E-04  2.3391E-02  0.0000E+00  5.6734E-02  0.0000E+00  0.0000E+00  8.4694E-02  0.0000E+00  0.0000E+00
 43  0.0000E+00  2.3846E-02  0.0000E+00  0.0000E+00  0.0000E+00  0.0000E+00  0.0000E+00  1.4986E-02  0.0000E+00
 44  0.0000E+00  1.4510E-01  0.0000E+00  0.0000E+00  0.0000E+00  3.4061E-01  0.0000E+00  0.0000E+00  2.7104E-01
 45  2.2825E-03  1.1172E+00  1.4420E+00  1.1544E+00  0.0000E+00  1.0436E+00  3.9232E+00  1.4303E+00  2.6391E+00
 46  0.0000E+00  4.8246E+00  3.9999E+00  2.8055E+00  4.8794E+00  0.0000E+00  6.8899E+00  3.6242E+00  2.0902E+00
 47  0.0000E+00  1.1477E+01  1.4001E+01  1.1533E+01  3.4681E+00  1.4624E+01  1.4373E+00  9.6454E+00  1.0648E+01
 48  0.0000E+00  1.1691E+00  0.0000E+00  3.6997E+00  3.9380E+00  0.0000E+00  0.0000E+00  0.0000E+00  4.4477E-01
 49  0.0000E+00  4.0106E-01  0.0000E+00  0.0000E+00  0.0000E+00  0.0000E+00  0.0000E+00  0.0000E+00  0.0000E+00
 50  0.0000E+00  5.0326E-01  3.0801E+00  0.0000E+00  0.0000E+00  0.0000E+00  0.0000E+00  0.0000E+00  0.0000E+00
 51  0.0000E+00  9.6289E-04  0.0000E+00  0.0000E+00  0.0000E+00  0.0000E+00  0.0000E+00  0.0000E+00  0.0000E+00
 52  0.0000E+00  2.9294E-04  0.0000E+00  0.0000E+00  0.0000E+00  0.0000E+00  0.0000E+00  3.0666E-03  0.0000E+00
 53  0.0000E+00  1.8011E-03  1.4292E-03  0.0000E+00  0.0000E+00  0.0000E+00  0.0000E+00  0.0000E+00  0.0000E+00
 54  0.0000E+00  1.2256E-03  8.4236E-04  0.0000E+00  1.1360E-02  0.0000E+00  0.0000E+00  0.0000E+00  0.0000E+00
 55  0.0000E+00  1.7238E-03  0.0000E+00  0.0000E+00  0.0000E+00  1.3152E-02  0.0000E+00  0.0000E+00  0.0000E+00
 56  0.0000E+00  7.2018E-03  8.3232E-03  0.0000E+00  0.0000E+00  0.0000E+00  0.0000E+00  0.0000E+00  0.0000E+00
 57  0.0000E+00  4.2839E-03  0.0000E+00  0.0000E+00  0.0000E+00  0.0000E+00  0.0000E+00  0.0000E+00  0.0000E+00
 58  0.0000E+00  1.3030E-02  0.0000E+00  0.0000E+00  0.0000E+00  0.0000E+00  9.6876E-02  0.0000E+00  0.0000E+00
 59  0.0000E+00  6.4813E-02  0.0000E+00  0.0000E+00  0.0000E+00  0.0000E+00  4.1516E-02  3.9994E-02  0.0000E+00
 60  0.0000E+00  1.4787E-01  0.0000E+00  2.4891E-02  0.0000E+00  0.0000E+00  0.0000E+00  1.0524E-01  5.7378E-01
 61  4.2265E+00  2.5819E+01  2.8945E+01  2.6267E+01  3.2752E+01  2.8299E+01  1.7261E+01  2.7461E+01  2.4656E+01
 62  0.0000E+00  4.8752E+00  5.8763E+00  9.4980E-01  5.5784E+00  1.9443E+00  6.6312E+00  6.4458E-01  4.3260E+00
 63  4.0194E+01  1.2004E+01  4.1839E+00  3.0133E+01  1.0526E+01  1.1436E+01  1.8920E+01  1.6207E+01  1.0686E+01
 64  0.0000E+00  7.5553E-01  0.0000E+00  0.0000E+00  0.0000E+00  0.0000E+00  6.0627E-02  0.0000E+00  0.0000E+00
 65  0.0000E+00  4.2620E-01  0.0000E+00  0.0000E+00  0.0000E+00  0.0000E+00  0.0000E+00  0.0000E+00  0.0000E+00
 66  0.0000E+00  9.3841E-01  0.0000E+00  0.0000E+00  0.0000E+00  4.4890E+00  0.0000E+00  0.0000E+00  0.0000E+00

# AV, chi2 & Mass for <> & i_chain = 1 ...  7 solutions
AV      -0.4063     -0.1202     -0.1502     -0.1620     -0.1249     -0.1672     -0.1698     -0.1302     -0.1209
chi2 1.5048E+00  1.5201E+00  1.5182E+00  1.5172E+00  1.5177E+00  1.5173E+00  1.5178E+00  1.5170E+00  1.5181E+00
Mass 1.4818E-13  1.3897E-13  1.3183E-13  1.3549E-13  1.3197E-13  1.3871E-13  1.3839E-13  1.4072E-13  1.4476E-13
-101.91                                  [v0_min (km/s) before EX0s...]
 253.79                                  [vd_min (km/s) before EX0s...]


## Synthetic spectrum (Best Model) ##l_obs f_obs f_syn wei
 3478    [Nl_obs]
 3741.00    0.79480   0.55154    0.000
 3742.00    1.07676   0.54082    0.000
 3743.00    1.14921   0.52421    0.000
 3744.00    1.10100   0.50485    0.000
 3745.00    1.19366   0.48671   -1.000
 3746.00    1.34991   0.47494   -1.000
 3747.00    1.36430   0.47214   -1.000
 3748.00    1.27809   0.47621   -1.000
 3749.00    1.24558   0.48858   -1.000
 3750.00    1.33829   0.51128   -1.000
 3751.00    1.50629   0.53945   -1.000
 3752.00    1.59193   0.56417   -1.000
 3753.00    1.53731   0.58122   -1.000
 3754.00    1.47446   0.59303   -1.000
 3755.00    1.45014   0.60008   -1.000
 3756.00    1.33701   0.60026   -1.000
 3757.00    1.10942   0.59450   -1.000
 3758.00    0.89030   0.58840   -1.000
 3759.00    0.69593   0.58653   14.369
 3760.00    0.44011   0.58738   21.550
 3761.00    0.18335   0.58744   -1.000
 3762.00    0.07955   0.58549   -1.000
 3763.00    0.11891   0.58198   -1.000
 3764.00    0.21814   0.57864   -1.000
 3765.00    0.46059   0.57458   21.550
 3766.00    0.92100   0.56833   -1.000
 3767.00    1.38792   0.56460   -1.000
 3768.00    1.60528   0.56768   -1.000
 3769.00    1.56740   0.57434   -1.000
 3770.00    1.39741   0.58250   -1.000
 3771.00    1.20778   0.59603   -1.000
 3772.00    1.06924   0.61538   -1.000
 3773.00    0.99839   0.63532   -1.000
 3774.00    0.96932   0.65359   -1.000
 3775.00    0.94143   0.67185   10.622
 3776.00    0.94896   0.69069   10.538
 3777.00    1.09064   0.70746   -1.000
 3778.00    1.35128   0.72051   -1.000
 3779.00    1.58638   0.73106   -1.000
 3780.00    1.66507   0.73776   -1.000
 3781.00    1.53296   0.73680   -1.000
 3782.00    1.25429   0.72888   -1.000
 3783.00    0.96579   0.71790   -1.000
 3784.00    0.77548   0.70419   12.895
 3785.00    0.71829   0.68573   13.922
 3786.00    0.72698   0.66510   13.756
 3787.00    0.72935   0.64785   13.711
 3788.00    0.75403   0.63249   13.262
 3789.00    0.81816   0.61581   -1.000
 3790.00    0.83242   0.59920   -1.000
 3791.00    0.75519   0.58419   13.242
 3792.00    0.68268   0.56797   14.648
 3793.00    0.66211   0.54953   15.103
 3794.00    0.61315   0.53378   16.309
 3795.00    0.50359   0.52571   19.857
 3796.00    0.41768   0.52543   21.550
 3797.00    0.48460   0.53090   20.635
 3798.00    0.77806   0.54421   12.852
 3799.00    1.11525   0.56726   -1.000
 3800.00    1.21505   0.59526   -1.000
 3801.00    1.19711   0.62136   -1.000
 3802.00    1.35968   0.64372   -1.000
 3803.00    1.55553   0.66384   -1.000
 3804.00    1.49616   0.68043   -1.000
 3805.00    1.36079   0.69189   -1.000
 3806.00    1.41783   0.69830   -1.000
 3807.00    1.49625   0.70140   -1.000
 3808.00    1.38904   0.70241   -1.000
 3809.00    1.26273   0.69998   -1.000
 3810.00    1.31064   0.69275   -1.000
 3811.00    1.47587   0.68157   -1.000
 3812.00    1.59942   0.66872   -1.000
 3813.00    1.55103   0.65648   -1.000
 3814.00    1.35071   0.64531   -1.000
 3815.00    1.16012   0.63372   -1.000
 3816.00    1.02668   0.62343   -1.000
 3817.00    0.85118   0.61763   -1.000
 3818.00    0.60762   0.61275   16.458
 3819.00    0.37372   0.60310   -1.000
 3820.00    0.22847   0.59027   -1.000
 3821.00    0.21018   0.58019   -1.000
 3822.00    0.29001   0.57228   -1.000
 3823.00    0.42530   0.56065   21.550
 3824.00    0.64384   0.54499   15.532
 3825.00    0.93658   0.53076   -1.000
 3826.00    1.12273   0.51915   -1.000
 3827.00    1.04228   0.50615   -1.000
 3828.00    0.75781   0.49039   -1.000
 3829.00    0.45904   0.47494   21.550
 3830.00    0.34393   0.46106   21.550
 3831.00    0.45688   0.44753   21.550
 3832.00    0.62947   0.43555   15.886
 3833.00    0.69817   0.42845   -1.000
 3834.00    0.62068   0.42727   16.111
 3835.00    0.46798   0.43262   21.368
 3836.00    0.38299   0.44475   21.550
 3837.00    0.46489   0.46229   21.511
 3838.00    0.70779   0.48480   14.128
 3839.00    0.94966   0.51122   -1.000
 3840.00    1.00338   0.53916   -1.000
 3841.00    0.94342   0.56689   -1.000
 3842.00    0.96445   0.59388   -1.000
 3843.00    1.05723   0.61772   -1.000
 3844.00    1.12855   0.63632   -1.000
 3845.00    1.21847   0.64893   -1.000
 3846.00    1.34669   0.65788   -1.000
 3847.00    1.35095   0.66612    0.000
 3848.00    1.17349   0.67150    0.000
 3849.00    1.05985   0.67190    0.000
 3850.00    1.13540   0.67040    0.000
 3851.00    1.18210   0.66967    0.000
 3852.00    1.07113   0.66728    0.000
 3853.00    0.93754   0.66194    0.000
 3854.00    0.86684   0.65474    0.000
 3855.00    0.80410   0.64686    0.000
 3856.00    0.73143   0.64134    0.000
 3857.00    0.69107   0.64095    0.000
 3858.00    0.67557   0.64332    0.000
 3859.00    0.66425   0.64691    0.000
 3860.00    0.76297   0.65420    0.000
 3861.00    1.09116   0.66503    0.000
 3862.00    1.54071   0.67528    0.000
 3863.00    1.87082   0.68188    0.000
 3864.00    1.90498   0.68454    0.000
 3865.00    1.62538   0.68407    0.000
 3866.00    1.22852   0.68066    0.000
 3867.00    0.93899   0.67452    0.000
 3868.00    0.84253   0.66643    0.000
 3869.00    0.92742   0.65907    0.000
 3870.00    1.12062   0.65328    0.000
 3871.00    1.26849   0.64893    0.000
 3872.00    1.18680   0.64511    0.000
 3873.00    0.93459   0.64208    0.000
 3874.00    0.79646   0.63980    0.000
 3875.00    0.77574   0.63840    0.000
 3876.00    0.59685   0.63542    0.000
 3877.00    0.24269   0.62730    0.000
 3878.00   -0.03855   0.61675   -2.000
 3879.00   -0.08210   0.60985   -2.000
 3880.00    0.11131   0.60336    0.000
 3881.00    0.38462   0.58948   -1.000
 3882.00    0.55469   0.57234   18.028
 3883.00    0.59408   0.55938   16.833
 3884.00    0.58858   0.54823   16.990
 3885.00    0.64669   0.53524   15.463
 3886.00    0.79302   0.52722   -1.000
 3887.00    0.90401   0.52932   -1.000
 3888.00    0.91006   0.53795   -1.000
 3889.00    0.91324   0.55048   -1.000
 3890.00    0.95078   0.56850   -1.000
 3891.00    0.89930   0.58952   -1.000
 3892.00    0.72374   0.61019   13.817
 3893.00    0.54507   0.62877   18.346
 3894.00    0.43051   0.64346   -1.000
 3895.00    0.35154   0.65443   -1.000
 3896.00    0.30615   0.66507   -1.000
 3897.00    0.32280   0.67535   -1.000
 3898.00    0.37999   0.68077   -1.000
 3899.00    0.43557   0.68311   -1.000
 3900.00    0.51718   0.68739   -1.000
 3901.00    0.68048   0.69186   14.696
 3902.00    0.91733   0.69371   10.901
 3903.00    1.12342   0.69741   -1.000
 3904.00    1.10013   0.70576   -1.000
 3905.00    0.81286   0.71447   12.302
 3906.00    0.58815   0.72361   17.002
 3907.00    0.65395   0.73668   15.292
 3908.00    0.82260   0.75028   12.157
 3909.00    0.87758   0.75913   11.395
 3910.00    0.81468   0.76408   12.275
 3911.00    0.74277   0.76753   13.463
 3912.00    0.78592   0.76675   12.724
 3913.00    0.92920   0.76070   10.762
 3914.00    1.02635   0.75246   -1.000
 3915.00    1.01433   0.74317   -1.000
 3916.00    0.94173   0.73134   10.619
 3917.00    0.86413   0.71878   11.572
 3918.00    0.81844   0.70725   12.218
 3919.00    0.82688   0.69552   12.094
 3920.00    0.88757   0.68284   -1.000
 3921.00    0.96008   0.66875   -1.000
 3922.00    0.99223   0.65245   -1.000
 3923.00    0.95720   0.63209   -1.000
 3924.00    0.85397   0.60636   -1.000
 3925.00    0.70283   0.57453   14.228
 3926.00    0.54302   0.53781   18.415
 3927.00    0.42352   0.49819   21.550
 3928.00    0.35197   0.45771   21.550
 3929.00    0.28104   0.41992   -1.000
 3930.00    0.21119   0.38931   -1.000
 3931.00    0.21846   0.36928   -1.000
 3932.00    0.34094   0.36139   21.550
 3933.00    0.53974   0.36613   18.527
 3934.00    0.73433   0.38377   -1.000
 3935.00    0.84264   0.41248   -1.000
 3936.00    0.85104   0.44758   -1.000
 3937.00    0.80451   0.48441   -1.000
 3938.00    0.74774   0.52111   13.374
 3939.00    0.72641   0.55497   13.766
 3940.00    0.80599   0.58356   12.407
 3941.00    0.99871   0.60880   -1.000
 3942.00    1.17330   0.63273   -1.000
 3943.00    1.19063   0.65206   -1.000
 3944.00    1.05506   0.66698   -1.000
 3945.00    0.85027   0.68349   11.761
 3946.00    0.66682   0.70138   14.997
 3947.00    0.57539   0.71413   17.379
 3948.00    0.60522   0.72106   16.523
 3949.00    0.70767   0.72861   14.131
 3950.00    0.76371   0.73777   13.094
 3951.00    0.69964   0.74169   14.293
 3952.00    0.53190   0.73805   18.800
 3953.00    0.33968   0.73344   -1.000
 3954.00    0.22348   0.72997   -1.000
 3955.00    0.22251   0.72085   -1.000
 3956.00    0.31399   0.70314   -1.000
 3957.00    0.46268   0.68081   21.550
 3958.00    0.62423   0.65619   16.020
 3959.00    0.73419   0.62686   13.620
 3960.00    0.76178   0.59031    0.000
 3961.00    0.77736   0.54826    0.000
 3962.00    0.82686   0.50531    0.000
 3963.00    0.80080   0.46387    0.000
 3964.00    0.63239   0.42450    0.000
 3965.00    0.46043   0.39025    0.000
 3966.00    0.41268   0.36569    0.000
 3967.00    0.45644   0.35387    0.000
 3968.00    0.50634   0.35559    0.000
 3969.00    0.50205   0.37069    0.000
 3970.00    0.44666   0.39867    0.000
 3971.00    0.39852   0.43714    0.000
 3972.00    0.38352   0.48119    0.000
 3973.00    0.38027   0.52702    0.000
 3974.00    0.37251   0.57337    0.000
 3975.00    0.37298   0.61805    0.000
 3976.00    0.43798   0.65760    0.000
 3977.00    0.59237   0.69080    0.000
 3978.00    0.69750   0.71852    0.000
 3979.00    0.62190   0.74153    0.000
 3980.00    0.50957   0.76031    0.000
 3981.00    0.56336   0.77469   -1.000
 3982.00    0.75758   0.78538   13.200
 3983.00    0.97101   0.79557   10.299
 3984.00    1.14155   0.80713   -1.000
 3985.00    1.25103   0.81741   -1.000
 3986.00    1.30023   0.82484   -1.000
 3987.00    1.28918   0.83295   -1.000
 3988.00    1.21728   0.84254   -1.000
 3989.00    1.13541   0.84874    8.807
 3990.00    1.12940   0.85100    8.854
 3991.00    1.16402   0.85344   -1.000
 3992.00    1.10636   0.85556    9.039
 3993.00    0.97616   0.85490   10.244
 3994.00    0.92850   0.85289   10.770
 3995.00    1.02528   0.85420    9.753
 3996.00    1.21564   0.85746   -1.000
 3997.00    1.40960   0.85912   -1.000
 3998.00    1.50863   0.86165   -1.000
 3999.00    1.43408   0.86774   -1.000
 4000.00    1.19208   0.87122   -1.000
 4001.00    0.93194   0.86835   10.730
 4002.00    0.77778   0.86577   12.857
 4003.00    0.67574   0.86698   14.799
 4004.00    0.56765   0.86660   -1.000
 4005.00    0.51766   0.86420   -1.000
 4006.00    0.56354   0.86690   -1.000
 4007.00    0.64086   0.87545   -1.000
 4008.00    0.71005   0.88339   14.083
 4009.00    0.80428   0.88964   12.434
 4010.00    0.95019   0.89658   10.524
 4011.00    1.13830   0.90430    8.785
 4012.00    1.33605   0.91020   -1.000
 4013.00    1.48924   0.91357   -1.000
 4014.00    1.51581   0.91618   -1.000
 4015.00    1.35661   0.92030   -1.000
 4016.00    1.07758   0.92321    9.280
 4017.00    0.84302   0.92229   11.862
 4018.00    0.82964   0.92185   12.053
 4019.00    1.08411   0.92361    9.224
 4020.00    1.37913   0.92241   -1.000
 4021.00    1.45569   0.91900   -1.000
 4022.00    1.28675   0.91776   -1.000
 4023.00    1.02377   0.91688    9.768
 4024.00    0.88899   0.91314   11.249
 4025.00    0.89417   0.90834   11.184
 4026.00    0.75603   0.90229   13.227
 4027.00    0.41515   0.89351   -1.000
 4028.00    0.19186   0.88427   -1.000
 4029.00    0.25791   0.87556   -1.000
 4030.00    0.49248   0.86740   -1.000
 4031.00    0.77466   0.86421   12.909
 4032.00    1.05275   0.86817    9.499
 4033.00    1.25520   0.87616   -1.000
 4034.00    1.31069   0.88692   -1.000
 4035.00    1.24008   0.89943   -1.000
 4036.00    1.12062   0.91047    8.924
 4037.00    0.99422   0.91712   10.058
 4038.00    0.88391   0.91898   11.313
 4039.00    0.83335   0.91590   12.000
 4040.00    0.85943   0.90679   11.636
 4041.00    0.90489   0.89352   11.051
 4042.00    0.92811   0.88211   10.775
 4043.00    0.97029   0.87539   10.306
 4044.00    1.04550   0.87051    9.565
 4045.00    1.08270   0.86721    9.236
 4046.00    1.05350   0.87132    9.492
 4047.00    1.01914   0.88250    9.812
 4048.00    1.01151   0.89130    9.886
 4049.00    1.00000   0.89576   10.000
 4050.00    0.96802   0.89936   10.330
 4051.00    0.94190   0.90014   10.617
 4052.00    0.99024   0.89703   10.099
 4053.00    1.15361   0.89207    8.668
 4054.00    1.29902   0.88589   -1.000
 4055.00    1.25448   0.88024   -1.000
 4056.00    1.09292   0.87660    9.150
 4057.00    0.98955   0.87265   10.106
 4058.00    0.95486   0.86762   10.473
 4059.00    0.90424   0.86247   11.059
 4060.00    0.78554   0.85820   12.730
 4061.00    0.63759   0.85629   15.684
 4062.00    0.60722   0.85443   -1.000
 4063.00    0.77044   0.85084   12.980
 4064.00    1.02176   0.85178    9.787
 4065.00    1.20505   0.85974   -1.000
 4066.00    1.20872   0.86549   -1.000
 4067.00    1.02495   0.86600    9.757
 4068.00    0.75186   0.86775   13.300
 4069.00    0.50719   0.87175   -1.000
 4070.00    0.38422   0.87082   -1.000
 4071.00    0.42148   0.86390   -1.000
 4072.00    0.59792   0.85817   -1.000
 4073.00    0.84321   0.85538   11.859
 4074.00    1.05889   0.85211    9.444
 4075.00    1.15453   0.84950    8.662
 4076.00    1.09273   0.85011    9.151
 4077.00    0.94023   0.85421   10.636
 4078.00    0.80259   0.86182   12.460
 4079.00    0.73891   0.87110   13.534
 4080.00    0.77252   0.88065   12.945
 4081.00    0.90493   0.89035   11.051
 4082.00    1.07100   0.89838    9.337
 4083.00    1.13140   0.90499    8.839
 4084.00    1.04171   0.91190    9.600
 4085.00    0.91893   0.91786   10.882
 4086.00    0.85512   0.92201   11.694
 4087.00    0.84669   0.92503   11.811
 4088.00    0.88642   0.92463   11.281
 4089.00    0.97529   0.91934   10.253
 4090.00    1.04581   0.91070    9.562
 4091.00    1.00616   0.89759    9.939
 4092.00    0.90090   0.87863    0.000
 4093.00    0.84127   0.85720    0.000
 4094.00    0.79851   0.83364    0.000
 4095.00    0.67816   0.80626    0.000
 4096.00    0.49682   0.77881    0.000
 4097.00    0.36991   0.75363    0.000
 4098.00    0.44685   0.73216    0.000
 4099.00    0.73974   0.71847    0.000
 4100.00    0.99898   0.71251    0.000
 4101.00    1.03505   0.71289    0.000
 4102.00    0.94621   0.72335    0.000
 4103.00    0.85094   0.74239    0.000
 4104.00    0.73256   0.76321    0.000
 4105.00    0.58698   0.78441    0.000
 4106.00    0.47460   0.80569    0.000
 4107.00    0.40407   0.82426    0.000
 4108.00    0.32688   0.83984    0.000
 4109.00    0.27535   0.85355    0.000
 4110.00    0.33443   0.86572    0.000
 4111.00    0.45825   0.87573    0.000
 4112.00    0.53883   0.88415    0.000
 4113.00    0.63435   0.89208   -1.000
 4114.00    0.84469   0.89697   11.839
 4115.00    1.04500   0.89784    9.569
 4116.00    1.05628   0.89872    9.467
 4117.00    0.91417   0.89958   10.939
 4118.00    0.76631   0.89726   13.050
 4119.00    0.72222   0.89476   13.846
 4120.00    0.79524   0.89566   12.575
 4121.00    0.88668   0.89672   11.278
 4122.00    0.92548   0.89567   10.805
 4123.00    0.94599   0.89434   10.571
 4124.00    0.99134   0.89308   10.087
 4125.00    1.05718   0.88970    9.459
 4126.00    1.08881   0.88424    9.184
 4127.00    1.02299   0.87822    9.775
 4128.00    0.92389   0.87205   10.824
 4129.00    0.92785   0.86750   10.778
 4130.00    0.97827   0.86564   10.222
 4131.00    0.89348   0.86640   11.192
 4132.00    0.66246   0.87000   15.095
 4133.00    0.42845   0.87707   -1.000
 4134.00    0.34413   0.88528   -1.000
 4135.00    0.46294   0.89365   -1.000
 4136.00    0.64283   0.90004   -1.000
 4137.00    0.74919   0.90186   -2.000
 4138.00    0.86872   0.90123   -2.000
 4139.00    1.10319   0.89663   -2.000
 4140.00    1.38380   0.88876   -2.000
 4141.00    1.58502   0.88288   -2.000
 4142.00    1.62489   0.87778   -2.000
 4143.00    1.51463   0.87227   -2.000
 4144.00    1.34947   0.87165   -2.000
 4145.00    1.16027   0.87542   -2.000
 4146.00    0.90740   0.87743   -2.000
 4147.00    0.69265   0.87840   -2.000
 4148.00    0.70615   0.88024   -2.000
 4149.00    0.87032   0.87997   -2.000
 4150.00    0.93033   0.87776   -2.000
 4151.00    0.87594   0.87670   -2.000
 4152.00    0.84632   0.87654   -2.000
 4153.00    0.79683   0.87646   12.550
 4154.00    0.63956   0.87766   -1.000
 4155.00    0.51148   0.88254   -1.000
 4156.00    0.55154   0.88901   -1.000
 4157.00    0.62866   0.89487   -1.000
 4158.00    0.60332   0.90212   -1.000
 4159.00    0.56869   0.91011   -1.000
 4160.00    0.63979   0.91494   -1.000
 4161.00    0.79246   0.91652   12.619
 4162.00    0.92710   0.91837   10.786
 4163.00    0.93979   0.91763   10.641
 4164.00    0.84534   0.91182   11.830
 4165.00    0.78218   0.90552   12.785
 4166.00    0.82211   0.89878   12.164
 4167.00    0.93119   0.88852   10.739
 4168.00    1.07019   0.87723    9.344
 4169.00    1.20649   0.86741   -1.000
 4170.00    1.27104   0.85811   -1.000
 4171.00    1.21340   0.84946   -1.000
 4172.00    1.11625   0.84308    8.959
 4173.00    1.08014   0.84060    9.258
 4174.00    1.03196   0.84128    9.690
 4175.00    0.89365   0.84398   11.190
 4176.00    0.79561   0.84918   12.569
 4177.00    0.83848   0.85463   11.926
 4178.00    0.87345   0.85908   11.449
 4179.00    0.77275   0.86462   12.941
 4180.00    0.62785   0.86984   -1.000
 4181.00    0.57977   0.87243   -1.000
 4182.00    0.69404   0.87498   14.408
 4183.00    0.91238   0.87743   10.960
 4184.00    1.07453   0.87785    9.306
 4185.00    1.08193   0.88047    9.243
 4186.00    0.95814   0.88443   10.437
 4187.00    0.82934   0.88527   12.058
 4188.00    0.84240   0.88694   11.871
 4189.00    0.98606   0.89184   10.141
 4190.00    1.12351   0.89463    8.901
 4191.00    1.14561   0.89167    8.729
 4192.00    1.03586   0.88738    9.654
 4193.00    0.91386   0.88404   10.943
 4194.00    0.90674   0.87626   11.029
 4195.00    0.98656   0.86423   10.136
 4196.00    1.04460   0.85601    9.573
 4197.00    0.99529   0.85141   10.047
 4198.00    0.85547   0.84537   11.689
 4199.00    0.76913   0.84344   13.002
 4200.00    0.80137   0.84880   12.479
 4201.00    0.84124   0.85439   11.887
 4202.00    0.80249   0.86056   12.461
 4203.00    0.71369   0.87143   14.012
 4204.00    0.64141   0.88238   -1.000
 4205.00    0.64264   0.89110   -1.000
 4206.00    0.72275   0.89938   13.836
 4207.00    0.83296   0.90603   12.005
 4208.00    0.90043   0.91043   11.106
 4209.00    0.87024   0.91190   11.491
 4210.00    0.77125   0.91131   12.966
 4211.00    0.67873   0.91057   14.733
 4212.00    0.63129   0.90833   -1.000
 4213.00    0.63030   0.90653   -1.000
 4214.00    0.65823   0.90757   15.192
 4215.00    0.68859   0.90702   14.522
 4216.00    0.69676   0.90569   14.352
 4217.00    0.68615   0.90685   14.574
 4218.00    0.70301   0.90428   14.225
 4219.00    0.79141   0.89440   12.636
 4220.00    0.95716   0.88136   10.448
 4221.00    1.14466   0.86683    8.736
 4222.00    1.24913   0.84899   -1.000
 4223.00    1.21725   0.83049   -1.000
 4224.00    1.07852   0.81871    9.272
 4225.00    0.90097   0.81547   11.099
 4226.00    0.76125   0.81509   13.136
 4227.00    0.70781   0.82059   14.128
 4228.00    0.74578   0.83575   13.409
 4229.00    0.82907   0.84891   12.062
 4230.00    0.90553   0.85728   11.043
 4231.00    0.99233   0.86786   10.077
 4232.00    1.10881   0.87379    9.019
 4233.00    1.17402   0.87331    8.518
 4234.00    1.09924   0.87679    9.097
 4235.00    0.90302   0.88078   11.074
 4236.00    0.68832   0.88112   14.528
 4237.00    0.59462   0.88643   -1.000
 4238.00    0.67297   0.89547   14.859
 4239.00    0.82598   0.90085   12.107
 4240.00    0.95792   0.90584   10.439
 4241.00    1.04975   0.91321    9.526
 4242.00    1.09640   0.91584    9.121
 4243.00    1.08604   0.91259    9.208
 4244.00    1.03477   0.90925    9.664
 4245.00    0.99097   0.90491   10.091
 4246.00    1.00998   0.89681    9.901
 4247.00    1.10809   0.88744    9.025
 4248.00    1.18239   0.88198    8.457
 4249.00    1.10937   0.87980    9.014
 4250.00    0.94747   0.87606   10.554
 4251.00    0.83577   0.87429   11.965
 4252.00    0.79845   0.87722   12.524
 4253.00    0.78433   0.87944   12.750
 4254.00    0.74908   0.87926   13.350
 4255.00    0.69614   0.87973   14.365
 4256.00    0.69403   0.88238   14.409
 4257.00    0.78123   0.88462   12.800
 4258.00    0.90558   0.88619   11.043
 4259.00    0.99577   0.89156   10.042
 4260.00    1.01285   0.89828    9.873
 4261.00    0.97619   0.90359   10.244
 4262.00    0.95495   0.91070   10.472
 4263.00    0.99387   0.91597   10.062
 4264.00    1.08002   0.91350    9.259
 4265.00    1.13202   0.90682    8.834
 4266.00    1.06528   0.89846    9.387
 4267.00    0.94632   0.88408   10.567
 4268.00    0.90834   0.86598   11.009
 4269.00    0.92840   0.85293   10.771
 4270.00    0.91157   0.84439   10.970
 4271.00    0.87652   0.83591   11.409
 4272.00    0.88726   0.83495   11.271
 4273.00    0.94007   0.84347   10.638
 4274.00    0.99777   0.85159   10.022
 4275.00    1.03749   0.86065    9.639
 4276.00    1.06148   0.87231    9.421
 4277.00    1.09336   0.88043    9.146
 4278.00    1.12228   0.88558    8.910
 4279.00    1.08968   0.88722    9.177
 4280.00    0.99607   0.88454   10.039
 4281.00    0.92346   0.88113   10.829
 4282.00    0.91115   0.87427   10.975
 4283.00    0.93298   0.86471   10.718
 4284.00    0.98418   0.85663   10.161
 4285.00    1.06803   0.84704    9.363
 4286.00    1.09682   0.83650    9.117
 4287.00    0.96487   0.82944   10.364
 4288.00    0.73595   0.82491   13.588
 4289.00    0.56564   0.82110   -1.000
 4290.00    0.52084   0.81839   -1.000
 4291.00    0.58836   0.81644   16.996
 4292.00    0.72313   0.81446   13.829
 4293.00    0.85543   0.80870   11.690
 4294.00    0.90169   0.79799   11.090
 4295.00    0.84388   0.78622   11.850
 4296.00    0.77468   0.77102   12.909
 4297.00    0.76873   0.75423   13.008
 4298.00    0.80726   0.74083   12.388
 4299.00    0.84081   0.72660   11.893
 4300.00    0.83368   0.71525   11.995
 4301.00    0.79856   0.71065   12.523
 4302.00    0.78853   0.70552   12.682
 4303.00    0.82617   0.70234   12.104
 4304.00    0.88618   0.70402   11.284
 4305.00    0.91438   0.70556   10.936
 4306.00    0.87184   0.71046   11.470
 4307.00    0.81065   0.72066   12.336
 4308.00    0.80481   0.73305   12.425
 4309.00    0.81524   0.75130   12.266
 4310.00    0.76220   0.77599   13.120
 4311.00    0.64798   0.80192   15.432
 4312.00    0.52787   0.83010   -1.000
 4313.00    0.45950   0.86107   -1.000
 4314.00    0.48267   0.88707   -1.000
 4315.00    0.60629   0.90742   -1.000
 4316.00    0.81106   0.92499   12.330
 4317.00    1.04796   0.93266    9.542
 4318.00    1.21689   0.93004    8.218
 4319.00    1.19502   0.92364    8.368
 4320.00    1.00478   0.91146    9.952
 4321.00    0.81934   0.89566   12.205
 4322.00    0.72884   0.88286   13.720
 4323.00    0.70232   0.87315   14.238
 4324.00    0.71149   0.86881   14.055
 4325.00    0.74815   0.87094   13.366
 4326.00    0.78604   0.87741   12.722
 4327.00    0.80102   0.88718   12.484
 4328.00    0.81825   0.89771   12.221
 4329.00    0.87119   0.90579   11.479
 4330.00    0.93607   0.90744    0.000
 4331.00    0.96208   0.90238    0.000
 4332.00    0.91672   0.89292    0.000
 4333.00    0.80120   0.87535    0.000
 4334.00    0.65828   0.84916    0.000
 4335.00    0.56101   0.82384    0.000
 4336.00    0.58526   0.80045    0.000
 4337.00    0.70365   0.77498    0.000
 4338.00    0.77350   0.75923    0.000
 4339.00    0.75234   0.75777    0.000
 4340.00    0.74019   0.75978    0.000
 4341.00    0.77049   0.77001    0.000
 4342.00    0.77941   0.79302    0.000
 4343.00    0.74304   0.81567    0.000
 4344.00    0.69978   0.83514    0.000
 4345.00    0.70618   0.85591    0.000
 4346.00    0.78505   0.87277    0.000
 4347.00    0.85704   0.88268    0.000
 4348.00    0.83318   0.88783    0.000
 4349.00    0.75976   0.89170    0.000
 4350.00    0.72679   0.89622    0.000
 4351.00    0.74064   0.89841   13.502
 4352.00    0.76060   0.90116   13.148
 4353.00    0.75271   0.90996   13.285
 4354.00    0.73629   0.92001   13.582
 4355.00    0.79311   0.92810   12.609
 4356.00    0.93141   0.93816   10.736
 4357.00    1.03875   0.94984    9.627
 4358.00    1.05185   0.95961    9.507
 4359.00    1.01491   0.96732    9.853
 4360.00    0.98170   0.97452   10.186
 4361.00    0.97225   0.98067   10.285
 4362.00    0.96283   0.98401   10.386
 4363.00    0.91257   0.98377   10.958
 4364.00    0.83147   0.98074   12.027
 4365.00    0.77111   0.97654   12.968
 4366.00    0.77385   0.97051   12.922
 4367.00    0.84548   0.96133   11.828
 4368.00    0.93231   0.95240   10.726
 4369.00    0.96537   0.94558   10.359
 4370.00    0.91850   0.93797   10.887
 4371.00    0.81026   0.93061   12.342
 4372.00    0.69613   0.92656   14.365
 4373.00    0.64594   0.92399   -1.000
 4374.00    0.71478   0.92095   13.990
 4375.00    0.86950   0.91872   11.501
 4376.00    0.97581   0.91573   10.248
 4377.00    0.96075   0.90901   10.409
 4378.00    0.87074   0.90037   11.484
 4379.00    0.77104   0.88944   12.969
 4380.00    0.69876   0.87488   14.311
 4381.00    0.64998   0.86227   15.385
 4382.00    0.59618   0.85426   -1.000
 4383.00    0.53401   0.84863   -1.000
 4384.00    0.48906   0.84739   -1.000
 4385.00    0.49663   0.85287   -1.000
 4386.00    0.57604   0.86254   -1.000
 4387.00    0.69825   0.87217   14.322
 4388.00    0.81006   0.88214   12.345
 4389.00    0.87259   0.89368   11.460
 4390.00    0.87619   0.90362   11.413
 4391.00    0.84687   0.91067   11.808
 4392.00    0.81400   0.91736   12.285
 4393.00    0.78648   0.92457   12.715
 4394.00    0.77587   0.92869   12.889
 4395.00    0.80497   0.92977   12.423
 4396.00    0.86647   0.93211   11.541
 4397.00    0.91396   0.93134   10.941
 4398.00    0.91697   0.92552   10.905
 4399.00    0.88214   0.92183   11.336
 4400.00    0.84338   0.91739   11.857
 4401.00    0.83647   0.90861   11.955
 4402.00    0.84448   0.90385   11.842
 4403.00    0.82798   0.90431   12.078
 4404.00    0.81559   0.90326   12.261
 4405.00    0.85827   0.90436   11.651
 4406.00    0.92489   0.91296   10.812
 4407.00    0.96158   0.92263   10.400
 4408.00    0.98939   0.92839   10.107
 4409.00    1.04233   0.93591    9.594
 4410.00    1.09213   0.94512    9.156
 4411.00    1.09483   0.94738    9.134
 4412.00    1.03933   0.94674    9.622
 4413.00    0.95886   0.95050   10.429
 4414.00    0.92199   0.95124   10.846
 4415.00    0.95282   0.94959   10.495
 4416.00    1.00574   0.95357    9.943
 4417.00    1.04832   0.95757    9.539
 4418.00    1.08297   0.95905    9.234
 4419.00    1.09116   0.96202    9.165
 4420.00    1.03921   0.96457    9.623
 4421.00    0.94796   0.96497   10.549
 4422.00    0.87907   0.96457   11.376
 4423.00    0.86181   0.96414   11.604
 4424.00    0.88240   0.96248   11.333
 4425.00    0.89704   0.96098   11.148
 4426.00    0.87291   0.96007   11.456
 4427.00    0.83856   0.95648   11.925
 4428.00    0.83879   0.95382   11.922
 4429.00    0.87822   0.95262   11.387
 4430.00    0.94225   0.94874   10.613
 4431.00    1.01962   0.94664    9.808
 4432.00    1.08905   0.94706    9.182
 4433.00    1.11305   0.94769    8.984
 4434.00    1.06585   0.95047    9.382
 4435.00    0.95677   0.95396   10.452
 4436.00    0.85860   0.95802   11.647
 4437.00    0.87426   0.96208   11.438
 4438.00    0.97423   0.96387   10.265
 4439.00    1.02197   0.96583    9.785
 4440.00    1.01640   0.96730    9.839
 4441.00    1.05846   0.96729    9.448
 4442.00    1.11264   0.97017    8.988
 4443.00    1.06854   0.97374    9.359
 4444.00    0.95267   0.97512   10.497
 4445.00    0.87445   0.97925   11.436
 4446.00    0.88769   0.98270   11.265
 4447.00    0.97228   0.98010   10.285
 4448.00    1.04492   0.97727    9.570
 4449.00    1.04365   0.97299    9.582
 4450.00    0.99844   0.96324   10.016
 4451.00    0.96491   0.95282   10.364
 4452.00    0.96772   0.94223   10.334
 4453.00    0.99452   0.93144   10.055
 4454.00    1.00425   0.92266    9.958
 4455.00    0.97359   0.91451   10.271
 4456.00    0.91288   0.90936   10.954
 4457.00    0.83998   0.90929   11.905
 4458.00    0.77090   0.90918   12.972
 4459.00    0.72412   0.91038   13.810
 4460.00    0.71894   0.91751   13.909
 4461.00    0.76814   0.92355    0.000
 4462.00    0.86597   0.92775    0.000
 4463.00    0.97072   0.93579    0.000
 4464.00    1.03187   0.94291    0.000
 4465.00    1.03674   0.94766    0.000
 4466.00    1.00834   0.95383    0.000
 4467.00    0.99026   0.96144    0.000
 4468.00    1.00716   0.96922    0.000
 4469.00    1.03298   0.97700    0.000
 4470.00    1.03714   0.98672    0.000
 4471.00    1.02103   0.99711    0.000
 4472.00    0.99941   1.00468    0.000
 4473.00    0.98642   1.01076    0.000
 4474.00    0.99362   1.01559    0.000
 4475.00    1.02285   1.01591    0.000
 4476.00    1.04182   1.01302    0.000
 4477.00    1.00714   1.00992    0.000
 4478.00    0.96541   1.00555    0.000
 4479.00    1.01204   1.00068    0.000
 4480.00    1.10858   0.99865    0.000
 4481.00    1.13134   0.99839    0.000
 4482.00    1.06231   0.99848    9.413
 4483.00    0.96537   1.00067   10.359
 4484.00    0.88457   1.00276   11.305
 4485.00    0.83442   1.00259   11.984
 4486.00    0.81058   1.00184   12.337
 4487.00    0.81114   1.00027   12.328
 4488.00    0.85260   0.99693   11.729
 4489.00    0.92993   0.99398   10.754
 4490.00    0.99320   0.99200   10.068
 4491.00    1.02564   0.99006    9.750
 4492.00    1.07606   0.99045    9.293
 4493.00    1.14797   0.99268    8.711
 4494.00    1.16500   0.99526    8.584
 4495.00    1.08168   1.00030    9.245
 4496.00    0.92988   1.00734   10.754
 4497.00    0.80845   1.01528   12.369
 4498.00    0.82137   1.02354   12.175
 4499.00    0.93104   1.03266   10.741
 4500.00    1.01580   1.04286    9.844
 4501.00    1.07096   1.05050    9.337
 4502.00    1.14765   1.05725    8.713
 4503.00    1.18377   1.06446    8.448
 4504.00    1.10731   1.06807    9.031
 4505.00    1.00352   1.06931    9.965
 4506.00    0.98025   1.06953   10.202
 4507.00    1.00835   1.06768    9.917
 4508.00    1.01885   1.06400    9.815
 4509.00    0.99876   1.05882   10.012
 4510.00    0.96719   1.05388   10.339
 4511.00    0.95123   1.04823   10.513
 4512.00    0.97436   1.04147   10.263
 4513.00    1.04182   1.03698    9.599
 4514.00    1.10301   1.03253    9.066
 4515.00    1.07437   1.02764    9.308
 4516.00    0.97421   1.02524   10.265
 4517.00    0.91396   1.02169   10.941
 4518.00    0.94087   1.01722   10.628
 4519.00    1.01720   1.01243    9.831
 4520.00    1.07684   1.00480    9.286
 4521.00    1.06783   0.99700    9.365
 4522.00    1.00182   0.98660    9.982
 4523.00    0.92781   0.97396   10.778
 4524.00    0.88178   0.96379   11.341
 4525.00    0.86956   0.95280   11.500
 4526.00    0.86106   0.94279   11.614
 4527.00    0.84532   0.93666   11.830
 4528.00    0.86945   0.93177   11.502
 4529.00    0.94884   0.93050   10.539
 4530.00    1.01558   0.93240    9.847
 4531.00    1.01749   0.93578    9.828
 4532.00    0.96878   0.94276   10.322
 4533.00    0.90365   0.95110   11.066
 4534.00    0.85219   0.96064   11.735
 4535.00    0.83721   0.97064   11.944
 4536.00    0.86283   0.97986   11.590
 4537.00    0.88557   0.98935   11.292
 4538.00    0.85525   0.99535   11.693
 4539.00    0.82468   0.99863   12.126
 4540.00    0.88537   1.00115   11.295
 4541.00    1.00471   0.99972    9.953
 4542.00    1.08332   0.99702    9.231
 4543.00    1.08430   0.99446    9.223
 4544.00    1.02838   0.98932    9.724
 4545.00    0.96111   0.98439   10.405
 4546.00    0.90856   0.97996   11.006
 4547.00    0.84743   0.97588   11.800
 4548.00    0.77541   0.97416   12.896
 4549.00    0.75089   0.97162   13.317
 4550.00    0.79159   0.97133    0.000
 4551.00    0.83249   0.97536    0.000
 4552.00    0.83403   0.97856    0.000
 4553.00    0.82183   0.98376    0.000
 4554.00    0.82729   0.99200    0.000
 4555.00    0.85834   0.99912    0.000
 4556.00    0.88624   1.00672    0.000
 4557.00    0.87229   1.01427    0.000
 4558.00    0.83957   1.01909    0.000
 4559.00    0.84162   1.02266    0.000
 4560.00    0.86886   1.02398    0.000
 4561.00    0.87426   1.02394    0.000
 4562.00    0.84233   1.02428    0.000
 4563.00    0.80033   1.02304    0.000
 4564.00    0.81268   1.02291    0.000
 4565.00    0.91134   1.02364    0.000
 4566.00    1.03698   1.02370    0.000
 4567.00    1.12296   1.02606    0.000
 4568.00    1.16118   1.02669    0.000
 4569.00    1.16179   1.02618    0.000
 4570.00    1.12786   1.02854    0.000
 4571.00    1.07629   1.02756    0.000
 4572.00    1.04060   1.02508    0.000
 4573.00    1.03671   1.02536    0.000
 4574.00    1.05568   1.02240    0.000
 4575.00    1.08661   1.01694    0.000
 4576.00    1.11996   1.01229    0.000
 4577.00    1.13681   1.00634    0.000
 4578.00    1.12140   1.00001    0.000
 4579.00    1.09106   0.99514    0.000
 4580.00    1.07329   0.99074    0.000
 4581.00    1.06017   0.98828    0.000
 4582.00    1.03317   0.98901    0.000
 4583.00    1.00300   0.99000    0.000
 4584.00    0.98802   0.99235    0.000
 4585.00    0.98738   0.99632    0.000
 4586.00    0.98965   0.99885    0.000
 4587.00    0.98380   1.00126    0.000
 4588.00    0.96841   1.00315    0.000
 4589.00    0.95453   1.00282    0.000
 4590.00    0.95091   1.00215    0.000
 4591.00    0.95660   1.00107    0.000
 4592.00    0.96461   0.99857    0.000
 4593.00    0.96809   0.99758    0.000
 4594.00    0.97419   0.99714    0.000
 4595.00    0.99371   0.99572    0.000
 4596.00    1.00181   0.99652    0.000
 4597.00    0.96301   0.99709    0.000
 4598.00    0.90459   0.99762    0.000
 4599.00    0.88174   1.00064    0.000
 4600.00    0.89328   1.00265    0.000
 4601.00    0.91228   1.00582    0.000
 4602.00    0.94473   1.01108    0.000
 4603.00    0.99730   1.01623    0.000
 4604.00    1.03789   1.02231    0.000
 4605.00    1.03908   1.02827    0.000
 4606.00    1.01598   1.03424    0.000
 4607.00    0.99740   1.03932    0.000
 4608.00    1.00100   1.04273    0.000
 4609.00    1.02088   1.04612    0.000
 4610.00    1.02985   1.04712    0.000
 4611.00    1.01641   1.04659    0.000
 4612.00    0.99396   1.04750    0.000
 4613.00    0.97373   1.04625    0.000
 4614.00    0.95892   1.04547    0.000
 4615.00    0.95658   1.04682    0.000
 4616.00    0.97683   1.04564    0.000
 4617.00    1.02330   1.04596    0.000
 4618.00    1.08650   1.04800    0.000
 4619.00    1.13733   1.04735    0.000
 4620.00    1.14553   1.04758    0.000
 4621.00    1.10725   1.04907    0.000
 4622.00    1.04124   1.04807    0.000
 4623.00    0.97848   1.04680    0.000
 4624.00    0.94565   1.04628    0.000
 4625.00    0.95041   1.04432    0.000
 4626.00    0.97642   1.04165    0.000
 4627.00    0.98805   1.03966    0.000
 4628.00    0.97283   1.03775    0.000
 4629.00    0.95666   1.03399    0.000
 4630.00    0.95676   1.03010    0.000
 4631.00    0.96349   1.02769    0.000
 4632.00    0.95856   1.02353    0.000
 4633.00    0.93288   1.01869    0.000
 4634.00    0.91602   1.01496    0.000
 4635.00    0.95260   1.01117    0.000
 4636.00    1.02856   1.00823    0.000
 4637.00    1.08991   1.00502    0.000
 4638.00    1.11034   1.00209    0.000
 4639.00    1.09207   1.00018    0.000
 4640.00    1.04713   0.99664    0.000
 4641.00    0.98911   0.99348    0.000
 4642.00    0.92785   0.99097    0.000
 4643.00    0.88128   0.98647    0.000
 4644.00    0.88191   0.98327    0.000
 4645.00    0.93096   0.98213    0.000
 4646.00    0.97443   0.98044    0.000
 4647.00    0.97765   0.98117    0.000
 4648.00    0.96270   0.98385    0.000
 4649.00    0.95688   0.98658    0.000
 4650.00    0.96371   0.99122    0.000
 4651.00    0.95588   0.99512    0.000
 4652.00    0.89653   0.99883    0.000
 4653.00    0.80963   1.00435    0.000
 4654.00    0.76269   1.00809    0.000
 4655.00    0.77075   1.01185    0.000
 4656.00    0.80043   1.01587    0.000
 4657.00    0.82565   1.01761    0.000
 4658.00    0.84012   1.01795    0.000
 4659.00    0.85768   1.01559    0.000
 4660.00    0.89318   1.01018    0.000
 4661.00    0.93979   1.00234    0.000
 4662.00    0.98301   0.99284    0.000
 4663.00    1.01691   0.98291    0.000
 4664.00    1.03874   0.97357    0.000
 4665.00    1.04370   0.96733    0.000
 4666.00    1.02821   0.96359    0.000
 4667.00    0.99478   0.96151    0.000
 4668.00    0.96379   0.96425    0.000
 4669.00    0.96857   0.96997    0.000
 4670.00    1.01166   0.97576    0.000
 4671.00    1.05914   0.98274    0.000
 4672.00    1.08139   0.98875    0.000
 4673.00    1.07194   0.99289    0.000
 4674.00    1.05810   0.99595    0.000
 4675.00    1.07110   0.99703    0.000
 4676.00    1.08214   0.99722    0.000
 4677.00    1.04483   0.99655    0.000
 4678.00    0.98349   0.99480    0.000
 4679.00    0.95144   0.99355    0.000
 4680.00    0.95837   0.99342    0.000
 4681.00    0.98507   0.99373    0.000
 4682.00    1.01000   0.99426    0.000
 4683.00    1.02220   0.99582    0.000
 4684.00    1.02720   0.99752    0.000
 4685.00    1.02856   0.99842    0.000
 4686.00    1.01861   0.99966    0.000
 4687.00    0.99903   1.00074    0.000
 4688.00    0.98751   1.00132    0.000
 4689.00    0.99638   1.00253    0.000
 4690.00    1.02213   1.00330    0.000
 4691.00    1.04275   1.00308    0.000
 4692.00    1.03157   1.00320    0.000
 4693.00    0.99523   1.00231    0.000
 4694.00    0.96294   0.99962    0.000
 4695.00    0.94139   0.99595    0.000
 4696.00    0.92345   0.99167    0.000
 4697.00    0.91909   0.98674    0.000
 4698.00    0.93816   0.98045    0.000
 4699.00    0.96210   0.97486    0.000
 4700.00    0.97839   0.97107    0.000
 4701.00    1.01599   0.96791    0.000
 4702.00    1.08143   0.96555    0.000
 4703.00    1.11133   0.96415    0.000
 4704.00    1.06647   0.96454    0.000
 4705.00    0.98997   0.96644    0.000
 4706.00    0.93912   0.96835    0.000
 4707.00    0.94116   0.97064    0.000
 4708.00    0.98181   0.97480    0.000
 4709.00    1.01804   0.97902    0.000
 4710.00    1.03722   0.98360    0.000
 4711.00    1.06059   0.98996    0.000
 4712.00    1.09200   0.99578    0.000
 4713.00    1.11485   1.00199    0.000
 4714.00    1.11937   1.00813    0.000
 4715.00    1.10924   1.01388    0.000
 4716.00    1.10059   1.02091    0.000
 4717.00    1.10173   1.02634    0.000
 4718.00    1.08680   1.02972    0.000
 4719.00    1.03132   1.03194    0.000
 4720.00    0.95489   1.03228    0.000
 4721.00    0.89490   1.03082    0.000
 4722.00    0.87684   1.02652    0.000
 4723.00    0.90647   1.02068    0.000
 4724.00    0.96515   1.01451    0.000
 4725.00    1.00559   1.00741    0.000
 4726.00    0.96916   1.00058    0.000
 4727.00    0.87606   0.99432    0.000
 4728.00    0.82927   0.98917    0.000
 4729.00    0.86945   0.98704    0.000
 4730.00    0.95142   0.98729    0.000
 4731.00    1.04143   0.98779    0.000
 4732.00    1.12885   0.99024    0.000
 4733.00    1.18336   0.99394    0.000
 4734.00    1.17620   0.99706    0.000
 4735.00    1.13753   1.00165    0.000
 4736.00    1.11592   1.00507    0.000
 4737.00    1.10365   1.00736    0.000
 4738.00    1.07286   1.01207    0.000
 4739.00    1.03081   1.01576    0.000
 4740.00    0.99842   1.01783    0.000
 4741.00    0.98339   1.02073    0.000
 4742.00    0.98361   1.02323    0.000
 4743.00    0.99241   1.02566    0.000
 4744.00    1.00273   1.02734    0.000
 4745.00    1.00926   1.02737    0.000
 4746.00    1.00706   1.02761    0.000
 4747.00    0.99524   1.02707    0.000
 4748.00    0.99361   1.02466    0.000
 4749.00    1.03040   1.02164    0.000
 4750.00    1.08488   1.01862    0.000
 4751.00    1.10661   1.01494    0.000
 4752.00    1.10614   1.01092    0.000
 4753.00    1.12379   1.00716    0.000
 4754.00    1.12578   1.00334    0.000
 4755.00    1.05909   1.00015    0.000
 4756.00    0.96659   0.99651    0.000
 4757.00    0.92518   0.99225    0.000
 4758.00    0.94657   0.98809    0.000
 4759.00    1.00332   0.98353    0.000
 4760.00    1.06736   0.97930    0.000
 4761.00    1.10539   0.97528    9.047
 4762.00    1.08039   0.97170    9.256
 4763.00    1.00598   0.97011    9.941
 4764.00    0.96044   0.97089   10.412
 4765.00    0.97423   0.97300   10.265
 4766.00    0.99591   0.97629   10.041
 4767.00    0.99846   0.98151   10.015
 4768.00    1.00374   0.98716    9.963
 4769.00    1.01262   0.99348    9.875
 4770.00    1.00099   0.99986    9.990
 4771.00    0.97086   1.00448   10.300
 4772.00    0.94742   1.00888   10.555
 4773.00    0.94419   1.01275   10.591
 4774.00    0.96022   1.01567   10.414
 4775.00    0.98821   1.01685   10.119
 4776.00    1.02164   1.01600    9.788
 4777.00    1.06104   1.01490    9.425
 4778.00    1.09979   1.01220    9.093
 4779.00    1.11158   1.00838    8.996
 4780.00    1.08273   1.00459    9.236
 4781.00    1.03674   1.00025    9.646
 4782.00    1.00439   0.99697    9.956
 4783.00    1.00013   0.99350    9.999
 4784.00    1.01467   0.99117    9.855
 4785.00    1.02170   0.99201    9.788
 4786.00    1.02073   0.99208    9.797
 4787.00    1.03559   0.99417    9.656
 4788.00    1.04577   0.99912    9.562
 4789.00    0.99890   1.00320   10.011
 4790.00    0.90886   1.00854   11.003
 4791.00    0.84104   1.01389   11.890
 4792.00    0.82129   1.01772   12.176
 4793.00    0.83996   1.02112   11.905
 4794.00    0.89351   1.02312   11.192
 4795.00    0.96890   1.02356   10.321
 4796.00    1.01557   1.02282    9.847
 4797.00    0.99535   1.02146   10.047
 4798.00    0.93810   1.01970   10.660
 4799.00    0.90067   1.01750   11.103
 4800.00    0.91992   1.01518   10.871
 4801.00    0.97850   1.01378   10.220
 4802.00    1.00070   1.01225    9.993
 4803.00    0.95518   1.01042   10.469
 4804.00    0.89608   1.00900   11.160
 4805.00    0.87710   1.00731   11.401
 4806.00    0.91003   1.00736   10.989
 4807.00    0.96479   1.00803   10.365
 4808.00    0.99509   1.00867   10.049
 4809.00    1.00761   1.01111    9.924
 4810.00    1.04315   1.01389    9.586
 4811.00    1.08961   1.01691    9.178
 4812.00    1.10450   1.02032    9.054
 4813.00    1.09145   1.02297    9.162
 4814.00    1.07990   1.02568    9.260
 4815.00    1.07565   1.02706    9.297
 4816.00    1.06842   1.02725    9.360
 4817.00    1.04917   1.02668    9.531
 4818.00    1.01094   1.02357    9.892
 4819.00    0.94993   1.02022   10.527
 4820.00    0.88097   1.01659   11.351
 4821.00    0.84070   1.01217   11.895
 4822.00    0.83576   1.00867   11.965
 4823.00    0.82747   1.00417   12.085
 4824.00    0.80890   1.00051   12.363
 4825.00    0.82250   0.99973   12.158
 4826.00    0.88421   0.99830   11.310
 4827.00    0.96502   0.99672   10.363
 4828.00    1.02678   0.99575    9.739
 4829.00    1.04277   0.99485    9.590
 4830.00    1.01860   0.99503    9.817
 4831.00    0.98637   0.99439   10.138
 4832.00    0.98237   0.99318   10.179
 4833.00    1.02069   0.99248    9.797
 4834.00    1.06256   0.99149    9.411
 4835.00    1.05119   0.98979    9.513
 4836.00    0.96218   0.98777   10.393
 4837.00    0.82678   0.98619   12.095
 4838.00    0.73787   0.98402   13.552
 4839.00    0.76061   0.98208   13.147
 4840.00    0.86973   0.98079   11.498
 4841.00    1.00461   0.98005    9.954
 4842.00    1.11059   0.97971    9.004
 4843.00    1.15562   0.97768    8.653
 4844.00    1.13843   0.97582    8.784
 4845.00    1.09085   0.97459    9.167
 4846.00    1.05866   0.97116    9.446
 4847.00    1.04080   0.96617    9.608
 4848.00    1.00081   0.95931    0.000
 4849.00    0.94321   0.95038    0.000
 4850.00    0.89992   0.94003    0.000
 4851.00    0.86516   0.92704    0.000
 4852.00    0.81389   0.91195    0.000
 4853.00    0.75166   0.89525    0.000
 4854.00    0.70342   0.87664    0.000
 4855.00    0.68887   0.85640    0.000
 4856.00    0.71958   0.83687    0.000
 4857.00    0.79735   0.82212    0.000
 4858.00    0.89769   0.81086    0.000
 4859.00    0.96457   0.80259    0.000
 4860.00    0.96462   0.79967    0.000
 4861.00    0.91731   0.80117    0.000
 4862.00    0.86099   0.80966    0.000
 4863.00    0.82803   0.82308    0.000
 4864.00    0.82210   0.83621    0.000
 4865.00    0.81927   0.84957    0.000
 4866.00    0.80171   0.86162    0.000
 4867.00    0.76793   0.87289    0.000
 4868.00    0.72868   0.88356    0.000
 4869.00    0.70233   0.89266    0.000
 4870.00    0.70747   0.90040    0.000
 4871.00    0.75381   0.90680    0.000
 4872.00    0.83031   0.91445    0.000
 4873.00    0.91021   0.92316    0.000
 4874.00    0.96223   0.93192    0.000
 4875.00    0.97082   0.93931   10.301
 4876.00    0.95382   0.94466   10.484
 4877.00    0.93688   0.94991   10.674
 4878.00    0.93008   0.95334   10.752
 4879.00    0.93069   0.95521   10.745
 4880.00    0.92834   0.95507   10.772
 4881.00    0.91636   0.95156   10.913
 4882.00    0.89720   0.94865   11.146
 4883.00    0.87892   0.94618   11.378
 4884.00    0.87012   0.94312   11.493
 4885.00    0.86865   0.94063   11.512
 4886.00    0.86226   0.93837   11.597
 4887.00    0.84165   0.94067   11.881
 4888.00    0.81204   0.94587   12.315
 4889.00    0.80833   0.95201   12.371
 4890.00    0.86087   0.96049   11.616
 4891.00    0.93280   0.96873   10.720
 4892.00    0.96232   0.97952   10.392
 4893.00    0.93670   0.99075   10.676
 4894.00    0.88333   0.99850   11.321
 4895.00    0.84527   1.00440   11.831
 4896.00    0.85191   1.00851   11.738
 4897.00    0.89699   1.01020   11.148
 4898.00    0.95610   1.01014   10.459
 4899.00    1.00222   1.00838    9.978
 4900.00    1.01377   1.00579    9.864
 4901.00    0.98270   1.00443   10.176
 4902.00    0.93117   1.00206   10.739
 4903.00    0.90365   0.99855   11.066
 4904.00    0.91137   0.99560   10.972
 4905.00    0.92709   0.99263   10.786
 4906.00    0.92945   0.99058   10.759
 4907.00    0.91522   0.98814   10.926
 4908.00    0.89570   0.98475   11.164
 4909.00    0.89061   0.98183   11.228
 4910.00    0.91753   0.97881   10.899
 4911.00    0.97310   0.97598   10.276
 4912.00    1.01208   0.97268    9.881
 4913.00    0.99866   0.96685   10.013
 4914.00    0.96394   0.95968   10.374
 4915.00    0.94241   0.95237   10.611
 4916.00    0.91247   0.94536   10.959
 4917.00    0.85124   0.93967   11.748
 4918.00    0.77739   0.93431   12.864
 4919.00    0.73198   0.93086   13.662
 4920.00    0.75445   0.93152   13.255
 4921.00    0.83315   0.93660   12.003
 4922.00    0.90614   0.94461   11.036
 4923.00    0.95310   0.95312   10.492
 4924.00    1.00419   0.96213    9.958
 4925.00    1.05773   0.97117    9.454
 4926.00    1.07865   0.98012    9.271
 4927.00    1.05723   0.98661    9.459
 4928.00    1.01261   0.98858    9.875
 4929.00    0.97042   0.98882   10.305
 4930.00    0.94904   0.98770   10.537
 4931.00    0.94626   0.98445   10.568
 4932.00    0.95030   0.97979   10.523
 4933.00    0.95593   0.97350   10.461
 4934.00    0.96394   0.96854   10.374
 4935.00    0.97693   0.96769   10.236
 4936.00    0.98536   0.96825   10.149
 4937.00    0.96231   0.96921   10.392
 4938.00    0.89904   0.97214   11.123
 4939.00    0.82373   0.97723   12.140
 4940.00    0.77954   0.98456    0.000
 4941.00    0.80795   0.99251    0.000
 4942.00    0.93022   0.99916    0.000
 4943.00    1.12760   1.00525    0.000
 4944.00    1.30431   1.01065    0.000
 4945.00    1.34304   1.01420    0.000
 4946.00    1.27036   1.01632    0.000
 4947.00    1.20472   1.01664    0.000
 4948.00    1.16888   1.01518    0.000
 4949.00    1.12675   1.01210    0.000
 4950.00    1.10149   1.00684    0.000
 4951.00    1.12641   1.00070    0.000
 4952.00    1.16207   0.99202    0.000
 4953.00    1.15588   0.98428    0.000
 4954.00    1.11109   0.97924    0.000
 4955.00    1.05524   0.97434    0.000
 4956.00    1.00659   0.97127    0.000
 4957.00    0.96310   0.96781    0.000
 4958.00    0.90606   0.96753    0.000
 4959.00    0.84854   0.97105    0.000
 4960.00    0.84197   0.97283    0.000
 4961.00    0.89479   0.97396    0.000
 4962.00    0.95947   0.97439    0.000
 4963.00    1.00650   0.97467    0.000
 4964.00    1.03755   0.97572    0.000
 4965.00    1.05191   0.97535    0.000
 4966.00    1.04304   0.97536    0.000
 4967.00    1.01113   0.97695    0.000
 4968.00    0.96616   0.97809    0.000
 4969.00    0.92759   0.98018    0.000
 4970.00    0.91091   0.98150    0.000
 4971.00    0.91057   0.98181    0.000
 4972.00    0.91284   0.98164    0.000
 4973.00    0.91220   0.97867    0.000
 4974.00    0.91085   0.97426    0.000
 4975.00    0.91484   0.96803    0.000
 4976.00    0.92007   0.95963    0.000
 4977.00    0.90824   0.95047    0.000
 4978.00    0.87806   0.94084    0.000
 4979.00    0.85471   0.93277    0.000
 4980.00    0.85418   0.92684    0.000
 4981.00    0.87422   0.92255    0.000
 4982.00    0.92024   0.92068    0.000
 4983.00    0.99815   0.92116    0.000
 4984.00    1.06951   0.92446    0.000
 4985.00    1.07538   0.92958    0.000
 4986.00    1.01598   0.93464    0.000
 4987.00    0.94211   0.94074    0.000
 4988.00    0.90609   0.94573    0.000
 4989.00    0.92708   0.94892    0.000
 4990.00    0.95962   0.95221    0.000
 4991.00    0.95547   0.95342    0.000
 4992.00    0.93387   0.95411    0.000
 4993.00    0.93156   0.95355    0.000
 4994.00    0.95202   0.95001    0.000
 4995.00    0.98050   0.94677    0.000
 4996.00    1.00077   0.94238    0.000
 4997.00    1.00972   0.93673    0.000
 4998.00    1.02084   0.93130    0.000
 4999.00    1.04339   0.92463    0.000
 5000.00    1.07407   0.91843    0.000
 5001.00    1.10331   0.91347    0.000
 5002.00    1.12149   0.90946    0.000
 5003.00    1.12929   0.90717    0.000
 5004.00    1.13445   0.90511    0.000
 5005.00    1.13764   0.90265    0.000
 5006.00    1.13195   0.90056    0.000
 5007.00    1.10899   0.89874    0.000
 5008.00    1.07103   0.89784    0.000
 5009.00    1.04478   0.89578    0.000
 5010.00    1.04951   0.89277    0.000
 5011.00    1.05999   0.89033    0.000
 5012.00    1.04009   0.88733    0.000
 5013.00    0.98045   0.88571    0.000
 5014.00    0.90953   0.88548    0.000
 5015.00    0.88794   0.88663    0.000
 5016.00    0.93617   0.88953    0.000
 5017.00    1.00578   0.89203    0.000
 5018.00    1.05624   0.89537    0.000
 5019.00    1.08430   0.90058    0.000
 5020.00    1.08679   0.90562    0.000
 5021.00    1.05455   0.91105    0.000
 5022.00    1.00014   0.91519    0.000
 5023.00    0.95347   0.91982    0.000
 5024.00    0.93015   0.92576    0.000
 5025.00    0.92782   0.93020    0.000
 5026.00    0.93543   0.93470    0.000
 5027.00    0.94235   0.93802    0.000
 5028.00    0.94906   0.94039    0.000
 5029.00    0.96005   0.94274   10.416
 5030.00    0.97263   0.94241   10.281
 5031.00    0.97353   0.93990   10.272
 5032.00    0.94092   0.93652   10.628
 5033.00    0.87842   0.93114   11.384
 5034.00    0.83362   0.92409   11.996
 5035.00    0.83939   0.91642   11.913
 5036.00    0.88034   0.90872   11.359
 5037.00    0.92072   0.90481   10.861
 5038.00    0.92707   0.90302   10.787
 5039.00    0.89537   0.90209   11.169
 5040.00    0.85253   0.90402   11.730
 5041.00    0.82568   0.90697   12.111
 5042.00    0.82855   0.91274   12.069
 5043.00    0.85418   0.91956   11.707
 5044.00    0.88475   0.92444   11.303
 5045.00    0.91486   0.92877   10.931
 5046.00    0.94433   0.93222   10.590
 5047.00    0.96001   0.93447   10.417
 5048.00    0.95709   0.93638   10.448
 5049.00    0.96661   0.93828   10.345
 5050.00    1.00741   0.94151    9.926
 5051.00    1.03874   0.94550    9.627
 5052.00    1.01977   0.94946    9.806
 5053.00    0.96038   0.95468   10.413
 5054.00    0.89826   0.95953   11.133
 5055.00    0.87459   0.96372   11.434
 5056.00    0.90153   0.96674   11.092
 5057.00    0.95395   0.96772   10.483
 5058.00    1.00638   0.96761    9.937
 5059.00    1.04539   0.96548    9.566
 5060.00    1.05660   0.96161    9.464
 5061.00    1.03009   0.95757    9.708
 5062.00    0.98678   0.95230   10.134
 5063.00    0.96998   0.94691   10.310
 5064.00    1.01148   0.94122    9.887
 5065.00    1.11048   0.93603    9.005
 5066.00    1.21330   0.93347    8.242
 5067.00    1.25454   0.93073    7.971
 5068.00    1.21735   0.92827    8.215
 5069.00    1.13035   0.92643    8.847
 5070.00    1.05036   0.92496    9.521
 5071.00    1.01361   0.92307    9.866
 5072.00    1.00107   0.91929    9.989
 5073.00    0.98786   0.91607   10.123
 5074.00    0.97569   0.91248   10.249
 5075.00    0.96659   0.90810   10.346
 5076.00    0.95108   0.90414   10.514
 5077.00    0.92697   0.90111   10.788
 5078.00    0.90440   0.89921   11.057
 5079.00    0.89222   0.89754   11.208
 5080.00    0.89447   0.89826   11.180
 5081.00    0.91483   0.90182   10.931
 5082.00    0.95474   0.90687   10.474
 5083.00    1.00647   0.91215    9.936
 5084.00    1.05442   0.91817    9.484
 5085.00    1.08074   0.92487    9.253
 5086.00    1.07124   0.93092    9.335
 5087.00    1.02366   0.93587    9.769
 5088.00    0.96362   0.93958   10.378
 5089.00    0.95462   0.94208   10.475
 5090.00    1.02722   0.94267    9.735
 5091.00    1.12273   0.94137    8.907
 5092.00    1.17097   0.93872    8.540
 5093.00    1.15054   0.93537    8.692
 5094.00    1.08159   0.93103    9.246
 5095.00    1.01063   0.92631    9.895
 5096.00    0.97047   0.92192   10.304
 5097.00    0.96543   0.91798   10.358
 5098.00    0.98677   0.91496   10.134
 5099.00    1.01810   0.91250    9.822
 5100.00    1.03350   0.91145    9.676
 5101.00    1.00772   0.91125    9.923
 5102.00    0.94118   0.91067   10.625
 5103.00    0.86413   0.90966   11.572
 5104.00    0.83082   0.90931   12.036
 5105.00    0.87446   0.90928   11.436
 5106.00    0.94647   0.91006   10.566
 5107.00    0.97725   0.91150   10.233
 5108.00    0.95776   0.91365   10.441
 5109.00    0.91707   0.91758   10.904
 5110.00    0.88941   0.92139   11.243
 5111.00    0.89869   0.92596   11.127
 5112.00    0.94790   0.93087   10.550
 5113.00    1.01573   0.93401    9.845
 5114.00    1.06404   0.93630    9.398
 5115.00    1.08212   0.93680    9.241
 5116.00    1.09685   0.93510    9.117
 5117.00    1.12642   0.93204    8.878
 5118.00    1.16456   0.92714    8.587
 5119.00    1.19074   0.92077    8.398
 5120.00    1.18190   0.91375    8.461
 5121.00    1.13240   0.90647    8.831
 5122.00    1.05676   0.90004    9.463
 5123.00    0.98443   0.89439   10.158
 5124.00    0.94103   0.89029   10.627
 5125.00    0.92233   0.88845   10.842
 5126.00    0.91176   0.88805   10.968
 5127.00    0.90704   0.88868   11.025
 5128.00    0.91358   0.89068   10.946
 5129.00    0.93369   0.89281   10.710
 5130.00    0.95936   0.89502   10.424
 5131.00    0.97113   0.89744   10.297
 5132.00    0.96399   0.89825   10.374
 5133.00    0.95857   0.89883   10.432
 5134.00    0.97087   0.89816   10.300
 5135.00    0.99640   0.89653   10.036
 5136.00    1.01234   0.89440    9.878
 5137.00    0.99047   0.89104   10.096
 5138.00    0.93362   0.88853   10.711
 5139.00    0.87167   0.88544   11.472
 5140.00    0.82025   0.88329   12.191
 5141.00    0.78098   0.88236   12.804
 5142.00    0.76433   0.88042   13.083
 5143.00    0.78132   0.87923   12.799
 5144.00    0.82266   0.87928   12.156
 5145.00    0.86774   0.87903   11.524
 5146.00    0.90127   0.87872   11.095
 5147.00    0.91688   0.87914   10.907
 5148.00    0.91826   0.88033   10.890
 5149.00    0.91594   0.88255   10.918
 5150.00    0.92152   0.88520   10.852
 5151.00    0.92879   0.88814   10.767
 5152.00    0.91069   0.89170   10.981
 5153.00    0.87155   0.89571   11.474
 5154.00    0.85978   0.89922   11.631
 5155.00    0.89954   0.90177   11.117
 5156.00    0.96849   0.90297   10.325
 5157.00    1.02658   0.90155    9.741
 5158.00    1.04044   0.89674    9.611
 5159.00    1.01926   0.88808    9.811
 5160.00    0.99722   0.87608   10.028
 5161.00    0.97551   0.86195   10.251
 5162.00    0.93367   0.84552   10.710
 5163.00    0.87046   0.82892   11.488
 5164.00    0.79442   0.81222   12.588
 5165.00    0.70294   0.79541   14.226
 5166.00    0.60405   0.78179   16.555
 5167.00    0.53898   0.77236   -1.000
 5168.00    0.53878   0.76814   -1.000
 5169.00    0.58714   0.76866   -1.000
 5170.00    0.64854   0.77324   15.419
 5171.00    0.69371   0.78008   14.415
 5172.00    0.71669   0.78749   13.953
 5173.00    0.73750   0.79700   13.559
 5174.00    0.77412   0.80773   12.918
 5175.00    0.82991   0.81636   12.050
 5176.00    0.89615   0.82061   11.159
 5177.00    0.95573   0.82238   10.463
 5178.00    0.99060   0.82291   10.095
 5179.00    0.99133   0.82120   10.087
 5180.00    0.97270   0.81938   10.281
 5181.00    0.95878   0.81770   10.430
 5182.00    0.95066   0.81762   10.519
 5183.00    0.93717   0.81899   10.670
 5184.00    0.91867   0.82242   10.885
 5185.00    0.90449   0.82998   11.056
 5186.00    0.90483   0.83775   -2.000
 5187.00    0.91797   0.84519   -2.000
 5188.00    0.92300   0.85116   -2.000
 5189.00    0.90975   0.85655   -2.000
 5190.00    0.90002   0.86222   -2.000
 5191.00    0.93724   0.86605   -2.000
 5192.00    1.06293   0.86954   -2.000
 5193.00    1.24164   0.87376   -2.000
 5194.00    1.35971   0.87818   -2.000
 5195.00    1.35403   0.88086   -2.000
 5196.00    1.24581   0.88308   -2.000
 5197.00    1.09133   0.88447   -2.000
 5198.00    0.95522   0.88352   -2.000
 5199.00    0.88411   0.88132   -2.000
 5200.00    0.89129   0.87779   -2.000
 5201.00    0.94175   0.87264    0.000
 5202.00    0.98329   0.86702    0.000
 5203.00    0.99654   0.86213    0.000
 5204.00    0.98615   0.85822    0.000
 5205.00    0.96039   0.85597    0.000
 5206.00    0.92714   0.85611    0.000
 5207.00    0.89326   0.85955    0.000
 5208.00    0.87202   0.86361    0.000
 5209.00    0.88430   0.86975    0.000
 5210.00    0.92973   0.87771    0.000
 5211.00    0.97657   0.88555   10.240
 5212.00    1.00209   0.89356    9.979
 5213.00    1.00813   0.90019    9.919
 5214.00    1.00037   0.90587    9.996
 5215.00    0.98313   0.90935   10.172
 5216.00    0.97021   0.91150   10.307
 5217.00    0.97685   0.91244   10.237
 5218.00    0.99223   0.91155   10.078
 5219.00    0.99043   0.90913   10.097
 5220.00    0.96574   0.90462   10.355
 5221.00    0.92889   0.89984   10.766
 5222.00    0.88985   0.89450   11.238
 5223.00    0.85947   0.88906   11.635
 5224.00    0.85311   0.88491   11.722
 5225.00    0.87188   0.88181   11.469
 5226.00    0.88737   0.88084   11.269
 5227.00    0.88006   0.88171   11.363
 5228.00    0.86729   0.88563   11.530
 5229.00    0.87154   0.89117   11.474
 5230.00    0.89918   0.89625   11.121
 5231.00    0.94690   0.90233   10.561
 5232.00    1.00557   0.90822    9.945
 5233.00    1.05969   0.91355    9.437
 5234.00    1.09157   0.91986    9.161
 5235.00    1.09557   0.92564    9.128
 5236.00    1.07859   0.93113    9.271
 5237.00    1.04890   0.93555    9.534
 5238.00    1.01412   0.93835    9.861
 5239.00    0.98304   0.93991   10.173
 5240.00    0.96356   0.93961   10.378
 5241.00    0.95859   0.93854   10.432
 5242.00    0.96475   0.93608   10.365
 5243.00    0.97282   0.93235   10.279
 5244.00    0.98163   0.92859   10.187
 5245.00    1.00926   0.92459    9.908
 5246.00    1.06045   0.92024    9.430
 5247.00    1.10385   0.91638    9.059
 5248.00    1.11579   0.91423    8.962
 5249.00    1.10616   0.91383    9.040
 5250.00    1.08727   0.91353    9.197
 5251.00    1.06020   0.91450    9.432
 5252.00    1.03470   0.91632    9.665
 5253.00    1.02960   0.91715    9.713
 5254.00    1.04392   0.91725    9.579
 5255.00    1.05641   0.91503    9.466
 5256.00    1.05228   0.91173    9.503
 5257.00    1.02723   0.90601    9.735
 5258.00    0.98005   0.89777   10.204
 5259.00    0.91801   0.88730   10.893
 5260.00    0.86794   0.87500   11.521
 5261.00    0.85906   0.86225   11.641
 5262.00    0.89644   0.84958   11.155
 5263.00    0.96057   0.83888   10.410
 5264.00    1.01389   0.83045    9.863
 5265.00    1.02824   0.82521    9.725
 5266.00    1.00752   0.82258    9.925
 5267.00    0.97622   0.82402   10.244
 5268.00    0.96499   0.82845   10.363
 5269.00    0.98303   0.83401   10.173
 5270.00    1.00783   0.84223    9.922
 5271.00    1.00927   0.85339    9.908
 5272.00    0.96896   0.86520   10.320
 5273.00    0.90637   0.87565   11.033
 5274.00    0.87102   0.88580   11.481
 5275.00    0.89282   0.89474   11.200
 5276.00    0.96593   0.90245   10.353
 5277.00    1.04686   0.90995    9.552
 5278.00    1.08175   0.91600    9.244
 5279.00    1.05568   0.92076    9.473
 5280.00    0.98816   0.92500   10.120
 5281.00    0.91244   0.92933   10.960
 5282.00    0.86388   0.93400   11.576
 5283.00    0.86811   0.93913   11.519
 5284.00    0.92203   0.94411   10.846
 5285.00    0.98375   0.94974   10.165
 5286.00    1.02299   0.95436    9.775
 5287.00    1.05181   0.95716    9.507
 5288.00    1.07478   0.95791    9.304
 5289.00    1.06871   0.95688    9.357
 5290.00    1.03632   0.95460    9.650
 5291.00    1.01507   0.95050    9.852
 5292.00    1.01073   0.94519    9.894
 5293.00    0.99852   0.93927   -2.000
 5294.00    1.00299   0.93384   -2.000
 5295.00    1.07000   0.92944   -2.000
 5296.00    1.14500   0.92609   -2.000
 5297.00    1.15262   0.92453   -2.000
 5298.00    1.19432   0.92506   -2.000
 5299.00    1.37233   0.92837   -2.000
 5300.00    1.50317   0.93332   -2.000
 5301.00    1.66569   0.93848   -2.000
 5302.00    2.74307   0.94433   -2.000
 5303.00    4.47224   0.95033   -2.000
 5304.00    4.01320   0.95598   -2.000
 5305.00    0.49051   0.96047   -2.000
 5306.00   -2.23394   0.96364   -2.000
 5307.00   -1.45394   0.96541   -2.000
 5308.00    1.17407   0.96625   -2.000
 5309.00    3.08441   0.96626   -2.000
 5310.00    2.90904   0.96505   -2.000
 5311.00    1.36247   0.96280   -2.000
 5312.00    0.56618   0.95988   -2.000
 5313.00    0.94246   0.95633   -2.000
 5314.00    1.23353   0.95233   -2.000
 5315.00    1.06181   0.94780   -2.000
 5316.00    0.94423   0.94279   10.591
 5317.00    0.99739   0.93714   10.026
 5318.00    1.00524   0.93132    9.948
 5319.00    0.94785   0.92416   10.550
 5320.00    0.92016   0.91673   10.868
 5321.00    0.92421   0.90913   10.820
 5322.00    0.92626   0.90153   10.796
 5323.00    0.93798   0.89461   10.661
 5324.00    0.97726   0.88839   10.233
 5325.00    1.03202   0.88491    9.690
 5326.00    1.07946   0.88340    9.264
 5327.00    1.10290   0.88397    9.067
 5328.00    1.10319   0.88566    9.065
 5329.00    1.09891   0.89067    9.100
 5330.00    1.10374   0.89738    9.060
 5331.00    1.11786   0.90373    8.946
 5332.00    1.13237   0.90923    8.831
 5333.00    1.13252   0.91351    8.830
 5334.00    1.10257   0.91729    9.070
 5335.00    1.04121   0.91957    9.604
 5336.00    0.98893   0.92051   10.112
 5337.00    0.98880   0.92049   10.113
 5338.00    1.01460   0.92043    9.856
 5339.00    1.01201   0.92016    9.881
 5340.00    0.96946   0.91974   10.315
 5341.00    0.91167   0.92003   10.969
 5342.00    0.87862   0.92177   11.382
 5343.00    0.88836   0.92362   11.257
 5344.00    0.91343   0.92588   10.948
 5345.00    0.92914   0.92877   10.763
 5346.00    0.94364   0.93212   10.597
 5347.00    0.97034   0.93676   10.306
 5348.00    1.00984   0.94172    9.903
 5349.00    1.04343   0.94703    9.584
 5350.00    1.04507   0.95302    9.569
 5351.00    1.02943   0.95912    9.714
 5352.00    1.04010   0.96451    9.614
 5353.00    1.07125   0.96864    9.335
 5354.00    1.07941   0.97169    9.264
 5355.00    1.05761   0.97340    9.455
 5356.00    1.03149   0.97306    9.695
 5357.00    1.02244   0.97107    9.781
 5358.00    1.03355   0.96737    9.675
 5359.00    1.04147   0.96232    9.602
 5360.00    1.02491   0.95601    9.757
 5361.00    0.99517   0.94882   10.049
 5362.00    0.96797   0.94130   10.331
 5363.00    0.93783   0.93401   10.663
 5364.00    0.89935   0.92761   11.119
 5365.00    0.86240   0.92155   11.596
 5366.00    0.84018   0.91737   11.902
 5367.00    0.83936   0.91452   11.914
 5368.00    0.84945   0.91346   11.772
 5369.00    0.84878   0.91421   11.782
 5370.00    0.84240   0.91620   11.871
 5371.00    0.85915   0.91994   11.639
 5372.00    0.90270   0.92476   11.078
 5373.00    0.94882   0.93072   10.539
 5374.00    0.97347   0.93563   10.272
 5375.00    0.96878   0.93995   10.322
 5376.00    0.95821   0.94316   10.436
 5377.00    0.97075   0.94512   10.301
 5378.00    1.00014   0.94638    9.999
 5379.00    1.02173   0.94659    9.787
 5380.00    1.02044   0.94606    9.800
 5381.00    1.00115   0.94477    9.988
 5382.00    0.99150   0.94328   10.086
 5383.00    1.00792   0.94103    9.921
 5384.00    1.03515   0.93846    9.660
 5385.00    1.06074   0.93553    9.427
 5386.00    1.09232   0.93171    9.155
 5387.00    1.13459   0.92743    8.814
 5388.00    1.17784   0.92270    8.490
 5389.00    1.19992   0.91777    8.334
 5390.00    1.17540   0.91273    8.508
 5391.00    1.09969   0.90823    9.093
 5392.00    0.99156   0.90398   10.085
 5393.00    0.88058   0.90029   11.356
 5394.00    0.79683   0.89712   12.550
 5395.00    0.75767   0.89445   13.198
 5396.00    0.76847   0.89219   13.013
 5397.00    0.82743   0.88961   12.086
 5398.00    0.91898   0.88795   10.882
 5399.00    1.00689   0.88618    9.932
 5400.00    1.05497   0.88399    9.479
 5401.00    1.04882   0.88164    9.535
 5402.00    0.99913   0.87987   10.009
 5403.00    0.93922   0.87836   10.647
 5404.00    0.90368   0.87739   11.066
 5405.00    0.91323   0.87805   10.950
 5406.00    0.96848   0.88019   10.325
 5407.00    1.05047   0.88434    9.520
 5408.00    1.13455   0.88924    8.814
 5409.00    1.19798   0.89488    8.347
 5410.00    1.22516   0.90069    8.162
 5411.00    1.21090   0.90736    8.258
 5412.00    1.16430   0.91370    8.589
 5413.00    1.10967   0.91908    9.012
 5414.00    1.08513   0.92353    9.215
 5415.00    1.11343   0.92676    8.981
 5416.00    1.15865   0.92935    8.631
 5417.00    1.16907   0.93071    8.554
 5418.00    1.13957   0.93086    8.775
 5419.00    1.08631   0.93011    9.206
 5420.00    1.01457   0.92874    9.856
 5421.00    0.93835   0.92683   10.657
 5422.00    0.89316   0.92458   11.196
 5423.00    0.89316   0.92183   11.196
 5424.00    0.91113   0.91832   10.975
 5425.00    0.92807   0.91522   10.775
 5426.00    0.95231   0.91221   10.501
 5427.00    0.98404   0.90926   10.162
 5428.00    1.00711   0.90645    9.929
 5429.00    1.01403   0.90411    9.862
 5430.00    1.00933   0.90305    9.908
 5431.00    0.99550   0.90430   10.045
 5432.00    0.97172   0.90621   10.291
 5433.00    0.93978   0.90912   10.641
 5434.00    0.90793   0.91319   11.014
 5435.00    0.89425   0.91767   11.183
 5436.00    0.90951   0.92264   10.995
 5437.00    0.93558   0.92684   10.689
 5438.00    0.95143   0.93019   10.511
 5439.00    0.96270   0.93192   10.387
 5440.00    0.98378   0.93198   10.165
 5441.00    1.01876   0.93070    9.816
 5442.00    1.05647   0.92817    9.465
 5443.00    1.07303   0.92511    9.319
 5444.00    1.05974   0.92159    9.436
 5445.00    1.03310   0.91808    9.680
 5446.00    1.00972   0.91511    9.904
 5447.00    0.99576   0.91259   10.043
 5448.00    0.99053   0.91150   10.096
 5449.00    0.98802   0.91039   10.121
 5450.00    0.97749   0.90946   10.230
 5451.00    0.95468   0.90847   10.475
 5452.00    0.94497   0.90780   10.582
 5453.00    0.97731   0.90728   10.232
 5454.00    1.03104   0.90704    9.699
 5455.00    1.06318   0.90692    9.406
 5456.00    1.06030   0.90732    9.431
 5457.00    1.03741   0.90859    9.639
 5458.00    1.02528   0.90947    9.753
 5459.00    1.04048   0.91025    9.611
 5460.00    1.06357   0.91068    9.402
 5461.00    1.07325   0.91105    9.317
 5462.00    1.06978   0.91135    9.348
 5463.00    1.05707   0.91124    9.460
 5464.00    1.03133   0.91127    9.696
 5465.00    0.98272   0.91100   10.176
 5466.00    0.90458   0.90989   11.055
 5467.00    0.82290   0.90804   12.152
 5468.00    0.78361   0.90577   12.762
 5469.00    0.78540   0.90265   12.732
 5470.00    0.78887   0.89911   12.676
 5471.00    0.78418   0.89539   12.752
 5472.00    0.79396   0.89204   12.595
 5473.00    0.84687   0.88889   11.808
 5474.00    0.94698   0.88651   10.560
 5475.00    1.04012   0.88542    9.614
 5476.00    1.06800   0.88496    9.363
 5477.00    1.03572   0.88564    9.655
 5478.00    0.98144   0.88804   10.189
 5479.00    0.93915   0.89087   10.648
 5480.00    0.93292   0.89396   10.719
 5481.00    0.97218   0.89685   10.286
 5482.00    1.03592   0.90014    9.653
 5483.00    1.07458   0.90336    9.306
 5484.00    1.06451   0.90602    9.394
 5485.00    1.02572   0.90846    9.749
 5486.00    0.98493   0.90996   10.153
 5487.00    0.95832   0.91114   10.435
 5488.00    0.94564   0.91177   10.575
 5489.00    0.93748   0.91266   10.667
 5490.00    0.93647   0.91289   10.678
 5491.00    0.94994   0.91279   10.527
 5492.00    0.96608   0.91265   10.351
 5493.00    0.96251   0.91186   10.390
 5494.00    0.92742   0.91104   10.783
 5495.00    0.87016   0.90997   11.492
 5496.00    0.82691   0.90874   12.093
 5497.00    0.82373   0.90696   12.140
 5498.00    0.84345   0.90529   11.856
 5499.00    0.86406   0.90376   11.573
 5500.00    0.88924   0.90187   11.246
 5501.00    0.92805   0.89979   10.775
 5502.00    0.98040   0.89790   10.200
 5503.00    1.03707   0.89644    9.643
 5504.00    1.08261   0.89504    9.237
 5505.00    1.10433   0.89389    9.055
 5506.00    1.09514   0.89277    9.131
 5507.00    1.05037   0.89214    9.520
 5508.00    0.97717   0.89232   10.234
 5509.00    0.91982   0.89269   10.872
 5510.00    0.92961   0.89356   10.757
 5511.00    0.99198   0.89517   10.081
 5512.00    1.04628   0.89723    9.558
 5513.00    1.04429   0.90004    9.576
 5514.00    0.97843   0.90335   10.220
 5515.00    0.90077   0.90669   11.102
 5516.00    0.86157   0.90990   11.607
 5517.00    0.84860   0.91233   11.784
 5518.00    0.84398   0.91413   11.849
 5519.00    0.86903   0.91480   11.507
 5520.00    0.92792   0.91434   10.777
 5521.00    0.97748   0.91300   10.230
 5522.00    0.98308   0.91095   10.172
 5523.00    0.94768   0.90861   10.552
 5524.00    0.90017   0.90613   11.109
 5525.00    0.87708   0.90398   11.401
 5526.00    0.88133   0.90220   11.347
 5527.00    0.88608   0.90129   11.286
 5528.00    0.88269   0.90096   11.329
 5529.00    0.87971   0.90172   11.367
 5530.00    0.87295   0.90324   11.455
 5531.00    0.85306   0.90490   11.723
 5532.00    0.82926   0.90678   12.059
 5533.00    0.82505   0.90873   12.121
 5534.00    0.86478   0.91089   11.564
 5535.00    0.94929   0.91281   10.534
 5536.00    1.03530   0.91490    9.659
 5537.00    1.07511   0.91688    9.301
 5538.00    1.05336   0.91851    9.493
 5539.00    0.98515   0.92008   10.151
 5540.00    0.90768   0.92153   11.017
 5541.00    0.85177   0.92278   11.740
 5542.00    0.82775   0.92393   12.081
 5543.00    0.83482   0.92486   11.979
 5544.00    0.86589   0.92592   11.549
 5545.00    0.90842   0.92690   11.008
 5546.00    0.94831   0.92765   10.545
 5547.00    0.97985   0.92812   10.206
 5548.00    1.00195   0.92839    9.981
 5549.00    1.00401   0.92814    9.960
 5550.00    0.98081   0.92737   10.196
 5551.00    0.96267   0.92632   10.388
 5552.00    0.98511   0.92478   10.151
 5553.00    1.03950   0.92311    9.620
 5554.00    1.09458   0.92111    9.136
 5555.00    1.13021   0.91918    8.848
 5556.00    1.14764   0.91713    8.714
 5557.00    1.16988   0.91491    8.548
 5558.00    1.19861   0.91256    8.343
 5559.00    1.19244   0.91018    8.386
 5560.00    1.12757   0.90782    8.869
 5561.00    1.02794   0.90533    9.728
 5562.00    0.93097   0.90312   10.741
 5563.00    0.86729   0.90086   11.530
 5564.00    0.85033   0.89925   11.760
 5565.00    0.87824   0.89781   11.386
 5566.00    0.95029   0.89679   10.523
 5567.00    1.05828   0.89631    9.449
 5568.00    1.15634   0.89627    8.648
 5569.00    1.18603   0.89667    8.431
 5570.00    1.13625   0.89731    8.801
 5571.00    1.04427   0.89860    9.576
 5572.00    0.97607   0.89966   10.245
 5573.00    0.97371   0.90070   10.270
 5574.00    1.00143   0.90183    9.986
 5575.00    1.00606   0.90249    9.940
 5576.00    0.98026   0.90223   10.201
 5577.00    0.95052   0.90144   10.521
 5578.00    0.95634   0.89964   10.457
 5579.00    1.00642   0.89683    9.936
 5580.00    1.06251   0.89323    9.412
 5581.00    1.09109   0.88887    9.165
 5582.00    1.08521   0.88398    9.215
 5583.00    1.04574   0.87915    9.563
 5584.00    0.97894   0.87457   10.215
 5585.00    0.91304   0.87049   10.952
 5586.00    0.88380   0.86737   11.315
 5587.00    0.88733   0.86525   11.270
 5588.00    0.89288   0.86446   11.200
 5589.00    0.89080   0.86478   11.226
 5590.00    0.89453   0.86584   11.179
 5591.00    0.92688   0.86763   10.789
 5592.00    0.99821   0.86924   10.018
 5593.00    1.08440   0.87108    9.222
 5594.00    1.15658   0.87254    8.646
 5595.00    1.21106   0.87409   -2.000
 5596.00    1.24632   0.87571   -2.000
 5597.00    1.24545   0.87724   -2.000
 5598.00    1.20003   0.87903   -2.000
 5599.00    1.12649   0.88143   -2.000
 5600.00    1.06419   0.88483   -2.000
 5601.00    1.06007   0.88848   -2.000
 5602.00    1.11378   0.89292   -2.000
 5603.00    1.17449   0.89733   -2.000
 5604.00    1.20406   0.90189   -2.000
 5605.00    1.19255   0.90562   -2.000
 5606.00    1.14280   0.90829   -2.000
 5607.00    1.07152   0.90962   -2.000
 5608.00    1.01886   0.90956   -2.000
 5609.00    1.01982   0.90821   -2.000
 5610.00    1.05624   0.90584   -2.000
 5611.00    1.08506   0.90266   -2.000
 5612.00    1.08596   0.89924   -2.000
 5613.00    1.06026   0.89564   -2.000
 5614.00    1.02168   0.89247    9.788
 5615.00    0.98078   0.88959   10.196
 5616.00    0.93650   0.88779   10.678
 5617.00    0.90350   0.88699   11.068
 5618.00    0.92112   0.88657   10.856
 5619.00    0.99873   0.88663   10.013
 5620.00    1.09349   0.88712    9.145
 5621.00    1.14661   0.88815    8.721
 5622.00    1.11396   0.88944    8.977
 5623.00    1.01195   0.89102    9.882
 5624.00    0.90653   0.89272   11.031
 5625.00    0.84103   0.89473   11.890
 5626.00    0.82125   0.89691   12.177
 5627.00    0.82842   0.89892   12.071
 5628.00    0.83985   0.90032   11.907
 5629.00    0.85794   0.90136   11.656
 5630.00    0.89521   0.90154   11.171
 5631.00    0.94675   0.90116   10.562
 5632.00    0.99129   0.89998   10.088
 5633.00    1.00000   0.89852   10.000
 5634.00    0.96761   0.89664   10.335
 5635.00    0.93340   0.89488   10.714
 5636.00    0.93610   0.89318   10.683
 5637.00    0.98150   0.89190   10.189
 5638.00    1.04976   0.89103    9.526
 5639.00    1.10673   0.89080    9.036
 5640.00    1.13032   0.89094    8.847
 5641.00    1.12184   0.89148    8.914
 5642.00    1.10285   0.89233    9.067
 5643.00    1.10140   0.89352    9.079
 5644.00    1.11786   0.89448    8.946
 5645.00    1.12518   0.89544    8.887
 5646.00    1.09307   0.89590    9.149
 5647.00    1.00888   0.89598    9.912
 5648.00    0.90345   0.89537   11.069
 5649.00    0.82515   0.89412   12.119
 5650.00    0.79581   0.89216   12.566
 5651.00    0.81043   0.88971   12.339
 5652.00    0.84567   0.88682   11.825
 5653.00    0.87488   0.88363   11.430
 5654.00    0.88244   0.88044   11.332
 5655.00    0.87316   0.87752   11.453
 5656.00    0.87261   0.87530   11.460
 5657.00    0.89291   0.87377   11.199
 5658.00    0.92034   0.87291   10.866
 5659.00    0.95445   0.87309   10.477
 5660.00    1.01369   0.87442    9.865
 5661.00    1.08544   0.87616    9.213
 5662.00    1.12325   0.87841    8.903
 5663.00    1.09626   0.88099    9.122
 5664.00    1.00980   0.88412    9.903
 5665.00    0.91540   0.88711   10.924
 5666.00    0.87670   0.89033   11.406
 5667.00    0.90242   0.89321   11.081
 5668.00    0.96087   0.89630   10.407
 5669.00    1.02183   0.89898    9.786
 5670.00    1.06382   0.90159    9.400
 5671.00    1.07625   0.90355    9.292
 5672.00    1.06761   0.90511    9.367
 5673.00    1.06891   0.90592    9.355
 5674.00    1.09680   0.90596    9.117
 5675.00    1.12953   0.90525    8.853
 5676.00    1.13963   0.90379    8.775
 5677.00    1.11634   0.90197    8.958
 5678.00    1.06819   0.89946    9.362
 5679.00    1.01857   0.89695    9.818
 5680.00    0.98529   0.89430   10.149
 5681.00    0.97313   0.89209   10.276
 5682.00    0.97663   0.89014   10.239
 5683.00    0.98277   0.88891   10.175
 5684.00    0.97526   0.88846   10.254
 5685.00    0.94259   0.88867   10.609
 5686.00    0.89120   0.88953   11.221
 5687.00    0.84018   0.89074   11.902
 5688.00    0.80872   0.89237   12.365
 5689.00    0.81440   0.89400   12.279
 5690.00    0.87184   0.89548   11.470
 5691.00    0.97224   0.89646   10.286
 5692.00    1.06778   0.89672    9.365
 5693.00    1.11409   0.89633    8.976
 5694.00    1.10467   0.89497    9.052
 5695.00    1.05821   0.89305    9.450
 5696.00    1.00560   0.89036    9.944
 5697.00    0.97563   0.88730   10.250
 5698.00    0.98183   0.88373   10.185
 5699.00    0.99985   0.88004   10.001
 5700.00    0.98069   0.87635   10.197
 5701.00    0.92304   0.87259   10.834
 5702.00    0.87362   0.86919   11.447
 5703.00    0.86446   0.86611   11.568
 5704.00    0.89563   0.86366   11.165
 5705.00    0.93653   0.86177   10.678
 5706.00    0.95139   0.86083   10.511
 5707.00    0.93946   0.86091   10.644
 5708.00    0.92078   0.86223   10.860
 5709.00    0.90806   0.86461   11.012
 5710.00    0.90448   0.86820   11.056
 5711.00    0.90617   0.87271   11.036
 5712.00    0.91240   0.87772   10.960
 5713.00    0.93145   0.88330   10.736
 5714.00    0.96259   0.88878   10.389
 5715.00    0.98797   0.89404   10.122
 5716.00    0.99845   0.89881   10.016
 5717.00    1.00389   0.90300    9.961
 5718.00    1.01429   0.90638    9.859
 5719.00    1.03028   0.90902    9.706
 5720.00    1.04076   0.91087    9.608
 5721.00    1.03016   0.91186    9.707
 5722.00    0.99952   0.91236   10.005
 5723.00    0.96378   0.91212   10.376
 5724.00    0.93324   0.91171   10.715
 5725.00    0.91397   0.91084   10.941
 5726.00    0.91503   0.91020   10.929
 5727.00    0.93720   0.90934   10.670
 5728.00    0.95729   0.90899   10.446
 5729.00    0.95299   0.90868   10.493
 5730.00    0.93133   0.90871   10.737
 5731.00    0.91255   0.90876   10.958
 5732.00    0.91181   0.90905   10.967
 5733.00    0.93235   0.90943   10.726
 5734.00    0.96434   0.90974   10.370
 5735.00    1.00063   0.90997    9.994
 5736.00    1.04178   0.91001    9.599
 5737.00    1.07649   0.90993    9.289
 5738.00    1.08122   0.90970    9.249
 5739.00    1.05153   0.90931    9.510
 5740.00    1.00778   0.90876    0.000
 5741.00    0.97758   0.90805    0.000
 5742.00    0.98165   0.90712    0.000
 5743.00    1.01453   0.90608    0.000
 5744.00    1.04988   0.90478    0.000
 5745.00    1.05910   0.90348    0.000
 5746.00    1.02590   0.90189    0.000
 5747.00    0.96131   0.90041    0.000
 5748.00    0.89001   0.89879    0.000
 5749.00    0.83172   0.89756    0.000
 5750.00    0.79803   0.89643    0.000
 5751.00    0.79210   0.89562    0.000
 5752.00    0.81287   0.89499    0.000
 5753.00    0.85739   0.89465    0.000
 5754.00    0.91500   0.89463    0.000
 5755.00    0.96606   0.89475    0.000
 5756.00    0.99344   0.89519    0.000
 5757.00    0.98989   0.89545    0.000
 5758.00    0.96450   0.89609    0.000
 5759.00    0.93881   0.89655    0.000
 5760.00    0.92811   0.89750    0.000
 5761.00    0.93708   0.89830    0.000
 5762.00    0.96359   0.89961    0.000
 5763.00    0.99935   0.90069    0.000
 5764.00    1.02958   0.90207    0.000
 5765.00    1.03745   0.90303    0.000
 5766.00    1.01173   0.90376    0.000
 5767.00    0.95864   0.90396    0.000
 5768.00    0.91157   0.90369    0.000
 5769.00    0.89373   0.90284    0.000
 5770.00    0.88561   0.90140    0.000
 5771.00    0.86854   0.89943    0.000
 5772.00    0.85737   0.89689    0.000
 5773.00    0.87269   0.89387    0.000
 5774.00    0.92044   0.89046    0.000
 5775.00    0.98686   0.88665    0.000
 5776.00    1.04184   0.88280    0.000
 5777.00    1.05992   0.87885    0.000
 5778.00    1.03423   0.87524    0.000
 5779.00    0.99183   0.87200    0.000
 5780.00    0.97668   0.86958    0.000
 5781.00    0.99590   0.86793    0.000
 5782.00    1.02368   0.86739    0.000
 5783.00    1.03702   0.86783    0.000
 5784.00    1.02623   0.86915    0.000
 5785.00    0.99891   0.87126    0.000
 5786.00    0.96798   0.87389    0.000
 5787.00    0.93692   0.87703    0.000
 5788.00    0.91522   0.88019    0.000
 5789.00    0.93070   0.88346    0.000
 5790.00    0.98077   0.88656    0.000
 5791.00    1.00325   0.88952    0.000
 5792.00    0.95795   0.89228    0.000
 5793.00    0.87420   0.89484    0.000
 5794.00    0.80503   0.89709    0.000
 5795.00    0.79270   0.89915    0.000
 5796.00    0.83545   0.90085    0.000
 5797.00    0.89108   0.90234    0.000
 5798.00    0.93307   0.90344    0.000
 5799.00    0.96233   0.90440    0.000
 5800.00    0.98713   0.90492    0.000
 5801.00    1.01504   0.90528    0.000
 5802.00    1.04802   0.90525    0.000
 5803.00    1.07683   0.90522    0.000
 5804.00    1.07542   0.90490    0.000
 5805.00    1.02838   0.90473    0.000
 5806.00    0.96586   0.90443    0.000
 5807.00    0.92654   0.90429    0.000
 5808.00    0.91566   0.90411    0.000
 5809.00    0.93043   0.90403    0.000
 5810.00    0.98181   0.90403    0.000
 5811.00    1.06515   0.90411    0.000
 5812.00    1.14407   0.90438    0.000
 5813.00    1.18213   0.90475    0.000
 5814.00    1.16317   0.90541    0.000
 5815.00    1.09921   0.90618    0.000
 5816.00    1.02445   0.90721    0.000
 5817.00    0.96437   0.90833    0.000
 5818.00    0.92738   0.90955    0.000
 5819.00    0.91298   0.91074    0.000
 5820.00    0.91627   0.91179    0.000
 5821.00    0.93232   0.91277    0.000
 5822.00    0.95481   0.91346    0.000
 5823.00    0.97240   0.91407    0.000
 5824.00    0.97719   0.91436    0.000
 5825.00    0.97666   0.91457    0.000
 5826.00    0.98412   0.91450    0.000
 5827.00    1.00472   0.91433    0.000
 5828.00    1.02376   0.91401    0.000
 5829.00    1.00431   0.91359    0.000
 5830.00    0.93856   0.91314    0.000
 5831.00    0.87524   0.91268    0.000
 5832.00    0.85964   0.91224    0.000
 5833.00    0.89720   0.91190    0.000
 5834.00    0.95432   0.91158    0.000
 5835.00    0.97527   0.91143    0.000
 5836.00    0.93793   0.91116    0.000
 5837.00    0.86738   0.91101    0.000
 5838.00    0.81376   0.91054    0.000
 5839.00    0.82106   0.91004    0.000
 5840.00    0.87347   0.90907    0.000
 5841.00    0.91935   0.90786    0.000
 5842.00    0.93784   0.90612    0.000
 5843.00    0.93805   0.90401    0.000
 5844.00    0.93806   0.90147    0.000
 5845.00    0.94873   0.89852    0.000
 5846.00    0.96010   0.89533    0.000
 5847.00    0.96194   0.89181    0.000
 5848.00    0.96189   0.88826    0.000
 5849.00    0.96318   0.88455    0.000
 5850.00    0.95033   0.88105    0.000
 5851.00    0.91347   0.87764    0.000
 5852.00    0.86222   0.87468    0.000
 5853.00    0.81714   0.87216    0.000
 5854.00    0.80112   0.87025    0.000
 5855.00    0.82450   0.86907    0.000
 5856.00    0.87730   0.86845    0.000
 5857.00    0.92398   0.86871    0.000
 5858.00    0.92418   0.86935    0.000
 5859.00    0.88470   0.87080    0.000
 5860.00    0.84622   0.87237    0.000
 5861.00    0.83300   0.87445    0.000
 5862.00    0.84788   0.87646    0.000
 5863.00    0.88081   0.87866    0.000
 5864.00    0.91821   0.88067    0.000
 5865.00    0.95260   0.88258    0.000
 5866.00    0.97722   0.88422    0.000
 5867.00    0.98094   0.88553    0.000
 5868.00    0.95963   0.88647    0.000
 5869.00    0.92446   0.88692    0.000
 5870.00    0.89400   0.88685    0.000
 5871.00    0.88492   0.88623    0.000
 5872.00    0.89378   0.88499    0.000
 5873.00    0.89702   0.88321    0.000
 5874.00    0.88735   0.88069    0.000
 5875.00    0.88019   0.87762    0.000
 5876.00    0.88603   0.87367    0.000
 5877.00    0.90123   0.86904    0.000
 5878.00    0.90897   0.86330    0.000
 5879.00    0.89255   0.85663    0.000
 5880.00    0.86072   0.84867    0.000
 5881.00    0.83567   0.83959    0.000
 5882.00    0.82572   0.82925    0.000
 5883.00    0.82698   0.81810    0.000
 5884.00    0.83162   0.80620    0.000
 5885.00    0.83126   0.79436    0.000
 5886.00    0.82013   0.78278    0.000
 5887.00    0.80074   0.77252    0.000
 5888.00    0.78577   0.76372    0.000
 5889.00    0.78052   0.75741    0.000
 5890.00    0.77463   0.75336    0.000
 5891.00    0.76181   0.75236    0.000
 5892.00    0.74687   0.75382    0.000
 5893.00    0.72975   0.75818    0.000
 5894.00    0.70461   0.76458    0.000
 5895.00    0.67994   0.77307    0.000
 5896.00    0.67687   0.78276    0.000
 5897.00    0.70619   0.79341    0.000
 5898.00    0.76082   0.80423    0.000
 5899.00    0.81461   0.81485    0.000
 5900.00    0.84063   0.82477    0.000
 5901.00    0.84111   0.83365   11.889
 5902.00    0.83175   0.84134   12.023
 5903.00    0.81453   0.84764   12.277
 5904.00    0.79026   0.85264   12.654
 5905.00    0.77460   0.85638   12.910
 5906.00    0.78265   0.85893   12.777
 5907.00    0.81369   0.86066   12.290
 5908.00    0.84876   0.86144   11.782
 5909.00    0.85777   0.86193   11.658
 5910.00    0.84316   0.86174   11.860
 5911.00    0.84909   0.86177   11.777
 5912.00    0.89465   0.86139   11.178
 5913.00    0.95420   0.86156   10.480
 5914.00    0.99643   0.86155   10.036
 5915.00    1.00418   0.86216    9.958
 5916.00    0.98816   0.86267   10.120
 5917.00    0.97558   0.86364   10.250
 5918.00    0.97663   0.86447   10.239
 5919.00    0.98584   0.86547   10.144
 5920.00    0.99783   0.86624   10.022
 5921.00    1.00948   0.86695    9.906
 5922.00    1.01862   0.86736    9.817
 5923.00    1.02277   0.86763    9.777
 5924.00    1.01785   0.86763    9.825
 5925.00    0.99908   0.86755   10.009
 5926.00    0.96199   0.86729   10.395
 5927.00    0.90333   0.86709   11.070
 5928.00    0.82454   0.86684   12.128
 5929.00    0.74818   0.86674   13.366
 5930.00    0.71829   0.86669   13.922
 5931.00    0.75839   0.86678   13.186
 5932.00    0.85318   0.86694   11.721
 5933.00    0.95655   0.86717   10.454
 5934.00    1.01204   0.86744    9.881
 5935.00    1.00140   0.86763    9.986
 5936.00    0.94920   0.86783   10.535
 5937.00    0.89878   0.86787   11.126
 5938.00    0.89428   0.86791   11.182
 5939.00    0.95787   0.86776   10.440
 5940.00    1.08098   0.86757    9.251
 5941.00    1.21923   0.86719    8.202
 5942.00    1.31821   0.86678   -1.000
 5943.00    1.34584   0.86618   -1.000
 5944.00    1.30043   0.86558   -1.000
 5945.00    1.21166   0.86481    8.253
 5946.00    1.11433   0.86412    8.974
 5947.00    1.02806   0.86333    9.727
 5948.00    0.95727   0.86276   10.446
 5949.00    0.89501   0.86218   11.173
 5950.00    0.83719   0.86199   11.945
 5951.00    0.78901   0.86188   12.674
 5952.00    0.76217   0.86226   13.120
 5953.00    0.76785   0.86275   13.023
 5954.00    0.79939   0.86373   12.510
 5955.00    0.83671   0.86478   11.952
 5956.00    0.87005   0.86621   11.494
 5957.00    0.89999   0.86760   11.111
 5958.00    0.92567   0.86920   10.803
 5959.00    0.94193   0.87067   10.617
 5960.00    0.93937   0.87215   10.645
 5961.00    0.91527   0.87346   10.926
 5962.00    0.88573   0.87458   11.290
 5963.00    0.86812   0.87555   11.519
 5964.00    0.86388   0.87620   11.576
 5965.00    0.87366   0.87672   11.446
 5966.00    0.90678   0.87682   11.028
 5967.00    0.95455   0.87677   10.476
 5968.00    0.98129   0.87625   10.191
 5969.00    0.96866   0.87548   10.324
 5970.00    0.93300   0.87435   10.718
 5971.00    0.90031   0.87291   11.107
 5972.00    0.89179   0.87129   11.213
 5973.00    0.91291   0.86942   10.954
 5974.00    0.95311   0.86764   10.492
 5975.00    0.99453   0.86568   10.055
 5976.00    1.01924   0.86403    9.811
 5977.00    1.01926   0.86234    9.811
 5978.00    0.99968   0.86106   10.003
 5979.00    0.97885   0.85986   10.216
 5980.00    0.96776   0.85910   10.333
 5981.00    0.94676   0.85850   10.562
 5982.00    0.90839   0.85832   11.009
 5983.00    0.90719   0.85836   11.023
 5984.00    1.07421   0.85876    9.309
 5985.00    1.60751   0.85940   -1.000
 5986.00    2.65168   0.86030   -2.000
 5987.00    4.15839   0.86123   -2.000
 5988.00    5.59024   0.86224   -2.000
 5989.00    6.01486   0.86308   -2.000
 5990.00    5.14921   0.86379   -2.000
 5991.00    3.58803   0.86417   -2.000
 5992.00    2.02367   0.86432   -2.000
 5993.00    0.92907   0.86412   -2.000
 5994.00    0.46400   0.86365   -2.000
 5995.00    0.51122   0.86289   -2.000
 5996.00    0.80798   0.86190   -2.000
 5997.00    1.07096   0.86074   -2.000
 5998.00    1.15877   0.85945    8.630
 5999.00    1.08004   0.85815    9.259
 6000.00    0.95693   0.85681   10.450
 6001.00    0.90390   0.85551   11.063
 6002.00    0.90868   0.85426   11.005
 6003.00    0.91473   0.85312   10.932
 6004.00    0.90367   0.85212   11.066
 6005.00    0.88380   0.85131   11.315
 6006.00    0.87406   0.85060   11.441
 6007.00    0.88569   0.85006   11.291
 6008.00    0.91399   0.84961   10.941
 6009.00    0.94602   0.84925   10.571
 6010.00    0.96594   0.84903   10.353
 6011.00    0.96052   0.84867   10.411
 6012.00    0.92843   0.84844   10.771
 6013.00    0.89953   0.84805   11.117
 6014.00    0.91320   0.84786   10.950
 6015.00    0.95920   0.84767   10.425
 6016.00    0.99255   0.84771   10.075
 6017.00    0.98477   0.84792   10.155
 6018.00    0.93336   0.84848   10.714
 6019.00    0.86076   0.84935   11.618
 6020.00    0.80353   0.85057   12.445
 6021.00    0.79729   0.85218   12.543
 6022.00    0.84818   0.85414   11.790
 6023.00    0.91427   0.85635   10.938
 6024.00    0.95195   0.85879   10.505
 6025.00    0.95054   0.86125   10.520
 6026.00    0.92462   0.86386   10.815
 6027.00    0.90246   0.86614   11.081
 6028.00    0.90058   0.86848   11.104
 6029.00    0.91512   0.87037   10.928
 6030.00    0.93513   0.87213   10.694
 6031.00    0.95048   0.87343   10.521
 6032.00    0.95958   0.87452   10.421
 6033.00    0.96823   0.87527   10.328
 6034.00    0.98142   0.87576   10.189
 6035.00    0.99556   0.87613   10.045
 6036.00    0.98935   0.87626   10.108
 6037.00    0.94866   0.87650   10.541
 6038.00    0.90352   0.87653   11.068
 6039.00    0.89231   0.87682   11.207
 6040.00    0.91364   0.87689   10.945
 6041.00    0.94383   0.87727   10.595
 6042.00    0.96013   0.87740   10.415
 6043.00    0.94815   0.87768   10.547
 6044.00    0.91427   0.87774   10.938
 6045.00    0.93598   0.87765   10.684
 6046.00    1.15958   0.87739    8.624
 6047.00    1.63726   0.87680   -1.000
 6048.00    2.24576   0.87612   -1.000
 6049.00    2.69471   0.87505   -1.000
 6050.00    2.65378   0.87401   -1.000
 6051.00    2.11882   0.87272   -1.000
 6052.00    1.39391   0.87147   -1.000
 6053.00    0.75707   0.87017   13.209
 6054.00    0.37619   0.86895   -1.000
 6055.00    0.31363   0.86787   -1.000
 6056.00    0.50869   0.86682   -1.000
 6057.00    0.75996   0.86603   13.159
 6058.00    0.87892   0.86534   11.378
 6059.00    0.87646   0.86491   11.410
 6060.00    0.85078   0.86471   11.754
 6061.00    0.85099   0.86478   11.751
 6062.00    0.87517   0.86521   11.426
 6063.00    0.88723   0.86591   11.271
 6064.00    0.86915   0.86699   11.505
 6065.00    0.84682   0.86823   11.809
 6066.00    0.84988   0.86964   11.766
 6067.00    0.88806   0.87116   11.261
 6068.00    0.94551   0.87230   10.576
 6069.00    0.98796   0.87321   10.122
 6070.00    0.99158   0.87344   10.085
 6071.00    0.95181   0.87332   10.506
 6072.00    0.88058   0.87241   11.356
 6073.00    0.79986   0.87120   12.502
 6074.00    0.73023   0.86930   13.694
 6075.00    0.68939   0.86732   14.506
 6076.00    0.69283   0.86496   14.434
 6077.00    0.74101   0.86272   13.495
 6078.00    0.80467   0.86046   12.427
 6079.00    0.85191   0.85849   11.738
 6080.00    0.87780   0.85685   11.392
 6081.00    0.89528   0.85543   11.170
 6082.00    0.92261   0.85441   10.839
 6083.00    0.96869   0.85359   10.323
 6084.00    1.02519   0.85322    9.754
 6085.00    1.07541   0.85287    9.299
 6086.00    1.10226   0.85291    9.072
 6087.00    1.10054   0.85296    9.086
 6088.00    1.07941   0.85323    9.264
 6089.00    1.05312   0.85344    9.496
 6090.00    1.03248   0.85363    9.685
 6091.00    1.01145   0.85379    9.887
 6092.00    0.97596   0.85378   10.246
 6093.00    0.93024   0.85358   10.750
 6094.00    0.89325   0.85304   11.195
 6095.00    0.88174   0.85238   11.341
 6096.00    0.89764   0.85129   11.140
 6097.00    0.91703   0.85016   10.905
 6098.00    0.91740   0.84893   10.900
 6099.00    0.90748   0.84790   11.019
 6100.00    0.90846   0.84708   11.008
 6101.00    0.93294   0.84662   10.719
 6102.00    0.97435   0.84652   10.263
 6103.00    1.00556   0.84687    9.945
 6104.00    1.00707   0.84795    9.930
 6105.00    0.98119   0.84920   10.192
 6106.00    0.94155   0.85060   10.621
 6107.00    0.90461   0.85190   11.055
 6108.00    0.87832   0.85304   11.385
 6109.00    0.86143   0.85393   11.609
 6110.00    0.85292   0.85441   11.724
 6111.00    0.85350   0.85431   11.717
 6112.00    0.86242   0.85375   11.595
 6113.00    0.87769   0.85270   11.394
 6114.00    0.89736   0.85123   11.144
 6115.00    0.91664   0.84940   10.909
 6116.00    0.92410   0.84735   10.821
 6117.00    0.91152   0.84532   10.971
 6118.00    0.88514   0.84346   11.298
 6119.00    0.85747   0.84190   11.662
 6120.00    0.83782   0.84058   11.936
 6121.00    0.82616   0.83983   12.104
 6122.00    0.81258   0.83932   12.306
 6123.00    0.79727   0.83932   12.543
 6124.00    0.79728   0.83959   12.543
 6125.00    0.82155   0.83966   12.172
 6126.00    0.86071   0.83957   11.618
 6127.00    0.89557   0.83910   11.166
 6128.00    0.90657   0.83822   11.031
 6129.00    0.89077   0.83687   11.226
 6130.00    0.86273   0.83520   11.591
 6131.00    0.84351   0.83320   11.855
 6132.00    0.84699   0.83119   11.807
 6133.00    0.86025   0.82924   11.625
 6134.00    0.85931   0.82786   11.637
 6135.00    0.83844   0.82680   11.927
 6136.00    0.81011   0.82671   12.344
 6137.00    0.79757   0.82711   12.538
 6138.00    0.81401   0.82870   12.285
 6139.00    0.84549   0.83079   11.828
 6140.00    0.87003   0.83319   11.494
 6141.00    0.87406   0.83549   11.441
 6142.00    0.85240   0.83761   11.732
 6143.00    0.80845   0.83973   12.369
 6144.00    0.75809   0.84120   13.191
 6145.00    0.72507   0.84229   13.792
 6146.00    0.71563   0.84248   13.974
 6147.00    0.71611   0.84237   13.964
 6148.00    0.71770   0.84127   13.933
 6149.00    0.72439   0.83993   13.805
 6150.00    0.75209   0.83764   13.296
 6151.00    0.81106   0.83509   12.329
 6152.00    0.87355   0.83167   11.448
 6153.00    0.89848   0.82788   11.130
 6154.00    0.88011   0.82337   11.362
 6155.00    0.83981   0.81849   11.907
 6156.00    0.80473   0.81354   12.427
 6157.00    0.79502   0.80849   12.578
 6158.00    0.81374   0.80374   12.289
 6159.00    0.84725   0.79944   11.803
 6160.00    0.86965   0.79585   11.499
 6161.00    0.86387   0.79293   11.576
 6162.00    0.83365   0.79106   11.995
 6163.00    0.79362   0.79037   12.600
 6164.00    0.76116   0.79068   13.138
 6165.00    0.74620   0.79176   13.401
 6166.00    0.74760   0.79344   13.376
 6167.00    0.75546   0.79559   13.237
 6168.00    0.75655   0.79823   13.218
 6169.00    0.74628   0.80085   13.400
 6170.00    0.73232   0.80391   13.655
 6171.00    0.73476   0.80710   13.610
 6172.00    0.76988   0.81040   12.989
 6173.00    0.82468   0.81321   12.126
 6174.00    0.87251   0.81597   11.461
 6175.00    0.89939   0.81830   11.119
 6176.00    0.90275   0.82023   11.077
 6177.00    0.88624   0.82168   11.284
 6178.00    0.85784   0.82258   11.657
 6179.00    0.82873   0.82301   12.067
 6180.00    0.81266   0.82255   12.305
 6181.00    0.82322   0.82185   12.147
 6182.00    0.86148   0.82042   11.608
 6183.00    0.91099   0.81876   10.977
 6184.00    0.94628   0.81670   10.568
 6185.00    0.94427   0.81472   10.590
 6186.00    0.90940   0.81274   10.996
 6187.00    0.87354   0.81107   11.448
 6188.00    0.87113   0.80994   11.479
 6189.00    0.91476   0.80926   10.932
 6190.00    0.96028   0.80922   10.414
 6191.00    0.94875   0.80947   10.540
 6192.00    0.89025   0.81038   11.233
 6193.00    0.82871   0.81186   12.067
 6194.00    0.77449   0.81341   12.912
 6195.00    0.72627   0.81498   13.769
 6196.00    0.70339   0.81660   14.217
 6197.00    0.71965   0.81811   13.896
 6198.00    0.75965   0.81950   13.164
 6199.00    0.80085   0.82061   12.487
 6200.00    0.83046   0.82152   12.042
 6201.00    0.84209   0.82228   11.875
 6202.00    0.83334   0.82267   12.000
 6203.00    0.80629   0.82255   12.402
 6204.00    0.76947   0.82186   12.996
 6205.00    0.74354   0.82060   13.449
 6206.00    0.75394   0.81885   13.264
 6207.00    0.80435   0.81650   12.432
 6208.00    0.87297   0.81381   11.455
 6209.00    0.92282   0.81072   10.836
 6210.00    0.92874   0.80765   10.767
 6211.00    0.91896   0.80440   10.882
 6212.00    0.93305   0.80163   10.718
 6213.00    0.95256   0.79890   10.498
 6214.00    0.94012   0.79684   10.637
 6215.00    0.89565   0.79525   11.165
 6216.00    0.84294   0.79425   11.863
 6217.00    0.80859   0.79365   12.367
 6218.00    0.80333   0.79343   12.448
 6219.00    0.81173   0.79315   12.319
 6220.00    0.80750   0.79308   12.384
 6221.00    0.76862   0.79306   13.010
 6222.00    0.70173   0.79294   14.250
 6223.00    0.64529   0.79271   15.497
 6224.00    0.63780   0.79218   15.679
 6225.00    0.69436   0.79168   14.402
 6226.00    0.77579   0.79114   12.890
 6227.00    0.81209   0.79060   12.314
 6228.00    0.77936   0.79024   12.831
 6229.00    0.70297   0.78991   14.225
 6230.00    0.62565   0.78973   15.983
 6231.00    0.58488   0.78966   -1.000
 6232.00    0.58892   0.78998   -1.000
 6233.00    0.62543   0.79006   15.989
 6234.00    0.67681   0.79011   14.775
 6235.00    0.72367   0.78994   13.818
 6236.00    0.74760   0.78931   13.376
 6237.00    0.74100   0.78856   13.495
 6238.00    0.71272   0.78754   14.031
 6239.00    0.67551   0.78657   14.804
 6240.00    0.63900   0.78553   15.649
 6241.00    0.61608   0.78465   16.232
 6242.00    0.62119   0.78394   16.098
 6243.00    0.65045   0.78300   15.374
 6244.00    0.68260   0.78234   14.650
 6245.00    0.70745   0.78164   14.135
 6246.00    0.72845   0.78076   13.728
 6247.00    0.74592   0.77987   13.406
 6248.00    0.75737   0.77879   13.204
 6249.00    0.76632   0.77767   13.049
 6250.00    0.77241   0.77627   12.946
 6251.00    0.75460   0.77521   13.252
 6252.00    0.69986   0.77400   14.289
 6253.00    0.64033   0.77360   15.617
 6254.00    0.61681   0.77357   16.212
 6255.00    0.63719   0.77436   15.694
 6256.00    0.68443   0.77558   14.611
 6257.00    0.72915   0.77737   13.715
 6258.00    0.74590   0.77970   13.407
 6259.00    0.72605   0.78231   13.773
 6260.00    0.69028   0.78544   14.487
 6261.00    0.68100   0.78824   14.684
 6262.00    0.70603   0.79114   14.164
 6263.00    0.72978   0.79372   13.703
 6264.00    0.72388   0.79602   13.815
 6265.00    0.68363   0.79780   14.628
 6266.00    0.62441   0.79949   16.015
 6267.00    0.57589   0.80095   -1.000
 6268.00    0.57175   0.80199   -1.000
 6269.00    0.63265   0.80279   15.806
 6270.00    0.74243   0.80326   13.469
 6271.00    0.85884   0.80368   11.644
 6272.00    0.93541   0.80378   10.690
 6273.00    0.94429   0.80390   10.590
 6274.00    0.89565   0.80368   11.165
 6275.00    0.81719   0.80359   12.237
 6276.00    0.73504   0.80344   13.605
 6277.00    0.67901   0.80352   14.727
 6278.00    0.68118   0.80364   14.680
 6279.00    0.74290   0.80405   13.461
 6280.00    0.82338   0.80455    0.000
 6281.00    0.87126   0.80532    0.000
 6282.00    0.85127   0.80635    0.000
 6283.00    0.78437   0.80726    0.000
 6284.00    0.73368   0.80819    0.000
 6285.00    0.72743   0.80872    0.000
 6286.00    0.75338   0.80904    0.000
 6287.00    0.79529   0.80906    0.000
 6288.00    0.83608   0.80861    0.000
 6289.00    0.84961   0.80782    0.000
 6290.00    0.81776   0.80655    0.000
 6291.00    0.75518   0.80503    0.000
 6292.00    0.69470   0.80339    0.000
 6293.00    0.66591   0.80174    0.000
 6294.00    0.68339   0.80016    0.000
 6295.00    0.73876   0.79880    0.000
 6296.00    0.80478   0.79757    0.000
 6297.00    0.84433   0.79672    0.000
 6298.00    0.84100   0.79642    0.000
 6299.00    0.81241   0.79655    0.000
 6300.00    0.78920   0.79704    0.000
 6301.00    0.79657   0.79764    0.000
 6302.00    0.82580   0.79855    0.000
 6303.00    0.84165   0.79959    0.000
 6304.00    0.83321   0.80058    0.000
 6305.00    0.81273   0.80125    0.000
 6306.00    0.77814   0.80154    0.000
 6307.00    0.72096   0.80159    0.000
 6308.00    0.65660   0.80118    0.000
 6309.00    0.61548   0.80038    0.000
 6310.00    0.62043   0.79925    0.000
 6311.00    0.67054   0.79808    0.000
 6312.00    0.72913   0.79692    0.000
 6313.00    0.75616   0.79609    0.000
 6314.00    0.74024   0.79539    0.000
 6315.00    0.69865   0.79506    0.000
 6316.00    0.66963   0.79531    0.000
 6317.00    0.67946   0.79613    0.000
 6318.00    0.72371   0.79706    0.000
 6319.00    0.77416   0.79859    0.000
 6320.00    0.79359   0.80051    0.000
 6321.00    0.77606   0.80230   12.886
 6322.00    0.75070   0.80410   13.321
 6323.00    0.74552   0.80558   13.413
 6324.00    0.77135   0.80702   12.964
 6325.00    0.81220   0.80785   12.312
 6326.00    0.83694   0.80836   11.948
 6327.00    0.82607   0.80832   12.106
 6328.00    0.78010   0.80788   12.819
 6329.00    0.72268   0.80727   13.837
 6330.00    0.68079   0.80609   14.689
 6331.00    0.66029   0.80494   15.145
 6332.00    0.65325   0.80371   15.308
 6333.00    0.64915   0.80250   15.405
 6334.00    0.64368   0.80140   15.536
 6335.00    0.64298   0.80021   15.553
 6336.00    0.65071   0.79956   15.368
 6337.00    0.66211   0.79922   15.103
 6338.00    0.67692   0.79935   14.773
 6339.00    0.70258   0.79944   14.233
 6340.00    0.73932   0.79986   13.526
 6341.00    0.77749   0.80040   12.862
 6342.00    0.80870   0.80084   12.366
 6343.00    0.82742   0.80139   12.086
 6344.00    0.82578   0.80169   12.110
 6345.00    0.79926   0.80222   12.512
 6346.00    0.76021   0.80240   13.154
 6347.00    0.72589   0.80227   13.776
 6348.00    0.69587   0.80176   14.371
 6349.00    0.66615   0.80090   15.012
 6350.00    0.65061   0.79954   15.370
 6351.00    0.66150   0.79774   15.117
 6352.00    0.68814   0.79575   14.532
 6353.00    0.71351   0.79340   14.015
 6354.00    0.72954   0.79107   13.707
 6355.00    0.73522   0.78875   13.601
 6356.00    0.73362   0.78695   13.631
 6357.00    0.72697   0.78551   13.756
 6358.00    0.71687   0.78443   13.950
 6359.00    0.71544   0.78403   13.977
 6360.00    0.74125   0.78445   13.491
 6361.00    0.79004   0.78548   12.658
 6362.00    0.83493   0.78700   11.977
 6363.00    0.85380   0.78911   11.712
 6364.00    0.84300   0.79172   11.862
 6365.00    0.82847   0.79443   12.070
 6366.00    0.84079   0.79728   11.894
 6367.00    0.87043   0.79992   11.489
 6368.00    0.88695   0.80251   11.275
 6369.00    0.87594   0.80463   11.416
 6370.00    0.84503   0.80638   11.834
 6371.00    0.82125   0.80777   12.177
 6372.00    0.81517   0.80884   12.267
 6373.00    0.79710   0.80959   12.545
 6374.00    0.74996   0.80986   13.334
 6375.00    0.70079   0.80989   14.270
 6376.00    0.67989   0.80973   14.708
 6377.00    0.69706   0.80946   14.346
 6378.00    0.74457   0.80906   13.431
 6379.00    0.80145   0.80857   12.477
 6380.00    0.84221   0.80819   11.873
 6381.00    0.84624   0.80775   11.817
 6382.00    0.81445   0.80739   12.278
 6383.00    0.76724   0.80697   13.034
 6384.00    0.72871   0.80629   13.723
 6385.00    0.71258   0.80566   14.033
 6386.00    0.70543   0.80483   14.176
 6387.00    0.69401   0.80395   14.409
 6388.00    0.70501   0.80292   14.184
 6389.00    0.76534   0.80189   13.066
 6390.00    0.85355   0.80094   11.716
 6391.00    0.92964   0.80000   10.757
 6392.00    0.96734   0.79922   10.338
 6393.00    0.95565   0.79845   10.464
 6394.00    0.89855   0.79814   11.129
 6395.00    0.81863   0.79835   12.216
 6396.00    0.75176   0.79855   13.302
 6397.00    0.71353   0.79895   14.015
 6398.00    0.69246   0.79919   14.441
 6399.00    0.68358   0.79955   14.629
 6400.00    0.69228   0.79963   14.445
 6401.00    0.70802   0.80039   14.124
 6402.00    0.70965   0.80104   14.092
 6403.00    0.69587   0.80135   14.371
 6404.00    0.68228   0.80144   14.657
 6405.00    0.68190   0.80137   14.665
 6406.00    0.70014   0.80112   14.283
 6407.00    0.73318   0.80074   13.639
 6408.00    0.77221   0.80032   12.950
 6409.00    0.80883   0.80013   12.364
 6410.00    0.83476   0.80007   11.979
 6411.00    0.84193   0.79958   11.877
 6412.00    0.82907   0.79951   12.062
 6413.00    0.80587   0.79953   12.409
 6414.00    0.78700   0.79970   12.707
 6415.00    0.78605   0.79983   12.722
 6416.00    0.80534   0.80024   12.417
 6417.00    0.83381   0.80063   11.993
 6418.00    0.85779   0.80111   11.658
 6419.00    0.86794   0.80165   11.522
 6420.00    0.86613   0.80207   11.546
 6421.00    0.86085   0.80267   11.616
 6422.00    0.85100   0.80336   11.751
 6423.00    0.83190   0.80412   12.021
 6424.00    0.81378   0.80435   12.288
 6425.00    0.80842   0.80434   12.370
 6426.00    0.80411   0.80419   12.436
 6427.00    0.78936   0.80385   12.668
 6428.00    0.78452   0.80350   12.747
 6429.00    0.81113   0.80294   12.328
 6430.00    0.85917   0.80248   11.639
 6431.00    0.90256   0.80201   11.080
 6432.00    0.91717   0.80219   10.903
 6433.00    0.90068   0.80248   11.103
 6434.00    0.87784   0.80287   11.392
 6435.00    0.86573   0.80348   11.551
 6436.00    0.85958   0.80396   11.634
 6437.00    0.84964   0.80455   11.770
 6438.00    0.83028   0.80478   12.044
 6439.00    0.80526   0.80497   12.418
 6440.00    0.78616   0.80546   12.720
 6441.00    0.78414   0.80575   12.753
 6442.00    0.79922   0.80544   12.512
 6443.00    0.80471   0.80475   12.427
 6444.00    0.77294   0.80374   12.938
 6445.00    0.72031   0.80244   13.883
 6446.00    0.68274   0.80125   14.647
 6447.00    0.67433   0.79995   14.829
 6448.00    0.69102   0.79869   14.471
 6449.00    0.72085   0.79749   13.873
 6450.00    0.75131   0.79651   13.310
 6451.00    0.77461   0.79647   12.910
 6452.00    0.78702   0.79655   12.706
 6453.00    0.78885   0.79682   12.677
 6454.00    0.78837   0.79698   12.684
 6455.00    0.79942   0.79710   12.509
 6456.00    0.82320   0.79717   12.148
 6457.00    0.84432   0.79766   11.844
 6458.00    0.84470   0.79799   11.839
 6459.00    0.81504   0.79840   12.269
 6460.00    0.77158   0.79850   12.960
 6461.00    0.74552   0.79873   13.413
 6462.00    0.75119   0.79869   13.312
 6463.00    0.78111   0.79897   12.802
 6464.00    0.81120   0.79987   12.327
 6465.00    0.82126   0.80046   12.176
 6466.00    0.81974   0.80112   12.199
 6467.00    0.82096   0.80147   12.181
 6468.00    0.81807   0.80184   12.224
 6469.00    0.80048   0.80184   12.493
 6470.00    0.77140   0.80180   12.963
 6471.00    0.74600   0.80151   13.405
 6472.00    0.74556   0.80113   13.413
 6473.00    0.77809   0.80096   12.852
 6474.00    0.82868   0.80035   12.067
 6475.00    0.86585   0.79957   11.549
 6476.00    0.85588   0.79871   11.684
 6477.00    0.80122   0.79794   12.481
 6478.00    0.73994   0.79682   13.515
 6479.00    0.70485   0.79553   14.187
 6480.00    0.70998   0.79407   14.085
 6481.00    0.74782   0.79227   13.372
 6482.00    0.79524   0.79003   12.575
 6483.00    0.82588   0.78755   12.108
 6484.00    0.82499   0.78491   12.121
 6485.00    0.80622   0.78172   12.404
 6486.00    0.79461   0.77804   12.585
 6487.00    0.80289   0.77406   12.455
 6488.00    0.81656   0.76979   12.246
 6489.00    0.79127   0.76564   12.638
 6490.00    0.71984   0.76148   13.892
 6491.00    0.66575   0.75810   15.021
 6492.00    0.66349   0.75529   15.072
 6493.00    0.67418   0.75355   14.833
 6494.00    0.66460   0.75256   15.047
 6495.00    0.63924   0.75305   15.643
 6496.00    0.61316   0.75513   16.309
 6497.00    0.60046   0.75780   16.654
 6498.00    0.61309   0.76178   16.311
 6499.00    0.67003   0.76561   14.925
 6500.00    0.81694   0.77010   12.241
 6501.00    1.06895   0.77444    9.355
 6502.00    1.30197   0.77848   -1.000
 6503.00    1.37073   0.78211   -1.000
 6504.00    1.30845   0.78512   -1.000
 6505.00    1.22153   0.78753   -1.000
 6506.00    1.13234   0.78929   -1.000
 6507.00    1.03428   0.79043    9.669
 6508.00    0.95659   0.79096   10.454
 6509.00    0.91379   0.79119   10.943
 6510.00    0.87163   0.79110   11.473
 6511.00    0.80924   0.79088   12.357
 6512.00    0.75062   0.79034   13.322
 6513.00    0.71958   0.78994   13.897
 6514.00    0.71702   0.78943   13.947
 6515.00    0.72478   0.78908   13.797
 6516.00    0.72084   0.78876   13.873
 6517.00    0.71872   0.78874   13.914
 6518.00    0.75219   0.78887   13.294
 6519.00    0.80825   0.78902   12.372
 6520.00    0.84002   0.78954   11.904
 6521.00    0.82505   0.78983   12.120
 6522.00    0.76353   0.79007   13.097
 6523.00    0.65825   0.79015   15.192
 6524.00    0.53687   0.79023   -1.000
 6525.00    0.47819   0.79030   -1.000
 6526.00    0.55074   0.79015   -1.000
 6527.00    0.74942   0.78999   13.344
 6528.00    1.01690   0.78997    0.000
 6529.00    1.26754   0.79005    0.000
 6530.00    1.39509   0.79002    0.000
 6531.00    1.30554   0.78988    0.000
 6532.00    1.06192   0.78963    0.000
 6533.00    0.88917   0.78928    0.000
 6534.00    0.88910   0.78890    0.000
 6535.00    0.97315   0.78828    0.000
 6536.00    1.03656   0.78744    0.000
 6537.00    1.02762   0.78607    0.000
 6538.00    0.96865   0.78464    0.000
 6539.00    0.92061   0.78288    0.000
 6540.00    0.90121   0.78090    0.000
 6541.00    0.89325   0.77847    0.000
 6542.00    0.88713   0.77568    0.000
 6543.00    0.88967   0.77280    0.000
 6544.00    0.92328   0.76955    0.000
 6545.00    0.99079   0.76612    0.000
 6546.00    1.04512   0.76206    0.000
 6547.00    1.05224   0.75803    0.000
 6548.00    1.03868   0.75363    0.000
 6549.00    1.02889   0.74851    0.000
 6550.00    1.00720   0.74263    0.000
 6551.00    0.95824   0.73567    0.000
 6552.00    0.88891   0.72826    0.000
 6553.00    0.82015   0.72003    0.000
 6554.00    0.77942   0.71167    0.000
 6555.00    0.78888   0.70377    0.000
 6556.00    0.86671   0.69635    0.000
 6557.00    1.04054   0.68985    0.000
 6558.00    1.32189   0.68427    0.000
 6559.00    1.64543   0.68021    0.000
 6560.00    1.89677   0.67764    0.000
 6561.00    1.98526   0.67696    0.000
 6562.00    1.88599   0.67753    0.000
 6563.00    1.67302   0.68034    0.000
 6564.00    1.43965   0.68653    0.000
 6565.00    1.21003   0.69380    0.000
 6566.00    0.98791   0.70093    0.000
 6567.00    0.80375   0.70844    0.000
 6568.00    0.67885   0.71566    0.000
 6569.00    0.60239   0.72249    0.000
 6570.00    0.56291   0.72903    0.000
 6571.00    0.56393   0.73508    0.000
 6572.00    0.60888   0.74043    0.000
 6573.00    0.69322   0.74522    0.000
 6574.00    0.80268   0.74962    0.000
 6575.00    0.91484   0.75334    0.000
 6576.00    1.00487   0.75690    0.000
 6577.00    1.05517   0.75970    0.000
 6578.00    1.07213   0.76214    0.000
 6579.00    1.07668   0.76396    0.000
 6580.00    1.08056   0.76536    0.000
 6581.00    1.09114   0.76630    0.000
 6582.00    1.12273   0.76697    0.000
 6583.00    1.17232   0.76735    0.000
 6584.00    1.19468   0.76708    0.000
 6585.00    1.15501   0.76685    0.000
 6586.00    1.07523   0.76633    0.000
 6587.00    0.99122   0.76574    0.000
 6588.00    0.91887   0.76526    0.000
 6589.00    0.86228   0.76451    0.000
 6590.00    0.82023   0.76409    0.000
 6591.00    0.78715   0.76368    0.000
 6592.00    0.75505   0.76348    0.000
 6593.00    0.71958   0.76333    0.000
 6594.00    0.68279   0.76392    0.000
 6595.00    0.65441   0.76494    0.000
 6596.00    0.64900   0.76569    0.000
 6597.00    0.67823   0.76644    0.000
 6598.00    0.74515   0.76696    0.000
 6599.00    0.83717   0.76747    0.000
 6600.00    0.92660   0.76793    0.000
 6601.00    0.97494   0.76836    0.000
 6602.00    0.95387   0.76853    0.000
 6603.00    0.86984   0.76863    0.000
 6604.00    0.76385   0.76867    0.000
 6605.00    0.70360   0.76869    0.000
 6606.00    0.74078   0.76910    0.000
 6607.00    0.87886   0.76945    0.000
 6608.00    1.07770   0.77006    0.000
 6609.00    1.26173   0.77065   -1.000
 6610.00    1.33700   0.77171   -1.000
 6611.00    1.22931   0.77290   -1.000
 6612.00    0.99592   0.77381   10.041
 6613.00    0.80485   0.77454   12.425
 6614.00    0.73304   0.77497   13.642
 6615.00    0.74067   0.77546   13.501
 6616.00    0.77123   0.77549   12.966
 6617.00    0.78706   0.77537   12.706
 6618.00    0.78637   0.77488   12.717
 6619.00    0.78893   0.77430   12.675
 6620.00    0.80757   0.77339   12.383
 6621.00    0.83753   0.77235   11.940
 6622.00    0.85130   0.77098   11.747
 6623.00    0.82642   0.76954   12.100
 6624.00    0.77401   0.76797   12.920
 6625.00    0.73345   0.76642   13.634
 6626.00    0.75678   0.76543   13.214
 6627.00    0.84874   0.76432   11.782
 6628.00    0.94275   0.76343   10.607
 6629.00    0.97875   0.76247   10.217
 6630.00    0.94224   0.76179   10.613
 6631.00    0.84983   0.76115   11.767
 6632.00    0.73747   0.76081   13.560
 6633.00    0.64488   0.76059   15.507
 6634.00    0.59954   0.76019   16.680
 6635.00    0.59027   0.76052   16.941
 6636.00    0.59114   0.76080   16.917
 6637.00    0.62304   0.76109   16.050
 6638.00    0.71040   0.76119   14.077
 6639.00    0.79262   0.76126   12.616
 6640.00    0.79712   0.76144   12.545
 6641.00    0.75042   0.76166   13.326
 6642.00    0.71033   0.76193   14.078
 6643.00    0.68141   0.76176   14.676
 6644.00    0.64913   0.76192   15.405
 6645.00    0.61623   0.76230   16.228
 6646.00    0.59950   0.76257   16.681
 6647.00    0.62040   0.76253   16.119
 6648.00    0.67708   0.76252   14.769
 6649.00    0.73556   0.76243   13.595
 6650.00    0.75774   0.76224   13.197
 6651.00    0.72439   0.76177   13.805
 6652.00    0.66838   0.76108   14.962
 6653.00    0.65371   0.76040   15.297
 6654.00    0.68860   0.75930   14.522
 6655.00    0.73170   0.75849   13.667
 6656.00    0.75897   0.75734   13.176
 6657.00    0.76499   0.75631   13.072
 6658.00    0.74008   0.75537   13.512
 6659.00    0.68940   0.75441   14.505
 6660.00    0.66082   0.75373   15.133
 6661.00    0.68773   0.75308   14.541
 6662.00    0.72722   0.75285   13.751
 6663.00    0.72338   0.75246   13.824
 6664.00    0.66830   0.75263   14.963
 6665.00    0.58686   0.75307   17.040
 6666.00    0.51907   0.75334   -1.000
 6667.00    0.50245   0.75362   -1.000
 6668.00    0.55610   0.75361   -1.000
 6669.00    0.65348   0.75352   15.303
 6670.00    0.72652   0.75349   13.764
 6671.00    0.72514   0.75322   13.790
 6672.00    0.64554   0.75276   15.491
 6673.00    0.54494   0.75235   -1.000
 6674.00    0.50421   0.75188   -1.000
 6675.00    0.53558   0.75155   -1.000
 6676.00    0.59555   0.75115   16.791
 6677.00    0.64862   0.75081   15.417
 6678.00    0.67900   0.75055   14.728
 6679.00    0.68908   0.75099   14.512
 6680.00    0.68621   0.75181   14.573
 6681.00    0.66876   0.75217   14.953
 6682.00    0.63930   0.75280   15.642
 6683.00    0.61667   0.75324   16.216
 6684.00    0.62233   0.75376   16.069
 6685.00    0.66667   0.75399   15.000
 6686.00    0.73415   0.75405   13.621
 6687.00    0.78506   0.75395   12.738
 6688.00    0.80390   0.75363   12.439
 6689.00    0.81248   0.75334   12.308
 6690.00    0.83004   0.75290   12.048
 6691.00    0.85653   0.75240   11.675
 6692.00    0.87142   0.75178   11.476
 6693.00    0.85109   0.75130   11.750
 6694.00    0.80954   0.75060   12.353
 6695.00    0.78110   0.75005   12.802
 6696.00    0.76910   0.74939    0.000
 6697.00    0.75324   0.74904    0.000
 6698.00    0.71665   0.74887    0.000
 6699.00    0.65383   0.74862    0.000
 6700.00    0.57604   0.74853    0.000
 6701.00    0.52002   0.74805    0.000
 6702.00    0.54638   0.74764    0.000
 6703.00    0.66053   0.74694    0.000
 6704.00    0.76820   0.74616    0.000
 6705.00    0.79110   0.74545    0.000
 6706.00    0.73721   0.74447    0.000
 6707.00    0.66948   0.74347    0.000
 6708.00    0.66613   0.74199    0.000
 6709.00    0.73769   0.74071    0.000
 6710.00    0.82514   0.73924    0.000
 6711.00    0.89944   0.73792    0.000
 6712.00    0.97149   0.73696    0.000
 6713.00    1.03518   0.73585    0.000
 6714.00    1.06503   0.73518    0.000
 6715.00    1.04178   0.73460    0.000
 6716.00    0.96151   0.73441    0.000
 6717.00    0.84108   0.73431    0.000
 6718.00    0.71389   0.73471    0.000
 6719.00    0.62155   0.73563    0.000
 6720.00    0.59190   0.73649    0.000
 6721.00    0.61841   0.73737    0.000
 6722.00    0.66773   0.73813    0.000
 6723.00    0.69487   0.73918    0.000
 6724.00    0.69084   0.73994    0.000
 6725.00    0.70009   0.74067    0.000
 6726.00    0.74779   0.74103    0.000
 6727.00    0.81068   0.74156    0.000
 6728.00    0.86154   0.74193    0.000
 6729.00    0.88764   0.74197    0.000
 6730.00    0.88549   0.74194    0.000
 6731.00    0.85985   0.74155    0.000
 6732.00    0.82588   0.74119    0.000
 6733.00    0.79935   0.74049    0.000
 6734.00    0.77570   0.73991    0.000
 6735.00    0.73389   0.73914    0.000
 6736.00    0.65257   0.73837    0.000
 6737.00    0.54098   0.73753    0.000
 6738.00    0.47041   0.73657    0.000
 6739.00    0.49850   0.73570    0.000
 6740.00    0.59009   0.73493    0.000
 6741.00    0.68471   0.73422    0.000
 6742.00    0.75853   0.73352    0.000
 6743.00    0.79655   0.73280    0.000
 6744.00    0.77574   0.73251    0.000
 6745.00    0.69861   0.73242    0.000
 6746.00    0.60498   0.73220    0.000
 6747.00    0.53853   0.73245    0.000
 6748.00    0.52536   0.73267    0.000
 6749.00    0.55422   0.73327    0.000
 6750.00    0.58859   0.73388    0.000
 6751.00    0.61788   0.73485    0.000
 6752.00    0.65100   0.73599    0.000
 6753.00    0.67103   0.73670   14.903
 6754.00    0.65031   0.73795   15.377
 6755.00    0.59472   0.73871   16.815
 6756.00    0.54085   0.73956   -1.000
 6757.00    0.53733   0.74009   -1.000
 6758.00    0.59907   0.74039   16.693
 6759.00    0.66578   0.74052   15.020
 6760.00    0.67409   0.74026   14.835
 6761.00    0.62422   0.74006   16.020
 6762.00    0.55575   0.73954   -1.000
 6763.00    0.51998   0.73920   -1.000
 6764.00    0.54702   0.73872   -1.000
 6765.00    0.62728   0.73846   15.942
 6766.00    0.71276   0.73816   14.030
 6767.00    0.73970   0.73809   13.519
 6768.00    0.70490   0.73818   14.186
 6769.00    0.66521   0.73865   15.033
 6770.00    0.65337   0.73909   15.305
 6771.00    0.66220   0.73935   15.101
 6772.00    0.66776   0.74001   14.975
 6773.00    0.65004   0.74027   15.384
 6774.00    0.61951   0.74064   16.142
 6775.00    0.61045   0.74049   16.381
 6776.00    0.66101   0.74021   15.128
 6777.00    0.77643   0.73968   12.879
 6778.00    0.89600   0.73901   11.161
 6779.00    0.96247   0.73841   10.390
 6780.00    0.98524   0.73751   10.150
 6781.00    0.98819   0.73671   10.120
 6782.00    0.97076   0.73577   10.301
 6783.00    0.94159   0.73487   10.620
 6784.00    0.92875   0.73415   10.767
 6785.00    0.92156   0.73377   10.851
 6786.00    0.86739   0.73345   11.529
 6787.00    0.76858   0.73328   13.011
 6788.00    0.68702   0.73331   14.556
 6789.00    0.64270   0.73323   15.559
 6790.00    0.61267   0.73324   16.322
 6791.00    0.60530   0.73331   16.521
 6792.00    0.64826   0.73350   15.426
 6793.00    0.73002   0.73358   13.698
 6794.00    0.81024   0.73373   12.342
 6795.00    0.85462   0.73404   11.701
 6796.00    0.84668   0.73412   11.811
 6797.00    0.79517   0.73430   12.576
 6798.00    0.72838   0.73444   13.729
 6799.00    0.68286   0.73456   14.644
 6800.00    0.66290   0.73454   15.085
 6801.00    0.62394   0.73463   16.027
 6802.00    0.56924   0.73464   -1.000
 6803.00    0.58229   0.73445   17.173
 6804.00    0.67262   0.73434   14.867
 6805.00    0.73293   0.73425   13.644
 6806.00    0.69271   0.73420   14.436
 6807.00    0.58496   0.73387   17.095
 6808.00    0.54759   0.73384   -1.000
 6809.00    0.67529   0.73392   14.808
 6810.00    0.66569   0.73379   15.022
 6811.00    0.18692   0.73396   -1.000
 6812.00   -0.23786   0.73402   -2.000
 6813.00    0.09900   0.73412   -2.000
 6814.00    0.76953   0.73418   -2.000
 6815.00    0.99183   0.73437   -2.000
 6816.00    0.87205   0.73479   -2.000
 6817.00    0.82928   0.73510   -2.000
 6818.00    0.86499   0.73528   -2.000
 6819.00    0.84789   0.73537   -2.000
 6820.00    0.79672   0.73534   -2.000
 6821.00    0.76526   0.73528   -2.000
 6822.00    0.75681   0.73541   -2.000
 6823.00    0.75867   0.73544   -2.000
 6824.00    0.76103   0.73539   -2.000
 6825.00    0.74711   0.73505   -2.000
 6826.00    0.69892   0.73466   -2.000
 6827.00    0.63086   0.73418   -2.000
 6828.00    0.57918   0.73345   -2.000
 6829.00    0.54486   0.73288   -2.000
 6830.00    0.51139   0.73217   -2.000
 6831.00    0.51306   0.73139   -2.000
 6832.00    0.59029   0.73020   -2.000
 6833.00    0.69301   0.72899   -2.000
 6834.00    0.74048   0.72775   -2.000
 6835.00    0.72307   0.72664   -2.000
 6836.00    0.68099   0.72568   -2.000
 6837.00    0.66119   0.72482   -2.000
 6838.00    0.67067   0.72424   -2.000
 6839.00    0.65353   0.72356   -2.000
 6840.00    0.59308   0.72323   -2.000
 6841.00    0.56363   0.72302   -2.000
 6842.00    0.60863   0.72313   -2.000
 6843.00    0.68562   0.72351   -2.000
 6844.00    0.73789   0.72394   -2.000
 6845.00    0.73469   0.72432   -2.000
 6846.00    0.69174   0.72447   -2.000
 6847.00    0.65499   0.72429   -2.000
 6848.00    0.63750   0.72399   -2.000
 6849.00    0.62812   0.72374   -2.000
 6850.00    0.64915   0.72341   -2.000
 6851.00    0.72397   0.72293   -2.000
 6852.00    0.80045   0.72233   -2.000
 6853.00    0.82026   0.72166   -2.000
 6854.00    0.82851   0.72067   -2.000
 6855.00    0.87256   0.71988   -2.000
 6856.00    0.88243   0.71961   -2.000
 6857.00    0.80510   0.71954   -2.000
 6858.00    0.72171   0.71926   -2.000
 6859.00    0.70876   0.71906   -2.000
 6860.00    0.74256   0.71891   -2.000
 6861.00    0.78558   0.71848   -2.000
 6862.00    0.83450   0.71864   -2.000
 6863.00    0.88669   0.71900   -2.000
 6864.00    0.92569   0.71930   -2.000
 6865.00    0.93139   0.71921   -2.000
 6866.00    0.89310   0.71917   -2.000
 6867.00    0.83494   0.71928   -2.000
 6868.00    0.79728   0.71911   -2.000
 6869.00    0.77811   0.71955   -2.000
 6870.00    0.75331   0.72000   -2.000
 6871.00    0.73868   0.72040   -2.000
 6872.00    0.75962   0.72045   -2.000
 6873.00    0.79102   0.72077   -2.000
 6874.00    0.79124   0.72117   -2.000
 6875.00    0.75188   0.72120   -2.000
 6876.00    0.68260   0.72172   -2.000
 6877.00    0.59362   0.72227   -2.000
 6878.00    0.51584   0.72291   -2.000
 6879.00    0.50682   0.72314   -2.000
 6880.00    0.58314   0.72365   -2.000
 6881.00    0.69634   0.72430   -2.000
 6882.00    0.82077   0.72474   -2.000
 6883.00    0.96677   0.72554   -2.000
 6884.00    1.06174   0.72654   -2.000
 6885.00    0.98476   0.72743   -2.000
 6886.00    0.81301   0.72800   -2.000
 6887.00    0.77321   0.72873   -2.000
 6888.00    0.93576   0.72943   -2.000
 6889.00    1.18957   0.73002   -2.000
 6890.00    1.35249   0.73049   -2.000
 6891.00    1.31153   0.73104   -2.000
 6892.00    1.19110   0.73132   -2.000
 6893.00    1.15333   0.73131   -2.000
 6894.00    1.13353   0.73149   -2.000
 6895.00    1.02986   0.73163   -2.000
 6896.00    0.90988   0.73174   -2.000
 6897.00    0.86901   0.73184   -2.000
 6898.00    0.90642   0.73197   -2.000
 6899.00    0.96633   0.73199   -2.000
 6900.00    0.98245   0.73199   -2.000
 6901.00    0.93629   0.73198   -2.000
 6902.00    0.87092   0.73213   -2.000
 6903.00    0.82785   0.73202   -2.000
 6904.00    0.81599   0.73173   -2.000
 6905.00    0.80019   0.73152   -2.000
 6906.00    0.73522   0.73102   -2.000
 6907.00    0.65875   0.73052   -2.000
 6908.00    0.65449   0.73009   -2.000
 6909.00    0.72885   0.72959   -2.000
 6910.00    0.82485   0.72894   -2.000
 6911.00    0.88814   0.72835   -2.000
 6912.00    0.88116   0.72782   -2.000
 6913.00    0.79188   0.72744   -2.000
 6914.00    0.68479   0.72691   -2.000
 6915.00    0.72822   0.72677   -2.000
 6916.00    0.97006   0.72672   -2.000
 6917.00    1.19082   0.72617   -2.000
 6918.00    1.21413   0.72617   -2.000
 6919.00    1.10154   0.72598   -2.000
 6920.00    1.01475   0.72603   -2.000
 6921.00    1.08793   0.72606   -2.000
 6922.00    1.24101   0.72598   -2.000
 6923.00    1.22160   0.72612   -2.000
 6924.00    1.00899   0.72570   -2.000
 6925.00    0.82023   0.72580   -2.000
 6926.00    0.74936   0.72572   -2.000
 6927.00    0.74361   0.72605   -2.000
 6928.00    0.76902   0.72642   -2.000
 6929.00    0.82677   0.72645   -2.000
 6930.00    0.91666   0.72672   -2.000
 6931.00    1.01206   0.72656   -2.000
 6932.00    1.04101   0.72679   -2.000
 6933.00    0.96745   0.72671   -2.000
 6934.00    0.87111   0.72697   -2.000
 6935.00    0.83149   0.72719   -2.000
 6936.00    0.82605   0.72696   -2.000
 6937.00    0.79251   0.72675   -2.000
 6938.00    0.69218   0.72616   -2.000
 6939.00    0.58201   0.72609   -2.000
 6940.00    0.60532   0.72585   -2.000
 6941.00    0.77863   0.72576   -2.000
 6942.00    0.95018   0.72558   -2.000
 6943.00    0.99852   0.72517   -2.000
 6944.00    0.90685   0.72485   -2.000
 6945.00    0.75973   0.72443   -2.000
 6946.00    0.67871   0.72461   -2.000
 6947.00    0.68540   0.72483   -2.000
 6948.00    0.71731   0.72505   -2.000
 6949.00    0.71476   0.72534   -2.000
 6950.00    0.65525   0.72556   -2.000
 6951.00    0.57848   0.72580   -2.000
 6952.00    0.57516   0.72617   -2.000
 6953.00    0.75264   0.72676   -2.000
 6954.00    1.05947   0.72737   -2.000
 6955.00    1.18551   0.72796   -2.000
 6956.00    1.00999   0.72871   -2.000
 6957.00    0.85113   0.72929   -2.000
 6958.00    0.91555   0.72971   -2.000
 6959.00    1.04194   0.73006   -2.000
 6960.00    1.09959   0.73040   -2.000
 6961.00    1.13183   0.73085   -2.000
 6962.00    1.15132   0.73096   -2.000
 6963.00    1.10446   0.73092   -2.000
 6964.00    1.00492   0.73054   -2.000
 6965.00    0.93376   0.72996   -2.000
 6966.00    0.94224   0.72927   -2.000
 6967.00    1.02394   0.72844   -2.000
 6968.00    1.11012   0.72764   -2.000
 6969.00    1.12409   0.72641   -2.000
 6970.00    1.06197   0.72505   -2.000
 6971.00    0.97414   0.72337   -2.000
 6972.00    0.92260   0.72215   -2.000
 6973.00    0.91824   0.72137   -2.000
 6974.00    0.88353   0.72061   11.318
 6975.00    0.80339   0.72017   12.447
 6976.00    0.80878   0.71985   12.364
 6977.00    0.94657   0.71997   10.564
 6978.00    1.08198   0.72004   -1.000
 6979.00    1.14911   0.72071   -1.000
 6980.00    1.21294   0.72207   -1.000
 6981.00    1.21070   0.72331   -1.000
 6982.00    0.97988   0.72433   10.205
 6983.00    0.66254   0.72531   15.093
 6984.00    0.60869   0.72625   16.429
 6985.00    0.82767   0.72702   12.082
 6986.00    1.04001   0.72768    9.615
 6987.00    1.05651   0.72809   -1.000
 6988.00    0.86656   0.72826   11.540
 6989.00    0.64305   0.72805   15.551
 6990.00    0.57225   0.72789   17.475
 6991.00    0.64868   0.72761   15.416
 6992.00    0.78512   0.72698   12.737
 6993.00    0.94408   0.72619   10.592
 6994.00    1.09340   0.72522   -1.000
 6995.00    1.16778   0.72448   -1.000
 6996.00    1.12164   0.72373   -1.000
 6997.00    0.96559   0.72290   10.356
 6998.00    0.76470   0.72203   13.077
 6999.00    0.61623   0.72095   16.228
 7000.00    0.56938   0.72015   17.563
 7001.00    0.61632   0.71978   -2.000
 7002.00    0.77094   0.71956   -2.000
 7003.00    1.05182   0.71915   -2.000
 7004.00    1.37214   0.71834   -2.000
 7005.00    1.57071   0.71790   -2.000
 7006.00    1.53809   0.71774   -2.000
 7007.00    1.26989   0.71759   -2.000
 7008.00    0.90285   0.71746   -2.000
 7009.00    0.59633   0.71698   -2.000
 7010.00    0.37718   0.71662   -2.000
 7011.00    0.24774   0.71621   -2.000
 7012.00    0.30114   0.71600   -2.000
 7013.00    0.53702   0.71639   -2.000
 7014.00    0.73820   0.71650   -2.000
 7015.00    0.77665   0.71643   -2.000
 7016.00    0.77625   0.71605   -2.000
 7017.00    0.81620   0.71616   -2.000
 7018.00    0.81512   0.71707   -2.000
 7019.00    0.76090   0.71768   -2.000
 7020.00    0.75753   0.71827   -2.000
 7021.00    0.83111   0.71883   -2.000
 7022.00    0.90143   0.71926   -2.000
 7023.00    0.89511   0.71974   -2.000
 7024.00    0.80741   0.72033   -2.000
 7025.00    0.75809   0.72122   -2.000
 7026.00    0.86469   0.72209   -2.000
 7027.00    1.01397   0.72271   -2.000
 7028.00    1.01460   0.72349   -2.000
 7029.00    0.85793   0.72438   -2.000
 7030.00    0.65282   0.72532   -2.000
 7031.00    0.51034   0.72613   -2.000
 7032.00    0.51341   0.72698   -2.000
 7033.00    0.69503   0.72800   -2.000
 7034.00    0.99965   0.72918   -2.000
 7035.00    1.27501   0.73069   -2.000
 7036.00    1.37354   0.73217   -2.000
 7037.00    1.22790   0.73336   -2.000
 7038.00    0.91943   0.73400   -2.000
 7039.00    0.63296   0.73499   -2.000
 7040.00    0.39459   0.73628   -2.000
 7041.00    0.10959   0.73714   -2.000
 7042.00   -0.06474   0.73756   -2.000
 7043.00    0.14428   0.73732   -2.000
 7044.00    0.58114   0.73674   -2.000
 7045.00    0.85245   0.73558   -2.000
 7046.00    0.88967   0.73435   -2.000
 7047.00    0.84637   0.73288   -2.000
 7048.00    0.79920   0.73078   -2.000
 7049.00    0.75842   0.72863   -2.000
 7050.00    0.72980   0.72612   -2.000
 7051.00    0.70889   0.72378   -2.000
 7052.00    0.67436   0.72129   -2.000
 7053.00    0.62870   0.71855   -2.000
 7054.00    0.61544   0.71635   -2.000
 7055.00    0.63679   0.71417   -2.000
 7056.00    0.63173   0.71233   -2.000
 7057.00    0.61046   0.71098   -2.000
 7058.00    0.66438   0.70955   -2.000
 7059.00    0.75933   0.70831   -2.000
 7060.00    0.75582   0.70715   -2.000
 7061.00    0.70260   0.70632   -2.000
 7062.00    0.77296   0.70610   -2.000
 7063.00    0.90525   0.70583   -2.000
 7064.00    0.89977   0.70600   -2.000
 7065.00    0.76288   0.70631   -2.000
 7066.00    0.62899   0.70647   -2.000
 7067.00    0.54683   0.70684   -2.000
 7068.00    0.54783   0.70717   -2.000
 7069.00    0.74846   0.70786   -2.000
 7070.00    1.13091   0.70866   -2.000
 7071.00    1.36785   0.70907   -2.000
 7072.00    1.24807   0.70905   -2.000
 7073.00    0.96331   0.70886   -2.000
 7074.00    0.71658   0.70862   -2.000
 7075.00    0.52412   0.70788   -2.000
 7076.00    0.53083   0.70675   -2.000
 7077.00    1.02097   0.70512   -2.000
 7078.00    1.81996   0.70319   -2.000
 7079.00    2.32021   0.70103   -2.000
 7080.00    2.31368   0.69869   -2.000
 7081.00    2.04362   0.69646   -2.000
 7082.00    1.66180   0.69396   -2.000
 7083.00    1.19719   0.69116   -2.000
 7084.00    0.77020   0.68849   -2.000
 7085.00    0.52206   0.68624   -2.000
 7086.00    0.44047   0.68462   -2.000
 7087.00    0.45861   0.68339   -2.000
 7088.00    0.60505   0.68184   -2.000
 7089.00    0.86674   0.68097   -2.000
 7090.00    1.05591   0.68023   -2.000
 7091.00    1.03510   0.67986   -2.000
 7092.00    0.88827   0.68044   -2.000
 7093.00    0.75030   0.68049   -2.000
 7094.00    0.68917   0.68131   -2.000
 7095.00    0.73010   0.68172   -2.000
 7096.00    0.85825   0.68225   -2.000
 7097.00    0.96575   0.68316   -2.000
 7098.00    0.89981   0.68361   -2.000
 7099.00    0.68873   0.68470   -2.000
 7100.00    0.53252   0.68513   -2.000
 7101.00    0.57903   0.68550   -2.000
 7102.00    0.84473   0.68569   -2.000
 7103.00    1.18310   0.68575   -2.000
 7104.00    1.35307   0.68618   -2.000
 7105.00    1.15539   0.68623   -2.000
 7106.00    0.63538   0.68617   -2.000
 7107.00    0.27582   0.68596   -2.000
 7108.00    0.42964   0.68599   -2.000
 7109.00    0.75785   0.68620   -2.000
 7110.00    0.89237   0.68597   -2.000
 7111.00    0.98204   0.68589   -2.000
 7112.00    1.16178   0.68577   -2.000
 7113.00    1.23368   0.68580   -2.000
 7114.00    1.10673   0.68576   -2.000
 7115.00    0.96111   0.68527   -2.000
 7116.00    0.85286   0.68503   -2.000
 7117.00    0.63168   0.68444   -2.000
 7118.00    0.27731   0.68382   -2.000
 7119.00   -0.02919   0.68320   -2.000
 7120.00   -0.04884   0.68223   -2.000
 7121.00    0.32720   0.68131   -2.000
 7122.00    0.77960   0.68026   -2.000
 7123.00    0.88160   0.67940   -2.000
 7124.00    0.74926   0.67879   -2.000
 7125.00    0.73175   0.67788   -2.000
 7126.00    0.83416   0.67698   -2.000
 7127.00    0.88565   0.67673   -2.000
 7128.00    0.82294   0.67661   -2.000
 7129.00    0.73905   0.67677   -2.000
 7130.00    0.84269   0.67676   -2.000
 7131.00    1.03616   0.67674   -2.000
 7132.00    0.78902   0.67754   -2.000
 7133.00    0.16426   0.67807   -2.000
 7134.00    0.00000   0.67871   -2.000
 7135.00    0.00000   0.67918   -2.000
 7136.00    0.00000   0.67948   -2.000
 7137.00    0.00000   0.68010   -2.000
 7138.00    0.00000   0.68023   -2.000
 7139.00    0.00000   0.68039   -2.000
 7140.00    0.00000   0.68053   -2.000
 7141.00    0.00000   0.68075   -2.000
 7142.00    0.00000   0.68089   -2.000
 7143.00    0.00000   0.68059   -2.000
 7144.00    0.00000   0.68090   -2.000
 7145.00    0.00000   0.68143   -2.000
 7146.00    0.00000   0.68191   -2.000
 7147.00    0.00000   0.68244   -2.000
 7148.00    0.00000   0.68249   -2.000
 7149.00    0.00000   0.68322   -2.000
 7150.00    0.00000   0.68425   -2.000
 7151.00    0.00000   0.68479   -2.000
 7152.00    0.00000   0.68556   -2.000
 7153.00    0.00000   0.68571   -2.000
 7154.00    0.00000   0.68578   -2.000
 7155.00    0.00000   0.68577   -2.000
 7156.00    0.00000   0.68566   -2.000
 7157.00    0.00000   0.68598   -2.000
 7158.00    0.00000   0.68542   -2.000
 7159.00    0.00000   0.68465   -2.000
 7160.00    0.00000   0.68406   -2.000
 7161.00    0.00000   0.68400   -2.000
 7162.00    0.00000   0.68452   -2.000
 7163.00    0.00000   0.68437   -2.000
 7164.00    0.00000   0.68394   -2.000
 7165.00    0.00000   0.68379   -2.000
 7166.00    0.00000   0.68439   -2.000
 7167.00    0.00000   0.68535   -2.000
 7168.00    0.00000   0.68581   -2.000
 7169.00    0.00000   0.68568   -2.000
 7170.00    0.00000   0.68543   -2.000
 7171.00    0.00000   0.68539   -2.000
 7172.00    0.00000   0.68553   -2.000
 7173.00    0.00000   0.68560   -2.000
 7174.00    0.00000   0.68489   -2.000
 7175.00    0.00000   0.68369   -2.000
 7176.00    0.00000   0.68261   -2.000
 7177.00    0.00000   0.68185   -2.000
 7178.00    0.00000   0.68160   -2.000
 7179.00    0.00000   0.68079   -2.000
 7180.00    0.00000   0.67930   -2.000
 7181.00    0.00000   0.67825   -2.000
 7182.00    0.00000   0.67724   -2.000
 7183.00    0.00000   0.67705   -2.000
 7184.00    0.00000   0.67691   -2.000
 7185.00    0.00000   0.67625   -2.000
 7186.00    0.00000   0.67614   -2.000
 7187.00    0.00000   0.67548   -2.000
 7188.00    0.00000   0.67550   -2.000
 7189.00    0.00000   0.67597   -2.000
 7190.00    0.00000   0.67628   -2.000
 7191.00    0.00000   0.67693   -2.000
 7192.00    0.00000   0.67669   -2.000
 7193.00    0.00000   0.67698   -2.000
 7194.00    0.00000   0.67752   -2.000
 7195.00    0.00000   0.67784   -2.000
 7196.00    0.00000   0.67809   -2.000
 7197.00    0.00000   0.67737   -2.000
 7198.00    0.00000   0.67755   -2.000
 7199.00    0.00000   0.67791   -2.000
 7200.00    0.00000   0.67775   -2.000
 7201.00    0.00000   0.67753   -2.000
 7202.00    0.00000   0.67639   -2.000
 7203.00    0.00000   0.67647   -2.000
 7204.00    0.00000   0.67710   -2.000
 7205.00    0.00000   0.67731   -2.000
 7206.00    0.00000   0.67766   -2.000
 7207.00    0.00000   0.67718   -2.000
 7208.00    0.00000   0.67768   -2.000
 7209.00    0.00000   0.67869   -2.000
 7210.00    0.00000   0.67962   -2.000
 7211.00    0.00000   0.68080   -2.000
 7212.00    0.00000   0.68144   -2.000
 7213.00    0.00000   0.68230   -2.000
 7214.00    0.00000   0.68318   -2.000
 7215.00    0.00000   0.68424   -2.000
 7216.00    0.00000   0.68533   -2.000
 7217.00    0.00000   0.68636   -2.000
 7218.00    0.00000   0.68735   -2.000
