###################################################################
## OUTPUT of StarlightChains_v04.for    [Cid@UFSC - 01/Apr/2007] ##
###################################################################

## Some input info
PS15aot.txt                              [arq_obs]
Base.CB07.vall.4m                        [arq_base]
Masks.EmLines.NEW.gm                     [arq_masks]
StCv04.C11.config                        [arq_config]
   66                                    [N_base]
    0                                    [N_YAV_components = # of components with extra extinction!]
    0                                    [i_FitPowerLaw (1/0 = Yes/No)]
-9.99                                    [alpha_PowerLaw]
CCM                                      [red_law_option]
 1.458241                                [q_norm = A(l_norm)/A(V)]

## (Re)Sampling Parameters
 3741.00                                 [l_ini (A)]
 7218.00                                 [l_fin (A)]
    1.00                                 [dl    (A)]     (OBS: dl_cushion =    50.00 A)

## Normalization info
 4020.00                                 [l_norm (A) - for base]
 4010.00                                 [llow_norm (A) - window for f_obs]
 4060.00                                 [lupp_norm (A) - window for f_obs]
4.312456E-17                             [fobs_norm (in input units)]

## S/N
 3691.00                                 [llow_SN (A) - window for S/N]
 7268.00                                 [lupp_SN (A) - window for S/N]
   3.837                                 [S/N in S/N window]
   2.562                                 [S/N in norm. window]
  23.864                                 [S/N_err in S/N window]
  15.935                                 [S/N_err in norm. window]
  1.0000                                 [fscale_chi2]

## etc...
    -2007456                             [idum_orig]
  2316                                   [NOl_eff]
  2311                                   [Nl_eff]
     5    NSIGMA                         [Ntot_cliped & clip_method]
   727650                                [Nglobal_steps]
   7                                     [N_chains]
   9                                     [NEX0s_base = N_base in EX0s-fits]
 0   0   1        1   2.0   2.596E+01    [Clip-Bug, RC-Crash & Burn-In warning-flags, n_censored_weights, wei_nsig_threshold & wei_limit]
    12     12.402     11.904      0.499  [idt_all, wdt_TotTime, wdt_UsrTime & wdt_SysTime (sec)]

## Synthesis Results - Best model ##

 7.04720E-01                             [chi2/Nl_eff]
     2.98595                             [adev (%)]

   111.47048                             [sum-of-x (%)]
 3.71165E-17                             [Flux_tot (units of input spectrum!)]
 5.12949E-12                             [Mini_tot (???)]
 2.56388E-12                             [Mcor_tot (???)]

 197.28                                  [v0_min  (km/s)]
 323.62                                  [vd_min  (km/s)]
-0.1926                                  [AV_min  (mag)]
 0.0000                                  [YAV_min (mag)]

# j     x_j(%)      Mini_j(%)     Mcor_j(%)     age_j(yr)     Z_j      (L/M)_j    YAV?  Mstars   component_j        a/Fe...       SSP_chi2r SSP_adev(%)   SSP_AV   SSP_x(%)
  1      0.0000     0.0000E+00    0.0000E+00    1.000000E+06  0.00400  1.094E-02    0   1.0000   age020_m42            0.0000     5.9720E+00    11.2602   4.0000    97.7880
  2      0.0000     0.0000E+00    0.0000E+00    3.160000E+06  0.00400  4.007E-02    0   0.9999   age045_m42            0.0000     5.8356E+00    10.4782   3.3267   102.2816
  3      0.0000     0.0000E+00    0.0000E+00    5.010000E+06  0.00400  2.539E-02    0   0.9488   age055_m42            0.0000     5.8774E+00    10.7968   3.6375   100.1621
  4      0.0000     0.0000E+00    0.0000E+00    6.610000E+06  0.00400  2.620E-02    0   0.9220   age061_m42            0.0000     5.8891E+00    10.5508   3.2513   102.6688
  5      0.0000     0.0000E+00    0.0000E+00    1.000000E+07  0.00400  1.322E-02    0   0.8862   age070_m42            0.0000     6.8833E+00    12.0236   2.9416   106.3548
  6      0.0000     0.0000E+00    0.0000E+00    1.445000E+07  0.00400  7.883E-03    0   0.8571   age078_m42            0.0000     6.7955E+00    12.0444   3.2705   103.5456
  7      0.0000     0.0000E+00    0.0000E+00    2.512000E+07  0.00400  5.251E-03    0   0.8174   age090_m42            0.0000     7.1871E+00    12.2943   2.8078   107.1512
  8      0.0000     0.0000E+00    0.0000E+00    4.000000E+07  0.00400  3.649E-03    0   0.7851   age104_m42            0.0000     6.9458E+00    11.9689   2.5831   107.9269
  9      0.0000     0.0000E+00    0.0000E+00    5.500000E+07  0.00400  3.098E-03    0   0.7629   age110_m42            0.0000     6.4673E+00    11.1700   2.7530   107.1083
 10      0.0000     0.0000E+00    0.0000E+00    1.015200E+08  0.00400  2.228E-03    0   0.7207   age116_m42            0.0000     6.1626E+00    10.6413   2.7835   106.8037
 11      0.0000     0.0000E+00    0.0000E+00    2.861200E+08  0.00400  1.093E-03    0   0.6648   age125_m42            0.0000     6.3787E+00    11.0519   2.2181   110.3104
 12      0.0000     0.0000E+00    0.0000E+00    5.088000E+08  0.00400  6.597E-04    0   0.6365   age130_m42            0.0000     5.6733E+00    10.1227   2.2181   110.6385
 13      0.0000     0.0000E+00    0.0000E+00    1.434000E+09  0.00400  2.132E-04    0   0.5798   age139_m42            0.0000     4.2265E+00     8.6704   1.2356   113.3785
 14      0.0000     0.0000E+00    0.0000E+00    4.250000E+09  0.00400  5.895E-05    0   0.5377   age158_m42            0.0000     2.8037E+00     7.1420   0.7957   109.0157
 15      0.0000     0.0000E+00    0.0000E+00    7.500000E+09  0.00400  3.510E-05    0   0.5212   age171_m42            0.0000     2.3354E+00     6.4386   0.6134   108.1735
 16      0.0000     0.0000E+00    0.0000E+00    1.300000E+10  0.00400  2.005E-05    0   0.5034   age193_m42            0.0000     1.9893E+00     5.8831   0.4550   107.4482
 17      0.0000     0.0000E+00    0.0000E+00    1.800000E+10  0.00400  1.525E-05    0   0.4967   age213_m42            0.0000     2.0222E+00     5.9817   0.4291   107.0770
 18      0.0000     0.0000E+00    0.0000E+00    1.000000E+06  0.00800  1.238E-02    0   1.0000   age020_m52            0.0000     5.9515E+00    11.2258   4.0000    97.8244
 19      0.0000     0.0000E+00    0.0000E+00    3.160000E+06  0.00800  3.074E-02    0   0.9966   age045_m52            0.0000     5.8767E+00    10.9908   3.9551    97.3490
 20      0.0000     0.0000E+00    0.0000E+00    5.010000E+06  0.00800  2.668E-02    0   0.9443   age055_m52            0.0000     5.8573E+00    10.8839   3.7154    99.4490
 21      0.0000     0.0000E+00    0.0000E+00    6.610000E+06  0.00800  2.136E-02    0   0.9177   age061_m52            0.0000     6.0812E+00    11.5803   2.4287   108.1699
 22      0.0000     0.0000E+00    0.0000E+00    1.000000E+07  0.00800  1.215E-02    0   0.8827   age070_m52            0.0000     7.1637E+00    12.5590   3.1160   106.4849
 23      0.0000     0.0000E+00    0.0000E+00    1.445000E+07  0.00800  8.717E-03    0   0.8552   age078_m52            0.0000     6.7256E+00    11.9916   3.2335   105.1037
 24      0.0000     0.0000E+00    0.0000E+00    2.512000E+07  0.00800  5.592E-03    0   0.8162   age090_m52            0.0000     7.1108E+00    12.2838   2.8736   108.4290
 25      0.0000     0.0000E+00    0.0000E+00    4.000000E+07  0.00800  3.896E-03    0   0.7841   age104_m52            0.0000     6.8276E+00    11.8212   2.7968   108.7936
 26      0.0000     0.0000E+00    0.0000E+00    1.015200E+08  0.00800  2.148E-03    0   0.7226   age116_m52            0.0000     6.2520E+00    10.9353   2.7466   107.9805
 27      0.0000     0.0000E+00    0.0000E+00    2.861200E+08  0.00800  9.925E-04    0   0.6683   age125_m52            0.0000     5.6126E+00    10.0659   2.2824   111.6698
 28      0.0000     0.0000E+00    0.0000E+00    9.047900E+08  0.00800  3.141E-04    0   0.6138   age135_m52            0.0000     4.0542E+00     8.1915   1.4945   115.9514
 29      0.0000     0.0000E+00    0.0000E+00    1.434000E+09  0.00800  1.719E-04    0   0.5853   age139_m52            0.0000     3.1142E+00     7.4919   0.9079   114.1456
 30      0.0000     0.0000E+00    0.0000E+00    2.500000E+09  0.00800  7.872E-05    0   0.5600   age150_m52            0.0000     2.1083E+00     5.9793   0.6422   110.8749
 31      0.0000     0.0000E+00    0.0000E+00    4.250000E+09  0.00800  4.336E-05    0   0.5426   age158_m52            0.0000     2.0996E+00     5.9143   0.6253   109.9024
 32      0.0000     0.0000E+00    0.0000E+00    6.250000E+09  0.00800  3.159E-05    0   0.5319   age166_m52            0.0000     1.6605E+00     5.0381   0.4288   109.7415
 33      0.0000     0.0000E+00    0.0000E+00    1.300000E+10  0.00800  1.361E-05    0   0.5073   age193_m52            0.0000     1.1706E+00     3.9895  -0.0354   108.9679
 34      0.0000     0.0000E+00    0.0000E+00    1.800000E+10  0.00800  9.886E-06    0   0.4990   age213_m52            0.0000     9.7225E-01     3.5429  -0.1346   108.1338
 35      0.0000     0.0000E+00    0.0000E+00    1.000000E+06  0.02000  1.544E-02    0   1.0000   age020_m62            0.0000     5.9493E+00    11.2150   4.0000    97.8899
 36      0.0000     0.0000E+00    0.0000E+00    3.160000E+06  0.02000  3.762E-02    0   0.9858   age045_m62            0.0000     5.9103E+00    11.0654   3.9667    97.6225
 37      0.0000     0.0000E+00    0.0000E+00    5.010000E+06  0.02000  3.296E-02    0   0.9342   age055_m62            0.0000     5.6960E+00    10.4500   3.6017   101.2300
 38      0.0000     0.0000E+00    0.0000E+00    8.710000E+06  0.02000  1.154E-02    0   0.8861   age067_m62            0.0000     1.0862E+01    16.2675   2.5159   112.5692
 39      0.0000     0.0000E+00    0.0000E+00    1.445000E+07  0.02000  7.663E-03    0   0.8472   age078_m62            0.0000     7.9217E+00    13.5690   2.7516   109.7972
 40      1.7075     2.4456E-03    3.9628E-03    2.512000E+07  0.02000  4.532E-03    0   0.8099   age090_m62            0.0000     8.2108E+00    13.7280   2.7457   109.5065
 41      0.0000     0.0000E+00    0.0000E+00    5.500000E+07  0.02000  2.733E-03    0   0.7595   age110_m62            0.0000     6.6693E+00    11.7830   2.7745   108.2520
 42      0.0000     0.0000E+00    0.0000E+00    1.609000E+08  0.02000  1.369E-03    0   0.6985   age120_m62            0.0000     6.1037E+00    10.6500   2.6333   110.2150
 43      0.0000     0.0000E+00    0.0000E+00    2.861200E+08  0.02000  9.013E-04    0   0.6714   age125_m62            0.0000     5.7820E+00    10.0565   2.3894   113.0251
 44      0.0000     0.0000E+00    0.0000E+00    5.088000E+08  0.02000  5.028E-04    0   0.6449   age130_m62            0.0000     4.7235E+00     8.7102   2.0303   115.1429
 45      0.0000     0.0000E+00    0.0000E+00    9.047900E+08  0.02000  2.428E-04    0   0.6179   age135_m62            0.0000     3.2589E+00     7.2314   1.4434   114.7120
 46      0.0000     0.0000E+00    0.0000E+00    1.434000E+09  0.02000  1.263E-04    0   0.5908   age139_m62            0.0000     2.4819E+00     6.3630   0.9925   113.4517
 47      0.0000     0.0000E+00    0.0000E+00    2.500000E+09  0.02000  5.985E-05    0   0.5673   age150_m62            0.0000     1.7342E+00     5.1347   0.6298   111.8613
 48      0.0000     0.0000E+00    0.0000E+00    4.250000E+09  0.02000  3.271E-05    0   0.5468   age158_m62            0.0000     1.1704E+00     3.9289   0.3297   110.7966
 49      0.0000     0.0000E+00    0.0000E+00    1.000000E+10  0.02000  1.360E-05    0   0.5167   age181_m62            0.0000     8.6193E-01     3.2872  -0.0077   110.0632
 50      0.0000     0.0000E+00    0.0000E+00    1.800000E+10  0.02000  7.124E-06    0   0.5013   age213_m62            0.0000     8.0920E-01     3.3548  -0.2053   108.7931
 51      0.0000     0.0000E+00    0.0000E+00    1.000000E+06  0.05000  2.592E-02    0   0.9998   age020_m72            0.0000     5.9836E+00    11.2654   4.0000    97.5528
 52      4.1568     5.5693E-04    1.0671E-03    3.160000E+06  0.05000  4.845E-02    0   0.9577   age045_m72            0.0000     5.7626E+00    10.7222   3.8552    98.6965
 53      0.0000     0.0000E+00    0.0000E+00    5.010000E+06  0.05000  3.072E-02    0   0.9147   age055_m72            0.0000     6.8380E+00    12.5659   3.3651   104.4782
 54      0.0000     0.0000E+00    0.0000E+00    6.610000E+06  0.05000  1.455E-02    0   0.8877   age061_m72            0.0000     1.4082E+01    18.4246   2.5963   113.6640
 55      0.0000     0.0000E+00    0.0000E+00    1.000000E+07  0.05000  9.074E-03    0   0.8524   age070_m72            0.0000     7.0641E+00    12.7198   3.5839   103.2811
 56      0.0000     0.0000E+00    0.0000E+00    2.512000E+07  0.05000  4.250E-03    0   0.7902   age090_m72            0.0000     7.1487E+00    12.5067   3.2668   105.5605
 57      0.0000     0.0000E+00    0.0000E+00    4.000000E+07  0.05000  3.087E-03    0   0.7618   age104_m72            0.0000     7.4794E+00    12.6464   3.0356   107.5206
 58      0.0000     0.0000E+00    0.0000E+00    1.015200E+08  0.05000  1.700E-03    0   0.7096   age116_m72            0.0000     6.5422E+00    11.2314   2.7753   109.9399
 59      0.0000     0.0000E+00    0.0000E+00    2.861200E+08  0.05000  7.384E-04    0   0.6633   age125_m72            0.0000     5.1523E+00     9.3304   2.2674   114.1166
 60      0.0000     0.0000E+00    0.0000E+00    5.088000E+08  0.05000  3.819E-04    0   0.6372   age130_m72            0.0000     3.7321E+00     7.6898   1.7782   115.7822
 61      0.0000     0.0000E+00    0.0000E+00    9.047900E+08  0.05000  1.676E-04    0   0.6110   age135_m72            0.0000     2.1540E+00     5.5941   1.0848   113.8125
 62      0.0000     0.0000E+00    0.0000E+00    1.434000E+09  0.05000  8.837E-05    0   0.5874   age139_m72            0.0000     1.5954E+00     4.8829   0.6312   113.4479
 63     32.0337     4.9124E+00    5.5017E+00    2.500000E+09  0.05000  4.233E-05    0   0.5598   age150_m72            0.0000     1.0249E+00     3.6485   0.3340   111.5739
 64      0.7080     3.2028E-01    3.3635E-01    6.250000E+09  0.05000  1.435E-05    0   0.5249   age166_m72            0.0000     7.6655E-01     3.1326  -0.1011   109.5010
 65     22.2233     2.2149E+01    2.2316E+01    1.300000E+10  0.05000  6.513E-06    0   0.5036   age193_m72            0.0000     8.0552E-01     3.5122  -0.3656   110.0485
 66     50.6412     7.2615E+01    7.1840E+01    1.800000E+10  0.05000  4.527E-06    0   0.4945   age213_m72            0.0000     9.4995E-01     4.0249  -0.5145   109.4128


## Synthesis Results - Average & Chains ##

# j      x_j: min, <> & last-chain-values for 1 ...  7 chains
  1      0.0000      0.0358      0.0000      0.0000      0.0000      0.0000      0.0000      0.2575      0.0000
  2      0.0000      0.0571      0.0000      0.0000      0.0000      0.0000      0.0000      0.0973      0.0000
  3      0.0000      0.0534      0.0000      0.0000      0.0000      0.0000      0.1038      0.0000      0.7325
  4      0.0000      0.0304      0.0000      0.0000      0.0000      0.0000      0.0000      0.0528      0.2802
  5      0.0000      0.0863      0.3484      0.0128      0.0000      0.0000      0.1965      0.0000      0.0000
  6      0.0000      0.0506      0.3207      0.0000      0.0731      0.0000      0.0000      0.0000      0.0000
  7      0.0000      0.0266      0.0000      0.0000      0.0000      0.1051      0.0000      0.0000      0.0000
  8      0.0000      0.0410      0.0000      0.3814      0.0000      0.0000      0.0000      0.0000      0.0000
  9      0.0000      0.0345      0.0000      0.0000      0.0000      0.1201      0.0000      0.0000      0.0000
 10      0.0000      0.0613      0.0000      0.0000      0.0000      0.5229      0.0000      0.0000      0.0000
 11      0.0000      0.0524      0.0000      0.0827      0.0000      0.0000      0.0000      0.0000      0.0000
 12      0.0000      0.0745      0.0000      0.0000      0.0000      0.7606      0.0000      0.0109      0.0000
 13      0.0000      0.2173      0.0000      0.0126      0.0000      0.0000      0.3985      0.0000      0.0000
 14      0.0000      0.0951      0.0000      0.0000      0.0000      0.4937      0.0000      0.0000      0.0000
 15      0.0000      0.2222      0.0000      0.2663      0.2483      0.0004      2.0159      0.0000      0.0000
 16      0.0000      0.2114      0.0000      0.0000      0.0000      0.0000      0.0000      0.3707      0.0000
 17      0.0000      0.3333      0.0110      0.5583      0.7043      0.0000      0.0000      0.0000      0.0000
 18      0.0000      0.0454      0.0000      0.2398      0.0000      0.0000      0.5810      0.0000      0.0000
 19      0.0000      0.0198      0.0000      0.0000      0.0000      0.0204      0.0000      0.0000      0.0000
 20      0.0000      0.0306      0.0000      0.0000      0.0000      0.0000      0.0482      0.0000      0.2518
 21      0.0000      0.0429      0.0000      0.0000      0.0000      0.2597      0.0000      0.0000      0.0000
 22      0.0000      0.0631      0.0000      0.0000      0.5716      0.0000      0.0000      0.0000      0.0000
 23      0.0000      0.0426      0.0000      0.0000      0.1377      0.0000      0.0000      0.0000      0.0000
 24      0.0000      0.0270      0.0000      0.1075      0.0000      0.3008      0.0000      0.2209      0.0000
 25      0.0000      0.0316      0.0095      0.0000      0.0000      0.0000      0.2025      0.1733      0.1326
 26      0.0000      0.1117      0.0000      0.2183      0.0000      0.0000      0.0000      0.0000      0.0000
 27      0.0000      0.0396      0.0120      0.1956      0.0000      0.0000      0.0000      0.0000      0.0000
 28      0.0000      0.1007      0.0000      0.2337      0.0000      0.0000      0.0000      0.5553      0.0000
 29      0.0000      0.1509      0.0617      0.0000      0.0000      0.0000      0.0000      0.0704      0.0000
 30      0.0000      0.2920      0.0000      0.0000      1.2938      0.1723      0.0000      0.0000      0.0000
 31      0.0000      0.1203      0.0000      0.0000      0.0000      0.0000      0.0000      0.0000      0.0000
 32      0.0000      0.1500      0.0000      0.0000      0.0000      1.0456      0.0000      0.0000      0.0000
 33      0.0000      0.1802      0.0000      0.0000      0.0000      0.0130      0.0000      0.0000      0.0389
 34      0.0000      0.2855      0.0000      0.1722      0.1131      0.0000      0.0000      0.0000      0.0000
 35      0.0000      0.0339      0.0000      0.0000      0.0000      0.0000      0.0000      0.0000      0.0000
 36      0.0000      0.0337      0.0000      0.2678      0.0000      0.0000      0.0000      0.0441      0.0000
 37      0.0000      0.0285      0.3495      0.0000      0.0000      0.0000      0.0000      0.0049      0.0000
 38      0.0000      0.0778      0.0000      0.0000      0.0000      0.0000      0.0000      0.0000      0.0077
 39      0.0000      0.0451      0.0000      0.0000      0.0000      0.3661      0.0000      0.2050      0.0000
 40      1.7075      0.0622      0.6172      0.0000      0.0000      0.0000      0.0000      0.0000      0.0000
 41      0.0000      0.0715      0.0000      0.0000      0.0000      0.3733      0.5520      0.0000      0.0000
 42      0.0000      0.0295      0.0000      0.0000      0.0213      0.0000      0.0000      0.2779      0.0000
 43      0.0000      0.0255      0.0000      0.0000      0.0000      0.0000      0.0000      0.0000      0.0000
 44      0.0000      0.0672      0.0000      0.0000      0.0000      0.0000      0.0000      0.0000      0.0000
 45      0.0000      0.0839      0.4132      0.0000      0.0000      0.1168      0.0000      0.0000      0.0000
 46      0.0000      0.0961      0.0000      0.0000      0.0000      0.0000      0.0000      0.0000      0.0000
 47      0.0000      0.2185      0.0000      0.0000      0.0000      0.1457      1.0676      0.0000      0.0000
 48      0.0000      0.2815      0.6234      0.7763      0.2508      0.0000      0.0000      0.0850      0.0000
 49      0.0000      0.6890      0.4624      0.0000      0.9087      0.5716      0.0000      0.0297      0.3817
 50      0.0000      9.3523      9.0635      9.8602     10.4275      0.9771      9.5608      7.1801      8.3047
 51      0.0000      0.0539      0.0000      0.0000      0.0000      0.0000      0.0000      0.0000      0.0000
 52      4.1568      0.1552      0.5735      0.0000      0.5269      0.0000      0.0000      0.1185      0.0000
 53      0.0000      0.0242      0.0000      0.0282      0.0000      0.0000      0.0000      0.0000      0.0004
 54      0.0000      0.1015      0.0000      0.3148      0.1184      0.0000      0.0000      0.0000      0.0000
 55      0.0000      0.0424      0.0000      0.0000      0.0000      0.0000      0.0000      0.0000      0.0000
 56      0.0000      0.0891      0.0794      0.0000      0.4162      0.0000      0.0988      0.1280      0.4796
 57      0.0000      0.0207      0.0000      0.0000      0.0000      0.0000      0.0000      0.0000      0.1308
 58      0.0000      0.0268      0.0000      0.0000      0.0000      0.0000      0.0000      0.0615      0.0000
 59      0.0000      0.0500      0.0000      0.0000      0.0000      0.0000      0.0000      0.4541      0.4775
 60      0.0000      0.0474      0.0000      0.0548      0.0000      0.0000      0.0000      0.0733      0.0000
 61      0.0000      0.1124      0.4680      0.0142      0.0000      0.0000      0.0000      0.0799      0.2102
 62      0.0000      0.1212      0.0000      0.2829      0.0000      0.0000      0.0053      0.0876      0.3173
 63     32.0337     38.3523     38.5794     38.8607     36.7494     40.1843     37.7167     40.6659     39.9463
 64      0.7080     26.4163     22.9239     26.0293     25.6220     26.1564     25.7862     29.0845     24.2905
 65     22.2233     14.7330     14.9159     14.3362     14.8781     17.4833     14.3382     13.7732     15.6997
 66     50.6412     15.6103     20.7304     17.3331     17.3233     20.4202     17.5960     16.4837     18.9578

# j      m_j: min, <> & last-chain-values for 1 ...  7 chains
  1  0.0000E+00  6.4649E-05  0.0000E+00  0.0000E+00  0.0000E+00  0.0000E+00  0.0000E+00  4.7196E-04  0.0000E+00
  2  0.0000E+00  2.8173E-05  0.0000E+00  0.0000E+00  0.0000E+00  0.0000E+00  0.0000E+00  4.8674E-05  0.0000E+00
  3  0.0000E+00  3.9470E-05  0.0000E+00  0.0000E+00  0.0000E+00  0.0000E+00  7.4751E-05  0.0000E+00  5.1593E-04
  4  0.0000E+00  2.1125E-05  0.0000E+00  0.0000E+00  0.0000E+00  0.0000E+00  0.0000E+00  3.7276E-05  1.8586E-04
  5  0.0000E+00  1.1427E-04  4.2959E-04  1.6456E-05  0.0000E+00  0.0000E+00  2.5392E-04  0.0000E+00  0.0000E+00
  6  0.0000E+00  1.0882E-04  6.4142E-04  0.0000E+00  1.5051E-04  0.0000E+00  0.0000E+00  0.0000E+00  0.0000E+00
  7  0.0000E+00  8.1859E-05  0.0000E+00  0.0000E+00  0.0000E+00  3.1526E-04  0.0000E+00  0.0000E+00  0.0000E+00
  8  0.0000E+00  1.7443E-04  0.0000E+00  1.5755E-03  0.0000E+00  0.0000E+00  0.0000E+00  0.0000E+00  0.0000E+00
  9  0.0000E+00  1.6800E-04  0.0000E+00  0.0000E+00  0.0000E+00  5.7009E-04  0.0000E+00  0.0000E+00  0.0000E+00
 10  0.0000E+00  3.9167E-04  0.0000E+00  0.0000E+00  0.0000E+00  3.2606E-03  0.0000E+00  0.0000E+00  0.0000E+00
 11  0.0000E+00  6.2944E-04  0.0000E+00  9.6615E-04  0.0000E+00  0.0000E+00  0.0000E+00  0.0000E+00  0.0000E+00
 12  0.0000E+00  1.4214E-03  0.0000E+00  0.0000E+00  0.0000E+00  1.4145E-02  0.0000E+00  2.1148E-04  0.0000E+00
 13  0.0000E+00  1.1677E-02  0.0000E+00  6.5749E-04  0.0000E+00  0.0000E+00  2.0892E-02  0.0000E+00  0.0000E+00
 14  0.0000E+00  1.7150E-02  0.0000E+00  0.0000E+00  0.0000E+00  8.6812E-02  0.0000E+00  0.0000E+00  0.0000E+00
 15  0.0000E+00  6.5212E-02  0.0000E+00  7.5916E-02  6.9818E-02  1.2053E-04  5.7712E-01  0.0000E+00  0.0000E+00
 16  0.0000E+00  1.0490E-01  0.0000E+00  0.0000E+00  0.0000E+00  0.0000E+00  0.0000E+00  1.8660E-01  0.0000E+00
 17  0.0000E+00  2.1453E-01  6.5627E-03  3.4910E-01  4.3446E-01  0.0000E+00  0.0000E+00  0.0000E+00  0.0000E+00
 18  0.0000E+00  7.2434E-05  0.0000E+00  3.7193E-04  0.0000E+00  0.0000E+00  9.0480E-04  0.0000E+00  0.0000E+00
 19  0.0000E+00  1.2659E-05  0.0000E+00  0.0000E+00  0.0000E+00  1.2771E-05  0.0000E+00  0.0000E+00  0.0000E+00
 20  0.0000E+00  2.1434E-05  0.0000E+00  0.0000E+00  0.0000E+00  0.0000E+00  3.2869E-05  0.0000E+00  1.6799E-04
 21  0.0000E+00  3.6410E-05  0.0000E+00  0.0000E+00  0.0000E+00  2.1504E-04  0.0000E+00  0.0000E+00  0.0000E+00
 22  0.0000E+00  9.0579E-05  0.0000E+00  0.0000E+00  7.8644E-04  0.0000E+00  0.0000E+00  0.0000E+00  0.0000E+00
 23  0.0000E+00  8.2562E-05  0.0000E+00  0.0000E+00  2.5577E-04  0.0000E+00  0.0000E+00  0.0000E+00  0.0000E+00
 24  0.0000E+00  7.7841E-05  0.0000E+00  3.0124E-04  0.0000E+00  8.4640E-04  0.0000E+00  6.4649E-04  0.0000E+00
 25  0.0000E+00  1.2578E-04  3.5334E-05  0.0000E+00  0.0000E+00  0.0000E+00  7.8589E-04  6.9937E-04  5.0305E-04
 26  0.0000E+00  7.4256E-04  0.0000E+00  1.4102E-03  0.0000E+00  0.0000E+00  0.0000E+00  0.0000E+00  0.0000E+00
 27  0.0000E+00  5.2715E-04  1.4923E-04  2.5289E-03  0.0000E+00  0.0000E+00  0.0000E+00  0.0000E+00  0.0000E+00
 28  0.0000E+00  3.8881E-03  0.0000E+00  8.7697E-03  0.0000E+00  0.0000E+00  0.0000E+00  2.1760E-02  0.0000E+00
 29  0.0000E+00  1.0153E-02  3.8644E-03  0.0000E+00  0.0000E+00  0.0000E+00  0.0000E+00  4.8085E-03  0.0000E+00
 30  0.0000E+00  4.1047E-02  0.0000E+00  0.0000E+00  1.7432E-01  2.3629E-02  0.0000E+00  0.0000E+00  0.0000E+00
 31  0.0000E+00  2.9745E-02  0.0000E+00  0.0000E+00  0.0000E+00  0.0000E+00  0.0000E+00  0.0000E+00  0.0000E+00
 32  0.0000E+00  4.9923E-02  0.0000E+00  0.0000E+00  0.0000E+00  3.3935E-01  0.0000E+00  0.0000E+00  0.0000E+00
 33  0.0000E+00  1.3273E-01  0.0000E+00  0.0000E+00  0.0000E+00  9.3182E-03  0.0000E+00  0.0000E+00  2.7312E-02
 34  0.0000E+00  2.8483E-01  0.0000E+00  1.6686E-01  1.0813E-01  0.0000E+00  0.0000E+00  0.0000E+00  0.0000E+00
 35  0.0000E+00  4.3383E-05  0.0000E+00  0.0000E+00  0.0000E+00  0.0000E+00  0.0000E+00  0.0000E+00  0.0000E+00
 36  0.0000E+00  1.7449E-05  0.0000E+00  1.3474E-04  0.0000E+00  0.0000E+00  0.0000E+00  2.3166E-05  0.0000E+00
 37  0.0000E+00  1.5982E-05  1.8223E-04  0.0000E+00  0.0000E+00  0.0000E+00  0.0000E+00  2.8054E-06  0.0000E+00
 38  0.0000E+00  1.1805E-04  0.0000E+00  0.0000E+00  0.0000E+00  0.0000E+00  0.0000E+00  0.0000E+00  1.1179E-05
 39  0.0000E+00  9.8626E-05  0.0000E+00  0.0000E+00  0.0000E+00  7.8028E-04  0.0000E+00  4.5433E-04  0.0000E+00
 40  3.9628E-03  2.1975E-04  2.0291E-03  0.0000E+00  0.0000E+00  0.0000E+00  0.0000E+00  0.0000E+00  0.0000E+00
 41  0.0000E+00  3.9269E-04  0.0000E+00  0.0000E+00  0.0000E+00  1.9995E-03  2.9574E-03  0.0000E+00  0.0000E+00
 42  0.0000E+00  2.9705E-04  0.0000E+00  0.0000E+00  2.0568E-04  0.0000E+00  0.0000E+00  2.8428E-03  0.0000E+00
 43  0.0000E+00  3.7612E-04  0.0000E+00  0.0000E+00  0.0000E+00  0.0000E+00  0.0000E+00  0.0000E+00  0.0000E+00
 44  0.0000E+00  1.7041E-03  0.0000E+00  0.0000E+00  0.0000E+00  0.0000E+00  0.0000E+00  0.0000E+00  0.0000E+00
 45  0.0000E+00  4.2218E-03  1.9346E-02  0.0000E+00  0.0000E+00  5.7281E-03  0.0000E+00  0.0000E+00  0.0000E+00
 46  0.0000E+00  8.8800E-03  0.0000E+00  0.0000E+00  0.0000E+00  0.0000E+00  0.0000E+00  0.0000E+00  0.0000E+00
 47  0.0000E+00  4.0933E-02  0.0000E+00  0.0000E+00  0.0000E+00  2.6621E-02  1.9509E-01  0.0000E+00  0.0000E+00
 48  0.0000E+00  9.3009E-02  1.9170E-01  2.4917E-01  7.9416E-02  0.0000E+00  0.0000E+00  2.8485E-02  0.0000E+00
 49  0.0000E+00  5.1732E-01  3.2320E-01  0.0000E+00  6.5384E-01  4.1864E-01  0.0000E+00  2.2644E-02  2.7334E-01
 50  0.0000E+00  1.3005E+01  1.1733E+01  1.3321E+01  1.3897E+01  1.3254E+00  1.2970E+01  1.0131E+01  1.1015E+01
 51  0.0000E+00  4.1079E-05  0.0000E+00  0.0000E+00  0.0000E+00  0.0000E+00  0.0000E+00  0.0000E+00  0.0000E+00
 52  1.0671E-03  6.0640E-05  2.0855E-04  0.0000E+00  1.9724E-04  0.0000E+00  0.0000E+00  4.6975E-05  0.0000E+00
 53  0.0000E+00  1.4217E-05  0.0000E+00  1.6118E-05  0.0000E+00  0.0000E+00  0.0000E+00  0.0000E+00  2.3060E-07
 54  0.0000E+00  1.2241E-04  0.0000E+00  3.6876E-04  1.3677E-04  0.0000E+00  0.0000E+00  0.0000E+00  0.0000E+00
 55  0.0000E+00  7.8675E-05  0.0000E+00  0.0000E+00  0.0000E+00  0.0000E+00  0.0000E+00  0.0000E+00  0.0000E+00
 56  0.0000E+00  3.2730E-04  2.7147E-04  0.0000E+00  1.4657E-03  0.0000E+00  3.5416E-04  4.7701E-04  1.6809E-03
 57  0.0000E+00  1.0109E-04  0.0000E+00  0.0000E+00  0.0000E+00  0.0000E+00  0.0000E+00  0.0000E+00  6.0825E-04
 58  0.0000E+00  2.2135E-04  0.0000E+00  0.0000E+00  0.0000E+00  0.0000E+00  0.0000E+00  5.1504E-04  0.0000E+00
 59  0.0000E+00  8.8707E-04  0.0000E+00  0.0000E+00  0.0000E+00  0.0000E+00  0.0000E+00  8.1790E-03  8.0851E-03
 60  0.0000E+00  1.5644E-03  0.0000E+00  1.7541E-03  0.0000E+00  0.0000E+00  0.0000E+00  2.4538E-03  0.0000E+00
 61  0.0000E+00  8.0969E-03  3.1390E-02  9.9126E-04  0.0000E+00  0.0000E+00  0.0000E+00  5.8424E-03  1.4443E-02
 62  0.0000E+00  1.5921E-02  0.0000E+00  3.6100E-02  0.0000E+00  0.0000E+00  6.7602E-04  1.1682E-02  3.9752E-02
 63  5.5017E+00  1.0023E+01  9.3859E+00  9.8670E+00  9.2044E+00  1.0244E+01  9.6162E+00  1.0783E+01  9.9573E+00
 64  3.3635E-01  1.9095E+01  1.5426E+01  1.8280E+01  1.7750E+01  1.8443E+01  1.8184E+01  2.1331E+01  1.6747E+01
 65  2.2316E+01  2.2513E+01  2.1217E+01  2.1283E+01  2.1788E+01  2.6059E+01  2.1374E+01  2.1353E+01  2.2881E+01
 66  7.1840E+01  3.3697E+01  4.1658E+01  3.6352E+01  3.5838E+01  4.2997E+01  3.7056E+01  3.6103E+01  3.9033E+01

# AV, chi2 & Mass for <> & i_chain = 1 ...  7 solutions
AV      -0.1926     -0.0360     -0.0606     -0.0540     -0.0563     -0.0472     -0.0421     -0.0359     -0.0552
chi2 7.0472E-01  7.6834E-01  7.5427E-01  7.5991E-01  7.5907E-01  7.5802E-01  7.6420E-01  7.6672E-01  7.5705E-01
Mass 2.5639E-12  2.0792E-12  2.1609E-12  2.0890E-12  2.1112E-12  2.0998E-12  2.1138E-12  2.0494E-12  2.1246E-12
 197.28                                  [v0_min (km/s) before EX0s...]
 323.62                                  [vd_min (km/s) before EX0s...]


## Synthetic spectrum (Best Model) ##l_obs f_obs f_syn wei
 3478    [Nl_obs]
 3741.00    0.41046   0.41875    0.000
 3742.00    0.43323   0.42629    0.000
 3743.00    0.45661   0.43160    0.000
 3744.00    0.47375   0.43258    0.000
 3745.00    0.47720   0.42972    9.413
 3746.00    0.46214   0.42385    9.460
 3747.00    0.43564   0.41561    9.625
 3748.00    0.41256   0.40946    9.672
 3749.00    0.40386   0.40555    9.606
 3750.00    0.41414   0.40596    9.614
 3751.00    0.44146   0.41380    9.826
 3752.00    0.47853   0.42577   10.197
 3753.00    0.51488   0.44086   10.360
 3754.00    0.54114   0.45897   10.069
 3755.00    0.55395   0.47809    9.822
 3756.00    0.55350   0.49426   10.063
 3757.00    0.54032   0.50488   10.530
 3758.00    0.51751   0.51070   10.727
 3759.00    0.49280   0.51199   10.632
 3760.00    0.47445   0.51054   10.477
 3761.00    0.46725   0.50649   10.386
 3762.00    0.46948   0.50007   10.397
 3763.00    0.47238   0.49599   10.504
 3764.00    0.47026   0.49486   10.667
 3765.00    0.46559   0.49508   10.819
 3766.00    0.46008   0.49811   10.957
 3767.00    0.45104   0.50286   11.153
 3768.00    0.43982   0.51065   11.324
 3769.00    0.43427   0.52330   11.208
 3770.00    0.44002   0.53687   10.901
 3771.00    0.45776   0.55047   10.835
 3772.00    0.48796   0.56682   11.094
 3773.00    0.53054   0.58409   11.339
 3774.00    0.57816   0.59958   11.292
 3775.00    0.61723   0.61419   11.006
 3776.00    0.63720   0.62750   10.885
 3777.00    0.63447   0.63933   11.316
 3778.00    0.61478   0.65020   11.874
 3779.00    0.59100   0.65838   11.604
 3780.00    0.57682   0.66562   10.946
 3781.00    0.57829   0.67186   10.854
 3782.00    0.58166   0.67364   11.079
 3783.00    0.57110   0.67334   10.869
 3784.00    0.56019   0.66951   10.428
 3785.00    0.56921   0.66056   10.374
 3786.00    0.58649   0.64813   10.839
 3787.00    0.59063   0.63081   11.571
 3788.00    0.58434   0.61241   11.895
 3789.00    0.57893   0.59277   11.408
 3790.00    0.57321   0.57156   10.820
 3791.00    0.56264   0.55270   10.767
 3792.00    0.55010   0.53649   11.191
 3793.00    0.54289   0.52195   11.719
 3794.00    0.54833   0.50882   11.867
 3795.00    0.56491   0.49884   11.512
 3796.00    0.57872   0.49094   11.136
 3797.00    0.58172   0.48549   11.167
 3798.00    0.58099   0.48237   11.718
 3799.00    0.58201   0.48192   12.435
 3800.00    0.58073   0.48669   12.370
 3801.00    0.57429   0.49485   11.656
 3802.00    0.56509   0.50517   11.579
 3803.00    0.55465   0.51764   12.360
 3804.00    0.54168   0.53232   12.857
 3805.00    0.52547   0.54667   12.468
 3806.00    0.50749   0.55876   12.025
 3807.00    0.49209   0.56851   12.131
 3808.00    0.48500   0.57477   12.827
 3809.00    0.48860   0.57862   13.481
 3810.00    0.50082   0.57900   13.101
 3811.00    0.51610   0.57474   12.268
 3812.00    0.52758   0.56766   12.191
 3813.00    0.53127   0.55792   12.911
 3814.00    0.52689   0.54434   13.621
 3815.00    0.51758   0.52847   13.469
 3816.00    0.50552   0.51085   12.511
 3817.00    0.48554   0.49202   11.916
 3818.00    0.45514   0.47468   12.496
 3819.00    0.42934   0.45717   13.826
 3820.00    0.42577   0.44012   14.516
 3821.00    0.44385   0.42588   13.883
 3822.00    0.47070   0.41346   12.763
 3823.00    0.49131   0.40296   12.378
 3824.00    0.49602   0.39324   13.107
 3825.00    0.48619   0.38408   13.914
 3826.00    0.46872   0.37733   13.564
 3827.00    0.45067   0.37183   12.733
 3828.00    0.43758   0.36658   12.415
 3829.00    0.43205   0.36227   12.883
 3830.00    0.43128   0.35853   13.772
 3831.00    0.42698   0.35591   13.846
 3832.00    0.41384   0.35409   12.971
 3833.00    0.39354   0.35150   12.675
 3834.00    0.37081   0.35004   13.507
 3835.00    0.35066   0.34953   14.629
 3836.00    0.33566   0.34946   14.859
 3837.00    0.32548   0.35100   14.011
 3838.00    0.31917   0.35370   13.157
 3839.00    0.31633   0.35812   13.398
 3840.00    0.31782   0.36541   14.622
 3841.00    0.32566   0.37499   15.353
 3842.00    0.34211   0.38609   14.772
 3843.00    0.36718   0.40011   13.803
 3844.00    0.39354   0.41426   13.445
 3845.00    0.41059   0.42825   14.131
 3846.00    0.41575   0.44253   15.166
 3847.00    0.41355   0.45432    0.000
 3848.00    0.40905   0.46454    0.000
 3849.00    0.40517   0.47140    0.000
 3850.00    0.40053   0.47474    0.000
 3851.00    0.39401   0.47624    0.000
 3852.00    0.39135   0.47553    0.000
 3853.00    0.39976   0.47321    0.000
 3854.00    0.42008   0.46820    0.000
 3855.00    0.44790   0.46190    0.000
 3856.00    0.47607   0.45588    0.000
 3857.00    0.49768   0.44898    0.000
 3858.00    0.50856   0.44324    0.000
 3859.00    0.50786   0.43775    0.000
 3860.00    0.49811   0.43322    0.000
 3861.00    0.48412   0.43246    0.000
 3862.00    0.47178   0.43372    0.000
 3863.00    0.46552   0.43745    0.000
 3864.00    0.46722   0.44238    0.000
 3865.00    0.47835   0.44719    0.000
 3866.00    0.50013   0.45244    0.000
 3867.00    0.52794   0.45688    0.000
 3868.00    0.55044   0.45994    0.000
 3869.00    0.55779   0.46077    0.000
 3870.00    0.54588   0.46036    0.000
 3871.00    0.51830   0.45896    0.000
 3872.00    0.48529   0.45772    0.000
 3873.00    0.45806   0.45765    0.000
 3874.00    0.44467   0.45814    0.000
 3875.00    0.44416   0.46022    0.000
 3876.00    0.44860   0.46252    0.000
 3877.00    0.45219   0.46401    0.000
 3878.00    0.45354   0.46606    0.000
 3879.00    0.45543   0.46748    0.000
 3880.00    0.46125   0.46875    0.000
 3881.00    0.46892   0.46968   14.801
 3882.00    0.47550   0.46855   14.562
 3883.00    0.48608   0.46862   15.094
 3884.00    0.50627   0.46978   15.874
 3885.00    0.53000   0.47241   15.983
 3886.00    0.54951   0.47618   15.063
 3887.00    0.56899   0.48019   14.180
 3888.00    0.59353   0.48793   14.133
 3889.00    0.61629   0.49857   14.647
 3890.00    0.63027   0.51158   15.085
 3891.00    0.63996   0.52673   15.091
 3892.00    0.65164   0.54240   14.724
 3893.00    0.66485   0.55999   14.343
 3894.00    0.67698   0.57655   14.296
 3895.00    0.68697   0.59139   14.765
 3896.00    0.69555   0.60411   15.514
 3897.00    0.70461   0.61387   15.674
 3898.00    0.71488   0.62182   15.019
 3899.00    0.72468   0.62504   14.478
 3900.00    0.73091   0.62719   14.555
 3901.00    0.73015   0.62768   15.034
 3902.00    0.72155   0.62806   15.397
 3903.00    0.70783   0.62949   15.152
 3904.00    0.69479   0.62834   14.636
 3905.00    0.68899   0.63036   14.689
 3906.00    0.69151   0.63360   15.390
 3907.00    0.69764   0.63913   15.988
 3908.00    0.70207   0.64868   15.852
 3909.00    0.70205   0.65787   15.140
 3910.00    0.70125   0.66984   14.731
 3911.00    0.70525   0.68210   15.314
 3912.00    0.71049   0.69293   16.097
 3913.00    0.70946   0.70379   15.451
 3914.00    0.70462   0.71076   14.084
 3915.00    0.70194   0.71289   13.496
 3916.00    0.69657   0.71106   13.965
 3917.00    0.68042   0.70357   15.226
 3918.00    0.65605   0.69278   16.487
 3919.00    0.63368   0.67827   16.653
 3920.00    0.62445   0.65964   15.820
 3921.00    0.63220   0.64009   14.936
 3922.00    0.64665   0.61862   14.721
 3923.00    0.65634   0.59806   15.328
 3924.00    0.66076   0.57706   16.022
 3925.00    0.66137   0.55553   15.306
 3926.00    0.65385   0.53335   12.669
 3927.00    0.63430   0.50945   10.322
 3928.00    0.60386   0.48605   10.134
 3929.00    0.56660   0.46057   12.604
 3930.00    0.52755   0.43527   16.098
 3931.00    0.49017   0.41006   16.364
 3932.00    0.45560   0.38591   15.373
 3933.00    0.42558   0.36591   15.551
 3934.00    0.40297   0.34996   16.180
 3935.00    0.38786   0.34039   16.514
 3936.00    0.37771   0.33724   16.829
 3937.00    0.37372   0.34072   17.104
 3938.00    0.38039   0.35080   16.729
 3939.00    0.39602   0.36632   15.742
 3940.00    0.41335   0.38621   14.954
 3941.00    0.42966   0.40898   15.417
 3942.00    0.44678   0.43327   18.210
 3943.00    0.46406   0.45856   21.431
 3944.00    0.47966   0.48443   18.891
 3945.00    0.49707   0.51017   15.109
 3946.00    0.52014   0.53615   14.490
 3947.00    0.54200   0.56182   15.974
 3948.00    0.55223   0.58651   16.912
 3949.00    0.55175   0.60998   16.377
 3950.00    0.55025   0.63272   15.718
 3951.00    0.55861   0.65440   15.798
 3952.00    0.58247   0.67426   16.629
 3953.00    0.61626   0.68892   17.052
 3954.00    0.65031   0.69838   16.048
 3955.00    0.67938   0.70543   14.693
 3956.00    0.70175   0.70716   13.972
 3957.00    0.71712   0.70252   13.754
 3958.00    0.72317   0.69192   13.763
 3959.00    0.71403   0.67608   14.013
 3960.00    0.69019   0.65630    0.000
 3961.00    0.66330   0.63043    0.000
 3962.00    0.63995   0.59838    0.000
 3963.00    0.61377   0.56478    0.000
 3964.00    0.58140   0.53110    0.000
 3965.00    0.54927   0.49683    0.000
 3966.00    0.52149   0.46322    0.000
 3967.00    0.49559   0.43147    0.000
 3968.00    0.47113   0.40559    0.000
 3969.00    0.45180   0.38779    0.000
 3970.00    0.43930   0.37737    0.000
 3971.00    0.43246   0.37563    0.000
 3972.00    0.43184   0.38268    0.000
 3973.00    0.44001   0.39890    0.000
 3974.00    0.45816   0.42401    0.000
 3975.00    0.48571   0.45585    0.000
 3976.00    0.52172   0.49392    0.000
 3977.00    0.56528   0.53538    0.000
 3978.00    0.61544   0.57829    0.000
 3979.00    0.66911   0.62175    0.000
 3980.00    0.71730   0.66261    0.000
 3981.00    0.75134   0.70110   15.883
 3982.00    0.77339   0.73517   15.808
 3983.00    0.79087   0.76411   16.290
 3984.00    0.80628   0.79057   16.963
 3985.00    0.82045   0.81262   17.140
 3986.00    0.83779   0.83231   16.417
 3987.00    0.86078   0.84949   15.284
 3988.00    0.88389   0.86278   14.884
 3989.00    0.89912   0.87659   15.758
 3990.00    0.90216   0.88748   17.212
 3991.00    0.89466   0.89672   17.887
 3992.00    0.88479   0.90602   17.343
 3993.00    0.88047   0.91257   16.366
 3994.00    0.88443   0.91957   15.994
 3995.00    0.89466   0.92353   16.535
 3996.00    0.90584   0.92664   17.392
 3997.00    0.91474   0.93087   17.718
 3998.00    0.92240   0.93491   17.167
 3999.00    0.92992   0.93964   16.271
 4000.00    0.93707   0.94503   15.905
 4001.00    0.94555   0.95101   16.276
 4002.00    0.95854   0.95546   16.922
 4003.00    0.97424   0.95923   17.234
 4004.00    0.98537   0.96155   16.872
 4005.00    0.98584   0.96322   16.191
 4006.00    0.97418   0.96313   15.873
 4007.00    0.95712   0.96332   16.208
 4008.00    0.94594   0.96588   17.092
 4009.00    0.94561   0.96958   17.916
 4010.00    0.95457   0.97456   17.813
 4011.00    0.97014   0.98039   16.975
 4012.00    0.98990   0.98965   16.252
 4013.00    1.01210   1.00079   15.980
 4014.00    1.03425   1.01290   16.170
 4015.00    1.05116   1.02422   16.809
 4016.00    1.05873   1.03428   17.649
 4017.00    1.05952   1.04343   17.782
 4018.00    1.05869   1.04961   16.813
 4019.00    1.05826   1.05486   16.077
 4020.00    1.05851   1.05926   16.543
 4021.00    1.06010   1.06114   17.651
 4022.00    1.06225   1.06150   18.232
 4023.00    1.06122   1.05936   17.955
 4024.00    1.05404   1.05641   17.254
 4025.00    1.04165   1.05223   16.626
 4026.00    1.02699   1.04604   16.436
 4027.00    1.01298   1.03914   16.938
 4028.00    0.99921   1.02971   18.008
 4029.00    0.98125   1.01776   18.780
 4030.00    0.95796   1.00361   18.454
 4031.00    0.93492   0.98724   17.313
 4032.00    0.92107   0.97153   16.355
 4033.00    0.92442   0.95909   16.466
 4034.00    0.94212   0.94918   17.548
 4035.00    0.95999   0.94483   18.319
 4036.00    0.96650   0.94524   18.059
 4037.00    0.95857   0.95070   17.492
 4038.00    0.94311   0.96030   17.095
 4039.00    0.93326   0.96985   16.818
 4040.00    0.93704   0.97927   16.727
 4041.00    0.95460   0.98621   16.998
 4042.00    0.97947   0.98843   17.574
 4043.00    1.00215   0.98672   18.020
 4044.00    1.01658   0.97930   17.542
 4045.00    1.02048   0.96765   16.092
 4046.00    1.01323   0.95577   15.244
 4047.00    0.99724   0.94603   16.155
 4048.00    0.98029   0.94276   18.015
 4049.00    0.97063   0.94360   18.500
 4050.00    0.96970   0.94751   17.592
 4051.00    0.97472   0.95466   16.856
 4052.00    0.98311   0.96301   16.567
 4053.00    0.99245   0.97162   16.548
 4054.00    1.00000   0.97854   16.968
 4055.00    1.00409   0.98276   17.867
 4056.00    1.00531   0.98194   18.534
 4057.00    1.00520   0.97749   18.274
 4058.00    1.00494   0.96928   17.483
 4059.00    1.00474   0.95910   16.904
 4060.00    1.00339   0.94863   16.997
 4061.00    0.99750   0.93757   17.780
 4062.00    0.98239   0.92694   18.683
 4063.00    0.95909   0.91615   18.996
 4064.00    0.93625   0.90754   18.488
 4065.00    0.92028   0.90178   17.546
 4066.00    0.91117   0.90064   16.813
 4067.00    0.90547   0.90195   16.720
 4068.00    0.89887   0.90466   17.439
 4069.00    0.89058   0.90938   18.463
 4070.00    0.88344   0.91454   18.559
 4071.00    0.87935   0.91983   17.773
 4072.00    0.87820   0.92408   17.357
 4073.00    0.87912   0.92852   17.650
 4074.00    0.88179   0.93408   18.232
 4075.00    0.88838   0.93684   18.858
 4076.00    0.90208   0.93871   19.358
 4077.00    0.92301   0.94108   18.907
 4078.00    0.94810   0.94458   17.144
 4079.00    0.97263   0.95182   15.544
 4080.00    0.99261   0.96264   15.198
 4081.00    1.00801   0.97717   15.774
 4082.00    1.02073   0.99336   16.474
 4083.00    1.03110   1.00942   17.040
 4084.00    1.04035   1.02560   17.529
 4085.00    1.05375   1.04330   17.657
 4086.00    1.07380   1.06105   17.297
 4087.00    1.09353   1.07859   17.036
 4088.00    1.10566   1.09421   17.359
 4089.00    1.11125   1.10663   18.057
 4090.00    1.11401   1.11543   18.621
 4091.00    1.11501   1.11869   18.681
 4092.00    1.11360   1.11926    0.000
 4093.00    1.10847   1.11504    0.000
 4094.00    1.09898   1.10593    0.000
 4095.00    1.08523   1.09344    0.000
 4096.00    1.06431   1.07528    0.000
 4097.00    1.03075   1.05438    0.000
 4098.00    0.98824   1.03242    0.000
 4099.00    0.95117   1.01061    0.000
 4100.00    0.92721   0.99043    0.000
 4101.00    0.91296   0.97270    0.000
 4102.00    0.90533   0.95920    0.000
 4103.00    0.90461   0.95038    0.000
 4104.00    0.91023   0.94732    0.000
 4105.00    0.92012   0.94997    0.000
 4106.00    0.93284   0.95640    0.000
 4107.00    0.94762   0.96646    0.000
 4108.00    0.96299   0.97710    0.000
 4109.00    0.97720   0.98781    0.000
 4110.00    0.98969   0.99864    0.000
 4111.00    1.00105   1.00860    0.000
 4112.00    1.01237   1.01744    0.000
 4113.00    1.02481   1.02423   19.639
 4114.00    1.03904   1.03069   18.438
 4115.00    1.05362   1.03517   17.848
 4116.00    1.06321   1.03795   17.814
 4117.00    1.06264   1.03979   18.032
 4118.00    1.05216   1.04017   18.728
 4119.00    1.03630   1.03969   19.950
 4120.00    1.02155   1.03756   20.441
 4121.00    1.01219   1.03670   19.326
 4122.00    1.00710   1.03450   18.052
 4123.00    1.00321   1.03170   17.776
 4124.00    0.99879   1.02886   18.436
 4125.00    0.99418   1.02571   19.509
 4126.00    0.99152   1.02238   20.149
 4127.00    0.99118   1.01662   19.814
 4128.00    0.99012   1.01115   18.883
 4129.00    0.98558   1.00360   18.015
 4130.00    0.97734   0.99566   17.657
 4131.00    0.96822   0.98641   17.953
 4132.00    0.96340   0.97848   18.787
 4133.00    0.96634   0.97070   19.799
 4134.00    0.97668   0.96597   20.332
 4135.00    0.98853   0.96391   19.873
 4136.00    0.99264   0.96409   18.619
 4137.00    0.98494   0.96803   17.585
 4138.00    0.96764   0.97065   17.711
 4139.00    0.94502   0.97440   18.898
 4140.00    0.92239   0.97597   20.121
 4141.00    0.90646   0.97536   20.568
 4142.00    0.90196   0.97204   20.254
 4143.00    0.90482   0.96538   19.561
 4144.00    0.90658   0.95752   18.933
 4145.00    0.90477   0.94906   18.776
 4146.00    0.90200   0.94265   19.275
 4147.00    0.90138   0.93708   20.032
 4148.00    0.90470   0.93228   20.433
 4149.00    0.91097   0.92928   20.555
 4150.00    0.91732   0.92746   20.583
 4151.00    0.92042   0.92602   19.899
 4152.00    0.91863   0.92704   18.517
 4153.00    0.91373   0.92784   17.877
 4154.00    0.90787   0.93033   18.729
 4155.00    0.90123   0.93242   20.112
 4156.00    0.89747   0.93624   20.583
 4157.00    0.90682   0.94185   20.260
 4158.00    0.93371   0.94856   19.779
 4159.00    0.96952   0.95890   19.137
 4160.00    1.00395   0.96930   18.451
 4161.00    1.03172   0.98151   18.216
 4162.00    1.04817   0.99215   18.744
 4163.00    1.04820   1.00239   19.972
 4164.00    1.03346   1.01045   21.256
 4165.00    1.01363   1.01455   21.309
 4166.00    0.99715   1.01591   20.106
 4167.00    0.98777   1.01410   19.024
 4168.00    0.98638   1.00903   18.698
 4169.00    0.99117   1.00147   19.024
 4170.00    0.99580   0.99281   19.743
 4171.00    0.99185   0.98177   20.510
 4172.00    0.97705   0.97001   20.951
 4173.00    0.95528   0.95758   20.852
 4174.00    0.93118   0.94636   20.433
 4175.00    0.90941   0.93765   20.080
 4176.00    0.89561   0.93062   19.810
 4177.00    0.89460   0.92638   19.527
 4178.00    0.90673   0.92407   19.523
 4179.00    0.92836   0.92450   20.073
 4180.00    0.95374   0.92757   20.671
 4181.00    0.97598   0.93205   20.536
 4182.00    0.98830   0.93825   19.857
 4183.00    0.98810   0.94482   19.300
 4184.00    0.98118   0.95332   19.189
 4185.00    0.97611   0.96113   19.501
 4186.00    0.97767   0.96837   19.867
 4187.00    0.98649   0.97485   20.011
 4188.00    0.99963   0.97887   20.184
 4189.00    1.01352   0.98406   20.480
 4190.00    1.02622   0.98815   20.317
 4191.00    1.03629   0.99133   19.493
 4192.00    1.04200   0.99236   18.736
 4193.00    1.04194   0.99217   18.605
 4194.00    1.03549   0.99107   19.167
 4195.00    1.02304   0.98630   20.205
 4196.00    1.00635   0.97955   21.190
 4197.00    0.98977   0.97034   21.564
 4198.00    0.97937   0.96164   21.158
 4199.00    0.97709   0.95332   20.316
 4200.00    0.97964   0.94594   19.600
 4201.00    0.98342   0.94145   19.320
 4202.00    0.98658   0.93986   19.556
 4203.00    0.98974   0.94216   20.339
 4204.00    0.99534   0.94924   21.505
 4205.00    1.00569   0.95955   22.027
 4206.00    1.02192   0.97241   20.822
 4207.00    1.04305   0.98778   19.260
 4208.00    1.06575   1.00291   19.012
 4209.00    1.08465   1.01747   19.625
 4210.00    1.09447   1.02999   19.733
 4211.00    1.09388   1.03970   19.637
 4212.00    1.08552   1.04713   20.395
 4213.00    1.07466   1.05296   21.443
 4214.00    1.06578   1.05614   21.397
 4215.00    1.05844   1.05805   20.620
 4216.00    1.05149   1.05972   20.112
 4217.00    1.04845   1.06165   19.792
 4218.00    1.05248   1.06554   19.385
 4219.00    1.06065   1.06749   19.226
 4220.00    1.06636   1.06743   19.642
 4221.00    1.06283   1.06353   20.416
 4222.00    1.04893   1.05601   -2.000
 4223.00    1.03211   1.04230   -2.000
 4224.00    1.01655   1.02366   -2.000
 4225.00    0.99625   1.00182   -2.000
 4226.00    0.96672   0.97830   -2.000
 4227.00    0.93187   0.95739   -2.000
 4228.00    0.90050   0.94019   -2.000
 4229.00    0.88304   0.93152   -2.000
 4230.00    0.88681   0.92981   -2.000
 4231.00    0.91081   0.93446   -2.000
 4232.00    0.93452   0.94498   -2.000
 4233.00    0.93046   0.95920   -2.000
 4234.00    0.92334   0.97504   -2.000
 4235.00    0.97337   0.99227   -2.000
 4236.00    1.06040   1.00982   -2.000
 4237.00    1.09825   1.02500   -2.000
 4238.00    1.07188   1.04121   15.827
 4239.00    1.03654   1.05636   17.204
 4240.00    1.02578   1.07143   19.473
 4241.00    1.03906   1.08646   20.484
 4242.00    1.06322   1.10189   19.947
 4243.00    1.08483   1.11682   19.643
 4244.00    1.10335   1.12919   19.896
 4245.00    1.12304   1.14036   20.078
 4246.00    1.13718   1.14652   20.013
 4247.00    1.13736   1.14749   19.997
 4248.00    1.12907   1.14314   20.422
 4249.00    1.12213   1.13371   21.252
 4250.00    1.11732   1.12164   21.338
 4251.00    1.11247   1.10620   20.173
 4252.00    1.11013   1.09075   19.461
 4253.00    1.11162   1.07702   20.172
 4254.00    1.11174   1.06463   21.013
 4255.00    1.10559   1.05450   20.697
 4256.00    1.09402   1.04858   20.375
 4257.00    1.07986   1.04711   20.907
 4258.00    1.06510   1.04939   21.293
 4259.00    1.05165   1.05295   20.848
 4260.00    1.04185   1.05908   20.521
 4261.00    1.03823   1.06787   20.877
 4262.00    1.04298   1.07868   21.398
 4263.00    1.05647   1.09194   21.579
 4264.00    1.07676   1.10479   21.473
 4265.00    1.10083   1.11577   21.255
 4266.00    1.12428   1.12258   21.024
 4267.00    1.13863   1.12574   20.938
 4268.00    1.13470   1.12212   21.126
 4269.00    1.11579   1.11253   21.266
 4270.00    1.09492   1.09741   20.827
 4271.00    1.07680   1.07793   20.158
 4272.00    1.05866   1.05675   20.049
 4273.00    1.04395   1.03634   20.549
 4274.00    1.03937   1.02163   21.114
 4275.00    1.04249   1.01113   21.289
 4276.00    1.04606   1.00713   20.994
 4277.00    1.05013   1.01099   20.592
 4278.00    1.05836   1.02076   20.440
 4279.00    1.06892   1.03388   20.374
 4280.00    1.07719   1.04913   20.149
 4281.00    1.08129   1.06261   20.052
 4282.00    1.08209   1.07538   20.408
 4283.00    1.08197   1.08482   20.964
 4284.00    1.08172   1.08938   21.274
 4285.00    1.07781   1.09058   21.288
 4286.00    1.06690   1.08587   21.201
 4287.00    1.05003   1.07847   21.161
 4288.00    1.03073   1.06820   21.043
 4289.00    1.01306   1.05672   20.435
 4290.00    1.00090   1.04353   19.498
 4291.00    0.99695   1.03098   19.105
 4292.00    1.00003   1.02106   19.554
 4293.00    1.00428   1.01151   20.212
 4294.00    1.00408   1.00413   20.565
 4295.00    0.99683   0.99439   20.839
 4296.00    0.98273   0.98492   21.193
 4297.00    0.96402   0.97399   21.359
 4298.00    0.94262   0.95967   21.181
 4299.00    0.91884   0.94354   20.858
 4300.00    0.89039   0.92416   20.795
 4301.00    0.85473   0.90415   21.382
 4302.00    0.81708   0.88438   22.504
 4303.00    0.78847   0.86545   23.439
 4304.00    0.77391   0.84732   23.555
 4305.00    0.77069   0.83302   22.826
 4306.00    0.77225   0.82135   21.813
 4307.00    0.77226   0.81412   21.130
 4308.00    0.77091   0.81263   20.955
 4309.00    0.77302   0.81681   21.197
 4310.00    0.78231   0.82973   21.690
 4311.00    0.80093   0.85029   22.260
 4312.00    0.83039   0.87979   22.833
 4313.00    0.87119   0.91642   23.346
 4314.00    0.92224   0.96015   23.559
 4315.00    0.98044   1.00857   23.165
 4316.00    1.04052   1.05872   22.054
 4317.00    1.09661   1.10996   20.693
 4318.00    1.14390   1.15529   20.026
 4319.00    1.17927   1.19376   20.388
 4320.00    1.20159   1.22169   20.995
 4321.00    1.21115   1.24057   21.201
 4322.00    1.20918   1.24708   21.652
 4323.00    1.19745   1.24620   22.718
 4324.00    1.17808   1.23675   23.275
 4325.00    1.15416   1.22371   22.605
 4326.00    1.13020   1.21091   21.736
 4327.00    1.11234   1.20144   21.281
 4328.00    1.10757   1.19998   20.888
 4329.00    1.11974   1.20451   20.555
 4330.00    1.14734   1.21555    0.000
 4331.00    1.18263   1.22985    0.000
 4332.00    1.21393   1.24717    0.000
 4333.00    1.23482   1.26499    0.000
 4334.00    1.24540   1.27953    0.000
 4335.00    1.24614   1.28929    0.000
 4336.00    1.23741   1.29213    0.000
 4337.00    1.22313   1.28845    0.000
 4338.00    1.20953   1.27674    0.000
 4339.00    1.19986   1.26159    0.000
 4340.00    1.19410   1.24569    0.000
 4341.00    1.19087   1.23020    0.000
 4342.00    1.18859   1.21895    0.000
 4343.00    1.18664   1.21344    0.000
 4344.00    1.18463   1.21377    0.000
 4345.00    1.18122   1.21828    0.000
 4346.00    1.17660   1.22909    0.000
 4347.00    1.17581   1.24205    0.000
 4348.00    1.18329   1.25567    0.000
 4349.00    1.19632   1.26879    0.000
 4350.00    1.21015   1.27996    0.000
 4351.00    1.22374   1.28732   21.240
 4352.00    1.23608   1.28994   21.935
 4353.00    1.24291   1.29104   22.314
 4354.00    1.24262   1.29247   22.146
 4355.00    1.24030   1.29437   22.077
 4356.00    1.24225   1.29682   22.141
 4357.00    1.25169   1.30194   21.180
 4358.00    1.26756   1.30963   19.504
 4359.00    1.28500   1.31935   18.976
 4360.00    1.30049   1.33027   20.069
 4361.00    1.31405   1.34377   21.466
 4362.00    1.32595   1.35786   21.978
 4363.00    1.33503   1.37151   22.045
 4364.00    1.33839   1.38251   22.104
 4365.00    1.33328   1.39182   21.886
 4366.00    1.32350   1.39797   21.292
 4367.00    1.31777   1.39945   20.602
 4368.00    1.31781   1.39653   20.108
 4369.00    1.31773   1.38958   19.981
 4370.00    1.31241   1.38041   20.186
 4371.00    1.30002   1.36770   20.564
 4372.00    1.28243   1.35326   21.061
 4373.00    1.26452   1.33752   21.627
 4374.00    1.25247   1.32105   21.855
 4375.00    1.25085   1.30406   21.365
 4376.00    1.25830   1.28783   20.622
 4377.00    1.26956   1.27244   20.207
 4378.00    1.27978   1.25791   19.899
 4379.00    1.28503   1.24198   19.355
 4380.00    1.28204   1.22457   18.928
 4381.00    1.26773   1.20507   19.036
 4382.00    1.23890   1.18435   19.531
 4383.00    1.19537   1.16286   20.066
 4384.00    1.14318   1.14066   20.543
 4385.00    1.09341   1.12217   20.963
 4386.00    1.05996   1.10880   21.206
 4387.00    1.05220   1.10222   21.092
 4388.00    1.06930   1.10073   20.530
 4389.00    1.10129   1.10535   19.803
 4390.00    1.13198   1.11602   19.502
 4391.00    1.15052   1.13146   19.777
 4392.00    1.15719   1.15078   20.135
 4393.00    1.15649   1.17253   20.246
 4394.00    1.15352   1.19490   20.335
 4395.00    1.15508   1.21625   20.488
 4396.00    1.16818   1.23576   20.445
 4397.00    1.19161   1.25310   20.250
 4398.00    1.21551   1.26737   20.286
 4399.00    1.23189   1.27589   20.528
 4400.00    1.23821   1.27940   20.532
 4401.00    1.23658   1.27729   20.224
 4402.00    1.23123   1.27083   19.944
 4403.00    1.22301   1.26204   19.835
 4404.00    1.21115   1.24986   19.852
 4405.00    1.20079   1.23591   20.050
 4406.00    1.19962   1.22384   20.481
 4407.00    1.20764   1.21689   20.832
 4408.00    1.21986   1.21403   20.698
 4409.00    1.23464   1.21572   20.315
 4410.00    1.25238   1.22316   20.179
 4411.00    1.27146   1.23576   20.347
 4412.00    1.28958   1.25073   20.608
 4413.00    1.30622   1.26713   20.773
 4414.00    1.32054   1.28337   20.759
 4415.00    1.32890   1.29787   20.637
 4416.00    1.32996   1.30954   20.528
 4417.00    1.32960   1.32149   20.487
 4418.00    1.33453   1.33138   20.534
 4419.00    1.34629   1.33999   20.678
 4420.00    1.36305   1.34726   20.908
 4421.00    1.38145   1.35318   21.169
 4422.00    1.39625   1.35736   21.246
 4423.00    1.40115   1.35993   20.800
 4424.00    1.39559   1.36152   20.014
 4425.00    1.38667   1.36294   19.605
 4426.00    1.37797   1.36254   19.785
 4427.00    1.36582   1.36127   20.063
 4428.00    1.35055   1.35914   20.050
 4429.00    1.33947   1.35657   19.847
 4430.00    1.33729   1.35388   19.787
 4431.00    1.34280   1.34947   20.166
 4432.00    1.35163   1.34621   20.738
 4433.00    1.35815   1.34350   20.801
 4434.00    1.35833   1.34097   20.426
 4435.00    1.35145   1.33912   20.311
 4436.00    1.34211   1.33886   20.402
 4437.00    1.33770   1.34109   20.148
 4438.00    1.34151   1.34627   19.814
 4439.00    1.35169   1.35280   19.998
 4440.00    1.36270   1.36126   20.278
 4441.00    1.36830   1.36987   19.913
 4442.00    1.36633   1.37892   19.602
 4443.00    1.35859   1.38808   20.312
 4444.00    1.34936   1.39768   21.345
 4445.00    1.34409   1.40758   21.286
 4446.00    1.34771   1.41733   20.568
 4447.00    1.36217   1.42624   20.158
 4448.00    1.38386   1.43256   19.717
 4449.00    1.40581   1.43730   18.913
 4450.00    1.42068   1.43895   18.462
 4451.00    1.42551   1.43598   18.807
 4452.00    1.42452   1.42926   19.311
 4453.00    1.42047   1.41815   19.372
 4454.00    1.40890   1.40252   19.461
 4455.00    1.38857   1.38382   20.031
 4456.00    1.36724   1.36237   20.757
 4457.00    1.35076   1.34180   21.170
 4458.00    1.33776   1.32171   21.139
 4459.00    1.32782   1.30456   20.471
 4460.00    1.32422   1.29050   19.082
 4461.00    1.32594   1.28158    0.000
 4462.00    1.32718   1.27729    0.000
 4463.00    1.33082   1.27780    0.000
 4464.00    1.34717   1.28420    0.000
 4465.00    1.37115   1.29418    0.000
 4466.00    1.38379   1.30698    0.000
 4467.00    1.38108   1.32252    0.000
 4468.00    1.37583   1.33921    0.000
 4469.00    1.37887   1.35775    0.000
 4470.00    1.39447   1.37572    0.000
 4471.00    1.42182   1.39529    0.000
 4472.00    1.45422   1.41426    0.000
 4473.00    1.47713   1.43384    0.000
 4474.00    1.48007   1.45245    0.000
 4475.00    1.47656   1.47023    0.000
 4476.00    1.48558   1.48564    0.000
 4477.00    1.49947   1.49886    0.000
 4478.00    1.50856   1.50949    0.000
 4479.00    1.53760   1.51653    0.000
 4480.00    1.60545   1.52063    0.000
 4481.00    1.67630   1.52126    0.000
 4482.00    1.70553   1.52090    9.933
 4483.00    1.69060   1.51878   10.090
 4484.00    1.65360   1.51770   10.389
 4485.00    1.61917   1.51623   10.553
 4486.00    1.59942   1.51556   10.415
 4487.00    1.58660   1.51452   10.243
 4488.00    1.57536   1.51319   10.257
 4489.00    1.57444   1.51050   10.378
 4490.00    1.58115   1.50687   10.471
 4491.00    1.57205   1.50182   10.496
 4492.00    1.53799   1.49685   10.481
 4493.00    1.49800   1.49118   10.481
 4494.00    1.47568   1.48683   10.525
 4495.00    1.48483   1.48291   10.588
 4496.00    1.51871   1.48221   10.583
 4497.00    1.55410   1.48445   10.418
 4498.00    1.57969   1.49064   10.188
 4499.00    1.59947   1.50120   10.106
 4500.00    1.61261   1.51480   10.231
 4501.00    1.61288   1.53221   10.462
 4502.00    1.60348   1.55075   10.642
 4503.00    1.59495   1.57140   10.649
 4504.00    1.59160   1.59190   10.543
 4505.00    1.58986   1.61160   10.486
 4506.00    1.58204   1.62899   10.550
 4507.00    1.56474   1.64335   10.712
 4508.00    1.55127   1.65375   10.898
 4509.00    1.55960   1.66035   10.992
 4510.00    1.59087   1.66288   10.860
 4511.00    1.63381   1.66184   10.524
 4512.00    1.67509   1.65756   10.275
 4513.00    1.70170   1.65055   10.306
 4514.00    1.70262   1.64196   10.420
 4515.00    1.67280   1.63221   10.422
 4516.00    1.61794   1.62271   10.531
 4517.00    1.56208   1.61336   10.840
 4518.00    1.54703   1.60515   10.839
 4519.00    1.57527   1.59679   10.337
 4520.00    1.57964   1.58957   10.028
 4521.00    1.52719   1.58078   10.239
 4522.00    1.47557   1.57174   10.498
 4523.00    1.46870   1.55974   10.456
 4524.00    1.48385   1.54523   10.442
 4525.00    1.49814   1.52801   10.660
 4526.00    1.51725   1.50741   10.854
 4527.00    1.53791   1.48606   10.827
 4528.00    1.53982   1.46276   10.697
 4529.00    1.52453   1.44163   10.663
 4530.00    1.51681   1.42127   10.850
 4531.00    1.51530   1.40640   11.139
 4532.00    1.49263   1.39448   11.207
 4533.00    1.44800   1.38980   11.019
 4534.00    1.40949   1.38896   10.810
 4535.00    1.39740   1.39434   10.588
 4536.00    1.40958   1.40356   10.277
 4537.00    1.41250   1.41615   10.201
 4538.00    1.37783   1.43180   10.737
 4539.00    1.35538   1.44763   11.490
 4540.00    1.41586   1.46462   11.502
 4541.00    1.52971   1.47902   10.950
 4542.00    1.61367   1.49199   10.629
 4543.00    1.63300   1.50185   10.648
 4544.00    1.60003   1.50929   10.787
 4545.00    1.54947   1.51410   10.916
 4546.00    1.51347   1.51626   10.984
 4547.00    1.49740   1.51674   10.958
 4548.00    1.49422   1.51512   10.872
 4549.00    1.50095   1.51355   10.858
 4550.00    1.51079   1.51139    0.000
 4551.00    1.50771   1.51002    0.000
 4552.00    1.49189   1.50974    0.000
 4553.00    1.49386   1.51076    0.000
 4554.00    1.53101   1.51484    0.000
 4555.00    1.58211   1.51987    0.000
 4556.00    1.61977   1.52825    0.000
 4557.00    1.63174   1.53756    0.000
 4558.00    1.62427   1.54944    0.000
 4559.00    1.61721   1.56125    0.000
 4560.00    1.61710   1.57407    0.000
 4561.00    1.61229   1.58516    0.000
 4562.00    1.60262   1.59519    0.000
 4563.00    1.60272   1.60286    0.000
 4564.00    1.61223   1.60867    0.000
 4565.00    1.61474   1.61272    0.000
 4566.00    1.60606   1.61504    0.000
 4567.00    1.59659   1.61648    0.000
 4568.00    1.59474   1.61759    0.000
 4569.00    1.60468   1.61879    0.000
 4570.00    1.63132   1.62031    0.000
 4571.00    1.67421   1.62184    0.000
 4572.00    1.71418   1.62308    0.000
 4573.00    1.72925   1.62389    0.000
 4574.00    1.72561   1.62357    0.000
 4575.00    1.72221   1.62213    0.000
 4576.00    1.71994   1.61942    0.000
 4577.00    1.70925   1.61488    0.000
 4578.00    1.68638   1.60860    0.000
 4579.00    1.65274   1.60111    0.000
 4580.00    1.61168   1.59226    0.000
 4581.00    1.56798   1.58338    0.000
 4582.00    1.52768   1.57457    0.000
 4583.00    1.49856   1.56699    0.000
 4584.00    1.48950   1.56107    0.000
 4585.00    1.50148   1.55717    0.000
 4586.00    1.52250   1.55586    0.000
 4587.00    1.54064   1.55606    0.000
 4588.00    1.55237   1.55844    0.000
 4589.00    1.55662   1.56075    0.000
 4590.00    1.55303   1.56400    0.000
 4591.00    1.55314   1.56572    0.000
 4592.00    1.57830   1.56698    0.000
 4593.00    1.62379   1.56608    0.000
 4594.00    1.65411   1.56397    0.000
 4595.00    1.64898   1.55993    0.000
 4596.00    1.61576   1.55536    0.000
 4597.00    1.56752   1.55014    0.000
 4598.00    1.51728   1.54581    0.000
 4599.00    1.48416   1.54211    0.000
 4600.00    1.48551   1.54031    0.000
 4601.00    1.51253   1.54028    0.000
 4602.00    1.54030   1.54253    0.000
 4603.00    1.56436   1.54730    0.000
 4604.00    1.59264   1.55413    0.000
 4605.00    1.61369   1.56395    0.000
 4606.00    1.61319   1.57503    0.000
 4607.00    1.61181   1.58905    0.000
 4608.00    1.64129   1.60318    0.000
 4609.00    1.69914   1.61946    0.000
 4610.00    1.75589   1.63469    0.000
 4611.00    1.77587   1.65030    0.000
 4612.00    1.74698   1.66417    0.000
 4613.00    1.70718   1.67677    0.000
 4614.00    1.69162   1.68758    0.000
 4615.00    1.68085   1.69623    0.000
 4616.00    1.64765   1.70370    0.000
 4617.00    1.60069   1.70887    0.000
 4618.00    1.56540   1.71366    0.000
 4619.00    1.56428   1.71635    0.000
 4620.00    1.60362   1.71924    0.000
 4621.00    1.66756   1.72031    0.000
 4622.00    1.73230   1.72162    0.000
 4623.00    1.77540   1.72131    0.000
 4624.00    1.77827   1.72106    0.000
 4625.00    1.73317   1.71940    0.000
 4626.00    1.66885   1.71753    0.000
 4627.00    1.64208   1.71450    0.000
 4628.00    1.66067   1.71104    0.000
 4629.00    1.67665   1.70657    0.000
 4630.00    1.66738   1.70137    0.000
 4631.00    1.64864   1.69518    0.000
 4632.00    1.62825   1.68788    0.000
 4633.00    1.59910   1.67946    0.000
 4634.00    1.55842   1.66969    0.000
 4635.00    1.51521   1.65878    0.000
 4636.00    1.49428   1.64669    0.000
 4637.00    1.51937   1.63366    0.000
 4638.00    1.57920   1.62015    0.000
 4639.00    1.64074   1.60600    0.000
 4640.00    1.68341   1.59233    0.000
 4641.00    1.69858   1.57826    0.000
 4642.00    1.68035   1.56552    0.000
 4643.00    1.63146   1.55252    0.000
 4644.00    1.57195   1.54144    0.000
 4645.00    1.52706   1.53038    0.000
 4646.00    1.51144   1.52182    0.000
 4647.00    1.52213   1.51399    0.000
 4648.00    1.53614   1.50939    0.000
 4649.00    1.53727   1.50640    0.000
 4650.00    1.53649   1.50722    0.000
 4651.00    1.54227   1.51010    0.000
 4652.00    1.54035   1.51681    0.000
 4653.00    1.52258   1.52518    0.000
 4654.00    1.50297   1.53644    0.000
 4655.00    1.49085   1.54835    0.000
 4656.00    1.47861   1.56149    0.000
 4657.00    1.46432   1.57408    0.000
 4658.00    1.45985   1.58590    0.000
 4659.00    1.47271   1.59589    0.000
 4660.00    1.50010   1.60301    0.000
 4661.00    1.53950   1.60718    0.000
 4662.00    1.58888   1.60695    0.000
 4663.00    1.63349   1.60314    0.000
 4664.00    1.64978   1.59483    0.000
 4665.00    1.63028   1.58358    0.000
 4666.00    1.58814   1.56964    0.000
 4667.00    1.54860   1.55488    0.000
 4668.00    1.53542   1.54049    0.000
 4669.00    1.54638   1.52811    0.000
 4670.00    1.56083   1.51889    0.000
 4671.00    1.56509   1.51358    0.000
 4672.00    1.55452   1.51231    0.000
 4673.00    1.52835   1.51485    0.000
 4674.00    1.49147   1.52014    0.000
 4675.00    1.45772   1.52764    0.000
 4676.00    1.43943   1.53552    0.000
 4677.00    1.43387   1.54351    0.000
 4678.00    1.43347   1.55003    0.000
 4679.00    1.43819   1.55532    0.000
 4680.00    1.44046   1.55871    0.000
 4681.00    1.41315   1.56071    0.000
 4682.00    1.35212   1.56151    0.000
 4683.00    1.30651   1.56157    0.000
 4684.00    1.31174   1.56149    0.000
 4685.00    1.34390   1.56135    0.000
 4686.00    1.37661   1.56168    0.000
 4687.00    1.41657   1.56225    0.000
 4688.00    1.47138   1.56323    0.000
 4689.00    1.53248   1.56441    0.000
 4690.00    1.59214   1.56576    0.000
 4691.00    1.64806   1.56702    0.000
 4692.00    1.68251   1.56820    0.000
 4693.00    1.66649   1.56895    0.000
 4694.00    1.61175   1.56926    0.000
 4695.00    1.57104   1.56867    0.000
 4696.00    1.56941   1.56722    0.000
 4697.00    1.59089   1.56477    0.000
 4698.00    1.61042   1.56088    0.000
 4699.00    1.60871   1.55613    0.000
 4700.00    1.58412   1.54974    0.000
 4701.00    1.55063   1.54357    0.000
 4702.00    1.52628   1.53615    0.000
 4703.00    1.52524   1.53012    0.000
 4704.00    1.54777   1.52353    0.000
 4705.00    1.58008   1.51953    0.000
 4706.00    1.59829   1.51587    0.000
 4707.00    1.58453   1.51511    0.000
 4708.00    1.54899   1.51559    0.000
 4709.00    1.51817   1.51834    0.000
 4710.00    1.51459   1.52284    0.000
 4711.00    1.54528   1.52884    0.000
 4712.00    1.59326   1.53704    0.000
 4713.00    1.63423   1.54641    0.000
 4714.00    1.65435   1.55803    0.000
 4715.00    1.65025   1.57042    0.000
 4716.00    1.62784   1.58487    0.000
 4717.00    1.60347   1.59971    0.000
 4718.00    1.60155   1.61563    0.000
 4719.00    1.63116   1.63108    0.000
 4720.00    1.67417   1.64603    0.000
 4721.00    1.70765   1.65929    0.000
 4722.00    1.71884   1.67011    0.000
 4723.00    1.71012   1.67781    0.000
 4724.00    1.69679   1.68128    0.000
 4725.00    1.68757   1.68099    0.000
 4726.00    1.67882   1.67616    0.000
 4727.00    1.66657   1.66830    0.000
 4728.00    1.65247   1.65721    0.000
 4729.00    1.64687   1.64499    0.000
 4730.00    1.66122   1.63197    0.000
 4731.00    1.68360   1.61993    0.000
 4732.00    1.68628   1.60997    0.000
 4733.00    1.66308   1.60232    0.000
 4734.00    1.62979   1.59846    0.000
 4735.00    1.60291   1.59760    0.000
 4736.00    1.59274   1.60040    0.000
 4737.00    1.59986   1.60570    0.000
 4738.00    1.61712   1.61350    0.000
 4739.00    1.63473   1.62259    0.000
 4740.00    1.64684   1.63272    0.000
 4741.00    1.65942   1.64330    0.000
 4742.00    1.68020   1.65366    0.000
 4743.00    1.70475   1.66390    0.000
 4744.00    1.72135   1.67314    0.000
 4745.00    1.71946   1.68187    0.000
 4746.00    1.69785   1.68938    0.000
 4747.00    1.67032   1.69568    0.000
 4748.00    1.65210   1.70065    0.000
 4749.00    1.64752   1.70376    0.000
 4750.00    1.65105   1.70568    0.000
 4751.00    1.65106   1.70490    0.000
 4752.00    1.64442   1.70340    0.000
 4753.00    1.64293   1.69905    0.000
 4754.00    1.65343   1.69451    0.000
 4755.00    1.66861   1.68759    0.000
 4756.00    1.68126   1.68087    0.000
 4757.00    1.69016   1.67263    0.000
 4758.00    1.69248   1.66460    0.000
 4759.00    1.68274   1.65575    0.000
 4760.00    1.66244   1.64695    0.000
 4761.00    1.64131   1.63753   13.472
 4762.00    1.62879   1.62845   13.358
 4763.00    1.63135   1.61919   13.335
 4764.00    1.65353   1.61077   13.437
 4765.00    1.69366   1.60291   13.666
 4766.00    1.73263   1.59727   13.668
 4767.00    1.74301   1.59344   13.116
 4768.00    1.71532   1.59240   12.649
 4769.00    1.66131   1.59426   13.031
 4770.00    1.60794   1.59872   13.871
 4771.00    1.58451   1.60634   14.041
 4772.00    1.60264   1.61606   13.635
 4773.00    1.65078   1.62801   13.483
 4774.00    1.69293   1.64061   13.635
 4775.00    1.69844   1.65330   13.774
 4776.00    1.67869   1.66544   13.856
 4777.00    1.66141   1.67603   13.912
 4778.00    1.65673   1.68454   13.738
 4779.00    1.66174   1.69031   13.312
 4780.00    1.66943   1.69345   13.081
 4781.00    1.67473   1.69359   13.287
 4782.00    1.67871   1.69114   13.553
 4783.00    1.68459   1.68651   13.499
 4784.00    1.69372   1.68095   13.290
 4785.00    1.69982   1.67394   13.174
 4786.00    1.68932   1.66764   13.186
 4787.00    1.66377   1.66216   13.313
 4788.00    1.64666   1.65851   13.558
 4789.00    1.65083   1.65687   13.797
 4790.00    1.66538   1.65829   13.764
 4791.00    1.67358   1.66208   13.479
 4792.00    1.66470   1.66869   13.279
 4793.00    1.64604   1.67708   13.312
 4794.00    1.63809   1.68696   13.445
 4795.00    1.64299   1.69676   13.464
 4796.00    1.64630   1.70662   13.231
 4797.00    1.65276   1.71502   12.926
 4798.00    1.67948   1.72218   12.858
 4799.00    1.71284   1.72736   12.967
 4800.00    1.72097   1.73087   12.977
 4801.00    1.70538   1.73277   12.951
 4802.00    1.69214   1.73243   13.120
 4803.00    1.69254   1.73129   13.317
 4804.00    1.70141   1.72794   13.228
 4805.00    1.70783   1.72526   13.058
 4806.00    1.70406   1.72097   13.172
 4807.00    1.69532   1.71773   13.469
 4808.00    1.69045   1.71403   13.621
 4809.00    1.68852   1.71202   13.535
 4810.00    1.68382   1.71009   13.340
 4811.00    1.67369   1.71000   13.241
 4812.00    1.66101   1.71084   13.349
 4813.00    1.65509   1.71354   13.575
 4814.00    1.66461   1.71744   13.695
 4815.00    1.69109   1.72256   13.481
 4816.00    1.72673   1.72859   13.015
 4817.00    1.75488   1.73454   12.737
 4818.00    1.76132   1.74050   12.867
 4819.00    1.74207   1.74526   13.203
 4820.00    1.70456   1.74849   13.465
 4821.00    1.66533   1.75013   13.526
 4822.00    1.63718   1.74902   13.485
 4823.00    1.62466   1.74666   13.586
 4824.00    1.63330   1.74264   13.801
 4825.00    1.66862   1.73764   13.781
 4826.00    1.71655   1.73111   13.462
 4827.00    1.74669   1.72442   13.161
 4828.00    1.74806   1.71749   13.096
 4829.00    1.73283   1.71149   13.273
 4830.00    1.71152   1.70581   13.489
 4831.00    1.68749   1.70054   13.457
 4832.00    1.66221   1.69705   13.248
 4833.00    1.63910   1.69405   13.172
 4834.00    1.62826   1.69234   13.314
 4835.00    1.63702   1.69019   13.558
 4836.00    1.65050   1.68944   13.754
 4837.00    1.64842   1.68801   13.810
 4838.00    1.63845   1.68691   13.798
 4839.00    1.64035   1.68542   13.835
 4840.00    1.65502   1.68434   13.895
 4841.00    1.67014   1.68332   13.906
 4842.00    1.67417   1.68167   13.912
 4843.00    1.66734   1.68088   13.979
 4844.00    1.66944   1.68041   14.083
 4845.00    1.69048   1.68020   14.130
 4846.00    1.70503   1.67970   14.019
 4847.00    1.69041   1.67884   13.850
 4848.00    1.65882   1.67752    0.000
 4849.00    1.63352   1.67615    0.000
 4850.00    1.62794   1.67299    0.000
 4851.00    1.64065   1.66812    0.000
 4852.00    1.65571   1.66124    0.000
 4853.00    1.65876   1.65183    0.000
 4854.00    1.64641   1.63927    0.000
 4855.00    1.62494   1.62500    0.000
 4856.00    1.60745   1.60914    0.000
 4857.00    1.60497   1.59109    0.000
 4858.00    1.62125   1.57165    0.000
 4859.00    1.64824   1.55145    0.000
 4860.00    1.66750   1.53179    0.000
 4861.00    1.66080   1.51423    0.000
 4862.00    1.61883   1.50033    0.000
 4863.00    1.55504   1.48801    0.000
 4864.00    1.49908   1.48054    0.000
 4865.00    1.47022   1.47570    0.000
 4866.00    1.47160   1.47546    0.000
 4867.00    1.49310   1.47666    0.000
 4868.00    1.52039   1.48171    0.000
 4869.00    1.55021   1.48719    0.000
 4870.00    1.58262   1.49331    0.000
 4871.00    1.60400   1.50049    0.000
 4872.00    1.60067   1.50908    0.000
 4873.00    1.58201   1.51795    0.000
 4874.00    1.56556   1.52688    0.000
 4875.00    1.55463   1.53664   15.073
 4876.00    1.54853   1.54767   15.118
 4877.00    1.55600   1.55819   15.026
 4878.00    1.58105   1.57049   14.697
 4879.00    1.60933   1.58127   14.505
 4880.00    1.62478   1.59088   14.678
 4881.00    1.62462   1.59865   14.902
 4882.00    1.61557   1.60525   14.852
 4883.00    1.60897   1.60848   14.657
 4884.00    1.61351   1.60866   14.530
 4885.00    1.63075   1.60650   14.525
 4886.00    1.65632   1.60276   14.571
 4887.00    1.68117   1.59857   14.555
 4888.00    1.69381   1.59354   14.582
 4889.00    1.68449   1.59038   14.967
 4890.00    1.65848   1.58736   15.570
 4891.00    1.63422   1.59048   15.655
 4892.00    1.61444   1.59626   15.234
 4893.00    1.58634   1.60698   15.131
 4894.00    1.55883   1.62063   15.416
 4895.00    1.56034   1.63737   15.411
 4896.00    1.59667   1.65581   15.024
 4897.00    1.64960   1.67500   14.742
 4898.00    1.70438   1.69365   14.582
 4899.00    1.75119   1.70971   14.290
 4900.00    1.77293   1.72468   14.089
 4901.00    1.75710   1.73561   14.344
 4902.00    1.72226   1.74319   14.759
 4903.00    1.69876   1.74749   14.729
 4904.00    1.68894   1.74939   14.440
 4905.00    1.67872   1.74910   14.432
 4906.00    1.66410   1.74589   14.729
 4907.00    1.65004   1.74119   15.043
 4908.00    1.64387   1.73482   15.117
 4909.00    1.64935   1.72764   14.915
 4910.00    1.66168   1.72026   14.698
 4911.00    1.67321   1.71259   14.672
 4912.00    1.67948   1.70472   14.713
 4913.00    1.67745   1.69589   14.675
 4914.00    1.66433   1.68728   14.632
 4915.00    1.64418   1.67709   14.710
 4916.00    1.63039   1.66619   14.951
 4917.00    1.62890   1.65318   15.310
 4918.00    1.62992   1.63960   15.659
 4919.00    1.62526   1.62595   15.855
 4920.00    1.61726   1.61358   15.820
 4921.00    1.61138   1.60411   15.629
 4922.00    1.61181   1.59654   15.477
 4923.00    1.62003   1.59271   15.493
 4924.00    1.63465   1.59236   15.652
 4925.00    1.65311   1.59801   15.715
 4926.00    1.67144   1.60713   15.408
 4927.00    1.68165   1.61998   15.074
 4928.00    1.67654   1.63608   15.350
 4929.00    1.66522   1.65234   16.022
 4930.00    1.66660   1.66905   16.144
 4931.00    1.68196   1.68357   15.737
 4932.00    1.69668   1.69494   15.603
 4933.00    1.69911   1.70263   15.762
 4934.00    1.68713   1.70818   15.749
 4935.00    1.67178   1.70924   15.669
 4936.00    1.66711   1.70753   15.877
 4937.00    1.67272   1.70298   16.122
 4938.00    1.67829   1.69844   15.963
 4939.00    1.67460   1.69493   15.662
 4940.00    1.65805   1.69382    0.000
 4941.00    1.63414   1.69428    0.000
 4942.00    1.61636   1.69838    0.000
 4943.00    1.62297   1.70526    0.000
 4944.00    1.66052   1.71436    0.000
 4945.00    1.71072   1.72524    0.000
 4946.00    1.75294   1.73821    0.000
 4947.00    1.78326   1.75081    0.000
 4948.00    1.80321   1.76298    0.000
 4949.00    1.81033   1.77280    0.000
 4950.00    1.79921   1.78075    0.000
 4951.00    1.76471   1.78464    0.000
 4952.00    1.71391   1.78469    0.000
 4953.00    1.66875   1.78129    0.000
 4954.00    1.64509   1.77372    0.000
 4955.00    1.64303   1.76396    0.000
 4956.00    1.65196   1.74899    0.000
 4957.00    1.65704   1.73503    0.000
 4958.00    1.65437   1.72156    0.000
 4959.00    1.65176   1.70909    0.000
 4960.00    1.65261   1.69824    0.000
 4961.00    1.65350   1.68849    0.000
 4962.00    1.65306   1.68250    0.000
 4963.00    1.65123   1.67730    0.000
 4964.00    1.64125   1.67460    0.000
 4965.00    1.61736   1.67275    0.000
 4966.00    1.59484   1.67354    0.000
 4967.00    1.59370   1.67406    0.000
 4968.00    1.60068   1.67660    0.000
 4969.00    1.58999   1.67883    0.000
 4970.00    1.56841   1.68181    0.000
 4971.00    1.55961   1.68526    0.000
 4972.00    1.57087   1.68781    0.000
 4973.00    1.59424   1.69116    0.000
 4974.00    1.61507   1.69227    0.000
 4975.00    1.62536   1.69219    0.000
 4976.00    1.63532   1.68980    0.000
 4977.00    1.65074   1.68443    0.000
 4978.00    1.65310   1.67689    0.000
 4979.00    1.62928   1.66658    0.000
 4980.00    1.59525   1.65427    0.000
 4981.00    1.57048   1.63931    0.000
 4982.00    1.55880   1.62427    0.000
 4983.00    1.55892   1.61007    0.000
 4984.00    1.57028   1.59760    0.000
 4985.00    1.58217   1.58768    0.000
 4986.00    1.57329   1.58167    0.000
 4987.00    1.54168   1.57869    0.000
 4988.00    1.51315   1.57883    0.000
 4989.00    1.51288   1.58246    0.000
 4990.00    1.55038   1.58739    0.000
 4991.00    1.61184   1.59556    0.000
 4992.00    1.66652   1.60339    0.000
 4993.00    1.69584   1.61084    0.000
 4994.00    1.69850   1.61801    0.000
 4995.00    1.67699   1.62274    0.000
 4996.00    1.63755   1.62531    0.000
 4997.00    1.59947   1.62521    0.000
 4998.00    1.58443   1.62160    0.000
 4999.00    1.58919   1.61539    0.000
 5000.00    1.59428   1.60680    0.000
 5001.00    1.59151   1.59619    0.000
 5002.00    1.58366   1.58448    0.000
 5003.00    1.57507   1.57171    0.000
 5004.00    1.56903   1.55841    0.000
 5005.00    1.56643   1.54513    0.000
 5006.00    1.56586   1.53335    0.000
 5007.00    1.56415   1.52367    0.000
 5008.00    1.55783   1.51507    0.000
 5009.00    1.54484   1.50725    0.000
 5010.00    1.52630   1.50122    0.000
 5011.00    1.50783   1.49430    0.000
 5012.00    1.49612   1.48941    0.000
 5013.00    1.49541   1.48396    0.000
 5014.00    1.50227   1.48067    0.000
 5015.00    1.50440   1.47791    0.000
 5016.00    1.49636   1.47568    0.000
 5017.00    1.48724   1.47430    0.000
 5018.00    1.48476   1.47431    0.000
 5019.00    1.48671   1.47601    0.000
 5020.00    1.48525   1.47911    0.000
 5021.00    1.47288   1.48331    0.000
 5022.00    1.45735   1.48915    0.000
 5023.00    1.46047   1.49746    0.000
 5024.00    1.48988   1.50583    0.000
 5025.00    1.53121   1.51685    0.000
 5026.00    1.55834   1.52677    0.000
 5027.00    1.54927   1.53838    0.000
 5028.00    1.51926   1.55080    0.000
 5029.00    1.50745   1.56231   17.709
 5030.00    1.52089   1.57387   17.680
 5031.00    1.53862   1.58405   17.891
 5032.00    1.55043   1.59355   18.214
 5033.00    1.55840   1.59979   18.099
 5034.00    1.56348   1.60335   17.762
 5035.00    1.56603   1.60286   17.705
 5036.00    1.57049   1.60171   17.702
 5037.00    1.57892   1.59673   17.373
 5038.00    1.58157   1.58932   17.146
 5039.00    1.56939   1.58078   17.474
 5040.00    1.55045   1.57005   17.902
 5041.00    1.53889   1.56325   17.838
 5042.00    1.54056   1.55752   17.661
 5043.00    1.55382   1.55440   17.775
 5044.00    1.57224   1.55446   17.706
 5045.00    1.58790   1.55701   17.143
 5046.00    1.59437   1.56178   16.705
 5047.00    1.58862   1.56684   16.797
 5048.00    1.57300   1.57399   17.077
 5049.00    1.55920   1.58200   17.068
 5050.00    1.56601   1.59121   16.654
 5051.00    1.59228   1.59941   16.170
 5052.00    1.61008   1.60870   16.145
 5053.00    1.60667   1.61799   16.532
 5054.00    1.59858   1.62785   16.595
 5055.00    1.60023   1.63772   16.166
 5056.00    1.61191   1.64708   15.908
 5057.00    1.62731   1.65662   16.032
 5058.00    1.64049   1.66545   16.155
 5059.00    1.65775   1.67379   16.059
 5060.00    1.69007   1.68126   15.864
 5061.00    1.72156   1.68672   15.729
 5062.00    1.72058   1.69030   15.716
 5063.00    1.68835   1.68999   15.703
 5064.00    1.65268   1.68669   15.556
 5065.00    1.62813   1.68238   15.535
 5066.00    1.61449   1.67491   15.987
 5067.00    1.61035   1.66642   16.660
 5068.00    1.61476   1.65648   16.909
 5069.00    1.62543   1.64725   16.617
 5070.00    1.63675   1.63741   16.199
 5071.00    1.63775   1.62738   16.102
 5072.00    1.61969   1.61894   16.512
 5073.00    1.58566   1.61075   17.103
 5074.00    1.54826   1.60303   17.427
 5075.00    1.52471   1.59520   17.557
 5076.00    1.52471   1.58854   17.682
 5077.00    1.54038   1.58182   17.599
 5078.00    1.55605   1.57294   17.268
 5079.00    1.55826   1.56543   17.178
 5080.00    1.54245   1.55806   17.511
 5081.00    1.51609   1.55253   17.702
 5082.00    1.49016   1.54753   17.440
 5083.00    1.47264   1.54514   17.270
 5084.00    1.46456   1.54567   17.565
 5085.00    1.45978   1.54782   18.115
 5086.00    1.45364   1.55322   18.574
 5087.00    1.44695   1.56014   18.741
 5088.00    1.44410   1.56991   18.715
 5089.00    1.45091   1.57973   18.792
 5090.00    1.47031   1.59070   18.946
 5091.00    1.50128   1.60199   18.814
 5092.00    1.54076   1.61263   18.356
 5093.00    1.58288   1.62100   17.927
 5094.00    1.61494   1.62672   17.906
 5095.00    1.62337   1.62995   18.481
 5096.00    1.61065   1.62989   19.191
 5097.00    1.59001   1.62732   19.198
 5098.00    1.56548   1.62169   18.703
 5099.00    1.53497   1.61644   18.529
 5100.00    1.50396   1.60980   18.777
 5101.00    1.48370   1.60335   19.041
 5102.00    1.48385   1.59630   18.965
 5103.00    1.50674   1.58980   18.524
 5104.00    1.54146   1.58365   18.149
 5105.00    1.57139   1.57831   18.177
 5106.00    1.58475   1.57385   18.360
 5107.00    1.57743   1.57050   18.375
 5108.00    1.55451   1.56943   18.425
 5109.00    1.52813   1.56792   18.720
 5110.00    1.51404   1.57044   18.958
 5111.00    1.52066   1.57387   18.858
 5112.00    1.54146   1.57814   18.662
 5113.00    1.56596   1.58374   18.582
 5114.00    1.58767   1.58974   18.455
 5115.00    1.60082   1.59665   18.186
 5116.00    1.59937   1.60399   17.961
 5117.00    1.58556   1.61030   17.862
 5118.00    1.57088   1.61495   17.739
 5119.00    1.55771   1.61809   17.549
 5120.00    1.53555   1.61760   17.454
 5121.00    1.50402   1.61516   17.578
 5122.00    1.47793   1.60922   17.894
 5123.00    1.46860   1.60070   18.078
 5124.00    1.47641   1.59057   17.733
 5125.00    1.49027   1.57990   17.299
 5126.00    1.49344   1.56842   17.585
 5127.00    1.47982   1.55782   18.180
 5128.00    1.45730   1.54864   17.819
 5129.00    1.44414   1.54053   17.006
 5130.00    1.45692   1.53614   17.074
 5131.00    1.48797   1.53325   17.674
 5132.00    1.51617   1.53354   17.509
 5133.00    1.53572   1.53465   16.815
 5134.00    1.55183   1.53846   16.601
 5135.00    1.56522   1.54229   16.876
 5136.00    1.57255   1.54557   17.183
 5137.00    1.57101   1.54855   17.470
 5138.00    1.56075   1.54827   17.830
 5139.00    1.54686   1.54972   17.954
 5140.00    1.53557   1.54875   17.700
 5141.00    1.52990   1.54590   17.710
 5142.00    1.52997   1.54233   18.381
 5143.00    1.53397   1.53805   18.948
 5144.00    1.54037   1.53271   18.680
 5145.00    1.54893   1.52743   18.219
 5146.00    1.55515   1.52257   18.227
 5147.00    1.54824   1.51695   18.577
 5148.00    1.52520   1.51431   18.983
 5149.00    1.49749   1.51184   19.350
 5150.00    1.47695   1.51076   19.581
 5151.00    1.46782   1.51133   19.512
 5152.00    1.46798   1.51246   19.285
 5153.00    1.47087   1.51460   19.329
 5154.00    1.47009   1.51970   19.645
 5155.00    1.46140   1.52512   19.740
 5156.00    1.44287   1.53054   19.583
 5157.00    1.41640   1.53661   19.680
 5158.00    1.39245   1.54025   -1.000
 5159.00    1.38612   1.54300   -1.000
 5160.00    1.40236   1.54230   20.371
 5161.00    1.43297   1.53646   20.512
 5162.00    1.46004   1.52696   20.541
 5163.00    1.46513   1.51237   20.056
 5164.00    1.44611   1.49230   19.557
 5165.00    1.41385   1.46748   19.778
 5166.00    1.37924   1.43760   20.486
 5167.00    1.34874   1.40634   20.874
 5168.00    1.32163   1.37471   20.744
 5169.00    1.29442   1.34559   20.421
 5170.00    1.26769   1.31678   20.083
 5171.00    1.24425   1.29097   19.761
 5172.00    1.22556   1.27034   19.458
 5173.00    1.21028   1.25598   19.259
 5174.00    1.19388   1.24963   19.374
 5175.00    1.17714   1.24775   19.722
 5176.00    1.17258   1.25224   19.572
 5177.00    1.19002   1.26048   18.656
 5178.00    1.22476   1.27151   17.840
 5179.00    1.26377   1.28349   17.683
 5180.00    1.29226   1.29399   17.951
 5181.00    1.30331   1.30359   18.318
 5182.00    1.30196   1.31098   18.689
 5183.00    1.29566   1.31927   18.937
 5184.00    1.28885   1.32896   18.798
 5185.00    1.28422   1.33812   18.244
 5186.00    1.28398   1.34894   17.579
 5187.00    1.29264   1.35839   17.121
 5188.00    1.31490   1.37004   17.025
 5189.00    1.34456   1.38317   17.036
 5190.00    1.36625   1.39532    0.000
 5191.00    1.37417   1.40826    0.000
 5192.00    1.37625   1.42261    0.000
 5193.00    1.38792   1.43997    0.000
 5194.00    1.42203   1.45557    0.000
 5195.00    1.46942   1.47149    0.000
 5196.00    1.50751   1.48486    0.000
 5197.00    1.52792   1.49554    0.000
 5198.00    1.53574   1.50585    0.000
 5199.00    1.53689   1.51214    0.000
 5200.00    1.53370   1.51632    0.000
 5201.00    1.52212   1.51842    0.000
 5202.00    1.49991   1.51939    0.000
 5203.00    1.47790   1.51621    0.000
 5204.00    1.46788   1.51050    0.000
 5205.00    1.46662   1.50362    0.000
 5206.00    1.46562   1.49567    0.000
 5207.00    1.46338   1.48664    0.000
 5208.00    1.46132   1.47977    0.000
 5209.00    1.45913   1.47446    0.000
 5210.00    1.45756   1.47206    0.000
 5211.00    1.46075   1.47476   19.466
 5212.00    1.47302   1.47920   19.536
 5213.00    1.49608   1.48783   19.239
 5214.00    1.52711   1.49749   18.684
 5215.00    1.55937   1.51169   18.288
 5216.00    1.59174   1.52542   18.295
 5217.00    1.63023   1.54082   18.631
 5218.00    1.66968   1.55737   18.980
 5219.00    1.69120   1.57033   18.916
 5220.00    1.68879   1.58335   18.527
 5221.00    1.67624   1.59083   18.378
 5222.00    1.66981   1.59549   18.593
 5223.00    1.67769   1.59532   18.781
 5224.00    1.68829   1.59239   18.696
 5225.00    1.67907   1.58828   18.438
 5226.00    1.65019   1.58218   18.276
 5227.00    1.62156   1.57939   18.431
 5228.00    1.60241   1.57580   18.740
 5229.00    1.58862   1.57401   18.803
 5230.00    1.57316   1.57491   18.560
 5231.00    1.55285   1.57546   18.260
 5232.00    1.53596   1.57862   18.098
 5233.00    1.53427   1.58501   18.161
 5234.00    1.54828   1.59391   18.449
 5235.00    1.57015   1.60676   18.837
 5236.00    1.59157   1.62257   19.031
 5237.00    1.60858   1.63982   18.804
 5238.00    1.62565   1.65421   18.318
 5239.00    1.64936   1.66752   17.844
 5240.00    1.68107   1.68013   17.474
 5241.00    1.71574   1.68864   17.228
 5242.00    1.74281   1.69776   17.157
 5243.00    1.75581   1.70468   17.279
 5244.00    1.75886   1.70934   17.521
 5245.00    1.75503   1.71060   17.763
 5246.00    1.73942   1.70683   17.858
 5247.00    1.71174   1.70196   17.623
 5248.00    1.68224   1.69516   16.952
 5249.00    1.65906   1.68729   16.281
 5250.00    1.64307   1.68024   16.386
 5251.00    1.63801   1.67251   17.304
 5252.00    1.65117   1.66675   18.037
 5253.00    1.67499   1.66212   18.106
 5254.00    1.68804   1.65530   18.263
 5255.00    1.68660   1.65094   18.697
 5256.00    1.68583   1.64865   18.734
 5257.00    1.68643   1.64870   18.407
 5258.00    1.67520   1.64537   18.477
 5259.00    1.65630   1.64008   19.026
 5260.00    1.64673   1.63449   19.474
 5261.00    1.64459   1.62252   19.562
 5262.00    1.63436   1.60799   19.512
 5263.00    1.61408   1.58865   19.565
 5264.00    1.59339   1.56939   19.817
 5265.00    1.57909   1.54871   20.137
 5266.00    1.57223   1.52797   20.296
 5267.00    1.56804   1.50682   20.257
 5268.00    1.55987   1.48451   20.175
 5269.00    1.54489   1.46700   20.296
 5270.00    1.52603   1.45461   20.689
 5271.00    1.51281   1.44909   20.952
 5272.00    1.51287   1.44929   20.722
 5273.00    1.52344   1.45693   20.320
 5274.00    1.53660   1.46689   20.221
 5275.00    1.54592   1.48361   20.569
 5276.00    1.55343   1.50550   20.992
 5277.00    1.57225   1.52583   20.569
 5278.00    1.60593   1.55003   19.400
 5279.00    1.63756   1.57689   18.930
 5280.00    1.65667   1.60320   19.568
 5281.00    1.67324   1.62469   20.046
 5282.00    1.69723   1.64511   19.539
 5283.00    1.72725   1.66442   18.928
 5284.00    1.75310   1.68314   18.812
 5285.00    1.76159   1.70318   18.947
 5286.00    1.75402   1.72068   19.028
 5287.00    1.74663   1.73512   18.951
 5288.00    1.74572   1.74723   18.683
 5289.00    1.74478   1.75807   18.262
 5290.00    1.74457   1.76753   17.909
 5291.00    1.75412   1.77618   17.891
 5292.00    1.77537   1.78149   18.163
 5293.00    1.80003   1.78559   -2.000
 5294.00    1.81268   1.78650   -2.000
 5295.00    1.79999   1.78258   -2.000
 5296.00    1.76774   1.77550   -2.000
 5297.00    1.73556   1.76672   -2.000
 5298.00    1.72082   1.76038   -2.000
 5299.00    1.73216   1.75356   -2.000
 5300.00    1.76463   1.74784   -2.000
 5301.00    1.80502   1.74455   -2.000
 5302.00    1.84056   1.74348   -2.000
 5303.00    1.86273   1.74664   -2.000
 5304.00    1.87003   1.75175   -2.000
 5305.00    1.86500   1.76021   -2.000
 5306.00    1.85080   1.77060   -2.000
 5307.00    1.83281   1.78404   17.957
 5308.00    1.82008   1.79857   18.425
 5309.00    1.82055   1.81092   18.899
 5310.00    1.83661   1.82331   19.183
 5311.00    1.86199   1.83404   19.130
 5312.00    1.88203   1.84220   18.859
 5313.00    1.88839   1.84710   18.692
 5314.00    1.88647   1.84935   18.993
 5315.00    1.88463   1.84828   19.663
 5316.00    1.88743   1.84447   19.950
 5317.00    1.89317   1.83967   19.625
 5318.00    1.89520   1.83138   19.385
 5319.00    1.89141   1.82086   19.532
 5320.00    1.88517   1.80709   19.705
 5321.00    1.87426   1.79242   19.636
 5322.00    1.85101   1.77630   19.413
 5323.00    1.81533   1.75798   19.335
 5324.00    1.77552   1.74099   19.676
 5325.00    1.73878   1.72226   20.230
 5326.00    1.70984   1.70489   20.436
 5327.00    1.69394   1.68576   20.288
 5328.00    1.69494   1.67064   20.208
 5329.00    1.70986   1.65926   20.212
 5330.00    1.72976   1.65136   20.041
 5331.00    1.74358   1.64862   19.709
 5332.00    1.74235   1.64658   19.414
 5333.00    1.72469   1.65044   19.264
 5334.00    1.69716   1.65550   19.248
 5335.00    1.67275   1.66425   19.231
 5336.00    1.66224   1.67456   19.100
 5337.00    1.66454   1.68673   18.928
 5338.00    1.67527   1.69985   18.799
 5339.00    1.69612   1.70817   18.643
 5340.00    1.72350   1.71620   18.479
 5341.00    1.73966   1.72336   18.581
 5342.00    1.73408   1.72906   19.039
 5343.00    1.71903   1.73504   19.420
 5344.00    1.71037   1.73857   19.401
 5345.00    1.71332   1.74128   19.260
 5346.00    1.72645   1.74469   19.158
 5347.00    1.74531   1.74695   18.826
 5348.00    1.76551   1.75234   18.354
 5349.00    1.78414   1.75925   18.317
 5350.00    1.79874   1.76938   18.784
 5351.00    1.80715   1.78068   19.079
 5352.00    1.80923   1.79086   18.816
 5353.00    1.80757   1.80457   18.342
 5354.00    1.80729   1.81725   18.153
 5355.00    1.81368   1.83044   18.565
 5356.00    1.82531   1.84467   19.346
 5357.00    1.83624   1.85641   19.770
 5358.00    1.84792   1.86787   19.642
 5359.00    1.86603   1.87543   19.418
 5360.00    1.88568   1.88019   19.324
 5361.00    1.89468   1.88117   19.311
 5362.00    1.88783   1.87826   19.352
 5363.00    1.86924   1.87283   19.518
 5364.00    1.85048   1.86274   19.998
 5365.00    1.84333   1.85225   20.799
 5366.00    1.84901   1.83830   21.157
 5367.00    1.85913   1.82466   20.467
 5368.00    1.86008   1.80919   19.783
 5369.00    1.84253   1.79351   20.065
 5370.00    1.81168   1.77971   20.668
 5371.00    1.78018   1.76719   20.644
 5372.00    1.75891   1.76168   20.474
 5373.00    1.75270   1.75675   20.800
 5374.00    1.75777   1.75768   21.162
 5375.00    1.76743   1.75904   21.013
 5376.00    1.77705   1.76142   20.659
 5377.00    1.78606   1.76755   20.400
 5378.00    1.79835   1.77474   20.029
 5379.00    1.81789   1.78602   19.543
 5380.00    1.84549   1.79538   19.375
 5381.00    1.87695   1.80482   19.596
 5382.00    1.90313   1.81037   19.702
 5383.00    1.91501   1.81377   19.502
 5384.00    1.90763   1.81674   19.385
 5385.00    1.88575   1.81706   19.468
 5386.00    1.86240   1.81611   19.448
 5387.00    1.84528   1.81217   19.243
 5388.00    1.83316   1.80564   19.112
 5389.00    1.82033   1.79616   19.280
 5390.00    1.80170   1.78630   19.741
 5391.00    1.78224   1.77582   19.970
 5392.00    1.77169   1.76469   19.384
 5393.00    1.76630   1.75284   18.718
 5394.00    1.75573   1.74126   18.986
 5395.00    1.74556   1.72817   19.604
 5396.00    1.74719   1.71389   19.348
 5397.00    1.75175   1.70336   19.175
 5398.00    1.74452   1.69290   20.237
 5399.00    1.73346   1.68448   20.121
 5400.00    1.72622   1.67707   17.838
 5401.00    1.69697   1.67066   19.372
 5402.00    1.65047   1.66388   -2.000
 5403.00    1.68562   1.65507   -2.000
 5404.00    1.76752   1.64978   -2.000
 5405.00    1.55448   1.64598   -2.000
 5406.00    1.16387   1.64390   -2.000
 5407.00    1.69357   1.64372   -2.000
 5408.00    3.45226   1.64492   -2.000
 5409.00    4.80600   1.64612   -2.000
 5410.00    4.58627   1.64933   -2.000
 5411.00    3.61031   1.65533   -2.000
 5412.00    2.98756   1.66504   -2.000
 5413.00    3.02657   1.67826   -2.000
 5414.00    3.42693   1.69225   -2.000
 5415.00    3.56637   1.70720   -2.000
 5416.00    3.19496   1.72108   -2.000
 5417.00    2.62604   1.73667   -2.000
 5418.00    2.16636   1.75161   -2.000
 5419.00    1.90017   1.76435   -2.000
 5420.00    1.79695   1.77558   -2.000
 5421.00    1.77666   1.78415   -2.000
 5422.00    1.77829   1.79056   -2.000
 5423.00    1.77742   1.79317   -2.000
 5424.00    1.77394   1.79478   -2.000
 5425.00    1.77951   1.79436   11.277
 5426.00    1.79693   1.79156    6.072
 5427.00    1.81836   1.78739    5.065
 5428.00    1.83225   1.77975    5.354
 5429.00    1.82991   1.77242    5.635
 5430.00    1.81434   1.76449    5.541
 5431.00    1.79523   1.75722    5.503
 5432.00    1.77853   1.75361    5.614
 5433.00    1.76568   1.74799    5.707
 5434.00    1.75524   1.74381    5.702
 5435.00    1.74819   1.73933    5.651
 5436.00    1.75309   1.73771    5.705
 5437.00    1.77416   1.74469    5.818
 5438.00    1.79965   1.74929    5.528
 5439.00    1.81732   1.75629    5.060
 5440.00    1.82850   1.76318    5.653
 5441.00    1.83742   1.76913    9.545
 5442.00    1.84222   1.77802   22.460
 5443.00    1.84005   1.78397   25.214
 5444.00    1.83176   1.79184   18.328
 5445.00    1.82512   1.79410   18.476
 5446.00    1.83285   1.79243   20.760
 5447.00    1.85298   1.79165   20.332
 5448.00    1.86432   1.78746   19.349
 5449.00    1.85546   1.78493   19.809
 5450.00    1.83425   1.77932   20.808
 5451.00    1.80913   1.77273   21.308
 5452.00    1.78292   1.76500   21.319
 5453.00    1.75945   1.75622   21.203
 5454.00    1.74398   1.75141   21.184
 5455.00    1.73685   1.74732   21.111
 5456.00    1.73363   1.74491   20.731
 5457.00    1.73080   1.74212   20.504
 5458.00    1.72889   1.74118   21.119
 5459.00    1.73549   1.73962   22.059
 5460.00    1.75851   1.73823   21.924
 5461.00    1.79135   1.73711   20.840
 5462.00    1.81861   1.73640   19.977
 5463.00    1.83169   1.74097   19.765
 5464.00    1.83063   1.74320   20.057
 5465.00    1.82207   1.74476   20.371
 5466.00    1.81221   1.74544   20.313
 5467.00    1.79841   1.74414   20.243
 5468.00    1.77926   1.74318   20.624
 5469.00    1.76660   1.73978   21.195
 5470.00    1.77004   1.73876   21.340
 5471.00    1.78057   1.73806   20.793
 5472.00    1.78390   1.73254   20.027
 5473.00    1.77439   1.72771   20.057
 5474.00    1.75508   1.72265   21.015
 5475.00    1.73562   1.71422   21.173
 5476.00    1.72315   1.70664   19.730
 5477.00    1.71749   1.70138   18.538
 5478.00    1.72104   1.69915   18.373
 5479.00    1.74132   1.69565   18.338
 5480.00    1.77161   1.69119   18.047
 5481.00    1.78655   1.69137   18.301
 5482.00    1.77216   1.68902   19.395
 5483.00    1.73748   1.68987   20.491
 5484.00    1.70292   1.69768   20.874
 5485.00    1.68989   1.70535   20.812
 5486.00    1.70253   1.71040   20.761
 5487.00    1.72662   1.71225   20.918
 5488.00    1.74650   1.71845   21.186
 5489.00    1.75250   1.72546   21.286
 5490.00    1.74588   1.73316   21.130
 5491.00    1.73680   1.74067   20.877
 5492.00    1.73611   1.74471   20.747
 5493.00    1.75024   1.74667   20.874
 5494.00    1.77496   1.74822   21.112
 5495.00    1.80107   1.75240   21.129
 5496.00    1.82638   1.75357   20.714
 5497.00    1.85149   1.75505   19.998
 5498.00    1.87023   1.75685   19.535
 5499.00    1.87646   1.75503   19.678
 5500.00    1.87474   1.75229   19.989
 5501.00    1.87177   1.75098   19.904
 5502.00    1.86513   1.74951   19.695
 5503.00    1.85045   1.74464   19.735
 5504.00    1.82972   1.74160   19.730
 5505.00    1.80689   1.73919   19.478
 5506.00    1.78342   1.73498   19.498
 5507.00    1.76154   1.72917   20.014
 5508.00    1.74630   1.72399   20.249
 5509.00    1.73903   1.72265   19.826
 5510.00    1.73397   1.71982   19.647
 5511.00    1.72643   1.71640   20.066
 5512.00    1.71760   1.71348   20.163
 5513.00    1.71160   1.71156   19.471
 5514.00    1.71288   1.71500   18.741
 5515.00    1.72222   1.71724   18.434
 5516.00    1.73621   1.71928   18.370
 5517.00    1.75213   1.72481   18.200
 5518.00    1.76954   1.72798   17.703
 5519.00    1.78803   1.73430   17.206
 5520.00    1.80668   1.74170   17.274
 5521.00    1.82463   1.74776   17.770
 5522.00    1.84000   1.75422   17.960
 5523.00    1.84662   1.75873   17.753
 5524.00    1.83882   1.76448   17.711
 5525.00    1.82410   1.76845   18.037
 5526.00    1.81621   1.76852   18.542
 5527.00    1.81538   1.76745   18.952
 5528.00    1.81178   1.76717   19.104
 5529.00    1.79911   1.76632   19.187
 5530.00    1.77999   1.76599   19.484
 5531.00    1.76943   1.76480   19.876
 5532.00    1.78025   1.76271   20.070
 5533.00    1.80367   1.76173   20.070
 5534.00    1.82324   1.75920   20.065
 5535.00    1.83430   1.76202   20.186
 5536.00    1.84057   1.76638   20.448
 5537.00    1.84766   1.76872   20.729
 5538.00    1.85769   1.77224   20.874
 5539.00    1.86539   1.77506   20.820
 5540.00    1.86226   1.78078   20.658
 5541.00    1.84143   1.78543   20.611
 5542.00    1.80687   1.79072   20.695
 5543.00    1.77668   1.79734   20.604
 5544.00    1.76474   1.80123   20.401
 5545.00    1.77029   1.80643   20.703
 5546.00    1.78420   1.81205   21.498
 5547.00    1.79489   1.81725   21.697
 5548.00    1.79880   1.82149   20.983
 5549.00    1.80244   1.82435   20.384
 5550.00    1.81098   1.82802   20.365
 5551.00    1.82410   1.83138   20.569
 5552.00    1.83800   1.83233   20.625
 5553.00    1.84797   1.83267   20.462
 5554.00    1.85338   1.83368   20.380
 5555.00    1.85680   1.83314   20.721
 5556.00    1.85762   1.83064   21.018
 5557.00    1.85271   1.82740   20.442
 5558.00    1.84192   1.82401   19.582
 5559.00    1.82841   1.81911   19.574
 5560.00    1.81643   1.81377   20.413
 5561.00    1.80930   1.80797   21.265
 5562.00    1.80674   1.80246   21.399
 5563.00    1.80526   1.79684   20.812
 5564.00    1.79985   1.78932   20.413
 5565.00    1.78709   1.78459   20.892
 5566.00    1.76897   1.77881   21.617
 5567.00    1.75203   1.77285   21.622
 5568.00    1.74514   1.76875   21.311
 5569.00    1.75318   1.76401   21.340
 5570.00    1.77125   1.76320   21.327
 5571.00    1.79044   1.76062   20.921
 5572.00    1.80375   1.75797   20.716
 5573.00    1.80732   1.75852   21.133
 5574.00    1.80134   1.75876   21.692
 5575.00    1.79233   1.76052   21.803
 5576.00    1.79237   1.76157   21.482
 5577.00    1.80588   1.76347   21.005
 5578.00    1.82360   1.76434   20.619
 5579.00    1.83463   1.76342   20.633
 5580.00    1.83378   1.76371   21.383
 5581.00    1.82388   1.76235   22.436
 5582.00    1.81401   1.75878   22.372
 5583.00    1.80864   1.75340   21.208
 5584.00    1.80548   1.74756   20.500
 5585.00    1.80355   1.73979   20.646
 5586.00    1.80380   1.73095   20.966
 5587.00    1.80192   1.72165   21.105
 5588.00    1.78867   1.70995   21.218
 5589.00    1.75681   1.70244   21.204
 5590.00    1.70755   1.69571   20.799
 5591.00    1.66058   1.68818   20.286
 5592.00    1.64197   1.68291   20.137
 5593.00    1.65587   1.67662   20.203
 5594.00    1.68687   1.67591   20.017
 5595.00    1.71521   1.67817   19.526
 5596.00    1.72741   1.67981   18.921
 5597.00    1.72783   1.68362   18.205
 5598.00    1.72871   1.68680   17.480
 5599.00    1.73446   1.69122   17.215
 5600.00    1.74235   1.69744   17.688
 5601.00    1.74641   1.70410   18.411
 5602.00    1.74386   1.71210   18.777
 5603.00    1.74054   1.71994   19.081
 5604.00    1.74286   1.72524   19.728
 5605.00    1.75037   1.73387   20.314
 5606.00    1.75919   1.74400   20.401
 5607.00    1.76571   1.75271   20.351
 5608.00    1.77054   1.76114   20.515
 5609.00    1.77921   1.76510   20.694
 5610.00    1.79121   1.77276   20.694
 5611.00    1.79592   1.78057   20.633
 5612.00    1.78671   1.78408   20.530
 5613.00    1.76800   1.78535   20.194
 5614.00    1.75211   1.78088   19.759
 5615.00    1.75314   1.77876   19.638
 5616.00    1.77012   1.77582   19.639
 5617.00    1.78598   1.77094   19.046
 5618.00    1.78791   1.76570   17.992
 5619.00    1.77476   1.75659   17.293
 5620.00    1.75663   1.74981   17.284
 5621.00    1.74811   1.74256   17.861
 5622.00    1.75145   1.73791   18.631
 5623.00    1.75760   1.73688   19.053
 5624.00    1.75904   1.73366   19.154
 5625.00    1.75346   1.73155   19.381
 5626.00    1.74471   1.72956   19.725
 5627.00    1.74017   1.73188   19.885
 5628.00    1.74566   1.73728   19.958
 5629.00    1.76208   1.74014   20.241
 5630.00    1.78209   1.74229   20.681
 5631.00    1.79679   1.74482   20.969
 5632.00    1.80501   1.75036   20.844
 5633.00    1.80842   1.75583   20.371
 5634.00    1.80459   1.75827   20.069
 5635.00    1.79096   1.75878   20.281
 5636.00    1.76965   1.75911   20.708
 5637.00    1.74792   1.76033   20.939
 5638.00    1.73704   1.76040   21.016
 5639.00    1.74355   1.75912   21.070
 5640.00    1.76295   1.75655   20.995
 5641.00    1.78477   1.75499   20.797
 5642.00    1.79774   1.75297   20.761
 5643.00    1.79824   1.75082   20.966
 5644.00    1.79348   1.75065   21.083
 5645.00    1.79200   1.75005   20.894
 5646.00    1.79816   1.75119   20.537
 5647.00    1.81039   1.75129   20.174
 5648.00    1.82298   1.75112   19.875
 5649.00    1.83584   1.75326   19.741
 5650.00    1.85464   1.75525   19.860
 5651.00    1.87808   1.75713   19.968
 5652.00    1.89630   1.75654   19.624
 5653.00    1.89980   1.75531   19.163
 5654.00    1.88442   1.75482   19.336
 5655.00    1.85630   1.75347   20.022
 5656.00    1.82774   1.75063   20.359
 5657.00    1.80477   1.74637   20.065
 5658.00    1.78741   1.74267   19.580
 5659.00    1.77635   1.73873   19.292
 5660.00    1.77358   1.73488   19.328
 5661.00    1.78095   1.73142   19.491
 5662.00    1.79595   1.72887   19.520
 5663.00    1.80615   1.72808   19.528
 5664.00    1.80057   1.72723   19.745
 5665.00    1.78511   1.72837   20.106
 5666.00    1.77434   1.73221   20.391
 5667.00    1.77894   1.73715   20.489
 5668.00    1.80104   1.74190   20.428
 5669.00    1.83176   1.74666   20.336
 5670.00    1.85979   1.75434   20.340
 5671.00    1.87940   1.76369   20.464
 5672.00    1.88963   1.77221   20.552
 5673.00    1.89269   1.77868   20.284
 5674.00    1.89045   1.78524   19.730
 5675.00    1.88256   1.79319   19.498
 5676.00    1.86981   1.79959   19.833
 5677.00    1.85568   1.80454   20.305
 5678.00    1.84426   1.80788   20.478
 5679.00    1.83845   1.81027   20.329
 5680.00    1.83774   1.81196   20.088
 5681.00    1.83798   1.81066   20.030
 5682.00    1.83438   1.80884   20.195
 5683.00    1.82386   1.80684   20.394
 5684.00    1.80817   1.80441   20.562
 5685.00    1.79306   1.80150   20.775
 5686.00    1.78231   1.79734   20.858
 5687.00    1.77687   1.79390   20.522
 5688.00    1.77732   1.79132   20.038
 5689.00    1.78404   1.79014   19.906
 5690.00    1.79612   1.78967   19.983
 5691.00    1.81282   1.79014   19.771
 5692.00    1.83685   1.78982   19.333
 5693.00    1.86887   1.78982   19.026
 5694.00    1.89743   1.79094   18.835
 5695.00    1.90739   1.79142   18.607
 5696.00    1.89558   1.79285   18.471
 5697.00    1.87145   1.79066   18.597
 5698.00    1.85384   1.78818   18.844
 5699.00    1.85616   1.78515   18.952
 5700.00    1.87089   1.77929   18.862
 5701.00    1.88243   1.77463   18.677
 5702.00    1.88223   1.76637   18.555
 5703.00    1.86871   1.75867   18.637
 5704.00    1.84592   1.75146   19.009
 5705.00    1.82342   1.74123   19.638
 5706.00    1.81433   1.73370   20.303
 5707.00    1.82303   1.72549   20.728
 5708.00    1.83851   1.71826   20.765
 5709.00    1.84600   1.71519   20.479
 5710.00    1.83569   1.71073   -2.000
 5711.00    1.80949   1.70910   -2.000
 5712.00    1.78184   1.71050   -2.000
 5713.00    1.76762   1.71207   -2.000
 5714.00    1.77429   1.71944   -2.000
 5715.00    1.79356   1.72738   -2.000
 5716.00    1.80551   1.73573   -2.000
 5717.00    1.80302   1.74800   -2.000
 5718.00    1.79533   1.75926   -2.000
 5719.00    1.79216   1.77299   -2.000
 5720.00    1.79909   1.78717   -2.000
 5721.00    1.81869   1.79863   -2.000
 5722.00    1.84847   1.81129   -2.000
 5723.00    1.87616   1.82231   -2.000
 5724.00    1.88692   1.83219   -2.000
 5725.00    1.87964   1.84065   -2.000
 5726.00    1.86436   1.84577   -2.000
 5727.00    1.85196   1.85069   -2.000
 5728.00    1.84869   1.85449   -2.000
 5729.00    1.85127   1.85747   -2.000
 5730.00    1.85222   1.85827   19.188
 5731.00    1.84782   1.85714   19.090
 5732.00    1.83856   1.85699   19.247
 5733.00    1.82797   1.85666   19.491
 5734.00    1.82002   1.85758   19.586
 5735.00    1.81687   1.85692   19.482
 5736.00    1.82106   1.85506   19.357
 5737.00    1.83702   1.85466   19.542
 5738.00    1.86433   1.85426   20.004
 5739.00    1.89325   1.85574   20.025
 5740.00    1.91081   1.85639    0.000
 5741.00    1.90660   1.85522    0.000
 5742.00    1.87990   1.85429    0.000
 5743.00    1.84206   1.85353    0.000
 5744.00    1.80680   1.85393    0.000
 5745.00    1.78486   1.85432    0.000
 5746.00    1.78360   1.85273    0.000
 5747.00    1.80610   1.84946    0.000
 5748.00    1.84779   1.84692    0.000
 5749.00    1.89669   1.84536    0.000
 5750.00    1.93862   1.84433    0.000
 5751.00    1.96058   1.84219    0.000
 5752.00    1.95513   1.83753    0.000
 5753.00    1.92414   1.83343    0.000
 5754.00    1.88477   1.83132    0.000
 5755.00    1.86038   1.83016    0.000
 5756.00    1.85701   1.82867    0.000
 5757.00    1.86373   1.82599    0.000
 5758.00    1.86485   1.82319    0.000
 5759.00    1.85025   1.82264    0.000
 5760.00    1.82821   1.82356    0.000
 5761.00    1.81418   1.82400    0.000
 5762.00    1.81087   1.82466    0.000
 5763.00    1.81330   1.82573    0.000
 5764.00    1.81935   1.82783    0.000
 5765.00    1.82847   1.83113    0.000
 5766.00    1.83874   1.83380    0.000
 5767.00    1.84976   1.83661    0.000
 5768.00    1.86484   1.84015    0.000
 5769.00    1.88207   1.84355    0.000
 5770.00    1.88834   1.84652    0.000
 5771.00    1.87745   1.84798    0.000
 5772.00    1.86180   1.84914    0.000
 5773.00    1.85234   1.84917    0.000
 5774.00    1.84601   1.84794    0.000
 5775.00    1.83684   1.84540    0.000
 5776.00    1.82337   1.84005    0.000
 5777.00    1.80953   1.83495    0.000
 5778.00    1.80276   1.82835    0.000
 5779.00    1.80440   1.81920    0.000
 5780.00    1.80748   1.81011    0.000
 5781.00    1.80499   1.79954    0.000
 5782.00    1.79405   1.79032    0.000
 5783.00    1.77820   1.78277    0.000
 5784.00    1.76531   1.77250    0.000
 5785.00    1.75947   1.76446    0.000
 5786.00    1.76052   1.75905    0.000
 5787.00    1.76923   1.75532    0.000
 5788.00    1.78733   1.75672    0.000
 5789.00    1.81430   1.75582    0.000
 5790.00    1.84762   1.75717    0.000
 5791.00    1.88463   1.76379    0.000
 5792.00    1.91991   1.76955    0.000
 5793.00    1.94070   1.78009    0.000
 5794.00    1.93427   1.78878    0.000
 5795.00    1.90032   1.79644    0.000
 5796.00    1.85229   1.80843    0.000
 5797.00    1.81542   1.81681    0.000
 5798.00    1.80954   1.82728    0.000
 5799.00    1.83054   1.83715    0.000
 5800.00    1.86231   1.84358    0.000
 5801.00    1.89137   1.85206    0.000
 5802.00    1.91157   1.85684    0.000
 5803.00    1.92578   1.86181    0.000
 5804.00    1.93602   1.86754    0.000
 5805.00    1.93706   1.86969    0.000
 5806.00    1.92647   1.87269    0.000
 5807.00    1.91063   1.87380    0.000
 5808.00    1.89747   1.87368    0.000
 5809.00    1.89126   1.87543    0.000
 5810.00    1.89028   1.87497    0.000
 5811.00    1.88783   1.87482    0.000
 5812.00    1.88209   1.87518    0.000
 5813.00    1.87820   1.87389    0.000
 5814.00    1.87866   1.87459    0.000
 5815.00    1.88086   1.87470    0.000
 5816.00    1.88185   1.87472    0.000
 5817.00    1.88056   1.87679    0.000
 5818.00    1.87898   1.87779    0.000
 5819.00    1.88082   1.87996    0.000
 5820.00    1.88706   1.88196    0.000
 5821.00    1.89511   1.88395    0.000
 5822.00    1.89945   1.88795    0.000
 5823.00    1.89551   1.89110    0.000
 5824.00    1.88661   1.89445    0.000
 5825.00    1.88054   1.89713    0.000
 5826.00    1.88144   1.89960    0.000
 5827.00    1.88853   1.90276    0.000
 5828.00    1.89671   1.90508    0.000
 5829.00    1.90086   1.90710    0.000
 5830.00    1.90112   1.90797    0.000
 5831.00    1.90097   1.90859    0.000
 5832.00    1.90397   1.90910    0.000
 5833.00    1.91105   1.90898    0.000
 5834.00    1.91861   1.90865    0.000
 5835.00    1.92273   1.90790    0.000
 5836.00    1.92287   1.90723    0.000
 5837.00    1.91930   1.90631    0.000
 5838.00    1.91141   1.90500    0.000
 5839.00    1.90064   1.90363    0.000
 5840.00    1.89206   1.90303    0.000
 5841.00    1.89150   1.90238    0.000
 5842.00    1.90254   1.90049    0.000
 5843.00    1.92087   1.89805    0.000
 5844.00    1.93369   1.89565    0.000
 5845.00    1.92996   1.89362    0.000
 5846.00    1.90621   1.89032    0.000
 5847.00    1.86982   1.88517    0.000
 5848.00    1.83671   1.87904    0.000
 5849.00    1.81894   1.87291    0.000
 5850.00    1.81957   1.86692    0.000
 5851.00    1.83049   1.85868    0.000
 5852.00    1.83778   1.84943    0.000
 5853.00    1.83680   1.84027    0.000
 5854.00    1.83145   1.83178    0.000
 5855.00    1.82381   1.82465    0.000
 5856.00    1.81488   1.81518    0.000
 5857.00    1.81054   1.80601    0.000
 5858.00    1.81653   1.79951    0.000
 5859.00    1.82814   1.79489    0.000
 5860.00    1.83600   1.79257    0.000
 5861.00    1.83711   1.78748    0.000
 5862.00    1.83292   1.78360    0.000
 5863.00    1.82482   1.78447    0.000
 5864.00    1.81519   1.78697    0.000
 5865.00    1.80901   1.79063    0.000
 5866.00    1.81043   1.79126    0.000
 5867.00    1.81896   1.79274    0.000
 5868.00    1.82821   1.79853    0.000
 5869.00    1.82677   1.80454    0.000
 5870.00    1.81157   1.80897    0.000
 5871.00    1.79587   1.81075    0.000
 5872.00    1.79266   1.81266    0.000
 5873.00    1.80324   1.81666    0.000
 5874.00    1.81892   1.81930    0.000
 5875.00    1.82508   1.81842    0.000
 5876.00    1.81462   1.81541    0.000
 5877.00    1.79271   1.81163    0.000
 5878.00    1.76714   1.80803    0.000
 5879.00    1.74394   1.80164    0.000
 5880.00    1.72792   1.79082    0.000
 5881.00    1.72161   1.77847    0.000
 5882.00    1.72105   1.76463    0.000
 5883.00    1.71741   1.74871    0.000
 5884.00    1.70614   1.72921    0.000
 5885.00    1.68727   1.70637    0.000
 5886.00    1.65928   1.68246    0.000
 5887.00    1.62011   1.65791    0.000
 5888.00    1.57326   1.63008    0.000
 5889.00    1.52678   1.59939    0.000
 5890.00    1.48863   1.57257    0.000
 5891.00    1.46400   1.54735    0.000
 5892.00    1.45230   1.52330    0.000
 5893.00    1.44719   1.50112    0.000
 5894.00    1.43773   1.47797    0.000
 5895.00    1.41628   1.46625    0.000
 5896.00    1.38793   1.46433    0.000
 5897.00    1.36464   1.46261    0.000
 5898.00    1.35696   1.46628    0.000
 5899.00    1.37124   1.47038    0.000
 5900.00    1.40766   1.48190    0.000
 5901.00    1.45858   1.50792   22.216
 5902.00    1.50870   1.53281   22.100
 5903.00    1.54610   1.55612   22.895
 5904.00    1.57012   1.57858   23.732
 5905.00    1.58659   1.60029   23.716
 5906.00    1.60329   1.62954   23.194
 5907.00    1.62404   1.65775   22.749
 5908.00    1.64660   1.67879   22.551
 5909.00    1.66922   1.69647   22.620
 5910.00    1.69274   1.71209   22.916
 5911.00    1.71465   1.72800   23.116
 5912.00    1.72898   1.74131   22.718
 5913.00    1.73591   1.75031   21.934
 5914.00    1.74291   1.75687   21.487
 5915.00    1.75536   1.76158   21.343
 5916.00    1.77249   1.76765   20.923
 5917.00    1.78554   1.77156   20.434
 5918.00    1.78349   1.77221   20.553
 5919.00    1.76889   1.77489   21.042
 5920.00    1.75488   1.77657   20.996
 5921.00    1.74953   1.77914   20.421
 5922.00    1.75367   1.78230   20.040
 5923.00    1.76389   1.78192   20.206
 5924.00    1.77465   1.78454   20.810
 5925.00    1.78112   1.78729   21.228
 5926.00    1.78251   1.78761   20.915
 5927.00    1.78581   1.79102   20.479
 5928.00    1.79858   1.79218   20.588
 5929.00    1.81921   1.79235   20.701
 5930.00    1.83832   1.79501   20.191
 5931.00    1.84297   1.79427   19.699
 5932.00    1.82851   1.79539   19.823
 5933.00    1.80845   1.79648   20.083
 5934.00    1.79954   1.79397   20.057
 5935.00    1.80794   1.79661   20.367
 5936.00    1.82933   1.79803   21.423
 5937.00    1.85113   1.79758   22.407
 5938.00    1.86021   1.79826   22.511
 5939.00    1.84939   1.79605   22.228
 5940.00    1.82442   1.79853   22.068
 5941.00    1.80362   1.80172   21.857
 5942.00    1.79622   1.80106   21.537
 5943.00    1.79441   1.80203   21.419
 5944.00    1.78860   1.80150   21.619
 5945.00    1.77551   1.80164   21.876
 5946.00    1.76202   1.80364   21.774
 5947.00    1.76124   1.80311   21.095
 5948.00    1.77518   1.80262   20.467
 5949.00    1.79413   1.80236   20.719
 5950.00    1.81238   1.80164   21.199
 5951.00    1.82921   1.80140   20.367
 5952.00    1.83942   1.79953   19.116
 5953.00    1.83512   1.79742   19.199
 5954.00    1.81502   1.79776   20.130
 5955.00    1.78530   1.79937   20.136
 5956.00    1.75700   1.79851   19.589
 5957.00    1.74147   1.79603   19.943
 5958.00    1.74365   1.79740   20.756
 5959.00    1.76089   1.80102   20.678
 5960.00    1.78329   1.80399   20.109
 5961.00    1.79915   1.80522   20.114
 5962.00    1.80219   1.80625   20.631
 5963.00    1.79405   1.81197   21.111
 5964.00    1.78544   1.81739   21.395
 5965.00    1.78712   1.82046   21.607
 5966.00    1.80107   1.82434   21.861
 5967.00    1.82181   1.82729   22.170
 5968.00    1.83938   1.83217   22.384
 5969.00    1.84777   1.83572   22.265
 5970.00    1.85037   1.83648   21.636
 5971.00    1.85375   1.83958   20.768
 5972.00    1.86248   1.84058   20.290
 5973.00    1.87488   1.84053   20.298
 5974.00    1.88262   1.84016   20.200
 5975.00    1.88068   1.83707   19.797
 5976.00    1.87130   1.83568   19.569
 5977.00    1.85813   1.83331   19.616
 5978.00    1.84411   1.82912   19.501
 5979.00    1.83350   1.82560   19.191
 5980.00    1.83099   1.81994   19.126
 5981.00    1.83577   1.81605   19.296
 5982.00    1.84172   1.81289   19.278
 5983.00    1.84373   1.80745   19.219
 5984.00    1.83922   1.80544   19.648
 5985.00    1.82735   1.80293   20.263
 5986.00    1.80931   1.80055   20.222
 5987.00    1.78940   1.79975   19.922
 5988.00    1.77475   1.79613   20.334
 5989.00    1.77418   1.79761   21.063
 5990.00    1.79134   1.80087   21.023
 5991.00    1.81453   1.80047   20.683
 5992.00    1.82886   1.80216   21.076
 5993.00    1.83620   1.80267   21.881
 5994.00    1.84552   1.80486   22.147
 5995.00    1.85696   1.80774   21.867
 5996.00    1.86483   1.80632   21.592
 5997.00    1.86371   1.80806   21.539
 5998.00    1.85238   1.80927   21.583
 5999.00    1.83655   1.80755   21.378
 6000.00    1.82330   1.80763   20.947
 6001.00    1.81576   1.80435   20.974
 6002.00    1.81230   1.80167   21.689
 6003.00    1.80736   1.80129   22.144
 6004.00    1.79993   1.79682   21.622
 6005.00    1.79730   1.79528   20.748
 6006.00    1.80412   1.79278   20.131
 6007.00    1.81645   1.78589   19.788
 6008.00    1.82464   1.78539   19.669
 6009.00    1.81842   1.78336   19.810
 6010.00    1.80148   1.78000   20.062
 6011.00    1.79154   1.77907   20.077
 6012.00    1.79616   1.77242   19.811
 6013.00    1.80739   1.77154   19.592
 6014.00    1.81549   1.77459   19.657
 6015.00    1.81540   1.77130   20.021
 6016.00    1.81112   1.76987   20.453
 6017.00    1.81065   1.76748   20.617
 6018.00    1.81058   1.76684   20.602
 6019.00    1.80109   1.77131   20.796
 6020.00    1.78555   1.76995   21.271
 6021.00    1.77704   1.76947   21.770
 6022.00    1.78321   1.77383   21.984
 6023.00    1.80257   1.77556   21.791
 6024.00    1.82371   1.77943   21.495
 6025.00    1.83415   1.78338   21.492
 6026.00    1.83301   1.78715   21.823
 6027.00    1.82636   1.79514   22.244
 6028.00    1.81888   1.80035   22.351
 6029.00    1.81459   1.80687   21.950
 6030.00    1.81841   1.81500   21.396
 6031.00    1.83208   1.82021   21.068
 6032.00    1.85034   1.82845   20.956
 6033.00    1.86466   1.83599   20.859
 6034.00    1.86747   1.84208   20.583
 6035.00    1.85746   1.84846   20.188
 6036.00    1.84205   1.85317   20.037
 6037.00    1.82875   1.85947   20.142
 6038.00    1.81960   1.86419   19.949
 6039.00    1.81415   1.86724   19.408
 6040.00    1.81168   1.87129   19.284
 6041.00    1.81304   1.87387   19.976
 6042.00    1.82085   1.87747   21.153
 6043.00    1.83622   1.87981   22.032
 6044.00    1.85668   1.88036   21.820
 6045.00    1.87375   1.88296   20.966
 6046.00    1.87642   1.88424   20.708
 6047.00    1.86549   1.88555   21.153
 6048.00    1.85309   1.88693   21.371
 6049.00    1.84732   1.88634   20.909
 6050.00    1.84855   1.88680   20.178
 6051.00    1.85201   1.88696   19.763
 6052.00    1.85119   1.88507   20.000
 6053.00    1.84392   1.88280   20.518
 6054.00    1.83237   1.88152   20.614
 6055.00    1.82033   1.87976   20.444
 6056.00    1.81130   1.87661   20.623
 6057.00    1.80615   1.87257   21.124
 6058.00    1.80434   1.86948   21.480
 6059.00    1.80629   1.86728   21.422
 6060.00    1.81323   1.86409   21.041
 6061.00    1.82647   1.85987   20.712
 6062.00    1.84564   1.85780   20.618
 6063.00    1.86689   1.85824   20.379
 6064.00    1.88333   1.85672   19.826
 6065.00    1.88630   1.85602   19.578
 6066.00    1.87155   1.85666   20.066
 6067.00    1.84408   1.85747   20.889
 6068.00    1.81602   1.86109   21.323
 6069.00    1.80296   1.86098   20.980
 6070.00    1.81334   1.86262   20.103
 6071.00    1.84209   1.87001   19.343
 6072.00    1.87432   1.87233   18.993
 6073.00    1.89105   1.87433   18.894
 6074.00    1.88562   1.87604   18.975
 6075.00    1.86892   1.87592   19.387
 6076.00    1.85667   1.87938   20.087
 6077.00    1.86073   1.87767   20.700
 6078.00    1.87943   1.87386   21.050
 6079.00    1.89849   1.87384   21.326
 6080.00    1.90621   1.86956   21.516
 6081.00    1.89775   1.86463   21.424
 6082.00    1.87223   1.85920   21.372
 6083.00    1.83337   1.85205   21.927
 6084.00    1.79340   1.84980   22.738
 6085.00    1.76844   1.84483   22.776
 6086.00    1.76651   1.83583   22.154
 6087.00    1.78447   1.83307   21.725
 6088.00    1.80768   1.83104   21.497
 6089.00    1.81873   1.82567   21.066
 6090.00    1.81181   1.82264   20.556
 6091.00    1.79050   1.82087   20.334
 6092.00    1.76109   1.82050   20.522
 6093.00    1.73142   1.81998   21.048
 6094.00    1.71040   1.81619   21.684
 6095.00    1.70474   1.81603   22.071
 6096.00    1.71532   1.81857   21.849
 6097.00    1.73755   1.81736   21.043
 6098.00    1.76248   1.81513   20.203
 6099.00    1.78091   1.81561   19.785
 6100.00    1.78730   1.81742   19.872
 6101.00    1.78227   1.81557   20.253
 6102.00    1.77322   1.81326   20.470
 6103.00    1.76660   1.81400   20.473
 6104.00    1.76336   1.81427   20.906
 6105.00    1.76289   1.81672   21.903
 6106.00    1.76487   1.81413   22.482
 6107.00    1.76668   1.80939   22.262
 6108.00    1.76385   1.81632   22.182
 6109.00    1.75801   1.81990   -2.000
 6110.00    1.75778   1.81927   -2.000
 6111.00    1.76912   1.82252   -2.000
 6112.00    1.79196   1.82177   -2.000
 6113.00    1.82172   1.82599   -2.000
 6114.00    1.85044   1.83097   -2.000
 6115.00    1.86834   1.82614   -2.000
 6116.00    1.86831   1.82732   -2.000
 6117.00    1.85542   1.83087   -2.000
 6118.00    1.84228   1.82735   -2.000
 6119.00    1.83414   1.82672   -2.000
 6120.00    1.82861   1.82333   -2.000
 6121.00    1.82187   1.81762   18.756
 6122.00    1.81018   1.81889   18.541
 6123.00    1.79074   1.81415   18.638
 6124.00    1.76534   1.80752   19.885
 6125.00    1.74481   1.80700   21.566
 6126.00    1.73879   1.80086   22.024
 6127.00    1.74273   1.79839   21.505
 6128.00    1.74872   1.80017   21.240
 6129.00    1.75860   1.79541   21.444
 6130.00    1.77713   1.79369   21.782
 6131.00    1.80371   1.79329   21.883
 6132.00    1.83048   1.78915   21.648
 6133.00    1.84313   1.78609   21.419
 6134.00    1.83556   1.78453   21.479
 6135.00    1.81831   1.78369   21.766
 6136.00    1.80151   1.78219   22.164
 6137.00    1.78530   1.77967   22.657
 6138.00    1.77215   1.77658   23.048
 6139.00    1.77117   1.77651   22.881
 6140.00    1.78296   1.77591   22.093
 6141.00    1.79559   1.77101   21.162
 6142.00    1.80082   1.77339   20.468
 6143.00    1.79981   1.78032   20.137
 6144.00    1.79689   1.78304   20.148
 6145.00    1.79629   1.78421   20.383
 6146.00    1.79977   1.78526   20.662
 6147.00    1.80602   1.79104   20.791
 6148.00    1.81145   1.79628   20.701
 6149.00    1.81200   1.79560   20.517
 6150.00    1.80709   1.79666   20.544
 6151.00    1.79955   1.79920   20.989
 6152.00    1.79333   1.79990   21.321
 6153.00    1.79110   1.79558   20.860
 6154.00    1.79093   1.78853   20.326
 6155.00    1.78843   1.78515   20.719
 6156.00    1.78121   1.77975   21.568
 6157.00    1.76827   1.76988   21.799
 6158.00    1.74824   1.75863   21.820
 6159.00    1.72209   1.74711   22.519
 6160.00    1.69643   1.73784   23.417
 6161.00    1.67860   1.72631   23.489
 6162.00    1.67065   1.71166   22.845
 6163.00    1.66970   1.70277   22.278
 6164.00    1.66950   1.69524   22.398
 6165.00    1.66681   1.68136   23.087
 6166.00    1.66549   1.67101   23.088
 6167.00    1.66829   1.66741   21.828
 6168.00    1.67114   1.66466   20.562
 6169.00    1.66862   1.66246   20.158
 6170.00    1.65803   1.66024   20.504
 6171.00    1.63986   1.66328   21.007
 6172.00    1.61804   1.66982   20.803
 6173.00    1.59994   1.66925   19.844
 6174.00    1.59466   1.67168   18.989
 6175.00    1.60591   1.68326   18.520
 6176.00    1.62934   1.69131   18.126
 6177.00    1.65446   1.69669   17.933
 6178.00    1.66940   1.70459   18.488
 6179.00    1.67341   1.71205   19.812
 6180.00    1.67648   1.71934   21.170
 6181.00    1.68650   1.72324   22.008
 6182.00    1.70415   1.72606   22.399
 6183.00    1.72024   1.73280   22.418
 6184.00    1.72248   1.73423   22.084
 6185.00    1.71109   1.73394   21.768
 6186.00    1.69755   1.73728   21.871
 6187.00    1.69510   1.73305   22.200
 6188.00    1.71017   1.73005   22.309
 6189.00    1.73193   1.73146   22.280
 6190.00    1.74265   1.72563   22.386
 6191.00    1.73503   1.72254   22.396
 6192.00    1.71184   1.72057   22.068
 6193.00    1.68203   1.71682   21.828
 6194.00    1.65526   1.71888   21.945
 6195.00    1.63654   1.71377   21.743
 6196.00    1.62785   1.71012   20.862
 6197.00    1.63015   1.71799   20.243
 6198.00    1.64233   1.71823   20.452
 6199.00    1.66036   1.71773   20.818
 6200.00    1.67818   1.72312   20.717
 6201.00    1.68929   1.72601   20.544
 6202.00    1.69193   1.73114   20.644
 6203.00    1.69094   1.73268   20.726
 6204.00    1.68956   1.73224   20.639
 6205.00    1.68611   1.73911   20.719
 6206.00    1.68155   1.74137   21.133
 6207.00    1.68161   1.73950   21.649
 6208.00    1.68922   1.74095   22.104
 6209.00    1.70124   1.73858   22.568
 6210.00    1.70909   1.73565   22.936
 6211.00    1.70296   1.73232   22.916
 6212.00    1.68419   1.72440   22.664
 6213.00    1.66396   1.72032   22.662
 6214.00    1.64807   1.71476   22.847
 6215.00    1.63494   1.70419   22.752
 6216.00    1.62174   1.69840   22.440
 6217.00    1.60836   1.69005   22.319
 6218.00    1.60195   1.68052   22.316
 6219.00    1.60910   1.67607   22.091
 6220.00    1.61986   1.66741   21.730
 6221.00    1.61789   1.66207   21.589
 6222.00    1.60186   1.66093   21.866
 6223.00    1.58440   1.65374   22.383
 6224.00    1.58445   1.65137   22.296
 6225.00    1.61031   1.65127   21.174
 6226.00    1.64166   1.64660   20.134
 6227.00    1.65565   1.64693   20.105
 6228.00    1.65630   1.64642   20.843
 6229.00    1.65820   1.64433   21.642
 6230.00    1.66745   1.64742   21.971
 6231.00    1.67971   1.64627   21.769
 6232.00    1.68197   1.64511   21.504
 6233.00    1.66813   1.64797   21.480
 6234.00    1.64819   1.64531   21.483
 6235.00    1.63270   1.64465   21.447
 6236.00    1.62299   1.64648   21.740
 6237.00    1.61613   1.64510   22.356
 6238.00    1.60876   1.64655   22.594
 6239.00    1.60049   1.64578   22.318
 6240.00    1.59445   1.64480   22.319
 6241.00    1.59288   1.64589   22.727
 6242.00    1.59560   1.64245   22.731
 6243.00    1.60140   1.64190   22.194
 6244.00    1.60867   1.64060   21.876
 6245.00    1.61539   1.63755   22.103
 6246.00    1.61922   1.63883   22.590
 6247.00    1.61758   1.63406   22.766
 6248.00    1.60862   1.63102   22.205
 6249.00    1.59319   1.63301   21.425
 6250.00    1.57584   1.62730   21.226
 6251.00    1.56526   1.62526   21.528
 6252.00    1.56860   1.62626   21.726
 6253.00    1.58091   1.62102   21.639
 6254.00    1.59268   1.61896   21.465
 6255.00    1.60477   1.61806   21.313
 6256.00    1.62158   1.61527   21.231
 6257.00    1.63808   1.61398   21.339
 6258.00    1.64573   1.61293   21.660
 6259.00    1.64215   1.61390   21.895
 6260.00    1.63165   1.61513   21.828
 6261.00    1.62378   1.61555   21.810
 6262.00    1.62483   1.61824   22.163
 6263.00    1.63080   1.62312   22.607
 6264.00    1.63552   1.62946   22.690
 6265.00    1.63791   1.63345   22.284
 6266.00    1.64058   1.63899   21.594
 6267.00    1.64749   1.64901   20.987
 6268.00    1.65854   1.65567   20.727
 6269.00    1.66756   1.66052   20.878
 6270.00    1.66998   1.66807   21.222
 6271.00    1.66664   1.67602   21.267
 6272.00    1.66022   1.68168   20.887
 6273.00    1.65333   1.68504   20.494
 6274.00    1.64863   1.69134   20.313
 6275.00    1.64838   1.69723   20.237
 6276.00    1.65277   1.69876   20.233
 6277.00    1.65918   1.70284   20.383
 6278.00    1.66201   1.70597   20.546
 6279.00    1.65633   1.70785   20.465
 6280.00    1.64782   1.71235    0.000
 6281.00    1.64917   1.71217    0.000
 6282.00    1.66441   1.71432    0.000
 6283.00    1.68767   1.71953    0.000
 6284.00    1.70937   1.71837    0.000
 6285.00    1.72113   1.72154    0.000
 6286.00    1.72246   1.72525    0.000
 6287.00    1.71845   1.72455    0.000
 6288.00    1.71390   1.72909    0.000
 6289.00    1.70967   1.72945    0.000
 6290.00    1.69934   1.72949    0.000
 6291.00    1.67710   1.73400    0.000
 6292.00    1.64782   1.73124    0.000
 6293.00    1.62367   1.73058    0.000
 6294.00    1.61805   1.73127    0.000
 6295.00    1.63544   1.72730    0.000
 6296.00    1.66372   1.72708    0.000
 6297.00    1.68732   1.72321    0.000
 6298.00    1.69904   1.71840    0.000
 6299.00    1.70021   1.71882    0.000
 6300.00    1.69860   1.71425    0.000
 6301.00    1.69701   1.71012    0.000
 6302.00    1.68872   1.70969    0.000
 6303.00    1.67304   1.70765    0.000
 6304.00    1.66121   1.70698    0.000
 6305.00    1.66155   1.70586    0.000
 6306.00    1.67285   1.70495    0.000
 6307.00    1.68857   1.70672    0.000
 6308.00    1.70126   1.70681    0.000
 6309.00    1.71153   1.70711    0.000
 6310.00    1.72677   1.70858    0.000
 6311.00    1.74672   1.70853    0.000
 6312.00    1.76243   1.70965    0.000
 6313.00    1.76685   1.70971    0.000
 6314.00    1.75899   1.70771    0.000
 6315.00    1.74623   1.70797    0.000
 6316.00    1.73778   1.70711    0.000
 6317.00    1.73029   1.70559    0.000
 6318.00    1.71404   1.70519    0.000
 6319.00    1.68997   1.70245    0.000
 6320.00    1.66770   1.70365    0.000
 6321.00    1.65674   1.70619   21.189
 6322.00    1.66106   1.70354   21.586
 6323.00    1.67391   1.70520   21.929
 6324.00    1.68366   1.71096   21.971
 6325.00    1.68236   1.71274   21.875
 6326.00    1.66939   1.71401   21.876
 6327.00    1.65359   1.71936   21.870
 6328.00    1.64464   1.72463   21.664
 6329.00    1.64479   1.72690   21.246
 6330.00    1.65088   1.73084   20.807
 6331.00    1.65737   1.73318   20.658
 6332.00    1.66231   1.73399   20.885
 6333.00    1.67017   1.73831   21.169
 6334.00    1.68235   1.73731   21.135
 6335.00    1.69266   1.73557   20.672
 6336.00    1.69661   1.73860   20.032
 6337.00    1.69625   1.73593   19.652
 6338.00    1.69686   1.73385   19.619
 6339.00    1.70336   1.73345   19.632
 6340.00    1.71279   1.72887   19.567
 6341.00    1.71512   1.72978   19.604
 6342.00    1.70771   1.72949   19.760
 6343.00    1.69800   1.72379   19.841
 6344.00    1.69425   1.72616   19.868
 6345.00    1.70007   1.72818   20.059
 6346.00    1.70827   1.72486   20.364
 6347.00    1.70652   1.72631   20.480
 6348.00    1.69485   1.72691   20.280
 6349.00    1.68261   1.72690   19.936
 6350.00    1.67305   1.72796   19.834
 6351.00    1.66363   1.72420   20.252
 6352.00    1.65285   1.72457   20.849
 6353.00    1.64231   1.72644   21.025
 6354.00    1.63744   1.72046   20.922
 6355.00    1.64182   1.71714   20.978
 6356.00    1.64942   1.71602   20.996
 6357.00    1.65288   1.71010   20.580
 6358.00    1.65449   1.70462   19.840
 6359.00    1.65977   1.69948   19.159
 6360.00    1.66910   1.69487   18.867
 6361.00    1.67821   1.69169   19.075
 6362.00    1.67999   1.68549   19.573
 6363.00    1.66852   1.68197   20.064
 6364.00    1.64290   1.68397   20.375
 6365.00    1.61165   1.68227   20.315
 6366.00    1.59328   1.68085   19.642
 6367.00    1.60068   1.68609   18.580
 6368.00    1.63160   1.69085   17.779
 6369.00    1.67196   1.69533   17.565
 6370.00    1.70182   1.70260   17.872
 6371.00    1.71334   1.70977   18.577
 6372.00    1.71554   1.71909   19.566
 6373.00    1.71790   1.72807   20.582
 6374.00    1.72356   1.73395   21.194
 6375.00    1.73138   1.74313   21.134
 6376.00    1.73828   1.75193   20.595
 6377.00    1.74392   1.75602   20.234
 6378.00    1.74986   1.76199   20.646
 6379.00    1.75324   1.76792   21.262
 6380.00    1.74888   1.77099   20.791
 6381.00    1.73843   1.77440   19.792
 6382.00    1.72939   1.77577   19.606
 6383.00    1.72807   1.77691   19.816
 6384.00    1.73661   1.77955   19.299
 6385.00    1.75062   1.77815   18.714
 6386.00    1.76155   1.77692   19.171
 6387.00    1.76143   1.77888   20.071
 6388.00    1.74725   1.77702   20.068
 6389.00    1.72581   1.77409   19.587
 6390.00    1.70907   1.77462   19.658
 6391.00    1.70704   1.77362   20.093
 6392.00    1.72026   1.77012   20.321
 6393.00    1.73405   1.76849   20.471
 6394.00    1.73492   1.76828   20.796
 6395.00    1.72564   1.76547   20.994
 6396.00    1.71637   1.76188   20.842
 6397.00    1.71537   1.76106   20.737
 6398.00    1.72383   1.76014   20.972
 6399.00    1.73378   1.75886   21.276
 6400.00    1.73651   1.75708   21.255
 6401.00    1.72842   1.75437   20.790
 6402.00    1.71312   1.75746   20.239
 6403.00    1.70038   1.75905   20.217
 6404.00    1.69625   1.75339   20.725
 6405.00    1.69946   1.75779   20.987
 6406.00    1.70658   1.76185   20.676
 6407.00    1.71531   1.75389   20.287
 6408.00    1.72801   1.75739   20.010
 6409.00    1.74938   1.76313   19.615
 6410.00    1.77570   1.75889   19.171
 6411.00    1.79543   1.76056   19.002
 6412.00    1.80090   1.76080   19.136
 6413.00    1.79145   1.75956   19.320
 6414.00    1.77309   1.76230   19.368
 6415.00    1.75415   1.75790   19.290
 6416.00    1.73692   1.75798   19.342
 6417.00    1.72042   1.76289   19.788
 6418.00    1.70869   1.75781   20.441
 6419.00    1.70711   1.75749   20.844
 6420.00    1.71428   1.76243   20.865
 6421.00    1.72411   1.76001   20.738
 6422.00    1.73092   1.76036   20.787
 6423.00    1.73335   1.76358   21.100
 6424.00    1.73765   1.76338   21.206
 6425.00    1.74917   1.76485   20.856
 6426.00    1.76364   1.76610   20.805
 6427.00    1.77449   1.76674   21.503
 6428.00    1.78027   1.76849   21.981
 6429.00    1.78055   1.76910   21.383
 6430.00    1.77247   1.77253   20.536
 6431.00    1.75461   1.77419   20.163
 6432.00    1.73009   1.77185   20.016
 6433.00    1.70709   1.77504   19.851
 6434.00    1.69723   1.77659   19.831
 6435.00    1.70545   1.77402   19.863
 6436.00    1.72639   1.77773   19.441
 6437.00    1.75417   1.77818   18.694
 6438.00    1.78622   1.77547   18.411
 6439.00    1.81867   1.77959   18.793
 6440.00    1.84467   1.78083   19.325
 6441.00    1.85572   1.78146   19.568
 6442.00    1.84478   1.78366   19.516
 6443.00    1.81394   1.78205   19.446
 6444.00    1.77503   1.78544   19.684
 6445.00    1.74413   1.78590   20.231
 6446.00    1.73474   1.78077   20.790
 6447.00    1.74554   1.78451   21.130
 6448.00    1.76385   1.78519   21.209
 6449.00    1.77902   1.78079   21.123
 6450.00    1.78608   1.78185   21.000
 6451.00    1.78695   1.77942   20.847
 6452.00    1.78652   1.77698   20.641
 6453.00    1.78616   1.77707   20.490
 6454.00    1.78398   1.77388   20.491
 6455.00    1.77692   1.77432   20.510
 6456.00    1.76456   1.77318   20.317
 6457.00    1.75305   1.76956   19.809
 6458.00    1.74923   1.77296   19.180
 6459.00    1.75391   1.77444   18.920
 6460.00    1.76209   1.77400   19.163
 6461.00    1.76477   1.77776   19.247
 6462.00    1.75762   1.77896   18.820
 6463.00    1.74718   1.77936   18.641
 6464.00    1.74354   1.78243   19.173
 6465.00    1.75371   1.78527   19.812
 6466.00    1.77468   1.78647   19.932
 6467.00    1.79201   1.78745   19.742
 6468.00    1.79434   1.79076   19.694
 6469.00    1.78121   1.79171   20.024
 6470.00    1.76109   1.79034   20.580
 6471.00    1.74728   1.79389   20.838
 6472.00    1.74607   1.79611   20.786
 6473.00    1.75413   1.79442   21.005
 6474.00    1.76705   1.79620   21.396
 6475.00    1.78174   1.79710   21.145
 6476.00    1.79354   1.79483   20.394
 6477.00    1.79811   1.79526   20.033
 6478.00    1.79859   1.79425   20.051
 6479.00    1.80297   1.79051   19.796
 6480.00    1.81290   1.79017   19.268
 6481.00    1.82300   1.78868   18.933
 6482.00    1.82554   1.78297   18.836
 6483.00    1.81539   1.77948   18.752
 6484.00    1.79692   1.77738   18.633
 6485.00    1.77978   1.77142   18.571
 6486.00    1.77003   1.76464   18.614
 6487.00    1.76883   1.75971   18.771
 6488.00    1.77269   1.75326   19.043
 6489.00    1.77599   1.74419   19.397
 6490.00    1.77414   1.73563   19.723
 6491.00    1.76729   1.72875   19.970
 6492.00    1.76269   1.71923   20.289
 6493.00    1.76518   1.70901   20.713
 6494.00    1.76869   1.70170   20.870
 6495.00    1.76437   1.69224   20.596
 6496.00    1.74815   1.68382   20.399
 6497.00    1.72335   1.67840   20.626
 6498.00    1.70010   1.67030   21.000
 6499.00    1.68231   1.66728   21.099
 6500.00    1.66254   1.66730   20.757
 6501.00    1.63973   1.66283   20.154
 6502.00    1.62601   1.66561   19.679
 6503.00    1.63184   1.67164   19.522
 6504.00    1.65809   1.67419   19.565
 6505.00    1.69452   1.68247   19.406
 6506.00    1.72381   1.69096   18.650
 6507.00    1.73771   1.69858   17.770
 6508.00    1.74016   1.70946   17.607
 6509.00    1.73875   1.71753   18.038
 6510.00    1.74062   1.72618   18.213
 6511.00    1.74931   1.73549   18.214
 6512.00    1.76429   1.74152   18.856
 6513.00    1.78194   1.74872   19.836
 6514.00    1.79660   1.75484   19.928
 6515.00    1.80236   1.75852   19.356
 6516.00    1.79506   1.76242   19.278
 6517.00    1.77534   1.76556   19.844
 6518.00    1.74924   1.76878   20.500
 6519.00    1.72792   1.76980   20.794
 6520.00    1.72029   1.77027   20.670
 6521.00    1.72341   1.77397   20.559
 6522.00    1.72917   1.77393   20.763
 6523.00    1.73380   1.77302   20.809
 6524.00    1.73705   1.77691   20.253
 6525.00    1.74007   1.77666   19.546
 6526.00    1.74594   1.77562   19.113
 6527.00    1.75933   1.77911   18.730
 6528.00    1.77719   1.77939    0.000
 6529.00    1.78384   1.77950    0.000
 6530.00    1.77103   1.78138    0.000
 6531.00    1.75004   1.78131    0.000
 6532.00    1.73479   1.78315    0.000
 6533.00    1.73080   1.78383    0.000
 6534.00    1.73578   1.78277    0.000
 6535.00    1.74164   1.78504    0.000
 6536.00    1.74083   1.78524    0.000
 6537.00    1.73050   1.78410    0.000
 6538.00    1.71723   1.78549    0.000
 6539.00    1.71446   1.78441    0.000
 6540.00    1.72715   1.78332    0.000
 6541.00    1.74882   1.78327    0.000
 6542.00    1.77036   1.78060    0.000
 6543.00    1.78510   1.77887    0.000
 6544.00    1.79431   1.77616    0.000
 6545.00    1.80347   1.77154    0.000
 6546.00    1.81013   1.76906    0.000
 6547.00    1.80749   1.76365    0.000
 6548.00    1.79783   1.75670    0.000
 6549.00    1.78953   1.75234    0.000
 6550.00    1.78649   1.74481    0.000
 6551.00    1.78681   1.73719    0.000
 6552.00    1.78395   1.73029    0.000
 6553.00    1.77184   1.71984    0.000
 6554.00    1.75129   1.71242    0.000
 6555.00    1.72674   1.70301    0.000
 6556.00    1.70140   1.68950    0.000
 6557.00    1.68019   1.68258    0.000
 6558.00    1.67235   1.67221    0.000
 6559.00    1.68115   1.65840    0.000
 6560.00    1.69552   1.65211    0.000
 6561.00    1.70210   1.64095    0.000
 6562.00    1.69576   1.62871    0.000
 6563.00    1.67890   1.62442    0.000
 6564.00    1.65937   1.61552    0.000
 6565.00    1.64342   1.60907    0.000
 6566.00    1.63230   1.60814    0.000
 6567.00    1.62768   1.60245    0.000
 6568.00    1.63362   1.60442    0.000
 6569.00    1.65098   1.60878    0.000
 6570.00    1.67506   1.60549    0.000
 6571.00    1.69729   1.61443    0.000
 6572.00    1.70793   1.62431    0.000
 6573.00    1.70277   1.62225    0.000
 6574.00    1.68682   1.63356    0.000
 6575.00    1.67744   1.64906    0.000
 6576.00    1.69481   1.65095    0.000
 6577.00    1.73434   1.65971    0.000
 6578.00    1.77161   1.67350    0.000
 6579.00    1.79218   1.67650    0.000
 6580.00    1.79641   1.68336    0.000
 6581.00    1.79394   1.69495    0.000
 6582.00    1.79794   1.69788    0.000
 6583.00    1.81689   1.70317    0.000
 6584.00    1.85177   1.71142    0.000
 6585.00    1.89410   1.71259    0.000
 6586.00    1.92884   1.71656    0.000
 6587.00    1.93951   1.72201    0.000
 6588.00    1.91745   1.72161    0.000
 6589.00    1.87156   1.72357    0.000
 6590.00    1.82006   1.72556    0.000
 6591.00    1.78003   1.72332    0.000
 6592.00    1.76226   1.72380    0.000
 6593.00    1.76737   1.72395    0.000
 6594.00    1.78587   1.72131    0.000
 6595.00    1.80054   1.72106    0.000
 6596.00    1.80190   1.72005    0.000
 6597.00    1.79659   1.71726    0.000
 6598.00    1.79048   1.71759    0.000
 6599.00    1.77988   1.71750    0.000
 6600.00    1.76352   1.71492    0.000
 6601.00    1.74774   1.71585    0.000
 6602.00    1.73904   1.71720    0.000
 6603.00    1.74042   1.71474    0.000
 6604.00    1.75224   1.71595    0.000
 6605.00    1.77148   1.71901    0.000
 6606.00    1.78834   1.71784    0.000
 6607.00    1.79062   1.71868    0.000
 6608.00    1.78094   1.72135    0.000
 6609.00    1.77391   1.72100   19.458
 6610.00    1.77419   1.72202   19.538
 6611.00    1.77514   1.72475   19.494
 6612.00    1.77020   1.72537   19.358
 6613.00    1.75781   1.72644   19.265
 6614.00    1.74513   1.72912   19.247
 6615.00    1.74173   1.73063   19.246
 6616.00    1.74724   1.73214   19.204
 6617.00    1.75574   1.73446   19.063
 6618.00    1.76601   1.73606   18.743
 6619.00    1.77792   1.73775   18.286
 6620.00    1.78575   1.73878   17.990
 6621.00    1.78274   1.73931   18.038
 6622.00    1.76771   1.74087   18.137
 6623.00    1.74524   1.73969   17.861
 6624.00    1.72449   1.73763   17.128
 6625.00    1.71248   1.73810   16.275
 6626.00    1.70840   1.73513   15.851
 6627.00    1.70645   1.73133   15.996
 6628.00    1.69965   1.72999   16.198
 6629.00    1.68760   1.72549   16.092
 6630.00    1.68039   1.72174   16.009
 6631.00    1.68879   1.71955   16.231
 6632.00    1.71686   1.71422   16.585
 6633.00    1.75565   1.71135   16.786
 6634.00    1.78426   1.70944   16.714
 6635.00    1.78973   1.70463   16.618
 6636.00    1.77527   1.70317   16.989
 6637.00    1.75476   1.70242   17.812
 6638.00    1.74594   1.69901   18.362
 6639.00    1.75565   1.69887   18.192
 6640.00    1.77694   1.69936   17.638
 6641.00    1.79697   1.69743   17.232
 6642.00    1.80330   1.69823   17.317
 6643.00    1.79322   1.69950   17.765
 6644.00    1.77202   1.69821   18.110
 6645.00    1.74304   1.69971   18.173
 6646.00    1.70932   1.70166   18.099
 6647.00    1.68142   1.70022   17.938
 6648.00    1.67038   1.70171   17.724
 6649.00    1.67267   1.70389   17.752
 6650.00    1.67838   1.70206   18.224
 6651.00    1.68772   1.70294   18.612
 6652.00    1.70240   1.70460   18.377
 6653.00    1.71138   1.70219   18.242
 6654.00    1.70378   1.70217   18.895
 6655.00    1.68571   1.70292   19.429
 6656.00    1.66989   1.70036   18.712
 6657.00    1.66246   1.69931   17.493
 6658.00    1.66173   1.69823   16.603
 6659.00    1.65943   1.69575   15.821
 6660.00    1.65273   1.69459   14.984
 6661.00    1.65182   1.69170   14.438
 6662.00    1.66497   1.68888   14.371
 6663.00    1.68855   1.68832   14.591
 6664.00    1.71363   1.68484   14.870
 6665.00    1.73202   1.68208   15.111
 6666.00    1.74417   1.68261   15.187
 6667.00    1.75976   1.67947   14.927
 6668.00    1.78129   1.67733   14.483
 6669.00    1.79990   1.67937   14.277
 6670.00    1.81060   1.67714   14.471
 6671.00    1.81655   1.67555   14.898
 6672.00    1.82124   1.67879   15.317
 6673.00    1.82457   1.67742   15.546
 6674.00    1.81962   1.67600   15.682
 6675.00    1.79792   1.67949   15.994
 6676.00    1.76526   1.67851   16.393
 6677.00    1.73821   1.67707   16.504
 6678.00    1.72574   1.68008   16.349
 6679.00    1.72481   1.67922   16.339
 6680.00    1.72122   1.67813   16.858
 6681.00    1.70357   1.68047   17.830
 6682.00    1.68657   1.67936   17.732
 6683.00    1.69134   1.67909   15.592
 6684.00    1.70954   1.68160   13.558
 6685.00    1.72069   1.68029   12.842
 6686.00    1.72281   1.68054   12.699
 6687.00    1.72488   1.68353   12.437
 6688.00    1.73301   1.68227   12.792
 6689.00    1.75082   1.68256   14.540
 6690.00    1.78070   1.68558   16.431
 6691.00    1.81585   1.68410   16.286
 6692.00    1.83593   1.68357   15.663
 6693.00    1.83270   1.68615   16.160
 6694.00    1.82629   1.68456   16.696
 6695.00    1.83101   1.68291   16.103
 6696.00    1.83495   1.68432    0.000
 6697.00    1.82952   1.68234    0.000
 6698.00    1.82388   1.68033    0.000
 6699.00    1.81950   1.68086    0.000
 6700.00    1.80295   1.67823    0.000
 6701.00    1.77825   1.67660    0.000
 6702.00    1.77081   1.67685    0.000
 6703.00    1.78074   1.67367    0.000
 6704.00    1.77890   1.67271    0.000
 6705.00    1.76081   1.67274    0.000
 6706.00    1.75087   1.66912    0.000
 6707.00    1.75527   1.66859    0.000
 6708.00    1.75872   1.66796    0.000
 6709.00    1.75538   1.66388    0.000
 6710.00    1.75008   1.66322    0.000
 6711.00    1.74116   1.66156    0.000
 6712.00    1.72485   1.65724    0.000
 6713.00    1.71195   1.65614    0.000
 6714.00    1.71407   1.65358    0.000
 6715.00    1.71490   1.64953    0.000
 6716.00    1.69572   1.64831    0.000
 6717.00    1.68066   1.64572    0.000
 6718.00    1.69993   1.64261    0.000
 6719.00    1.73332   1.64189    0.000
 6720.00    1.74736   1.64052    0.000
 6721.00    1.74637   1.63905    0.000
 6722.00    1.74503   1.63947    0.000
 6723.00    1.73603   1.64014    0.000
 6724.00    1.71248   1.64041    0.000
 6725.00    1.68876   1.64185    0.000
 6726.00    1.67772   1.64424    0.000
 6727.00    1.67315   1.64569    0.000
 6728.00    1.66524   1.64770    0.000
 6729.00    1.65244   1.65086    0.000
 6730.00    1.64145   1.65240    0.000
 6731.00    1.64402   1.65422    0.000
 6732.00    1.66221   1.65692    0.000
 6733.00    1.68393   1.65760    0.000
 6734.00    1.69904   1.65867    0.000
 6735.00    1.70570   1.66017    0.000
 6736.00    1.70482   1.65954    0.000
 6737.00    1.69718   1.65958    0.000
 6738.00    1.68220   1.65958    0.000
 6739.00    1.65910   1.65764    0.000
 6740.00    1.63136   1.65678    0.000
 6741.00    1.60668   1.65579    0.000
 6742.00    1.59281   1.65305    0.000
 6743.00    1.59344   1.65153    0.000
 6744.00    1.60182   1.65027    0.000
 6745.00    1.60752   1.64754    0.000
 6746.00    1.61280   1.64590    0.000
 6747.00    1.62775   1.64510    0.000
 6748.00    1.65550   1.64298    0.000
 6749.00    1.68615   1.64187    0.000
 6750.00    1.69353   1.64228    0.000
 6751.00    1.66378   1.64110    0.000
 6752.00    1.63157   1.64108    0.000
 6753.00    1.63775   1.64325   17.893
 6754.00    1.67548   1.64301   17.317
 6755.00    1.71284   1.64429   16.750
 6756.00    1.72404   1.64819   16.653
 6757.00    1.70330   1.64857   17.018
 6758.00    1.67169   1.65087   17.041
 6759.00    1.65270   1.65577   16.290
 6760.00    1.65227   1.65616   15.535
 6761.00    1.66157   1.65877   15.343
 6762.00    1.66346   1.66357   15.577
 6763.00    1.65516   1.66331   15.847
 6764.00    1.65596   1.66539   15.753
 6765.00    1.67523   1.66925   15.334
 6766.00    1.69896   1.66818   15.099
 6767.00    1.70831   1.66931   15.325
 6768.00    1.69249   1.67200   15.895
 6769.00    1.66300   1.67058   16.396
 6770.00    1.64829   1.67103   16.309
 6771.00    1.65604   1.67297   15.797
 6772.00    1.66928   1.67187   15.542
 6773.00    1.67603   1.67208   15.738
 6774.00    1.67453   1.67378   16.128
 6775.00    1.66256   1.67335   16.564
 6776.00    1.63988   1.67340   17.017
 6777.00    1.62042   1.67490   17.202
 6778.00    1.62187   1.67483   16.853
 6779.00    1.63959   1.67425   16.470
 6780.00    1.65476   1.67512   16.606
 6781.00    1.65821   1.67477   16.733
 6782.00    1.64932   1.67302   16.133
 6783.00    1.62827   1.67286   15.558
 6784.00    1.59961   1.67198   15.863
 6785.00    1.57788   1.66905   16.564
 6786.00    1.57435   1.66801   16.680
 6787.00    1.58138   1.66696   16.285
 6788.00    1.58273   1.66353   16.023
 6789.00    1.56729   1.66228   16.233
 6790.00    1.54122   1.66176   16.875
 6791.00    1.53360   1.65872   17.438
 6792.00    1.56115   1.65798   17.436
 6793.00    1.60404   1.65850   17.043
 6794.00    1.63768   1.65634   16.780
 6795.00    1.65508   1.65646   17.102
 6796.00    1.66017   1.65798   17.777
 6797.00    1.66070   1.65671   17.632
 6798.00    1.65761   1.65765   16.639
 6799.00    1.64322   1.65964   16.235
 6800.00    1.61899   1.65895   16.576
 6801.00    1.59952   1.66051   16.365
 6802.00    1.59543   1.66231   15.482
 6803.00    1.60841   1.66186   15.145
 6804.00    1.63877   1.66379   15.359
 6805.00    1.68264   1.66484   15.087
 6806.00    1.71551   1.66445   14.454
 6807.00    1.70531   1.66656   14.491
 6808.00    1.65917   1.66662   15.266
 6809.00    1.61520   1.66633   15.987
 6810.00    1.59475   1.66845   16.230
 6811.00    1.59813   1.66768   16.236
 6812.00    1.61925   1.66770   16.246
 6813.00    1.64892   1.66977   16.424
 6814.00    1.67536   1.66866   17.070
 6815.00    1.68662   1.66924   17.847
 6816.00    1.67418   1.67125   16.417
 6817.00    1.63637   1.67035   12.788
 6818.00    1.58194   1.67158   10.158
 6819.00    1.52828   1.67351    8.927
 6820.00    1.49734   1.67315    7.943
 6821.00    1.49953   1.67484    7.036
 6822.00    1.51997   1.67658    7.271
 6823.00    1.54303   1.67669    9.835
 6824.00    1.57300   1.67840   14.872
 6825.00    1.61147   1.67976   16.427
 6826.00    1.64120   1.67995   14.830
 6827.00    1.64977   1.68119   14.714
 6828.00    1.64504   1.68194   15.353
 6829.00    1.64414   1.68168   15.412
 6830.00    1.66216   1.68209   15.238
 6831.00    1.69207   1.68207   15.292
 6832.00    1.70307   1.68096   15.322
 6833.00    1.68070   1.68041   15.141
 6834.00    1.63983   1.67953   14.846
 6835.00    1.60116   1.67742   14.192
 6836.00    1.58286   1.67601   12.818
 6837.00    1.60610   1.67443   11.197
 6838.00    1.67938   1.67153   10.038
 6839.00    1.74764   1.66963    9.644
 6840.00    1.74319   1.66779    9.968
 6841.00    1.75355   1.66472    9.889
 6842.00    1.87773   1.66287    8.614
 6843.00    1.81292   1.66145    8.529
 6844.00    1.22715   1.65891   -1.000
 6845.00    0.66008   1.65755   -1.000
 6846.00    0.89075   1.65710   -1.000
 6847.00    1.55727   1.65549    6.459
 6848.00    1.81443   1.65457    5.462
 6849.00    1.67960   1.65517    5.948
 6850.00    1.60707   1.65421    6.244
 6851.00    1.65809   1.65319    6.032
 6852.00    1.68558   1.65436    5.926
 6853.00    1.67265   1.65343    5.979
 6854.00    1.66608   1.65159    6.005
 6855.00    1.67101   1.65278    5.984
 6856.00    1.67421   1.65143    5.972
 6857.00    1.67363   1.64852    5.975
 6858.00    1.67297   1.64946    5.978
 6859.00    1.67518   1.64789    5.969
 6860.00    1.67977   1.64432    5.953
 6861.00    1.68229   1.64504    5.944
 6862.00    1.68067   1.64389    5.950
 6863.00    1.67812   1.64042    5.959
 6864.00    1.67766   1.64103    5.961
 6865.00    1.68005   1.64086    5.952
 6866.00    1.68760   1.63814    5.926
 6867.00    1.70223   1.63865    5.875
 6868.00    1.71060   1.63955    5.846
 6869.00    1.69095   1.63792    5.914
 6870.00    1.65633   1.63830    6.037
 6871.00    1.64829   1.64000    6.067
 6872.00    1.67274   1.63945    5.978
 6873.00    1.69937   1.63987    5.885
 6874.00    1.71229   1.64198    5.840
 6875.00    1.71577   1.64234    5.828
 6876.00    1.71576   1.64307    5.828
 6877.00    1.71477   1.64545    5.832
 6878.00    1.71079   1.64647    5.845
 6879.00    1.70279   1.64771    5.873
 6880.00    1.69996   1.65046    5.882
 6881.00    1.71135   1.65195    5.843
 6882.00    1.72849   1.65365    5.785
 6883.00    1.73609   1.65702    5.760
 6884.00    1.72960   1.65896    5.782
 6885.00    1.71006   1.66087    5.848
 6886.00    1.67656   1.66500    5.965
 6887.00    1.63857   1.66752    6.103
 6888.00    1.62610   1.66929    6.150
 6889.00    1.65826   1.67399    6.030
 6890.00    1.71655   1.67712    5.826
 6891.00    1.76645   1.67849    5.661
 6892.00    1.77986   1.68319    5.618
 6893.00    1.76039   1.68670    5.681
 6894.00    1.75014   1.68759    5.714
 6895.00    1.77064   1.69161    5.648
 6896.00    1.79502   1.69505    5.571
 6897.00    1.79255   1.69558    5.579
 6898.00    1.75519   1.69848    5.697
 6899.00    1.70603   1.70142    5.862
 6900.00    1.68829   1.70186    5.923
 6901.00    1.70954   1.70360    5.850
 6902.00    1.73399   1.70584    5.767
 6903.00    1.73359   1.70636    5.768
 6904.00    1.70582   1.70714    5.862
 6905.00    1.67100   1.70871    5.984
 6906.00    1.65855   1.70924    6.029
 6907.00    1.67463   1.70917    5.971
 6908.00    1.70345   1.71020    5.870
 6909.00    1.73014   1.71047    5.780
 6910.00    1.74455   1.70951    5.732
 6911.00    1.73836   1.71018    5.753
 6912.00    1.71090   1.70994    5.845
 6913.00    1.67952   1.70805    5.954
 6914.00    1.66445   1.70850    6.008
 6915.00    1.66400   1.70777    6.010
 6916.00    1.66615   1.70511    6.002
 6917.00    1.66873   1.70545    5.993
 6918.00    1.67754   1.70448    5.961
 6919.00    1.69966   1.70143    5.884
 6920.00    1.72588   1.70164    5.794
 6921.00    1.71930   1.70072    5.816
 6922.00    1.67038   1.69773    5.987
 6923.00    1.63672   1.69771    6.110
 6924.00    1.65597   1.69702    6.039
 6925.00    1.68657   1.69445    5.929
 6926.00    1.69232   1.69413    5.909
 6927.00    1.69341   1.69381    5.905
 6928.00    1.70405   1.69190    5.868
 6929.00    1.70244   1.69135    5.874
 6930.00    1.68085   1.69157    5.949
 6931.00    1.66403   1.69049    6.010
 6932.00    1.66824   1.68985    5.994
 6933.00    1.68716   1.69073    5.927
 6934.00    1.71302   1.69047    5.838
 6935.00    1.74195   1.68979    5.741
 6936.00    1.76214   1.69128    5.675
 6937.00    1.75870   1.69163    5.686
 6938.00    1.74000   1.69072    5.747
 6939.00    1.73026   1.69254    5.779
 6940.00    1.73010   1.69311    5.780
 6941.00    1.72600   1.69170    5.794
 6942.00    1.73421   1.69351    5.766
 6943.00    1.77582   1.69397    5.631
 6944.00    1.80999   1.69184    5.525
 6945.00    1.78099   1.69351    5.615
 6946.00    1.71910   1.69380    5.817
 6947.00    1.68807   1.69105    5.924
 6948.00    1.68214   1.69272    5.945
 6949.00    1.66706   1.69310    5.999
 6950.00    1.65265   1.69013    6.051
 6951.00    1.66064   1.69210    6.022
 6952.00    1.67862   1.69300   -2.000
 6953.00    1.68312   1.69040   -2.000
 6954.00    1.66818   1.69290   -2.000
 6955.00    1.64326   1.69467   -2.000
 6956.00    1.62675   1.69296   -2.000
 6957.00    1.62784   1.69606   -2.000
 6958.00    1.63577   1.69863   -2.000
 6959.00    1.64177   1.69805   -2.000
 6960.00    1.65144   1.70161   -2.000
 6961.00    1.66564   1.70451   -2.000
 6962.00    1.67289   1.70484   -2.000
 6963.00    1.67197   1.70854   -2.000
 6964.00    1.67745   1.71102   -2.000
 6965.00    1.68969   1.71159   -2.000
 6966.00    1.68968   1.71496   -2.000
 6967.00    1.67315   1.71625   -2.000
 6968.00    1.65790   1.71616   -2.000
 6969.00    1.66122   1.71876   -2.000
 6970.00    1.68697   1.71838   -2.000
 6971.00    1.71268   1.71686   -2.000
 6972.00    1.70590   1.71847   -2.000
 6973.00    1.67531   1.71657   -2.000
 6974.00    1.65916   1.71336   -2.000
 6975.00    1.66875   1.71415   -2.000
 6976.00    1.68813   1.71164   -2.000
 6977.00    1.69976   1.70728   -2.000
 6978.00    1.69457   1.70782   -2.000
 6979.00    1.67983   1.70611   -2.000
 6980.00    1.67219   1.70181   -2.000
 6981.00    1.68435   1.70279   -2.000
 6982.00    1.71282   1.70310   -2.000
 6983.00    1.72699   1.70018   -2.000
 6984.00    1.70254   1.70197   -2.000
 6985.00    1.65929   1.70451   -2.000
 6986.00    1.63270   1.70361   -2.000
 6987.00    1.64004   1.70601   -2.000
 6988.00    1.67401   1.70986   -2.000
 6989.00    1.70409   1.71058   -2.000
 6990.00    1.71132   1.71294   -2.000
 6991.00    1.70997   1.71663   -2.000
 6992.00    1.70914   1.71785   -2.000
 6993.00    1.69211   1.71941   -2.000
 6994.00    1.65630   1.72180   -2.000
 6995.00    1.63058   1.72243   -2.000
 6996.00    1.63615   1.72274   -2.000
 6997.00    1.66812   1.72350   -2.000
 6998.00    1.70759   1.72307   -2.000
 6999.00    1.73221   1.72207   -2.000
 7000.00    1.73359   1.72150   -2.000
 7001.00    1.71998   1.72024   -2.000
 7002.00    1.70210   1.71832   -2.000
 7003.00    1.68672   1.71694   -2.000
 7004.00    1.67285   1.71545   -2.000
 7005.00    1.65588   1.71323   -2.000
 7006.00    1.64052   1.71149   -2.000
 7007.00    1.63543   1.71026   -2.000
 7008.00    1.63433   1.70835   -2.000
 7009.00    1.62904   1.70643   -2.000
 7010.00    1.64212   1.70565   -2.000
 7011.00    1.69452   1.70445   -2.000
 7012.00    1.74235   1.70241   -2.000
 7013.00    1.73089   1.70201   -2.000
 7014.00    1.68814   1.70168   -2.000
 7015.00    1.66815   1.69957   -2.000
 7016.00    1.66174   1.69940   -2.000
 7017.00    1.63803   1.70002   -2.000
 7018.00    1.60371   1.69806   -2.000
 7019.00    1.58091   1.69807   -2.000
 7020.00    1.57828   1.69970   -2.000
 7021.00    1.59041   1.69826   -2.000
 7022.00    1.60214   1.69847   -2.000
 7023.00    1.60793   1.70103   -2.000
 7024.00    1.62348   1.70050   -2.000
 7025.00    1.66268   1.70098   -2.000
 7026.00    1.72088   1.70421   -2.000
 7027.00    1.77275   1.70477   -2.000
 7028.00    1.78109   1.70565   -2.000
 7029.00    1.74544   1.70934   -2.000
 7030.00    1.71104   1.71083   -2.000
 7031.00    1.69670   1.71205   -2.000
 7032.00    1.67676   1.71622   -2.000
 7033.00    1.64085   1.71848   -2.000
 7034.00    1.60739   1.71976   -2.000
 7035.00    1.58712   1.72452   -2.000
 7036.00    1.57678   1.72761   -2.000
 7037.00    1.57887   1.72854   -2.000
 7038.00    1.60228   1.73373   -2.000
 7039.00    1.64857   1.73784   -2.000
 7040.00    1.70865   1.73810   -2.000
 7041.00    1.76398   1.74302   -2.000
 7042.00    1.79350   1.74797   -2.000
 7043.00    1.78671   1.74739   -2.000
 7044.00    1.74939   1.75085   -2.000
 7045.00    1.70776   1.75558   -2.000
 7046.00    1.68668   1.75388   -2.000
 7047.00    1.67778   1.75464   -2.000
 7048.00    1.66148   1.75738   -2.000
 7049.00    1.64095   1.75399   -2.000
 7050.00    1.62824   1.75133   -2.000
 7051.00    1.62405   1.75052   -2.000
 7052.00    1.62586   1.74475   -2.000
 7053.00    1.63722   1.73886   -2.000
 7054.00    1.65713   1.73414   -2.000
 7055.00    1.67166   1.72580   -2.000
 7056.00    1.66789   1.71773   -2.000
 7057.00    1.64588   1.71035   -2.000
 7058.00    1.62159   1.70022   -2.000
 7059.00    1.62182   1.69136   -2.000
 7060.00    1.64544   1.68355   -2.000
 7061.00    1.65425   1.67325   -2.000
 7062.00    1.64336   1.66491   -2.000
 7063.00    1.65882   1.65882   -2.000
 7064.00    1.71118   1.65019   -2.000
 7065.00    1.75290   1.64329   -2.000
 7066.00    1.74579   1.64015   -2.000
 7067.00    1.69142   1.63449   -2.000
 7068.00    1.63932   1.62943   -2.000
 7069.00    1.65422   1.62935   -2.000
 7070.00    1.71588   1.62707   -2.000
 7071.00    1.73871   1.62375   -2.000
 7072.00    1.69782   1.62589   -2.000
 7073.00    1.63172   1.62638   -2.000
 7074.00    1.57331   1.62421   -2.000
 7075.00    1.53947   1.62710   -2.000
 7076.00    1.54193   1.62898   -2.000
 7077.00    1.58484   1.62694   -2.000
 7078.00    1.65659   1.62887   -2.000
 7079.00    1.72650   1.63041   -2.000
 7080.00    1.74469   1.62734   -2.000
 7081.00    1.68779   1.62692   -2.000
 7082.00    1.61250   1.62672   -2.000
 7083.00    1.57939   1.62178   -2.000
 7084.00    1.56459   1.61848   -2.000
 7085.00    1.53363   1.61614   -2.000
 7086.00    1.51722   1.60930   -2.000
 7087.00    1.53657   1.60364   -2.000
 7088.00    1.54276   1.59992   -2.000
 7089.00    1.50858   1.59206   -2.000
 7090.00    1.48810   1.58539   -2.000
 7091.00    1.51224   1.58175   -2.000
 7092.00    1.53207   1.57430   -2.000
 7093.00    1.51985   1.56816   -2.000
 7094.00    1.51479   1.56594   -2.000
 7095.00    1.53926   1.56016   -2.000
 7096.00    1.56682   1.55565   -2.000
 7097.00    1.57921   1.55538   -2.000
 7098.00    1.58363   1.55185   -2.000
 7099.00    1.57669   1.54923   -2.000
 7100.00    1.54177   1.55051   -2.000
 7101.00    1.48921   1.54903   -2.000
 7102.00    1.45500   1.54788   -2.000
 7103.00    1.45684   1.54973   -2.000
 7104.00    1.48308   1.54964   -2.000
 7105.00    1.50006   1.54925   -2.000
 7106.00    1.47861   1.55069   -2.000
 7107.00    1.44634   1.55122   -2.000
 7108.00    1.45480   1.55111   -2.000
 7109.00    1.49493   1.55162   -2.000
 7110.00    1.52589   1.55217   -2.000
 7111.00    1.55023   1.55214   -2.000
 7112.00    1.58296   1.55177   -2.000
 7113.00    1.58999   1.55199   -2.000
 7114.00    1.54075   1.55194   -2.000
 7115.00    1.48254   1.55105   -2.000
 7116.00    1.46728   1.55077   -2.000
 7117.00    1.46522   1.55051   -2.000
 7118.00    1.45258   1.54928   -2.000
 7119.00    1.49386   1.54838   -2.000
 7120.00    1.60593   1.54767   -2.000
 7121.00    1.65836   1.54599   -2.000
 7122.00    1.58457   1.54429   -2.000
 7123.00    1.51522   1.54303   -2.000
 7124.00    1.53501   1.54083   -2.000
 7125.00    1.55028   1.53821   -2.000
 7126.00    1.51595   1.53657   -2.000
 7127.00    1.53023   1.53424   -2.000
 7128.00    1.60904   1.53089   -2.000
 7129.00    1.62199   1.52912   -2.000
 7130.00    1.53682   1.52757   -2.000
 7131.00    1.47372   1.52429   -2.000
 7132.00    1.48321   1.52255   -2.000
 7133.00    1.49838   1.52266   -2.000
 7134.00    1.47365   1.52044   -2.000
 7135.00    1.42267   1.51872   -2.000
 7136.00    1.38498   1.52081   -2.000
 7137.00    1.39649   1.52044   -2.000
 7138.00    1.44301   1.51844   -2.000
 7139.00    1.47560   1.52206   -2.000
 7140.00    1.47094   1.52371   -2.000
 7141.00    1.43436   1.52108   -2.000
 7142.00    1.37882   1.52524   -2.000
 7143.00    1.32249   1.52857   -2.000
 7144.00    1.29116   1.52509   -2.000
 7145.00    1.30711   1.52879   -2.000
 7146.00    1.37202   1.53337   -2.000
 7147.00    1.46497   1.52937   -2.000
 7148.00    1.54572   1.53201   -2.000
 7149.00    1.58735   1.53744   -2.000
 7150.00    1.60796   1.53350   -2.000
 7151.00    1.61639   1.53509   -2.000
 7152.00    1.56456   1.54121   -2.000
 7153.00    1.43986   1.53792   -2.000
 7154.00    1.33454   1.53834   -2.000
 7155.00    1.32496   1.54486   -2.000
 7156.00    1.38481   1.54299   -2.000
 7157.00    1.45534   1.54224   -2.000
 7158.00    1.49784   1.54828   -2.000
 7159.00    1.49867   1.54812   -2.000
 7160.00    1.46892   1.54646   -2.000
 7161.00    1.43498   1.55122   -2.000
 7162.00    1.42737   1.55264   -2.000
 7163.00    1.45379   1.55044   -2.000
 7164.00    1.49369   1.55368   -2.000
 7165.00    1.52367   1.55650   -2.000
 7166.00    1.53069   1.55448   -2.000
 7167.00    1.52099   1.55647   -2.000
 7168.00    1.51646   1.56018   -2.000
 7169.00    1.53520   1.55879   -2.000
 7170.00    1.57864   1.56010   -2.000
 7171.00    1.61516   1.56409   -2.000
 7172.00    1.60441   1.56351   -2.000
 7173.00    1.55818   1.56462   -2.000
 7174.00    1.51864   1.56812   -2.000
 7175.00    1.49105   1.56761   -2.000
 7176.00    1.46094   1.56834   -2.000
 7177.00    1.44375   1.57120   -2.000
 7178.00    1.46194   1.57023   -2.000
 7179.00    1.50034   1.56963   -2.000
 7180.00    1.52871   1.57130   -2.000
 7181.00    1.53852   1.57011   -2.000
 7182.00    1.53411   1.56849   -2.000
 7183.00    1.51799   1.56861   -2.000
 7184.00    1.49643   1.56696   -2.000
 7185.00    1.48468   1.56471   -2.000
 7186.00    1.48936   1.56345   -2.000
 7187.00    1.49505   1.56207   -2.000
 7188.00    1.48296   1.56039   -2.000
 7189.00    1.44839   1.55791   -2.000
 7190.00    1.41641   1.55690   -2.000
 7191.00    1.43754   1.55685   -2.000
 7192.00    1.50716   1.55385   -2.000
 7193.00    1.54398   1.55325   -2.000
 7194.00    1.52036   1.55530   -2.000
 7195.00    1.49993   1.55251   -2.000
 7196.00    1.50590   1.55185   -2.000
 7197.00    1.49050   1.55562   -2.000
 7198.00    1.44724   1.55399   -2.000
 7199.00    1.42714   1.55297   -2.000
 7200.00    1.44461   1.55714   -2.000
 7201.00    1.46819   1.55695   -2.000
 7202.00    1.48733   1.55551   -2.000
 7203.00    1.51314   1.55925   -2.000
 7204.00    1.53030   1.56052   -2.000
 7205.00    1.51522   1.55854   -2.000
 7206.00    1.50138   1.56108   -2.000
 7207.00    1.53808   1.56379   -2.000
 7208.00    1.58641   1.56175   -2.000
 7209.00    1.57175   1.56251   -2.000
 7210.00    1.50290   1.56649   -2.000
 7211.00    1.43397   1.56580   -2.000
 7212.00    1.38125   1.56493   -2.000
 7213.00    1.35602   1.56961   -2.000
 7214.00    1.41430   1.57104   -2.000
 7215.00    1.55437   1.56930   -2.000
 7216.00    1.61440   1.57450   -2.000
 7217.00    1.49230   1.57820   -2.000
 7218.00    1.34568   1.57607   -2.000
