###################################################################
## OUTPUT of StarlightChains_v04.for    [Cid@UFSC - 01/Apr/2007] ##
###################################################################

## Some input info
PS15dov.txt                              [arq_obs]
Base.CB07.vall.4m                        [arq_base]
Masks.EmLines.NEW.gm                     [arq_masks]
StCv04.C11.config                        [arq_config]
   66                                    [N_base]
    0                                    [N_YAV_components = # of components with extra extinction!]
    0                                    [i_FitPowerLaw (1/0 = Yes/No)]
-9.99                                    [alpha_PowerLaw]
CCM                                      [red_law_option]
 1.458241                                [q_norm = A(l_norm)/A(V)]

## (Re)Sampling Parameters
 3741.00                                 [l_ini (A)]
 7218.00                                 [l_fin (A)]
    1.00                                 [dl    (A)]     (OBS: dl_cushion =    50.00 A)

## Normalization info
 4020.00                                 [l_norm (A) - for base]
 4010.00                                 [llow_norm (A) - window for f_obs]
 4060.00                                 [lupp_norm (A) - window for f_obs]
1.016922E-15                             [fobs_norm (in input units)]

## S/N
 3691.00                                 [llow_SN (A) - window for S/N]
 7268.00                                 [lupp_SN (A) - window for S/N]
   8.060                                 [S/N in S/N window]
  10.353                                 [S/N in norm. window]
  17.969                                 [S/N_err in S/N window]
  23.081                                 [S/N_err in norm. window]
  1.0000                                 [fscale_chi2]

## etc...
    -2007457                             [idum_orig]
  2383                                   [NOl_eff]
  2348                                   [Nl_eff]
    35    NSIGMA                         [Ntot_cliped & clip_method]
  1739990                                [Nglobal_steps]
   7                                     [N_chains]
  23                                     [NEX0s_base = N_base in EX0s-fits]
 0   0   1        2   2.0   7.552E+01    [Clip-Bug, RC-Crash & Burn-In warning-flags, n_censored_weights, wei_nsig_threshold & wei_limit]
    17     17.129     16.624      0.505  [idt_all, wdt_TotTime, wdt_UsrTime & wdt_SysTime (sec)]

## Synthesis Results - Best model ##

 1.08982E+00                             [chi2/Nl_eff]
     4.07750                             [adev (%)]

    96.25600                             [sum-of-x (%)]
 2.32583E-15                             [Flux_tot (units of input spectrum!)]
 6.73402E-12                             [Mini_tot (???)]
 3.87539E-12                             [Mcor_tot (???)]

 -46.09                                  [v0_min  (km/s)]
 184.62                                  [vd_min  (km/s)]
 0.6444                                  [AV_min  (mag)]
 0.0000                                  [YAV_min (mag)]

# j     x_j(%)      Mini_j(%)     Mcor_j(%)     age_j(yr)     Z_j      (L/M)_j    YAV?  Mstars   component_j        a/Fe...       SSP_chi2r SSP_adev(%)   SSP_AV   SSP_x(%)
  1      1.1435     3.7505E-02    6.5170E-02    1.000000E+06  0.00400  1.094E-02    0   1.0000   age020_m42            0.0000     2.3374E+00     6.9112   2.8499    74.9420
  2      0.0000     0.0000E+00    0.0000E+00    3.160000E+06  0.00400  4.007E-02    0   0.9999   age045_m42            0.0000     2.1906E+00     6.2818   2.0828    81.8674
  3      0.0000     0.0000E+00    0.0000E+00    5.010000E+06  0.00400  2.539E-02    0   0.9488   age055_m42            0.0000     2.1418E+00     6.3765   2.4131    79.3968
  4      0.0000     0.0000E+00    0.0000E+00    6.610000E+06  0.00400  2.620E-02    0   0.9220   age061_m42            0.0000     2.0316E+00     6.0270   1.9919    82.7688
  5      4.7686     1.2943E-01    1.9931E-01    1.000000E+07  0.00400  1.322E-02    0   0.8862   age070_m42            0.0000     1.4634E+00     4.7503   1.6091    88.7588
  6      1.7674     8.0448E-02    1.1981E-01    1.445000E+07  0.00400  7.883E-03    0   0.8571   age078_m42            0.0000     1.5668E+00     5.0274   1.9609    85.4624
  7      4.7379     3.2376E-01    4.5985E-01    2.512000E+07  0.00400  5.251E-03    0   0.8174   age090_m42            0.0000     1.3807E+00     4.5465   1.4566    90.2255
  8      1.0377     1.0204E-01    1.3921E-01    4.000000E+07  0.00400  3.649E-03    0   0.7851   age104_m42            0.0000     1.3804E+00     4.5695   1.2314    90.9020
  9      0.0000     0.0000E+00    0.0000E+00    5.500000E+07  0.00400  3.098E-03    0   0.7629   age110_m42            0.0000     1.5806E+00     5.0879   1.4237    89.2806
 10      0.0000     0.0000E+00    0.0000E+00    1.015200E+08  0.00400  2.228E-03    0   0.7207   age116_m42            0.0000     1.7381E+00     5.4670   1.4676    88.4588
 11      0.0000     0.0000E+00    0.0000E+00    2.861200E+08  0.00400  1.093E-03    0   0.6648   age125_m42            0.0000     1.7514E+00     5.1742   0.8528    93.4234
 12      0.0000     0.0000E+00    0.0000E+00    5.088000E+08  0.00400  6.597E-04    0   0.6365   age130_m42            0.0000     1.9278E+00     5.6864   0.8838    92.3351
 13      0.0004     7.4883E-04    7.5443E-04    1.434000E+09  0.00400  2.132E-04    0   0.5798   age139_m42            0.0000     1.7545E+00     5.8321  -0.0777    93.5489
 14      0.0000     0.0000E+00    0.0000E+00    4.250000E+09  0.00400  5.895E-05    0   0.5377   age158_m42            0.0000     2.1024E+00     6.8132  -0.4327    86.2709
 15      0.0000     0.0000E+00    0.0000E+00    7.500000E+09  0.00400  3.510E-05    0   0.5212   age171_m42            0.0000     2.3519E+00     7.3026  -0.5867    84.3912
 16      0.0000     0.0000E+00    0.0000E+00    1.300000E+10  0.00400  2.005E-05    0   0.5034   age193_m42            0.0000     2.6242E+00     7.7708  -0.7202    82.7618
 17      0.0000     0.0000E+00    0.0000E+00    1.800000E+10  0.00400  1.525E-05    0   0.4967   age213_m42            0.0000     2.5724E+00     7.6747  -0.7508    82.6560
 18      0.0057     1.6591E-04    2.8830E-04    1.000000E+06  0.00800  1.238E-02    0   1.0000   age020_m52            0.0000     2.3320E+00     6.9112   2.8471    75.0543
 19      0.0025     2.9187E-05    5.0545E-05    3.160000E+06  0.00800  3.074E-02    0   0.9966   age045_m52            0.0000     2.3190E+00     6.8750   2.7680    75.7968
 20      0.0000     0.0000E+00    0.0000E+00    5.010000E+06  0.00800  2.668E-02    0   0.9443   age055_m52            0.0000     2.1023E+00     6.3720   2.4953    78.6598
 21      0.0002     3.0779E-06    4.9080E-06    6.610000E+06  0.00800  2.136E-02    0   0.9177   age061_m52            0.0000     1.4096E+00     4.7869   1.1224    89.0864
 22      0.0024     7.1763E-05    1.1007E-04    1.000000E+07  0.00800  1.215E-02    0   0.8827   age070_m52            0.0000     1.4081E+00     4.5591   1.7695    89.4057
 23      0.0000     0.0000E+00    0.0000E+00    1.445000E+07  0.00800  8.717E-03    0   0.8552   age078_m52            0.0000     1.4849E+00     4.8800   1.9157    87.0791
 24      0.0000     0.0000E+00    0.0000E+00    2.512000E+07  0.00800  5.592E-03    0   0.8162   age090_m52            0.0000     1.3113E+00     4.4127   1.5114    91.7358
 25      0.0000     0.0000E+00    0.0000E+00    4.000000E+07  0.00800  3.896E-03    0   0.7841   age104_m52            0.0000     1.3851E+00     4.5895   1.4369    91.9547
 26      0.0000     0.0000E+00    0.0000E+00    1.015200E+08  0.00800  2.148E-03    0   0.7226   age116_m52            0.0000     1.5910E+00     5.1131   1.4123    90.1992
 27      0.0000     0.0000E+00    0.0000E+00    2.861200E+08  0.00800  9.925E-04    0   0.6683   age125_m52            0.0000     1.7997E+00     5.5770   0.9460    93.3064
 28      0.0000     0.0000E+00    0.0000E+00    9.047900E+08  0.00800  3.141E-04    0   0.6138   age135_m52            0.0000     2.2047E+00     6.5593   0.1953    95.0381
 29      0.0000     0.0000E+00    0.0000E+00    1.434000E+09  0.00800  1.719E-04    0   0.5853   age139_m52            0.0000     2.2178E+00     6.6485  -0.3676    92.2997
 30      0.0000     0.0000E+00    0.0000E+00    2.500000E+09  0.00800  7.872E-05    0   0.5600   age150_m52            0.0000     2.6046E+00     7.6475  -0.5565    86.4086
 31      0.0000     0.0000E+00    0.0000E+00    4.250000E+09  0.00800  4.336E-05    0   0.5426   age158_m52            0.0000     2.6291E+00     7.7212  -0.5661    85.3685
 32      0.0000     0.0000E+00    0.0000E+00    6.250000E+09  0.00800  3.159E-05    0   0.5319   age166_m52            0.0000     3.0402E+00     8.4269  -0.7271    83.7541
 33      0.0000     0.0000E+00    0.0000E+00    1.300000E+10  0.00800  1.361E-05    0   0.5073   age193_m52            0.0000     3.7929E+00     9.7640  -1.0000    75.6517
 34      0.0000     0.0000E+00    0.0000E+00    1.800000E+10  0.00800  9.886E-06    0   0.4990   age213_m52            0.0000     4.5120E+00    10.7488  -1.0000    71.4741
 35      0.0982     2.2828E-03    3.9666E-03    1.000000E+06  0.02000  1.544E-02    0   1.0000   age020_m62            0.0000     2.3382E+00     6.9278   2.8434    75.2156
 36      0.0000     0.0000E+00    0.0000E+00    3.160000E+06  0.02000  3.762E-02    0   0.9858   age045_m62            0.0000     2.3502E+00     6.9386   2.7841    75.8215
 37      0.0000     0.0000E+00    0.0000E+00    5.010000E+06  0.02000  3.296E-02    0   0.9342   age055_m62            0.0000     2.1306E+00     6.4047   2.3770    80.2558
 38     45.2382     1.4066E+00    2.1658E+00    8.710000E+06  0.02000  1.154E-02    0   0.8861   age067_m62            0.0000     1.9483E+00     4.9720   1.0656    99.0902
 39      0.0000     0.0000E+00    0.0000E+00    1.445000E+07  0.02000  7.663E-03    0   0.8472   age078_m62            0.0000     1.4368E+00     4.3139   1.3629    93.9357
 40      0.0000     0.0000E+00    0.0000E+00    2.512000E+07  0.02000  4.532E-03    0   0.8099   age090_m62            0.0000     1.5053E+00     4.3772   1.3406    94.4063
 41      0.6532     8.5760E-02    1.1318E-01    5.500000E+07  0.02000  2.733E-03    0   0.7595   age110_m62            0.0000     1.3226E+00     4.5534   1.4219    91.1588
 42      0.0000     0.0000E+00    0.0000E+00    1.609000E+08  0.02000  1.369E-03    0   0.6985   age120_m62            0.0000     1.6301E+00     5.3012   1.2949    92.2389
 43      0.0004     1.7075E-04    1.9920E-04    2.861200E+08  0.02000  9.013E-04    0   0.6714   age125_m62            0.0000     1.8552E+00     5.7484   1.0555    94.3930
 44      0.0000     0.0000E+00    0.0000E+00    5.088000E+08  0.02000  5.028E-04    0   0.6449   age130_m62            0.0000     2.3277E+00     6.7278   0.7390    94.1804
 45      0.0000     0.0000E+00    0.0000E+00    9.047900E+08  0.02000  2.428E-04    0   0.6179   age135_m62            0.0000     2.3580E+00     7.0837   0.1923    91.8997
 46      0.0000     0.0000E+00    0.0000E+00    1.434000E+09  0.02000  1.263E-04    0   0.5908   age139_m62            0.0000     2.4416E+00     7.3909  -0.2263    89.4002
 47      0.0000     0.0000E+00    0.0000E+00    2.500000E+09  0.02000  5.985E-05    0   0.5673   age150_m62            0.0000     2.9617E+00     8.3541  -0.5274    85.4987
 48      0.6776     7.4327E+00    7.0621E+00    4.250000E+09  0.02000  3.271E-05    0   0.5468   age158_m62            0.0000     3.6226E+00     9.4664  -0.7690    82.2623
 49      0.0000     0.0000E+00    0.0000E+00    1.000000E+10  0.02000  1.360E-05    0   0.5167   age181_m62            0.0000     4.5462E+00    10.7940  -1.0000    77.5146
 50      0.0000     0.0000E+00    0.0000E+00    1.800000E+10  0.02000  7.124E-06    0   0.5013   age213_m62            0.0000     5.6383E+00    12.1472  -1.0000    69.4815
 51      0.6813     9.4319E-03    1.6386E-02    1.000000E+06  0.05000  2.592E-02    0   0.9998   age020_m72            0.0000     2.3415E+00     6.9389   2.8329    75.2852
 52      0.3110     2.3035E-03    3.8333E-03    3.160000E+06  0.05000  4.845E-02    0   0.9577   age045_m72            0.0000     2.3055E+00     6.8242   2.6644    76.9680
 53      0.0000     0.0000E+00    0.0000E+00    5.010000E+06  0.05000  3.072E-02    0   0.9147   age055_m72            0.0000     1.8214E+00     5.2262   2.0445    86.4861
 54      0.0000     0.0000E+00    0.0000E+00    6.610000E+06  0.05000  1.455E-02    0   0.8877   age061_m72            0.0000     5.2894E+00     7.4981   1.0885   102.3534
 55      0.0000     0.0000E+00    0.0000E+00    1.000000E+07  0.05000  9.074E-03    0   0.8524   age070_m72            0.0000     2.5423E+00     6.1201   2.2638    85.3776
 56      0.0000     0.0000E+00    0.0000E+00    2.512000E+07  0.05000  4.250E-03    0   0.7902   age090_m72            0.0000     2.0227E+00     5.2880   1.9075    88.9918
 57      0.0000     0.0000E+00    0.0000E+00    4.000000E+07  0.05000  3.087E-03    0   0.7618   age104_m72            0.0000     2.0708E+00     5.1651   1.6484    91.8288
 58      0.0000     0.0000E+00    0.0000E+00    1.015200E+08  0.05000  1.700E-03    0   0.7096   age116_m72            0.0000     1.5828E+00     5.0165   1.4118    93.0565
 59      0.0000     0.0000E+00    0.0000E+00    2.861200E+08  0.05000  7.384E-04    0   0.6633   age125_m72            0.0000     2.0150E+00     6.2158   0.9496    94.5236
 60     15.7981     1.4843E+01    1.6435E+01    5.088000E+08  0.05000  3.819E-04    0   0.6372   age130_m72            0.0000     2.2329E+00     6.9730   0.5164    93.3136
 61     18.3973     3.9387E+01    4.1817E+01    9.047900E+08  0.05000  1.676E-04    0   0.6110   age135_m72            0.0000     2.8484E+00     8.2355  -0.0841    87.5983
 62      0.5039     2.0461E+00    2.0884E+00    1.434000E+09  0.05000  8.837E-05    0   0.5874   age139_m72            0.0000     3.0961E+00     8.5526  -0.5233    86.5479
 63      0.0000     0.0000E+00    0.0000E+00    2.500000E+09  0.05000  4.233E-05    0   0.5598   age150_m72            0.0000     3.9061E+00     9.8297  -0.7469    82.0880
 64      0.0000     0.0000E+00    0.0000E+00    6.250000E+09  0.05000  1.435E-05    0   0.5249   age166_m72            0.0000     4.9878E+00    11.3784  -1.0000    73.6103
 65      0.0000     0.0000E+00    0.0000E+00    1.300000E+10  0.05000  6.513E-06    0   0.5036   age193_m72            0.0000     6.7782E+00    13.3663  -1.0000    64.8376
 66      0.4303     3.4110E+01    2.9309E+01    1.800000E+10  0.05000  4.527E-06    0   0.4945   age213_m72            0.0000     8.1212E+00    14.7297  -1.0000    59.8055


## Synthesis Results - Average & Chains ##

# j      x_j: min, <> & last-chain-values for 1 ...  7 chains
  1      1.1435      1.3927      1.6539      1.4125      1.3193      3.1416      1.3276      1.6748      1.2583
  2      0.0000      0.1456      0.1424      0.0000      0.0000      0.0000      0.0356      0.6313      0.0000
  3      0.0000      0.1659      0.1275      0.6296      0.6669      0.3695      0.0000      0.0000      0.0000
  4      0.0000      0.1957      0.0000      0.0000      0.0000      0.0000      0.2614      0.4388      0.0000
  5      4.7686      4.8988      4.6701      4.1125      4.4161      5.2417      5.5728      4.2002      6.9778
  6      1.7674      1.3342      1.5364      1.1948      1.4239      1.3809      0.6991      1.4012      1.0212
  7      4.7379      3.6158      3.5328      3.3048      2.8944      3.7927      3.1996      3.2141      3.7027
  8      1.0377      0.6713      0.6793      1.0229      2.1334      2.9796      1.5025      0.5680      0.9452
  9      0.0000      0.2283      0.1581      0.1958      0.4320      0.0000      0.4243      0.0919      0.4419
 10      0.0000      0.2477      0.1084      0.0000      0.0000      0.2920      0.0177      0.0243      0.6449
 11      0.0000      0.1370      0.0000      0.1039      0.0000      0.0000      0.0000      0.0000      0.0000
 12      0.0000      0.1949      0.0000      0.0000      0.0000      0.0000      0.0000      0.0000      0.0000
 13      0.0004      3.1143      3.2811      2.6124      2.9828      3.3223      2.6057      2.8136      2.5203
 14      0.0000      0.0535      0.0000      0.0000      0.0000      0.0000      0.0000      0.0000      0.0000
 15      0.0000      0.0229      0.0000      0.0000      0.0000      0.0000      0.0000      0.0000      0.0000
 16      0.0000      0.0055      0.0000      0.0000      0.0000      0.0000      0.0000      0.0000      0.0000
 17      0.0000      0.0057      0.0000      0.0000      0.0000      0.0000      0.0000      0.0000      0.0746
 18      0.0057      0.9176      0.9057      1.0583      0.6071      0.8674      1.0016      0.9185      0.6370
 19      0.0025      0.4349      0.0000      0.2842      0.9594      0.0000      1.2170      0.0000      0.7209
 20      0.0000      0.2508      0.0000      0.0000      0.0000      0.4560      0.0000      0.0000      0.0000
 21      0.0002      4.9106      5.7418      7.1685      4.8747      3.8619      3.8236      6.0020      4.0183
 22      0.0024      1.1530      1.5581      0.9065      0.0000      0.0689      0.9336      1.8688      0.1709
 23      0.0000      0.3376      0.9847      0.2870      0.4614      0.0955      0.2834      1.0031      1.0577
 24      0.0000      0.7402      0.9864      0.4718      1.6653      0.2160      0.3219      0.0947      1.5618
 25      0.0000      0.3079      0.0528      0.3009      0.0145      0.0000      0.2310      0.0000      0.0000
 26      0.0000      0.3158      0.0000      0.0000      0.3720      0.0000      0.0201      0.0000      0.2170
 27      0.0000      0.2742      0.0000      0.0000      0.2378      0.0000      0.2485      0.0000      0.0131
 28      0.0000      0.0547      0.0000      0.0000      0.0000      0.0000      0.0000      0.0000      0.0000
 29      0.0000      0.0221      0.0000      0.0000      0.0000      0.0000      0.0000      0.0000      0.0000
 30      0.0000      0.0178      0.0000      0.0000      0.0000      0.0000      0.0000      0.0000      0.0000
 31      0.0000      0.0424      0.0000      0.0000      0.0000      0.0000      0.0000      0.0000      0.0000
 32      0.0000      0.0045      0.0000      0.0000      0.0000      0.0000      0.0000      0.0000      0.0000
 33      0.0000      0.0078      0.0000      0.0000      0.0545      0.0000      0.0000      0.0000      0.0000
 34      0.0000      0.0063      0.0000      0.0000      0.0000      0.0000      0.0000      0.0000      0.0000
 35      0.0982      0.5226      0.7819      0.3610      0.0000      0.3375      0.4968      0.0822      0.3739
 36      0.0000      0.1360      0.0000      0.0000      0.5271      0.0000      0.0000      0.6495      0.0701
 37      0.0000      0.1694      0.4142      0.0000      0.0000      0.3273      0.0000      0.0000      0.0067
 38     45.2382     34.7187     34.7471     36.8309     37.0348     35.7893     35.6987     35.9835     36.0491
 39      0.0000      0.3097      0.0000      0.0000      0.1626      0.0000      0.3239      0.0096      0.2993
 40      0.0000      0.2401      0.0000      0.0000      0.0000      0.0000      0.1769      0.0000      0.1117
 41      0.6532      1.8635      2.3582      2.3253      2.8071      1.5014      1.7048      2.7161      1.7630
 42      0.0000      0.6422      0.5273      1.1150      0.4500      0.2261      0.0000      0.0000      0.4726
 43      0.0004      0.4907      0.0000      0.0000      1.0375      0.7960      0.9099      0.0000      0.3971
 44      0.0000      0.1877      0.1716      0.0000      0.0000      0.0000      0.0000      0.0000      0.0000
 45      0.0000      0.0766      0.0000      0.0000      0.0000      0.0000      0.0000      0.0000      0.0000
 46      0.0000      0.0746      0.0000      0.0000      0.0000      0.0205      0.0000      0.0000      0.0000
 47      0.0000      0.0262      0.0000      0.0026      0.0000      0.0000      0.0000      0.1176      0.0000
 48      0.6776      1.3412      1.4346      1.3513      1.3307      1.1385      1.3908      1.4089      1.3212
 49      0.0000      0.1415      0.2441      0.2355      0.2234      0.0000      0.2042      0.0000      0.0552
 50      0.0000      0.0120      0.0000      0.0000      0.0000      0.0000      0.0000      0.0000      0.0000
 51      0.6813      0.3057      0.0000      0.3043      0.0000      0.0000      1.3166      0.5059      0.5277
 52      0.3110      0.2604      0.5593      0.5035      0.0000      0.0000      0.9814      0.2018      0.0000
 53      0.0000      0.0781      0.0000      0.0000      0.0000      0.0000      0.0000      0.0000      0.0000
 54      0.0000      0.0339      0.0000      0.0000      0.0000      0.0000      0.0000      0.0000      0.0000
 55      0.0000      0.0847      0.0000      0.0000      0.0000      0.0000      0.0832      0.0000      0.0000
 56      0.0000      0.0711      0.0000      0.0636      0.0000      0.3515      0.0000      0.0183      0.0000
 57      0.0000      0.0755      0.0000      0.0000      0.0000      0.0000      0.0000      0.0000      0.0284
 58      0.0000      0.2683      0.4339      0.0000      0.0000      0.5138      0.0091      0.8558      0.0000
 59      0.0000      0.3563      0.7568      0.4281      0.0000      0.0285      0.0000      0.0000      0.0000
 60     15.7981     12.0656     12.0634     12.4479     11.9822     12.6754     12.6654     13.1690     13.0026
 61     18.3973     12.2374     12.4227     12.0044     12.1529     13.3550     13.5956     12.6189     12.4007
 62      0.5039      2.0118      2.0305      2.0555      2.0446      1.8744      1.8419      1.7567      1.9993
 63      0.0000      0.0138      0.0000      0.0000      0.0000      0.0000      0.0000      0.0000      0.0000
 64      0.0000      0.0061      0.0000      0.0000      0.0000      0.0043      0.0000      0.0000      0.0000
 65      0.0000      0.0039      0.0000      0.0000      0.0000      0.0035      0.0000      0.0000      0.0000
 66      0.4303      0.7946      0.7626      0.8026      0.7355      0.8335      0.8440      0.8790      0.9803

# j      m_j: min, <> & last-chain-values for 1 ...  7 chains
  1  6.5170E-02  5.9615E-02  7.1570E-02  6.1176E-02  5.8473E-02  1.3768E-01  5.5295E-02  7.1616E-02  5.0645E-02
  2  0.0000E+00  1.7013E-03  1.6819E-03  0.0000E+00  0.0000E+00  0.0000E+00  4.0450E-04  7.3692E-03  0.0000E+00
  3  0.0000E+00  2.9033E-03  2.2558E-03  1.1148E-02  1.2084E-02  6.6197E-03  0.0000E+00  0.0000E+00  0.0000E+00
  4  0.0000E+00  3.2252E-03  0.0000E+00  0.0000E+00  0.0000E+00  0.0000E+00  4.1911E-03  7.2238E-03  0.0000E+00
  5  1.9931E-01  1.5379E-01  1.4821E-01  1.3062E-01  1.4354E-01  1.6847E-01  1.7022E-01  1.3171E-01  2.0596E-01
  6  1.1981E-01  6.7937E-02  7.9085E-02  6.1552E-02  7.5068E-02  7.1986E-02  3.4634E-02  7.1269E-02  4.8891E-02
  7  4.5985E-01  2.6359E-01  2.6036E-01  2.4376E-01  2.1846E-01  2.8306E-01  2.2695E-01  2.3405E-01  2.5379E-01
  8  1.3921E-01  6.7643E-02  6.9194E-02  1.0429E-01  2.2256E-01  3.0737E-01  1.4730E-01  5.7168E-02  8.9543E-02
  9  0.0000E+00  2.6327E-02  1.8438E-02  2.2846E-02  5.1585E-02  0.0000E+00  4.7607E-02  1.0584E-02  4.7912E-02
 10  0.0000E+00  3.7518E-02  1.6608E-02  0.0000E+00  0.0000E+00  4.5281E-02  2.6162E-03  3.6821E-03  9.1851E-02
 11  0.0000E+00  3.9010E-02  0.0000E+00  2.9956E-02  0.0000E+00  0.0000E+00  0.0000E+00  0.0000E+00  0.0000E+00
 12  0.0000E+00  8.8047E-02  0.0000E+00  0.0000E+00  0.0000E+00  0.0000E+00  0.0000E+00  0.0000E+00  0.0000E+00
 13  7.5443E-04  3.9662E+00  4.2243E+00  3.3663E+00  3.9332E+00  4.3318E+00  3.2289E+00  3.5794E+00  3.0180E+00
 14  0.0000E+00  2.2861E-01  0.0000E+00  0.0000E+00  0.0000E+00  0.0000E+00  0.0000E+00  0.0000E+00  0.0000E+00
 15  0.0000E+00  1.5945E-01  0.0000E+00  0.0000E+00  0.0000E+00  0.0000E+00  0.0000E+00  0.0000E+00  0.0000E+00
 16  0.0000E+00  6.5052E-02  0.0000E+00  0.0000E+00  0.0000E+00  0.0000E+00  0.0000E+00  0.0000E+00  0.0000E+00
 17  0.0000E+00  8.6344E-02  0.0000E+00  0.0000E+00  0.0000E+00  0.0000E+00  0.0000E+00  0.0000E+00  1.0702E+00
 18  2.8830E-04  3.4712E-02  3.4635E-02  4.0504E-02  2.3779E-02  3.3591E-02  3.6864E-02  3.4706E-02  2.2655E-02
 19  5.0545E-05  6.6023E-03  0.0000E+00  4.3662E-03  1.5082E-02  0.0000E+00  1.7978E-02  0.0000E+00  1.0291E-02
 20  0.0000E+00  4.1575E-03  0.0000E+00  0.0000E+00  0.0000E+00  7.7387E-03  0.0000E+00  0.0000E+00  0.0000E+00
 21  4.9080E-06  9.8802E-02  1.1679E-01  1.4593E-01  1.0155E-01  7.9551E-02  7.4853E-02  1.2063E-01  7.6017E-02
 22  1.1007E-04  3.9228E-02  5.3589E-02  3.1204E-02  0.0000E+00  2.4004E-03  3.0905E-02  6.3510E-02  5.4671E-03
 23  0.0000E+00  1.5512E-02  4.5737E-02  1.3340E-02  2.1949E-02  4.4917E-03  1.2669E-02  4.6037E-02  4.5691E-02
 24  0.0000E+00  5.0596E-02  6.8164E-02  3.2626E-02  1.1785E-01  1.5117E-02  2.1406E-02  6.4655E-03  1.0038E-01
 25  0.0000E+00  2.9015E-02  5.0342E-03  2.8691E-02  1.4140E-03  0.0000E+00  2.1187E-02  0.0000E+00  0.0000E+00
 26  0.0000E+00  4.9759E-02  0.0000E+00  0.0000E+00  6.0683E-02  0.0000E+00  3.0797E-03  0.0000E+00  3.2139E-02
 27  0.0000E+00  8.6454E-02  0.0000E+00  0.0000E+00  7.7635E-02  0.0000E+00  7.6239E-02  0.0000E+00  3.8858E-03
 28  0.0000E+00  5.0095E-02  0.0000E+00  0.0000E+00  0.0000E+00  0.0000E+00  0.0000E+00  0.0000E+00  0.0000E+00
 29  0.0000E+00  3.5197E-02  0.0000E+00  0.0000E+00  0.0000E+00  0.0000E+00  0.0000E+00  0.0000E+00  0.0000E+00
 30  0.0000E+00  5.9276E-02  0.0000E+00  0.0000E+00  0.0000E+00  0.0000E+00  0.0000E+00  0.0000E+00  0.0000E+00
 31  0.0000E+00  2.4829E-01  0.0000E+00  0.0000E+00  0.0000E+00  0.0000E+00  0.0000E+00  0.0000E+00  0.0000E+00
 32  0.0000E+00  3.5378E-02  0.0000E+00  0.0000E+00  0.0000E+00  0.0000E+00  0.0000E+00  0.0000E+00  0.0000E+00
 33  0.0000E+00  1.3672E-01  0.0000E+00  0.0000E+00  9.8506E-01  0.0000E+00  0.0000E+00  0.0000E+00  0.0000E+00
 34  0.0000E+00  1.4775E-01  0.0000E+00  0.0000E+00  0.0000E+00  0.0000E+00  0.0000E+00  0.0000E+00  0.0000E+00
 35  3.9666E-03  1.5850E-02  2.3974E-02  1.1079E-02  0.0000E+00  1.0479E-02  1.4662E-02  2.4920E-03  1.0664E-02
 36  0.0000E+00  1.6693E-03  0.0000E+00  0.0000E+00  6.6966E-03  0.0000E+00  0.0000E+00  7.9621E-03  8.0835E-04
 37  0.0000E+00  2.2485E-03  5.5574E-03  0.0000E+00  0.0000E+00  4.4476E-03  0.0000E+00  0.0000E+00  8.4035E-05
 38  2.1658E+00  1.2484E+00  1.2631E+00  1.3400E+00  1.3788E+00  1.3176E+00  1.2490E+00  1.2925E+00  1.2188E+00
 39  0.0000E+00  1.6033E-02  0.0000E+00  0.0000E+00  8.7139E-03  0.0000E+00  1.6317E-02  4.9676E-04  1.4572E-02
 40  0.0000E+00  2.0097E-02  0.0000E+00  0.0000E+00  0.0000E+00  0.0000E+00  1.4402E-02  0.0000E+00  8.7902E-03
 41  1.1318E-01  2.4251E-01  3.1026E-01  3.0618E-01  3.7825E-01  2.0004E-01  2.1587E-01  3.5310E-01  2.1573E-01
 42  0.0000E+00  1.5344E-01  1.2738E-01  2.6956E-01  1.1134E-01  5.5312E-02  0.0000E+00  0.0000E+00  1.0618E-01
 43  1.9920E-04  1.7119E-01  0.0000E+00  0.0000E+00  3.7475E-01  2.8429E-01  3.0884E-01  0.0000E+00  1.3027E-01
 44  0.0000E+00  1.1273E-01  1.0419E-01  0.0000E+00  0.0000E+00  0.0000E+00  0.0000E+00  0.0000E+00  0.0000E+00
 45  0.0000E+00  9.1249E-02  0.0000E+00  0.0000E+00  0.0000E+00  0.0000E+00  0.0000E+00  0.0000E+00  0.0000E+00
 46  0.0000E+00  1.6339E-01  0.0000E+00  0.0000E+00  0.0000E+00  4.5880E-02  0.0000E+00  0.0000E+00  0.0000E+00
 47  0.0000E+00  1.1641E-01  0.0000E+00  1.1687E-02  0.0000E+00  0.0000E+00  0.0000E+00  5.2131E-01  0.0000E+00
 48  7.0621E+00  1.0500E+01  1.1353E+01  1.0704E+01  1.0786E+01  9.1251E+00  1.0594E+01  1.1018E+01  9.7249E+00
 49  0.0000E+00  2.5175E+00  4.3898E+00  4.2402E+00  4.1148E+00  0.0000E+00  3.5355E+00  0.0000E+00  9.2378E-01
 50  0.0000E+00  3.9436E-01  0.0000E+00  0.0000E+00  0.0000E+00  0.0000E+00  0.0000E+00  0.0000E+00  0.0000E+00
 51  1.6386E-02  5.5216E-03  0.0000E+00  5.5614E-03  0.0000E+00  0.0000E+00  2.3140E-02  9.1285E-03  8.9623E-03
 52  3.8333E-03  2.4105E-03  5.2343E-03  4.7156E-03  0.0000E+00  0.0000E+00  8.8393E-03  1.8664E-03  0.0000E+00
 53  0.0000E+00  1.0894E-03  0.0000E+00  0.0000E+00  0.0000E+00  0.0000E+00  0.0000E+00  0.0000E+00  0.0000E+00
 54  0.0000E+00  9.6870E-04  0.0000E+00  0.0000E+00  0.0000E+00  0.0000E+00  0.0000E+00  0.0000E+00  0.0000E+00
 55  0.0000E+00  3.7254E-03  0.0000E+00  0.0000E+00  0.0000E+00  0.0000E+00  3.5596E-03  0.0000E+00  0.0000E+00
 56  0.0000E+00  6.1905E-03  0.0000E+00  5.6069E-03  0.0000E+00  3.1330E-02  0.0000E+00  1.5927E-03  0.0000E+00
 57  0.0000E+00  8.7268E-03  0.0000E+00  0.0000E+00  0.0000E+00  0.0000E+00  0.0000E+00  0.0000E+00  3.0841E-03
 58  0.0000E+00  5.2444E-02  8.5747E-02  0.0000E+00  0.0000E+00  1.0282E-01  1.7285E-03  1.6711E-01  0.0000E+00
 59  0.0000E+00  1.4987E-01  3.2185E-01  1.8221E-01  0.0000E+00  1.2272E-02  0.0000E+00  0.0000E+00  0.0000E+00
 60  1.6435E+01  9.4277E+00  9.5290E+00  9.8411E+00  9.6937E+00  1.0140E+01  9.6290E+00  1.0279E+01  9.5527E+00
 61  4.1817E+01  2.0892E+01  2.1440E+01  2.0736E+01  2.1482E+01  2.3343E+01  2.2584E+01  2.1520E+01  1.9906E+01
 62  2.0884E+00  6.2626E+00  6.3897E+00  6.4739E+00  6.5898E+00  5.9734E+00  5.5787E+00  5.4624E+00  5.8515E+00
 63  0.0000E+00  8.5216E-02  0.0000E+00  0.0000E+00  0.0000E+00  0.0000E+00  0.0000E+00  0.0000E+00  0.0000E+00
 64  0.0000E+00  1.0498E-01  0.0000E+00  0.0000E+00  0.0000E+00  7.6261E-02  0.0000E+00  0.0000E+00  0.0000E+00
 65  0.0000E+00  1.3945E-01  0.0000E+00  0.0000E+00  0.0000E+00  1.3136E-01  0.0000E+00  0.0000E+00  0.0000E+00
 66  2.9309E+01  4.0645E+01  3.9435E+01  4.1540E+01  3.8955E+01  4.3652E+01  4.2009E+01  4.4918E+01  4.7150E+01

# AV, chi2 & Mass for <> & i_chain = 1 ...  7 solutions
AV       0.6444      0.6511      0.6504      0.6541      0.6514      0.6507      0.6469      0.6552      0.6515
chi2 1.0898E+00  1.1074E+00  1.1048E+00  1.1041E+00  1.1036E+00  1.1029E+00  1.1026E+00  1.1039E+00  1.1031E+00
Mass 3.8754E-12  5.2064E-12  5.1456E-12  5.1667E-12  5.0306E-12  5.0826E-12  5.3211E-12  5.2408E-12  5.5402E-12
 -46.09                                  [v0_min (km/s) before EX0s...]
 184.62                                  [vd_min (km/s) before EX0s...]


## Synthetic spectrum (Best Model) ##l_obs f_obs f_syn wei
 3478    [Nl_obs]
 3741.00    0.66059   0.75428    0.000
 3742.00    0.68655   0.75176    0.000
 3743.00    0.69351   0.73930    0.000
 3744.00    0.67487   0.71831    0.000
 3745.00    0.61517   0.69077   16.256
 3746.00    0.53605   0.65984   18.655
 3747.00    0.48747   0.63024   20.514
 3748.00    0.48602   0.60797   20.575
 3749.00    0.51045   0.59861   19.591
 3750.00    0.53521   0.60528   18.684
 3751.00    0.54757   0.62695   18.262
 3752.00    0.56570   0.65866   17.677
 3753.00    0.61516   0.69338   16.256
 3754.00    0.67048   0.72460   14.915
 3755.00    0.68371   0.74827   14.626
 3756.00    0.66636   0.76351   15.007
 3757.00    0.66184   0.77204   15.109
 3758.00    0.66402   0.77662   15.060
 3759.00    0.64356   0.77946   15.539
 3760.00    0.61877   0.78128   16.161
 3761.00    0.62870   0.78122   15.906
 3762.00    0.67094   0.77752   14.904
 3763.00    0.71541   0.76826   13.978
 3764.00    0.74020   0.75210   13.510
 3765.00    0.73954   0.72887   13.522
 3766.00    0.72626   0.70009   13.769
 3767.00    0.71506   0.66929   13.985
 3768.00    0.70201   0.64164   14.245
 3769.00    0.68413   0.62294   14.617
 3770.00    0.68335   0.61770   14.634
 3771.00    0.71412   0.62746   14.003
 3772.00    0.74825   0.65012   13.365
 3773.00    0.76199   0.68108   13.123
 3774.00    0.78334   0.71519   12.766
 3775.00    0.83726   0.74853   11.944
 3776.00    0.89403   0.77899   11.185
 3777.00    0.92117   0.80575   10.856
 3778.00    0.93014   0.82851   10.751
 3779.00    0.94165   0.84702   10.620
 3780.00    0.95527   0.86083   10.468
 3781.00    0.96304   0.86950   10.384
 3782.00    0.96182   0.87275   10.397
 3783.00    0.95396   0.87069   10.483
 3784.00    0.94544   0.86391   10.577
 3785.00    0.93416   0.85356   10.705
 3786.00    0.90583   0.84102   11.040
 3787.00    0.85696   0.82750   11.669
 3788.00    0.80480   0.81337   12.426
 3789.00    0.76160   0.79794   13.130
 3790.00    0.72332   0.77964   13.825
 3791.00    0.69036   0.75669   14.485
 3792.00    0.67376   0.72795   14.842
 3793.00    0.66986   0.69382   14.928
 3794.00    0.65582   0.65692   15.248
 3795.00    0.62660   0.62220   15.959
 3796.00    0.60423   0.59603   16.550
 3797.00    0.60474   0.58439   16.536
 3798.00    0.62693   0.59056   15.951
 3799.00    0.66498   0.61364   15.038
 3800.00    0.71232   0.64868   14.039
 3801.00    0.75723   0.68863   13.206
 3802.00    0.78579   0.72681   12.726
 3803.00    0.79662   0.75899   12.553
 3804.00    0.80134   0.78413   12.479
 3805.00    0.81038   0.80382   12.340
 3806.00    0.83027   0.82068   12.044
 3807.00    0.86835   0.83654   11.516
 3808.00    0.92743   0.85133   10.782
 3809.00    0.98886   0.86332   10.113
 3810.00    1.02332   0.87042    9.772
 3811.00    1.02745   0.87158    9.733
 3812.00    1.01928   0.86748    9.811
 3813.00    1.00745   0.85993    9.926
 3814.00    0.99158   0.85071   10.085
 3815.00    0.97739   0.84065   10.231
 3816.00    0.97101   0.82989   10.299
 3817.00    0.96213   0.81886   10.394
 3818.00    0.93554   0.80915   10.689
 3819.00    0.89681   0.80294   11.151
 3820.00    0.86260   0.80144   11.593
 3821.00    0.83696   0.80360   11.948
 3822.00    0.81484   0.80643   12.272
 3823.00    0.79376   0.80663   12.598
 3824.00    0.77565   0.80230   12.892
 3825.00    0.76643   0.79324   13.048
 3826.00    0.76722   0.78001   13.034
 3827.00    0.76383   0.76279   13.092
 3828.00    0.74412   0.74102   13.439
 3829.00    0.71940   0.71381   13.901
 3830.00    0.70316   0.68104   14.221
 3831.00    0.68577   0.64429   14.582
 3832.00    0.65858   0.60743   15.184
 3833.00    0.63956   0.57602   15.636
 3834.00    0.63911   0.55588   15.647
 3835.00    0.62853   0.55106   15.910
 3836.00    0.58957   0.56244   16.961
 3837.00    0.55722   0.58762   17.946
 3838.00    0.56622   0.62208   17.661
 3839.00    0.60623   0.66079   16.495
 3840.00    0.65704   0.69952   15.220
 3841.00    0.71735   0.73531   13.940
 3842.00    0.78947   0.76644   12.667
 3843.00    0.86599   0.79225   11.547
 3844.00    0.92730   0.81281   10.784
 3845.00    0.94576   0.82870   10.573
 3846.00    0.91937   0.84074   10.877
 3847.00    0.88448   0.84982    0.000
 3848.00    0.86379   0.85690    0.000
 3849.00    0.84399   0.86286    0.000
 3850.00    0.82587   0.86823    0.000
 3851.00    0.84126   0.87295    0.000
 3852.00    0.89588   0.87645    0.000
 3853.00    0.95100   0.87821    0.000
 3854.00    0.97697   0.87821    0.000
 3855.00    0.97457   0.87706    0.000
 3856.00    0.95426   0.87569    0.000
 3857.00    0.92757   0.87494    0.000
 3858.00    0.91129   0.87534    0.000
 3859.00    0.92254   0.87707    0.000
 3860.00    0.95484   0.87984    0.000
 3861.00    0.97901   0.88294    0.000
 3862.00    0.97709   0.88546    0.000
 3863.00    0.95324   0.88675    0.000
 3864.00    0.92956   0.88669    0.000
 3865.00    0.93199   0.88564    0.000
 3866.00    0.95435   0.88393    0.000
 3867.00    0.96622   0.88145    0.000
 3868.00    0.96255   0.87762    0.000
 3869.00    0.96268   0.87201    0.000
 3870.00    0.97330   0.86498    0.000
 3871.00    0.98527   0.85776    0.000
 3872.00    0.98892   0.85172    0.000
 3873.00    0.97942   0.84729    0.000
 3874.00    0.96007   0.84364    0.000
 3875.00    0.93939   0.83930    0.000
 3876.00    0.92378   0.83320    0.000
 3877.00    0.91400   0.82510    0.000
 3878.00    0.90174   0.81513    0.000
 3879.00    0.87897   0.80312    0.000
 3880.00    0.85406   0.78818    0.000
 3881.00    0.83905   0.76904   11.918
 3882.00    0.82586   0.74454   12.109
 3883.00    0.80202   0.71419   12.469
 3884.00    0.77822   0.67880   12.850
 3885.00    0.76869   0.64101   13.009
 3886.00    0.76014   0.60558   13.155
 3887.00    0.73404   0.57862   13.623
 3888.00    0.69919   0.56578   14.302
 3889.00    0.67647   0.57002   14.783
 3890.00    0.67590   0.59027   14.795
 3891.00    0.69652   0.62184   14.357
 3892.00    0.72953   0.65842   13.707
 3893.00    0.76225   0.69438   13.119
 3894.00    0.78261   0.72623   12.778
 3895.00    0.78726   0.75275   12.702
 3896.00    0.78776   0.77431   12.694
 3897.00    0.80024   0.79203   12.496
 3898.00    0.83456   0.80718   11.982
 3899.00    0.88493   0.82062   11.300
 3900.00    0.92574   0.83253   10.802
 3901.00    0.93484   0.84253   10.697
 3902.00    0.91115   0.85021   10.975
 3903.00    0.87105   0.85583   11.480
 3904.00    0.84160   0.86048   11.882
 3905.00    0.83818   0.86565   11.931
 3906.00    0.85337   0.87238   11.718
 3907.00    0.87830   0.88061   11.386
 3908.00    0.91276   0.88921   10.956
 3909.00    0.94554   0.89651   10.576
 3910.00    0.95129   0.90123   10.512
 3911.00    0.93357   0.90292   10.712
 3912.00    0.93336   0.90192   10.714
 3913.00    0.95991   0.89887   10.418
 3914.00    0.97434   0.89422   10.263
 3915.00    0.96911   0.88818   10.319
 3916.00    0.98257   0.88099   10.177
 3917.00    1.00825   0.87337    9.918
 3918.00    0.98643   0.86651   10.138
 3919.00    0.91847   0.86168   10.888
 3920.00    0.87645   0.85937   11.410
 3921.00    0.87877   0.85880   11.380
 3922.00    0.87496   0.85813   11.429
 3923.00    0.84480   0.85528   11.837
 3924.00    0.81528   0.84892   12.266
 3925.00    0.80950   0.83882   12.353
 3926.00    0.82878   0.82557   12.066
 3927.00    0.84909   0.80993   11.777
 3928.00    0.83688   0.79242   11.949
 3929.00    0.79122   0.77356   12.639
 3930.00    0.73844   0.75444   13.542
 3931.00    0.69270   0.73722   14.436
 3932.00    0.65583   0.72491   15.248
 3933.00    0.63866   0.72045   15.658
 3934.00    0.65387   0.72542   15.294
 3935.00    0.69176   0.73923   14.456
 3936.00    0.73136   0.75922   13.673
 3937.00    0.77084   0.78168   12.973
 3938.00    0.81891   0.80298   12.211
 3939.00    0.86947   0.82057   11.501
 3940.00    0.90559   0.83336   11.043
 3941.00    0.91401   0.84173   10.941
 3942.00    0.89670   0.84705   11.152
 3943.00    0.88299   0.85095   11.325
 3944.00    0.90256   0.85459   11.080
 3945.00    0.94569   0.85827   10.574
 3946.00    0.98360   0.86160   10.167
 3947.00    1.00225   0.86404    9.978
 3948.00    0.99994   0.86534   10.001
 3949.00    0.97931   0.86556   10.211
 3950.00    0.94905   0.86488   10.537
 3951.00    0.92599   0.86330   10.799
 3952.00    0.92300   0.86072   10.834
 3953.00    0.93646   0.85699   10.678
 3954.00    0.95176   0.85203   10.507
 3955.00    0.95143   0.84580   10.510
 3956.00    0.92999   0.83813   10.753
 3957.00    0.90365   0.82839   11.066
 3958.00    0.88136   0.81551   11.346
 3959.00    0.84416   0.79828   11.846
 3960.00    0.78415   0.77591    0.000
 3961.00    0.73051   0.74834    0.000
 3962.00    0.70358   0.71602    0.000
 3963.00    0.68526   0.67967    0.000
 3964.00    0.65791   0.64017    0.000
 3965.00    0.62878   0.59896    0.000
 3966.00    0.60698   0.55886    0.000
 3967.00    0.59009   0.52418    0.000
 3968.00    0.57636   0.50012    0.000
 3969.00    0.57093   0.49128    0.000
 3970.00    0.57850   0.49980    0.000
 3971.00    0.59822   0.52452    0.000
 3972.00    0.62016   0.56132    0.000
 3973.00    0.63005   0.60470    0.000
 3974.00    0.63833   0.64942    0.000
 3975.00    0.67719   0.69165    0.000
 3976.00    0.73061   0.72913    0.000
 3977.00    0.73712   0.76082    0.000
 3978.00    0.71948   0.78642    0.000
 3979.00    0.78124   0.80618    0.000
 3980.00    0.90453   0.82096    0.000
 3981.00    0.94714   0.83219   10.558
 3982.00    0.88766   0.84160   11.266
 3983.00    0.84180   0.85062   11.879
 3984.00    0.84623   0.85988   11.817
 3985.00    0.84170   0.86921   11.881
 3986.00    0.82710   0.87801   12.090
 3987.00    0.85937   0.88573   11.636
 3988.00    0.93030   0.89219   10.749
 3989.00    0.97426   0.89745   10.264
 3990.00    0.97153   0.90157   10.293
 3991.00    0.94968   0.90438   10.530
 3992.00    0.92557   0.90552   10.804
 3993.00    0.90244   0.90489   11.081
 3994.00    0.89289   0.90303   11.200
 3995.00    0.91070   0.90116   10.981
 3996.00    0.94543   0.90071   10.577
 3997.00    0.97434   0.90259   10.263
 3998.00    0.99305   0.90661   10.070
 3999.00    1.00986   0.91145    9.902
 4000.00    1.02639   0.91519    9.743
 4001.00    1.03763   0.91623    9.637
 4002.00    1.03772   0.91393    9.636
 4003.00    1.02697   0.90896    9.737
 4004.00    1.02001   0.90296    9.804
 4005.00    1.03357   0.89786    9.675
 4006.00    1.06817   0.89512    9.362
 4007.00    1.10658   0.89540    9.037
 4008.00    1.11733   0.89853    8.950
 4009.00    1.08514   0.90387    9.215
 4010.00    1.04284   0.91055    9.589
 4011.00    1.02808   0.91765    9.727
 4012.00    1.03446   0.92438    9.667
 4013.00    1.03797   0.93017    9.634
 4014.00    1.02851   0.93481    9.723
 4015.00    1.00539   0.93837    9.946
 4016.00    0.97191   0.94096   10.289
 4017.00    0.94979   0.94244   10.529
 4018.00    0.98341   0.94219   10.169
 4019.00    1.06320   0.93919    9.406
 4020.00    1.08312   0.93255    9.233
 4021.00    1.00000   0.92212   10.000
 4022.00    0.93017   0.90905   10.751
 4023.00    0.95443   0.89573   10.477
 4024.00    0.99914   0.88503   10.009
 4025.00    0.99262   0.87904   10.074
 4026.00    0.96031   0.87801   10.413
 4027.00    0.94796   0.88026   10.549
 4028.00    0.97006   0.88329   10.309
 4029.00    1.00277   0.88527    9.972
 4030.00    0.99573   0.88611   10.043
 4031.00    0.94617   0.88723   10.569
 4032.00    0.91717   0.89054   10.903
 4033.00    0.94042   0.89718   10.634
 4034.00    0.98208   0.90700   10.183
 4035.00    1.00494   0.91847    9.951
 4036.00    0.99794   0.92936   10.021
 4037.00    0.97751   0.93751   10.230
 4038.00    0.97504   0.94153   10.256
 4039.00    0.99001   0.94110   10.101
 4040.00    0.99161   0.93679   10.085
 4041.00    0.98693   0.92967   10.132
 4042.00    1.01808   0.92115    9.822
 4043.00    1.07442   0.91300    9.307
 4044.00    1.09482   0.90719    9.134
 4045.00    1.06181   0.90533    9.418
 4046.00    1.01152   0.90781    9.886
 4047.00    0.97971   0.91345   10.207
 4048.00    0.98455   0.91993   10.157
 4049.00    1.02319   0.92487    9.773
 4050.00    1.07180   0.92671    9.330
 4051.00    1.08833   0.92520    9.188
 4052.00    1.04232   0.92124    9.594
 4053.00    0.97617   0.91629   10.244
 4054.00    0.96469   0.91178   10.366
 4055.00    1.00602   0.90866    9.940
 4056.00    1.04252   0.90713    9.592
 4057.00    1.04355   0.90669    9.583
 4058.00    1.02001   0.90639    9.804
 4059.00    1.01893   0.90520    9.814
 4060.00    1.07171   0.90257    9.331
 4061.00    1.11609   0.89878    8.960
 4062.00    1.07435   0.89489    9.308
 4063.00    0.98626   0.89214   10.139
 4064.00    0.93676   0.89117   10.675
 4065.00    0.92945   0.89162   10.759
 4066.00    0.93044   0.89240   10.748
 4067.00    0.94579   0.89233   10.573
 4068.00    0.98297   0.89072   10.173
 4069.00    0.99731   0.88759   10.027
 4070.00    0.95684   0.88346   10.451
 4071.00    0.91518   0.87886   10.927
 4072.00    0.92487   0.87395   10.812
 4073.00    0.94658   0.86855   10.564
 4074.00    0.93799   0.86279   10.661
 4075.00    0.93941   0.85764   10.645
 4076.00    0.97870   0.85479   10.218
 4077.00    0.99145   0.85571   10.086
 4078.00    0.93980   0.86057   10.641
 4079.00    0.90160   0.86779   11.091
 4080.00    0.93332   0.87479   10.714
 4081.00    0.97329   0.87928   10.274
 4082.00    0.96250   0.88035   10.390
 4083.00    0.92736   0.87870   10.783
 4084.00    0.90878   0.87591   11.004
 4085.00    0.91273   0.87342   10.956
 4086.00    0.92404   0.87174   10.822
 4087.00    0.92109   0.87039   10.857
 4088.00    0.89920   0.86823   11.121
 4089.00    0.87798   0.86401   11.390
 4090.00    0.86932   0.85671   11.503
 4091.00    0.86386   0.84557   11.576
 4092.00    0.85122   0.83003    0.000
 4093.00    0.82973   0.80971    0.000
 4094.00    0.80248   0.78449    0.000
 4095.00    0.77501   0.75462    0.000
 4096.00    0.75460   0.72084    0.000
 4097.00    0.74809   0.68470    0.000
 4098.00    0.75465   0.64888    0.000
 4099.00    0.76636   0.61742    0.000
 4100.00    0.78077   0.59523    0.000
 4101.00    0.80092   0.58664    0.000
 4102.00    0.82030   0.59363    0.000
 4103.00    0.82430   0.61472    0.000
 4104.00    0.81084   0.64542    0.000
 4105.00    0.79268   0.67991    0.000
 4106.00    0.78531   0.71306    0.000
 4107.00    0.79780   0.74178    0.000
 4108.00    0.81917   0.76531    0.000
 4109.00    0.82630   0.78449    0.000
 4110.00    0.81232   0.80082    0.000
 4111.00    0.79128   0.81547    0.000
 4112.00    0.79188   0.82878    0.000
 4113.00    0.83861   0.84025   11.925
 4114.00    0.91644   0.84889   10.912
 4115.00    0.98578   0.85384   10.144
 4116.00    1.02619   0.85494    9.745
 4117.00    1.03950   0.85308    9.620
 4118.00    1.03884   0.85008    9.626
 4119.00    1.03312   0.84808    9.679
 4120.00    1.00608   0.84877    9.940
 4121.00    0.94520   0.85265   10.580
 4122.00    0.88960   0.85885   11.241
 4123.00    0.88245   0.86555   11.332
 4124.00    0.89478   0.87069   11.176
 4125.00    0.88138   0.87287   11.346
 4126.00    0.86741   0.87177   11.529
 4127.00    0.89813   0.86814   11.134
 4128.00    0.96312   0.86336   10.383
 4129.00    1.01434   0.85901    9.859
 4130.00    1.00182   0.85648    9.982
 4131.00    0.92236   0.85682   10.842
 4132.00    0.85869   0.86056   11.646
 4133.00    0.87648   0.86747   11.409
 4134.00    0.92642   0.87653   10.794
 4135.00    0.94357   0.88604   10.598
 4136.00    0.94228   0.89406   10.613
 4137.00    0.95279   0.89872   10.495
 4138.00    0.96395   0.89860   10.374
 4139.00    0.96514   0.89309   10.361
 4140.00    0.97780   0.88297   10.227
 4141.00    1.00929   0.87068    9.908
 4142.00    1.02439   0.85979    9.762
 4143.00    1.00306   0.85362    9.969
 4144.00    0.97455   0.85368   10.261
 4145.00    0.96731   0.85900   10.338
 4146.00    0.97834   0.86683   10.221
 4147.00    0.99385   0.87414   10.062
 4148.00    1.00337   0.87895    9.966
 4149.00    1.00290   0.88080    9.971
 4150.00    0.99483   0.88027   10.052
 4151.00    0.98037   0.87840   10.200
 4152.00    0.95774   0.87621   10.441
 4153.00    0.93296   0.87464   10.719
 4154.00    0.92064   0.87444   10.862
 4155.00    0.92488   0.87608   10.812
 4156.00    0.93463   0.87956   10.699
 4157.00    0.93923   0.88435   10.647
 4158.00    0.93443   0.88959   10.702
 4159.00    0.91971   0.89447   10.873
 4160.00    0.89786   0.89841   11.138
 4161.00    0.87734   0.90118   11.398
 4162.00    0.87061   0.90270   11.486
 4163.00    0.88629   0.90295   11.283
 4164.00    0.92564   0.90192   10.803
 4165.00    0.98049   0.89962   10.199
 4166.00    1.03423   0.89614    9.669
 4167.00    1.06661   0.89146    9.375
 4168.00    1.06214   0.88550    9.415
 4169.00    1.02707   0.87829    9.736
 4170.00    0.98451   0.87032   10.157
 4171.00    0.95230   0.86261   10.501
 4172.00    0.93444   0.85645   10.702
 4173.00    0.91522   0.85278   10.926
 4174.00    0.88036   0.85181   11.359
 4175.00    0.86030   0.85306   11.624
 4176.00    0.89365   0.85582   11.190
 4177.00    0.94471   0.85951   10.585
 4178.00    0.95121   0.86370   10.513
 4179.00    0.93175   0.86800   10.732
 4180.00    0.93825   0.87196   10.658
 4181.00    0.95151   0.87512   10.510
 4182.00    0.92882   0.87721   10.766
 4183.00    0.89747   0.87820   11.142
 4184.00    0.90602   0.87830   11.037
 4185.00    0.93954   0.87794   10.643
 4186.00    0.95829   0.87779   10.435
 4187.00    0.96133   0.87856   10.402
 4188.00    0.97098   0.88078   10.299
 4189.00    1.00270   0.88442    9.973
 4190.00    1.04321   0.88882    9.586
 4191.00    1.03684   0.89274    9.645
 4192.00    0.96650   0.89476   10.347
 4193.00    0.92631   0.89377   10.795
 4194.00    0.98472   0.88949   10.155
 4195.00    1.05957   0.88264    9.438
 4196.00    1.05586   0.87470    9.471
 4197.00    0.99210   0.86736   10.080
 4198.00    0.93321   0.86191   10.716
 4199.00    0.92243   0.85894   10.841
 4200.00    0.95364   0.85841   10.486
 4201.00    0.96574   0.86000   10.355
 4202.00    0.93174   0.86332   10.733
 4203.00    0.90779   0.86804   11.016
 4204.00    0.92584   0.87376   10.801
 4205.00    0.93603   0.87990   10.683
 4206.00    0.91081   0.88580   10.979
 4207.00    0.89715   0.89086   11.146
 4208.00    0.93023   0.89466   10.750
 4209.00    0.98788   0.89703   10.123
 4210.00    1.02422   0.89789    9.764
 4211.00    0.99863   0.89721   10.014
 4212.00    0.92132   0.89524   10.854
 4213.00    0.85800   0.89270   11.655
 4214.00    0.85096   0.89072   11.752
 4215.00    0.88751   0.89040   11.267
 4216.00    0.92343   0.89212   10.829
 4217.00    0.91159   0.89511   10.970
 4218.00    0.86968   0.89767   11.500
 4219.00    0.87160   0.89778   11.471
 4220.00    0.92329   0.89388   10.828
 4221.00    0.95305   0.88542   10.497
 4222.00    0.93113   0.87317   10.747
 4223.00    0.88901   0.85926   11.235
 4224.00    0.85155   0.84672   11.721
 4225.00    0.82195   0.83868   12.214
 4226.00    0.80110   0.83717   12.550
 4227.00    0.79485   0.84216   12.433
 4228.00    0.81715   0.85149   12.064
 4229.00    0.87353   0.86174   11.913
 4230.00    0.92073   0.86972   11.983
 4231.00    0.90151   0.87375   11.978
 4232.00    0.84290   0.87403   11.939
 4233.00    0.82105   0.87208   12.126
 4234.00    0.84176   0.86972   12.470
 4235.00    0.85814   0.86841   12.671
 4236.00    0.85401   0.86886   12.727
 4237.00    0.84285   0.87120   12.821
 4238.00    0.83576   0.87521   12.845
 4239.00    0.83678   0.88045   12.593
 4240.00    0.84506   0.88629   12.224
 4241.00    0.85612   0.89185   11.981
 4242.00    0.86332   0.89608   11.770
 4243.00    0.85879   0.89802   11.420
 4244.00    0.83507   0.89715   11.050
 4245.00    0.79508   0.89359   10.845
 4246.00    0.76360   0.88810   10.817
 4247.00    0.76362   0.88181   10.871
 4248.00    0.78709   0.87579   10.889
 4249.00    0.81891   0.87083   10.828
 4250.00    0.86624   0.86735   10.815
 4251.00    0.92902   0.86554   10.956
 4252.00    0.96872   0.86537   11.149
 4253.00    0.94843   0.86665   11.253
 4254.00    0.87515   0.86883   11.297
 4255.00    0.78901   0.87110   11.343
 4256.00    0.74502   0.87266   11.334
 4257.00    0.76951   0.87326   11.158
 4258.00    0.82914   0.87346   10.758
 4259.00    0.87575   0.87446   10.325
 4260.00    0.88462   0.87736   10.269
 4261.00    0.85651   0.88232   10.678
 4262.00    0.81608   0.88823   11.003
 4263.00    0.80346   0.89318   10.856
 4264.00    0.85919   0.89524   10.693
 4265.00    0.96457   0.89334   10.870
 4266.00    1.02411   0.88753   11.173
 4267.00    0.98657   0.87873   11.325
 4268.00    0.90198   0.86831   11.330
 4269.00    0.83166   0.85779   11.314
 4270.00    0.79796   0.84866   11.371
 4271.00    0.79323   0.84225   11.430
 4272.00    0.79210   0.83956   11.263
 4273.00    0.78181   0.84099   10.888
 4274.00    0.77142   0.84619   10.602
 4275.00    0.76971   0.85402   10.557
 4276.00    0.77667   0.86277   10.686
 4277.00    0.78997   0.87058   10.845
 4278.00    0.80902   0.87597   10.879
 4279.00    0.83960   0.87827   -2.000
 4280.00    0.88740   0.87768   -2.000
 4281.00    0.93126   0.87503   -2.000
 4282.00    0.93059   0.87122   -2.000
 4283.00    0.87823   0.86680   -2.000
 4284.00    0.80404   0.86182   -2.000
 4285.00    0.73488   0.85607   -2.000
 4286.00    0.69039   0.84956   -2.000
 4287.00    0.70436   0.84297   -2.000
 4288.00    0.80018   0.83759   -2.000
 4289.00    0.91665   0.83471   -2.000
 4290.00    0.94985   0.83487   -2.000
 4291.00    0.89266   0.83742   -2.000
 4292.00    0.81941   0.84075   -2.000
 4293.00    0.77992   0.84297   -2.000
 4294.00    0.78197   0.84258   -2.000
 4295.00    0.80462   0.83889   10.756
 4296.00    0.81651   0.83205   11.119
 4297.00    0.80433   0.82302   11.588
 4298.00    0.77459   0.81326   11.613
 4299.00    0.74668   0.80440   11.397
 4300.00    0.73760   0.79775   11.466
 4301.00    0.74073   0.79387   11.696
 4302.00    0.74406   0.79247   11.687
 4303.00    0.76034   0.79265   11.574
 4304.00    0.79795   0.79342   11.671
 4305.00    0.81773   0.79426   11.848
 4306.00    0.78372   0.79541   11.865
 4307.00    0.73149   0.79761   11.940
 4308.00    0.71342   0.80154   12.337
 4309.00    0.72623   0.80736   12.796
 4310.00    0.74491   0.81464   12.900
 4311.00    0.76776   0.82270   12.760
 4312.00    0.79600   0.83108   12.695
 4313.00    0.81068   0.83969   12.781
 4314.00    0.80118   0.84844   12.915
 4315.00    0.79079   0.85688   12.923
 4316.00    0.80071   0.86410   12.762
 4317.00    0.81942   0.86891   12.648
 4318.00    0.83153   0.87034   12.710
 4319.00    0.84113   0.86785   12.763
 4320.00    0.84961   0.86151   12.660
 4321.00    0.84074   0.85195   12.541
 4322.00    0.80585   0.84042   12.534
 4323.00    0.76064   0.82879   12.573
 4324.00    0.73230   0.81921   12.588
 4325.00    0.74503   0.81335   12.611
 4326.00    0.78914   0.81160   12.665
 4327.00    0.81411   0.81279   12.699
 4328.00    0.79544   0.81474   12.722
 4329.00    0.76313   0.81511   12.833
 4330.00    0.74783   0.81209    0.000
 4331.00    0.75411   0.80441    0.000
 4332.00    0.77469   0.79116    0.000
 4333.00    0.79776   0.77152    0.000
 4334.00    0.80550   0.74492    0.000
 4335.00    0.78102   0.71198    0.000
 4336.00    0.73951   0.67525    0.000
 4337.00    0.72686   0.63920    0.000
 4338.00    0.76481   0.60939    0.000
 4339.00    0.83366   0.59101    0.000
 4340.00    0.88915   0.58720    0.000
 4341.00    0.88489   0.59804    0.000
 4342.00    0.82331   0.62077    0.000
 4343.00    0.75373   0.65092    0.000
 4344.00    0.71493   0.68363    0.000
 4345.00    0.71524   0.71467    0.000
 4346.00    0.72936   0.74109    0.000
 4347.00    0.71943   0.76144    0.000
 4348.00    0.69067   0.77570    0.000
 4349.00    0.67947   0.78516    0.000
 4350.00    0.68983   0.79210    0.000
 4351.00    0.69954   0.79906   14.600
 4352.00    0.70872   0.80781   14.198
 4353.00    0.73344   0.81873   13.546
 4354.00    0.76956   0.83091   12.975
 4355.00    0.79915   0.84282   12.526
 4356.00    0.81741   0.85320   12.229
 4357.00    0.83359   0.86162   12.031
 4358.00    0.86252   0.86859   11.617
 4359.00    0.90843   0.87503   10.902
 4360.00    0.94258   0.88153   10.557
 4361.00    0.93171   0.88791   11.149
 4362.00    0.88612   0.89325   12.245
 4363.00    0.84052   0.89649   12.693
 4364.00    0.81622   0.89691   12.511
 4365.00    0.81961   0.89455   12.504
 4366.00    0.84716   0.89028   12.675
 4367.00    0.88280   0.88537   12.697
 4368.00    0.89642   0.88078   12.690
 4369.00    0.87385   0.87679   12.837
 4370.00    0.84739   0.87323   12.857
 4371.00    0.84776   0.86992   12.540
 4372.00    0.85374   0.86711   12.311
 4373.00    0.83848   0.86547   12.505
 4374.00    0.81719   0.86577   12.803
 4375.00    0.81602   0.86820   12.788
 4376.00    0.83888   0.87184   12.588
 4377.00    0.86124   0.87461   12.517
 4378.00    0.83583   0.87404   12.706
 4379.00    0.76383   0.86846   13.088
 4380.00    0.73290   0.85786   13.375
 4381.00    0.77869   0.84383   13.351
 4382.00    0.80496   0.82904   13.144
 4383.00    0.75602   0.81651   12.995
 4384.00    0.71434   0.80866   13.047
 4385.00    0.74329   0.80637   13.219
 4386.00    0.79888   0.80923   13.193
 4387.00    0.82425   0.81606   12.945
 4388.00    0.80769   0.82522   12.901
 4389.00    0.77585   0.83501   13.214
 4390.00    0.77635   0.84415   13.492
 4391.00    0.81810   0.85205   13.398
 4392.00    0.85631   0.85862   13.033
 4393.00    0.86324   0.86404   12.729
 4394.00    0.85393   0.86853   12.791
 4395.00    0.85016   0.87211   13.131
 4396.00    0.86205   0.87459   13.250
 4397.00    0.88105   0.87577   13.036
 4398.00    0.88573   0.87538   12.927
 4399.00    0.87198   0.87329   13.061
 4400.00    0.85558   0.86981   13.170
 4401.00    0.84224   0.86559   13.175
 4402.00    0.82448   0.86121   13.264
 4403.00    0.80511   0.85725   13.405
 4404.00    0.80040   0.85447   13.348
 4405.00    0.82675   0.85369   13.133
 4406.00    0.88390   0.85534   13.057
 4407.00    0.92250   0.85934   13.208
 4408.00    0.88267   0.86489   13.453
 4409.00    0.80864   0.87040   13.631
 4410.00    0.80216   0.87395   13.642
 4411.00    0.85016   0.87426   13.549
 4412.00    0.86317   0.87118   13.497
 4413.00    0.84290   0.86591   13.531
 4414.00    0.85223   0.86067   13.594
 4415.00    0.88434   0.85779   13.614
 4416.00    0.88676   0.85857   13.563
 4417.00    0.85361   0.86275   13.537
 4418.00    0.81683   0.86890   13.644
 4419.00    0.80127   0.87523   13.803
 4420.00    0.81243   0.88029   13.862
 4421.00    0.83095   0.88339   13.854
 4422.00    0.83631   0.88467   13.886
 4423.00    0.84102   0.88479   13.904
 4424.00    0.86256   0.88438   13.799
 4425.00    0.88038   0.88363   13.597
 4426.00    0.87071   0.88249   13.428
 4427.00    0.85484   0.88100   13.436
 4428.00    0.85888   0.87909   13.645
 4429.00    0.86271   0.87656   13.807
 4430.00    0.84443   0.87337   13.702
 4431.00    0.83080   0.86983   13.518
 4432.00    0.84551   0.86672   13.478
 4433.00    0.85678   0.86509   13.492
 4434.00    0.83574   0.86585   13.465
 4435.00    0.81100   0.86919   13.571
 4436.00    0.81522   0.87419   13.878
 4437.00    0.83739   0.87904   14.020
 4438.00    0.85329   0.88185   13.829
 4439.00    0.85346   0.88167   13.816
 4440.00    0.84125   0.87905   14.246
 4441.00    0.82855   0.87573   14.554
 4442.00    0.82581   0.87353   14.288
 4443.00    0.83492   0.87372   13.896
 4444.00    0.84701   0.87658   13.814
 4445.00    0.84570   0.88119   14.009
 4446.00    0.83348   0.88586   14.249
 4447.00    0.83921   0.88927   14.274
 4448.00    0.87025   0.89059   14.100
 4449.00    0.89434   0.88938   14.075
 4450.00    0.88823   0.88556   14.349
 4451.00    0.85974   0.87954   14.708
 4452.00    0.82695   0.87225   14.980
 4453.00    0.80656   0.86463   15.231
 4454.00    0.80962   0.85747   15.421
 4455.00    0.83700   0.85151   15.336
 4456.00    0.86856   0.84713   15.037
 4457.00    0.87174   0.84427   14.874
 4458.00    0.85014   0.84290   14.939
 4459.00    0.84194   0.84319   15.011
 4460.00    0.84926   0.84492   14.937
 4461.00    0.83639   0.84763    0.000
 4462.00    0.80694   0.85071    0.000
 4463.00    0.80354   0.85324    0.000
 4464.00    0.82988   0.85411    0.000
 4465.00    0.85039   0.85260    0.000
 4466.00    0.85645   0.84875    0.000
 4467.00    0.86549   0.84351    0.000
 4468.00    0.86980   0.83900    0.000
 4469.00    0.84739   0.83757    0.000
 4470.00    0.81905   0.84053    0.000
 4471.00    0.82704   0.84802    0.000
 4472.00    0.85833   0.85913    0.000
 4473.00    0.86641   0.87197    0.000
 4474.00    0.85077   0.88383    0.000
 4475.00    0.84485   0.89196    0.000
 4476.00    0.86163   0.89451    0.000
 4477.00    0.89086   0.89141    0.000
 4478.00    0.91346   0.88464    0.000
 4479.00    0.91239   0.87729    0.000
 4480.00    0.88584   0.87222    0.000
 4481.00    0.84454   0.87138    0.000
 4482.00    0.80428   0.87505   15.683
 4483.00    0.78259   0.88161   15.583
 4484.00    0.79482   0.88834   15.549
 4485.00    0.83968   0.89284   15.388
 4486.00    0.88318   0.89408   15.257
 4487.00    0.89142   0.89252   15.369
 4488.00    0.87138   0.88952   15.615
 4489.00    0.85159   0.88639   15.739
 4490.00    0.85338   0.88384   15.626
 4491.00    0.87511   0.88225   15.376
 4492.00    0.88304   0.88173   15.266
 4493.00    0.85757   0.88226   15.416
 4494.00    0.83382   0.88396   15.546
 4495.00    0.84512   0.88688   15.427
 4496.00    0.87290   0.89074   15.306
 4497.00    0.88835   0.89514   15.380
 4498.00    0.88958   0.90014   15.416
 4499.00    0.88886   0.90598   15.221
 4500.00    0.89835   0.91249   14.996
 4501.00    0.91524   0.91918   14.941
 4502.00    0.91730   0.92535   15.014
 4503.00    0.90144   0.93018   15.165
 4504.00    0.90065   0.93309   15.472
 4505.00    0.92322   0.93405   15.920
 4506.00    0.92623   0.93348   16.272
 4507.00    0.88879   0.93184   16.342
 4508.00    0.84541   0.92937   16.203
 4509.00    0.82868   0.92620   16.065
 4510.00    0.84016   0.92230   16.121
 4511.00    0.86709   0.91774   16.303
 4512.00    0.89289   0.91296   16.260
 4513.00    0.90390   0.90844   15.920
 4514.00    0.89408   0.90464   15.632
 4515.00    0.87205   0.90201   15.629
 4516.00    0.85769   0.90076   15.893
 4517.00    0.85722   0.90055   16.235
 4518.00    0.85964   0.90047   16.373
 4519.00    0.86012   0.89954   16.231
 4520.00    0.86491   0.89727   15.999
 4521.00    0.87801   0.89335   15.856
 4522.00    0.89488   0.88761   15.879
 4523.00    0.89789   0.88025   16.041
 4524.00    0.86928   0.87177   16.246
 4525.00    0.83119   0.86297   16.414
 4526.00    0.82889   0.85502   16.486
 4527.00    0.85620   0.84896   16.355
 4528.00    0.86621   0.84533   16.039
 4529.00    0.84756   0.84396   16.058
 4530.00    0.82541   0.84418   16.813
 4531.00    0.81869   0.84569   16.838
 4532.00    0.83172   0.84884   14.473
 4533.00    0.85823   0.85407   11.976
 4534.00    0.88611   0.86118   10.974
 4535.00    0.90474   0.86923   10.978
 4536.00    0.90614   0.87698   11.145
 4537.00    0.88484   0.88338   11.327
 4538.00    0.84779   0.88793   11.746
 4539.00    0.82943   0.89067   12.045
 4540.00    0.85670   0.89168   11.703
 4541.00    0.89316   0.89118   11.204
 4542.00    0.88697   0.88976   11.229
 4543.00    0.85114   0.88790   11.734
 4544.00    0.82879   0.88544   12.200
 4545.00    0.83094   0.88195   12.066
 4546.00    0.84453   0.87755   11.487
 4547.00    0.85374   0.87308   11.656
 4548.00    0.84984   0.86902   13.598
 4549.00    0.83922   0.86532   16.656
 4550.00    0.83525   0.86220    0.000
 4551.00    0.84743   0.86009    0.000
 4552.00    0.86887   0.85954    0.000
 4553.00    0.86854   0.86130    0.000
 4554.00    0.83024   0.86559    0.000
 4555.00    0.78522   0.87194    0.000
 4556.00    0.76922   0.87958    0.000
 4557.00    0.78419   0.88748    0.000
 4558.00    0.81326   0.89437    0.000
 4559.00    0.83736   0.89897    0.000
 4560.00    0.85027   0.90046    0.000
 4561.00    0.86530   0.89930    0.000
 4562.00    0.88802   0.89689    0.000
 4563.00    0.90127   0.89477    0.000
 4564.00    0.89456   0.89398    0.000
 4565.00    0.88010   0.89478    0.000
 4566.00    0.86961   0.89670    0.000
 4567.00    0.86249   0.89863    0.000
 4568.00    0.86128   0.89961    0.000
 4569.00    0.87644   0.89986    0.000
 4570.00    0.90453   0.89996    0.000
 4571.00    0.92191   0.89986    0.000
 4572.00    0.90994   0.89963    0.000
 4573.00    0.86923   0.89952    0.000
 4574.00    0.82715   0.89924    0.000
 4575.00    0.82593   0.89798    0.000
 4576.00    0.86359   0.89506    0.000
 4577.00    0.88991   0.89059    0.000
 4578.00    0.88325   0.88528    0.000
 4579.00    0.86764   0.87984    0.000
 4580.00    0.86765   0.87500    0.000
 4581.00    0.88806   0.87166    0.000
 4582.00    0.90277   0.87042    0.000
 4583.00    0.87539   0.87121    0.000
 4584.00    0.82884   0.87371    0.000
 4585.00    0.82603   0.87734    0.000
 4586.00    0.86004   0.88110    0.000
 4587.00    0.86800   0.88385    0.000
 4588.00    0.84523   0.88496    0.000
 4589.00    0.83605   0.88453    0.000
 4590.00    0.84175   0.88313    0.000
 4591.00    0.83062   0.88118    0.000
 4592.00    0.80820   0.87912    0.000
 4593.00    0.80642   0.87760    0.000
 4594.00    0.82951   0.87711    0.000
 4595.00    0.85179   0.87758    0.000
 4596.00    0.83647   0.87852    0.000
 4597.00    0.77381   0.87930    0.000
 4598.00    0.73700   0.87980    0.000
 4599.00    0.80215   0.88028    0.000
 4600.00    0.90827   0.88088    0.000
 4601.00    0.94395   0.88174    0.000
 4602.00    0.90885   0.88309    0.000
 4603.00    0.86621   0.88545    0.000
 4604.00    0.84339   0.88923    0.000
 4605.00    0.84213   0.89433    0.000
 4606.00    0.86854   0.89997    0.000
 4607.00    0.91620   0.90515    0.000
 4608.00    0.94466   0.90908    0.000
 4609.00    0.92224   0.91141    0.000
 4610.00    0.87371   0.91213    0.000
 4611.00    0.84333   0.91177    0.000
 4612.00    0.85046   0.91078    0.000
 4613.00    0.88405   0.90924    0.000
 4614.00    0.90604   0.90754    0.000
 4615.00    0.89603   0.90571    0.000
 4616.00    0.88481   0.90379    0.000
 4617.00    0.89630   0.90265    0.000
 4618.00    0.90361   0.90277    0.000
 4619.00    0.88702   0.90384    0.000
 4620.00    0.87422   0.90560    0.000
 4621.00    0.88409   0.90755    0.000
 4622.00    0.89119   0.90900    0.000
 4623.00    0.87601   0.90960    0.000
 4624.00    0.85540   0.90936    0.000
 4625.00    0.85084   0.90810    0.000
 4626.00    0.86722   0.90586    0.000
 4627.00    0.89182   0.90361    0.000
 4628.00    0.90000   0.90215    0.000
 4629.00    0.88495   0.90095    0.000
 4630.00    0.86751   0.89926    0.000
 4631.00    0.86523   0.89713    0.000
 4632.00    0.87766   0.89479    0.000
 4633.00    0.89145   0.89213    0.000
 4634.00    0.88878   0.88892    0.000
 4635.00    0.87045   0.88537    0.000
 4636.00    0.85619   0.88202    0.000
 4637.00    0.84739   0.87924    0.000
 4638.00    0.82623   0.87746    0.000
 4639.00    0.80538   0.87661    0.000
 4640.00    0.82294   0.87599    0.000
 4641.00    0.86575   0.87485    0.000
 4642.00    0.87585   0.87241    0.000
 4643.00    0.85013   0.86813    0.000
 4644.00    0.83915   0.86263    0.000
 4645.00    0.85378   0.85726    0.000
 4646.00    0.86301   0.85334    0.000
 4647.00    0.86080   0.85186    0.000
 4648.00    0.86563   0.85314    0.000
 4649.00    0.87509   0.85687    0.000
 4650.00    0.87126   0.86200    0.000
 4651.00    0.85831   0.86696    0.000
 4652.00    0.85336   0.87110    0.000
 4653.00    0.84984   0.87462    0.000
 4654.00    0.83103   0.87813    0.000
 4655.00    0.81087   0.88249    0.000
 4656.00    0.81500   0.88771    0.000
 4657.00    0.83319   0.89279    0.000
 4658.00    0.83868   0.89633    0.000
 4659.00    0.83426   0.89733    0.000
 4660.00    0.83776   0.89544    0.000
 4661.00    0.84792   0.89077    0.000
 4662.00    0.85112   0.88349    0.000
 4663.00    0.83912   0.87388    0.000
 4664.00    0.81417   0.86317    0.000
 4665.00    0.79156   0.85378    0.000
 4666.00    0.78618   0.84772    0.000
 4667.00    0.79583   0.84581    0.000
 4668.00    0.80753   0.84784    0.000
 4669.00    0.80793   0.85270    0.000
 4670.00    0.79403   0.85896    0.000
 4671.00    0.78183   0.86562    0.000
 4672.00    0.78846   0.87195    0.000
 4673.00    0.81369   0.87728    0.000
 4674.00    0.84331   0.88083    0.000
 4675.00    0.85599   0.88220    0.000
 4676.00    0.84352   0.88171    0.000
 4677.00    0.82458   0.88011    0.000
 4678.00    0.81783   0.87805    0.000
 4679.00    0.82100   0.87622    0.000
 4680.00    0.82312   0.87528    0.000
 4681.00    0.81648   0.87522    0.000
 4682.00    0.80771   0.87571    0.000
 4683.00    0.81921   0.87660    0.000
 4684.00    0.85248   0.87767    0.000
 4685.00    0.87263   0.87859    0.000
 4686.00    0.85926   0.87922    0.000
 4687.00    0.83176   0.87947    0.000
 4688.00    0.81741   0.87931    0.000
 4689.00    0.82989   0.87919    0.000
 4690.00    0.85583   0.87955    0.000
 4691.00    0.85922   0.88041    0.000
 4692.00    0.83194   0.88154    0.000
 4693.00    0.80673   0.88241    0.000
 4694.00    0.80769   0.88207    0.000
 4695.00    0.83103   0.87970    0.000
 4696.00    0.85849   0.87559    0.000
 4697.00    0.86857   0.87074    0.000
 4698.00    0.85600   0.86572    0.000
 4699.00    0.83394   0.86070    0.000
 4700.00    0.81659   0.85624    0.000
 4701.00    0.81076   0.85315    0.000
 4702.00    0.80970   0.85169    0.000
 4703.00    0.80016   0.85133    0.000
 4704.00    0.78825   0.85135    0.000
 4705.00    0.79266   0.85139    0.000
 4706.00    0.80565   0.85157    0.000
 4707.00    0.80327   0.85235    0.000
 4708.00    0.79801   0.85389    0.000
 4709.00    0.82191   0.85539    0.000
 4710.00    0.85633   0.85627    0.000
 4711.00    0.85392   0.85709    0.000
 4712.00    0.82140   0.85894    0.000
 4713.00    0.80302   0.86244    0.000
 4714.00    0.81064   0.86749    0.000
 4715.00    0.82605   0.87364    0.000
 4716.00    0.83259   0.88039    0.000
 4717.00    0.82480   0.88725    0.000
 4718.00    0.81385   0.89345    0.000
 4719.00    0.81583   0.89814    0.000
 4720.00    0.83157   0.90097    0.000
 4721.00    0.84813   0.90213    0.000
 4722.00    0.84678   0.90160    0.000
 4723.00    0.82201   0.89892    0.000
 4724.00    0.80348   0.89371    0.000
 4725.00    0.81806   0.88646    0.000
 4726.00    0.84025   0.87860    0.000
 4727.00    0.83541   0.87138    0.000
 4728.00    0.81604   0.86560    0.000
 4729.00    0.80817   0.86200    0.000
 4730.00    0.80865   0.86099    0.000
 4731.00    0.80652   0.86222    0.000
 4732.00    0.80791   0.86502    0.000
 4733.00    0.81573   0.86830    0.000
 4734.00    0.81168   0.87127    0.000
 4735.00    0.79081   0.87421    0.000
 4736.00    0.78762   0.87715    0.000
 4737.00    0.81965   0.87939    0.000
 4738.00    0.84723   0.88084    0.000
 4739.00    0.84069   0.88208    0.000
 4740.00    0.82692   0.88351    0.000
 4741.00    0.83167   0.88503    0.000
 4742.00    0.84141   0.88647    0.000
 4743.00    0.84061   0.88789    0.000
 4744.00    0.83525   0.88936    0.000
 4745.00    0.83355   0.89062    0.000
 4746.00    0.83419   0.89144    0.000
 4747.00    0.83227   0.89176    0.000
 4748.00    0.82464   0.89120    0.000
 4749.00    0.81787   0.88947    0.000
 4750.00    0.82681   0.88678    0.000
 4751.00    0.84814   0.88347    0.000
 4752.00    0.85600   0.87998    0.000
 4753.00    0.84166   0.87689    0.000
 4754.00    0.82392   0.87456    0.000
 4755.00    0.81577   0.87307    0.000
 4756.00    0.81335   0.87227    0.000
 4757.00    0.80956   0.87163    0.000
 4758.00    0.80156   0.87019    0.000
 4759.00    0.79700   0.86717    0.000
 4760.00    0.80841   0.86279    0.000
 4761.00    0.82771   0.85784   21.646
 4762.00    0.82990   0.85303   21.858
 4763.00    0.81037   0.84913   22.379
 4764.00    0.78854   0.84713   22.735
 4765.00    0.78499   0.84756   22.652
 4766.00    0.80767   0.85027   22.276
 4767.00    0.83508   0.85451   22.010
 4768.00    0.83368   0.85905   22.196
 4769.00    0.80985   0.86312   22.585
 4770.00    0.79973   0.86701   22.588
 4771.00    0.81760   0.87103   22.290
 4772.00    0.84931   0.87477   22.226
 4773.00    0.86450   0.87771   22.444
 4774.00    0.84005   0.87986   22.655
 4775.00    0.79846   0.88133   22.858
 4776.00    0.78350   0.88175   23.247
 4777.00    0.80386   0.88087   23.787
 4778.00    0.83854   0.87892   24.257
 4779.00    0.86327   0.87605   24.526
 4780.00    0.86258   0.87236   24.611
 4781.00    0.84087   0.86848   24.647
 4782.00    0.81535   0.86509   24.692
 4783.00    0.80301   0.86209   24.503
 4784.00    0.80924   0.85959   23.918
 4785.00    0.81697   0.85820   23.322
 4786.00    0.81133   0.85793   23.063
 4787.00    0.80935   0.85871   22.888
 4788.00    0.82821   0.86096   22.539
 4789.00    0.84767   0.86460   22.354
 4790.00    0.84502   0.86931   22.616
 4791.00    0.83394   0.87489   22.906
 4792.00    0.83526   0.88041   22.767
 4793.00    0.84564   0.88455   22.454
 4794.00    0.85430   0.88669   22.361
 4795.00    0.86000   0.88675   22.468
 4796.00    0.86120   0.88500   22.582
 4797.00    0.84851   0.88236   22.553
 4798.00    0.82238   0.87989   22.381
 4799.00    0.80404   0.87817   22.231
 4800.00    0.80726   0.87708   22.183
 4801.00    0.81976   0.87607   22.104
 4802.00    0.82349   0.87466   22.041
 4803.00    0.81052   0.87301   22.378
 4804.00    0.78906   0.87144   23.103
 4805.00    0.78147   0.86987   23.405
 4806.00    0.79333   0.86841   22.927
 4807.00    0.80273   0.86753   22.428
 4808.00    0.80280   0.86737   22.363
 4809.00    0.81608   0.86785   22.423
 4810.00    0.84727   0.86893   22.364
 4811.00    0.86811   0.87055   22.314
 4812.00    0.86215   0.87267   22.322
 4813.00    0.84072   0.87519   22.207
 4814.00    0.81858   0.87790   21.895
 4815.00    0.80332   0.88044   21.530
 4816.00    0.79754   0.88229   21.332
 4817.00    0.79992   0.88301   21.464
 4818.00    0.80512   0.88228   21.732
 4819.00    0.80600   0.87977   21.677
 4820.00    0.80071   0.87526   21.411
 4821.00    0.79396   0.86938   21.535
 4822.00    0.79291   0.86411   22.026
 4823.00    0.80243   0.86067   22.235
 4824.00    0.81571   0.85859   22.085
 4825.00    0.81836   0.85709   22.100
 4826.00    0.80675   0.85595   22.329
 4827.00    0.78947   0.85540   22.387
 4828.00    0.77787   0.85540   22.314
 4829.00    0.77904   0.85507   22.455
 4830.00    0.78585   0.85422   22.679
 4831.00    0.78572   0.85370   22.548
 4832.00    0.78366   0.85363   22.168
 4833.00    0.79102   0.85345   21.938
 4834.00    0.79411   0.85286   21.768
 4835.00    0.77457   0.85173   21.603
 4836.00    0.75698   0.84980   22.515
 4837.00    0.77640   0.84711   25.025
 4838.00    0.80980   0.84419   23.903
 4839.00    0.81348   0.84145   17.259
 4840.00    0.79934   0.83879   12.882
 4841.00    0.79994   0.83623   11.794
 4842.00    0.80126   0.83422   12.391
 4843.00    0.77820   0.83255   13.152
 4844.00    0.75396   0.83026   13.295
 4845.00    0.75963   0.82651   13.001
 4846.00    0.77526   0.82140   12.884
 4847.00    0.76762   0.81583   13.241
 4848.00    0.74199   0.80996    0.000
 4849.00    0.72036   0.80265    0.000
 4850.00    0.71116   0.79317    0.000
 4851.00    0.71148   0.78126    0.000
 4852.00    0.71327   0.76628    0.000
 4853.00    0.71061   0.74844    0.000
 4854.00    0.70611   0.72874    0.000
 4855.00    0.71128   0.70733    0.000
 4856.00    0.74495   0.68386    0.000
 4857.00    0.82178   0.65898    0.000
 4858.00    0.94138   0.63478    0.000
 4859.00    1.07751   0.61566    0.000
 4860.00    1.17608   0.60604    0.000
 4861.00    1.19644   0.60655    0.000
 4862.00    1.13909   0.61521    0.000
 4863.00    1.03315   0.63071    0.000
 4864.00    0.92188   0.65136    0.000
 4865.00    0.83262   0.67429    0.000
 4866.00    0.76340   0.69644    0.000
 4867.00    0.70966   0.71518    0.000
 4868.00    0.67741   0.72898    0.000
 4869.00    0.66986   0.73869    0.000
 4870.00    0.68099   0.74696    0.000
 4871.00    0.70034   0.75542    0.000
 4872.00    0.71729   0.76398    0.000
 4873.00    0.72903   0.77260    0.000
 4874.00    0.74053   0.78171    0.000
 4875.00    0.75038   0.79142   22.971
 4876.00    0.74942   0.80122   22.745
 4877.00    0.73843   0.81007   22.927
 4878.00    0.72980   0.81638   23.055
 4879.00    0.72897   0.81965   22.953
 4880.00    0.73065   0.82098   22.927
 4881.00    0.72866   0.82086   23.156
 4882.00    0.72177   0.81907   23.535
 4883.00    0.72061   0.81600   23.796
 4884.00    0.73998   0.81272   23.696
 4885.00    0.77217   0.81034   23.442
 4886.00    0.79187   0.80909   23.479
 4887.00    0.78840   0.80848   23.744
 4888.00    0.77083   0.80839   23.793
 4889.00    0.75863   0.81028   23.609
 4890.00    0.76788   0.81607   23.524
 4891.00    0.78676   0.82514   23.580
 4892.00    0.79105   0.83556   23.609
 4893.00    0.78657   0.84609   23.655
 4894.00    0.79503   0.85559   23.878
 4895.00    0.81077   0.86315   24.176
 4896.00    0.81477   0.86781   24.326
 4897.00    0.81320   0.86877   24.392
 4898.00    0.82107   0.86719   24.586
 4899.00    0.82529   0.86505   24.891
 4900.00    0.80801   0.86269   25.100
 4901.00    0.78974   0.86027   25.004
 4902.00    0.79860   0.85887   24.592
 4903.00    0.81965   0.85901   24.209
 4904.00    0.82561   0.85969   24.190
 4905.00    0.82448   0.85933   24.468
 4906.00    0.83142   0.85743   24.782
 4907.00    0.82940   0.85449   24.961
 4908.00    0.80292   0.85142   24.951
 4909.00    0.77823   0.84930   24.797
 4910.00    0.78417   0.84846   24.563
 4911.00    0.80851   0.84834   24.279
 4912.00    0.82450   0.84837   24.051
 4913.00    0.82112   0.84779   24.146
 4914.00    0.80319   0.84519   24.658
 4915.00    0.78709   0.83906   25.220
 4916.00    0.78466   0.82895   25.441
 4917.00    0.79080   0.81626   25.406
 4918.00    0.79225   0.80356   25.414
 4919.00    0.77735   0.79334   25.686
 4920.00    0.75078   0.78777   26.198
 4921.00    0.73871   0.78710   26.599
 4922.00    0.75251   0.79110   26.626
 4923.00    0.77004   0.80006   26.418
 4924.00    0.77606   0.81320   26.159
 4925.00    0.78303   0.82754   25.870
 4926.00    0.79825   0.84076   25.626
 4927.00    0.80885   0.85171   25.620
 4928.00    0.80895   0.85940   25.827
 4929.00    0.81020   0.86343   25.923
 4930.00    0.81791   0.86321   25.833
 4931.00    0.82227   0.85889   25.896
 4932.00    0.81563   0.85302   26.250
 4933.00    0.80010   0.84775   26.649
 4934.00    0.78412   0.84260   26.876
 4935.00    0.77774   0.83705   26.911
 4936.00    0.78057   0.83229   26.687
 4937.00    0.78217   0.83045   26.117
 4938.00    0.78080   0.83260   25.510
 4939.00    0.78547   0.83727   25.403
 4940.00    0.79889   0.84256    0.000
 4941.00    0.81439   0.84855    0.000
 4942.00    0.82501   0.85512    0.000
 4943.00    0.82836   0.86107    0.000
 4944.00    0.83166   0.86586    0.000
 4945.00    0.84514   0.86976    0.000
 4946.00    0.86119   0.87278    0.000
 4947.00    0.86100   0.87485    0.000
 4948.00    0.84481   0.87593    0.000
 4949.00    0.82955   0.87586    0.000
 4950.00    0.82555   0.87398    0.000
 4951.00    0.83212   0.87017    0.000
 4952.00    0.84034   0.86502    0.000
 4953.00    0.84138   0.85875    0.000
 4954.00    0.84095   0.85102    0.000
 4955.00    0.84963   0.84254    0.000
 4956.00    0.86027   0.83709    0.000
 4957.00    0.85827   0.83683    0.000
 4958.00    0.84554   0.83939    0.000
 4959.00    0.83458   0.84238    0.000
 4960.00    0.83233   0.84553    0.000
 4961.00    0.83623   0.84909    0.000
 4962.00    0.83314   0.85161    0.000
 4963.00    0.81479   0.85137    0.000
 4964.00    0.79749   0.84921    0.000
 4965.00    0.79803   0.84692    0.000
 4966.00    0.80224   0.84530    0.000
 4967.00    0.79301   0.84475    0.000
 4968.00    0.78529   0.84548    0.000
 4969.00    0.79564   0.84787    0.000
 4970.00    0.80766   0.85152    0.000
 4971.00    0.80449   0.85518    0.000
 4972.00    0.80207   0.85813    0.000
 4973.00    0.81452   0.85956    0.000
 4974.00    0.82255   0.85881    0.000
 4975.00    0.80985   0.85552    0.000
 4976.00    0.79348   0.84948    0.000
 4977.00    0.78951   0.84156    0.000
 4978.00    0.78641   0.83254    0.000
 4979.00    0.77217   0.82251    0.000
 4980.00    0.75428   0.81229    0.000
 4981.00    0.74440   0.80421    0.000
 4982.00    0.74641   0.80014    0.000
 4983.00    0.75519   0.79984    0.000
 4984.00    0.75896   0.80255    0.000
 4985.00    0.75485   0.80770    0.000
 4986.00    0.75486   0.81393    0.000
 4987.00    0.76603   0.81984    0.000
 4988.00    0.78172   0.82448    0.000
 4989.00    0.79576   0.82777    0.000
 4990.00    0.80827   0.83033    0.000
 4991.00    0.81702   0.83163    0.000
 4992.00    0.81542   0.83177    0.000
 4993.00    0.80303   0.83191    0.000
 4994.00    0.78827   0.83172    0.000
 4995.00    0.77986   0.83046    0.000
 4996.00    0.78189   0.82764    0.000
 4997.00    0.78868   0.82289    0.000
 4998.00    0.78886   0.81681    0.000
 4999.00    0.78545   0.81036    0.000
 5000.00    0.79407   0.80445    0.000
 5001.00    0.81397   0.79985    0.000
 5002.00    0.82896   0.79587    0.000
 5003.00    0.83832   0.79224    0.000
 5004.00    0.85674   0.79003    0.000
 5005.00    0.88757   0.79049    0.000
 5006.00    0.91982   0.79285    0.000
 5007.00    0.94050   0.79456    0.000
 5008.00    0.93985   0.79444    0.000
 5009.00    0.91585   0.79289    0.000
 5010.00    0.87437   0.78984    0.000
 5011.00    0.82721   0.78534    0.000
 5012.00    0.78747   0.77986    0.000
 5013.00    0.76121   0.77483    0.000
 5014.00    0.74846   0.77182    0.000
 5015.00    0.74804   0.77031    0.000
 5016.00    0.75608   0.77025    0.000
 5017.00    0.76185   0.77275    0.000
 5018.00    0.75628   0.77768    0.000
 5019.00    0.74640   0.78315    0.000
 5020.00    0.74614   0.78789    0.000
 5021.00    0.75904   0.79282    0.000
 5022.00    0.77738   0.79849    0.000
 5023.00    0.78548   0.80360    0.000
 5024.00    0.77345   0.80717    0.000
 5025.00    0.75331   0.80939    0.000
 5026.00    0.74442   0.81204    0.000
 5027.00    0.75322   0.81589    0.000
 5028.00    0.77254   0.81938    0.000
 5029.00    0.78506   0.82206   27.904
 5030.00    0.78116   0.82456   27.877
 5031.00    0.77501   0.82668   28.107
 5032.00    0.78116   0.82669   27.986
 5033.00    0.79202   0.82293   27.629
 5034.00    0.79586   0.81659   27.431
 5035.00    0.79389   0.81016   27.587
 5036.00    0.78989   0.80339   28.073
 5037.00    0.78114   0.79551   28.641
 5038.00    0.76481   0.78765   29.000
 5039.00    0.74374   0.78265   29.012
 5040.00    0.72780   0.78309   28.830
 5041.00    0.73154   0.78781   28.854
 5042.00    0.75365   0.79385   29.132
 5043.00    0.76916   0.80041   29.123
 5044.00    0.76783   0.80687   28.767
 5045.00    0.77145   0.81145   28.845
 5046.00    0.79202   0.81299   29.122
 5047.00    0.81212   0.81222   28.056
 5048.00    0.81417   0.81079   26.945
 5049.00    0.79666   0.80930   29.515
 5050.00    0.77290   0.80850   32.751
 5051.00    0.76435   0.80978   23.933
 5052.00    0.77545   0.81335   15.072
 5053.00    0.78871   0.81790   12.098
 5054.00    0.79332   0.82260   12.156
 5055.00    0.79352   0.82779   12.834
 5056.00    0.79253   0.83322   12.806
 5057.00    0.78879   0.83732   12.551
 5058.00    0.78592   0.83960   12.584
 5059.00    0.79237   0.84053   12.792
 5060.00    0.80772   0.83987   12.628
 5061.00    0.82096   0.83674   11.795
 5062.00    0.81970   0.83088   11.606
 5063.00    0.79814   0.82432   14.340
 5064.00    0.77036   0.81909   23.085
 5065.00    0.76056   0.81455   33.083
 5066.00    0.76778   0.81017   29.858
 5067.00    0.77152   0.80716   26.628
 5068.00    0.76902   0.80634   27.533
 5069.00    0.77276   0.80628   28.956
 5070.00    0.78358   0.80551   28.882
 5071.00    0.79030   0.80494   28.283
 5072.00    0.78268   0.80470   28.055
 5073.00    0.75956   0.80342   28.328
 5074.00    0.73854   0.80089   28.683
 5075.00    0.73945   0.79797   28.547
 5076.00    0.75196   0.79440   27.999
 5077.00    0.75219   0.78912   27.570
 5078.00    0.73976   0.78387   27.674
 5079.00    0.72958   0.78115   28.435
 5080.00    0.72896   0.78069   29.445
 5081.00    0.73602   0.78119   30.029
 5082.00    0.74294   0.78316   30.010
 5083.00    0.74287   0.78764   29.763
 5084.00    0.73832   0.79345   29.885
 5085.00    0.73727   0.79884   30.607
 5086.00    0.74660   0.80380   31.136
 5087.00    0.76641   0.80884   30.593
 5088.00    0.78543   0.81323   29.462
 5089.00    0.79417   0.81633   28.607
 5090.00    0.79828   0.81850   28.265
 5091.00    0.80365   0.81983   28.330
 5092.00    0.80181   0.81936   28.590
 5093.00    0.78799   0.81648   28.900
 5094.00    0.77685   0.81187   29.318
 5095.00    0.77930   0.80644   29.831
 5096.00    0.78366   0.80058   30.116
 5097.00    0.77572   0.79502   30.106
 5098.00    0.75576   0.79149   30.366
 5099.00    0.73489   0.79059   31.063
 5100.00    0.72904   0.79112   31.279
 5101.00    0.74269   0.79191   30.479
 5102.00    0.76057   0.79274   29.499
 5103.00    0.76609   0.79366   29.123
 5104.00    0.75417   0.79385   29.439
 5105.00    0.73354   0.79268   30.080
 5106.00    0.72374   0.79111   30.356
 5107.00    0.73341   0.79019   30.043
 5108.00    0.75098   0.79012   29.717
 5109.00    0.75995   0.79150   29.773
 5110.00    0.75017   0.79443   30.041
 5111.00    0.73243   0.79832   30.099
 5112.00    0.73523   0.80275   29.589
 5113.00    0.76208   0.80713   28.896
 5114.00    0.78410   0.81119   28.936
 5115.00    0.78689   0.81433   29.778
 5116.00    0.78277   0.81545   30.459
 5117.00    0.78266   0.81413   30.454
 5118.00    0.78587   0.81056   30.248
 5119.00    0.78362   0.80524   30.394
 5120.00    0.76695   0.79862   31.088
 5121.00    0.74698   0.79087   31.874
 5122.00    0.74709   0.78313   31.863
 5123.00    0.76092   0.77701   31.198
 5124.00    0.75908   0.77265   30.845
 5125.00    0.74187   0.76974   30.900
 5126.00    0.73588   0.76819   30.802
 5127.00    0.74783   0.76837   30.720
 5128.00    0.76379   0.77046   31.273
 5129.00    0.77569   0.77386   32.061
 5130.00    0.78314   0.77739   32.014
 5131.00    0.78303   0.78045   31.408
 5132.00    0.77206   0.78339   31.287
 5133.00    0.75613   0.78627   31.468
 5134.00    0.74540   0.78780   31.166
 5135.00    0.74150   0.78710   30.756
 5136.00    0.74063   0.78490   31.047
 5137.00    0.74301   0.78237   31.663
 5138.00    0.74979   0.78060   31.670
 5139.00    0.75576   0.77885   31.218
 5140.00    0.75463   0.77596   31.089
 5141.00    0.74851   0.77347   31.581
 5142.00    0.74285   0.77271   32.437
 5143.00    0.73779   0.77265   32.830
 5144.00    0.73386   0.77167   32.244
 5145.00    0.73969   0.77008   31.623
 5146.00    0.75740   0.76945   31.837
 5147.00    0.76610   0.76969   32.150
 5148.00    0.75090   0.76921   31.560
 5149.00    0.73416   0.76818   30.536
 5150.00    0.73955   0.76791   29.912
 5151.00    0.75410   0.76860   29.801
 5152.00    0.75863   0.77018   29.974
 5153.00    0.75836   0.77294   30.164
 5154.00    0.76139   0.77729   30.189
 5155.00    0.75956   0.78263   30.059
 5156.00    0.75038   0.78766   29.836
 5157.00    0.75260   0.79139   29.530
 5158.00    0.77275   0.79363   29.248
 5159.00    0.78431   0.79332   29.251
 5160.00    0.77246   0.78911   29.618
 5161.00    0.76001   0.78137   30.053
 5162.00    0.75788   0.77096   30.245
 5163.00    0.73975   0.75823   30.159
 5164.00    0.69914   0.74344   29.969
 5165.00    0.67416   0.72775   29.925
 5166.00    0.68004   0.71383   30.110
 5167.00    0.68206   0.70430   30.344
 5168.00    0.66296   0.69941   30.455
 5169.00    0.64930   0.69707   30.424
 5170.00    0.65885   0.69650   30.351
 5171.00    0.68000   0.70046   30.369
 5172.00    0.70035   0.71031   30.378
 5173.00    0.71764   0.72242   30.109
 5174.00    0.72820   0.73277   29.874
 5175.00    0.72644   0.74142   30.470
 5176.00    0.72227   0.74908   31.790
 5177.00    0.73678   0.75364   32.526
 5178.00    0.76273   0.75348   32.177
 5179.00    0.76631   0.74973   31.680
 5180.00    0.74064   0.74368   31.721
 5181.00    0.71109   0.73620   32.320
 5182.00    0.69560   0.73039   33.061
 5183.00    0.69546   0.72985   33.331
 5184.00    0.70561   0.73378   33.112
 5185.00    0.71915   0.73881   32.910
 5186.00    0.73078   0.74384   32.822
 5187.00    0.73754   0.75029   32.595
 5188.00    0.73825   0.75715   32.330
 5189.00    0.73393   0.76030   32.351
 5190.00    0.72905   0.75954    0.000
 5191.00    0.72893   0.75879    0.000
 5192.00    0.73393   0.75978    0.000
 5193.00    0.74089   0.76093    0.000
 5194.00    0.74834   0.76196    0.000
 5195.00    0.75754   0.76464    0.000
 5196.00    0.77215   0.76905    0.000
 5197.00    0.79356   0.77329    0.000
 5198.00    0.81370   0.77551    0.000
 5199.00    0.82329   0.77541    0.000
 5200.00    0.82570   0.77319    0.000
 5201.00    0.82673   0.76886    0.000
 5202.00    0.81772   0.76190    0.000
 5203.00    0.78983   0.75292    0.000
 5204.00    0.75514   0.74477    0.000
 5205.00    0.73194   0.73933    0.000
 5206.00    0.72354   0.73625    0.000
 5207.00    0.72366   0.73583    0.000
 5208.00    0.72596   0.73931    0.000
 5209.00    0.72809   0.74620    0.000
 5210.00    0.73432   0.75480    0.000
 5211.00    0.74843   0.76371   33.650
 5212.00    0.76672   0.77213   33.647
 5213.00    0.78138   0.77897   33.894
 5214.00    0.78510   0.78419   33.822
 5215.00    0.77906   0.78906   33.165
 5216.00    0.77697   0.79379   32.584
 5217.00    0.78401   0.79753   32.559
 5218.00    0.78350   0.79963   32.735
 5219.00    0.76678   0.80023   32.694
 5220.00    0.75171   0.79877   32.506
 5221.00    0.75165   0.79447   32.339
 5222.00    0.75680   0.78781   32.186
 5223.00    0.75841   0.77983   32.039
 5224.00    0.76165   0.77147   31.981
 5225.00    0.76487   0.76473   32.018
 5226.00    0.75265   0.76200   32.029
 5227.00    0.72796   0.76302   32.026
 5228.00    0.72087   0.76573   32.194
 5229.00    0.74236   0.76948   32.345
 5230.00    0.76810   0.77403   31.881
 5231.00    0.77601   0.77832   30.990
 5232.00    0.76388   0.78193   30.687
 5233.00    0.74552   0.78560   31.279
 5234.00    0.74207   0.79008   32.089
 5235.00    0.75582   0.79496   32.452
 5236.00    0.76770   0.79979   32.254
 5237.00    0.76772   0.80462   31.921
 5238.00    0.76278   0.80938   32.055
 5239.00    0.76349   0.81349   32.571
 5240.00    0.77600   0.81559   32.725
 5241.00    0.79185   0.81547   32.276
 5242.00    0.79431   0.81463   31.703
 5243.00    0.78563   0.81311   31.455
 5244.00    0.78350   0.80913   31.666
 5245.00    0.78928   0.80313   31.902
 5246.00    0.78998   0.79808   31.561
 5247.00    0.78520   0.79451   31.154
 5248.00    0.78533   0.79050   31.687
 5249.00    0.79110   0.78672   32.769
 5250.00    0.79389   0.78594   33.044
 5251.00    0.78732   0.78790   32.755
 5252.00    0.77306   0.79008   33.150
 5253.00    0.76678   0.79209   33.925
 5254.00    0.78343   0.79549   33.845
 5255.00    0.80875   0.79965   33.199
 5256.00    0.81584   0.80195   33.062
 5257.00    0.80234   0.80099   33.319
 5258.00    0.78389   0.79698   33.327
 5259.00    0.77319   0.78994   33.369
 5260.00    0.77376   0.77970   33.956
 5261.00    0.77641   0.76739   34.427
 5262.00    0.76848   0.75437   33.883
 5263.00    0.74723   0.74125   32.941
 5264.00    0.72022   0.72983   32.595
 5265.00    0.70242   0.72276   32.833
 5266.00    0.70148   0.71930   33.231
 5267.00    0.70264   0.71657   33.675
 5268.00    0.69253   0.71571   34.138
 5269.00    0.68532   0.71981   34.341
 5270.00    0.69867   0.72769   34.129
 5271.00    0.72738   0.73581   33.871
 5272.00    0.75580   0.74382   33.999
 5273.00    0.77249   0.75294   34.599
 5274.00    0.77466   0.76284   35.434
 5275.00    0.76993   0.77246   35.972
 5276.00    0.76717   0.78061   35.907
 5277.00    0.76905   0.78608   35.616
 5278.00    0.77412   0.78912   35.578
 5279.00    0.77921   0.79143   35.927
 5280.00    0.78287   0.79351   36.436
 5281.00    0.78696   0.79464   36.560
 5282.00    0.79238   0.79574   36.108
 5283.00    0.79698   0.79925   35.569
 5284.00    0.80098   0.80556   35.243
 5285.00    0.80893   0.81234   34.890
 5286.00    0.82152   0.81805   34.328
 5287.00    0.83254   0.82324   33.709
 5288.00    0.83862   0.82800   33.262
 5289.00    0.84230   0.83068   33.154
 5290.00    0.84210   0.82995   33.422
 5291.00    0.83104   0.82627   33.916
 5292.00    0.81252   0.82122   34.192
 5293.00    0.80186   0.81551   33.714
 5294.00    0.80275   0.80852   32.882
 5295.00    0.80284   0.80030   32.802
 5296.00    0.79516   0.79314   33.535
 5297.00    0.78441   0.78958   33.944
 5298.00    0.77861   0.78922   33.469
 5299.00    0.78355   0.79023   32.682
 5300.00    0.79529   0.79280   32.234
 5301.00    0.80255   0.79814   32.429
 5302.00    0.80150   0.80542   33.015
 5303.00    0.79739   0.81232   33.361
 5304.00    0.79630   0.81772   33.371
 5305.00    0.80123   0.82207   33.522
 5306.00    0.80866   0.82588   34.081
 5307.00    0.81241   0.82889   34.887
 5308.00    0.81520   0.83050   35.286
 5309.00    0.82411   0.83057   34.718
 5310.00    0.83488   0.82944   34.079
 5311.00    0.83631   0.82747   34.684
 5312.00    0.82692   0.82508   36.137
 5313.00    0.81480   0.82220   36.857
 5314.00    0.81029   0.81857   36.630
 5315.00    0.81768   0.81503   36.454
 5316.00    0.82400   0.81274   36.680
 5317.00    0.81482   0.81101   37.079
 5318.00    0.80246   0.80833   37.438
 5319.00    0.80579   0.80509   37.640
 5320.00    0.81360   0.80181   37.656
 5321.00    0.80508   0.79685   37.582
 5322.00    0.78600   0.78891   37.687
 5323.00    0.77233   0.78027   38.113
 5324.00    0.76291   0.77316   38.510
 5325.00    0.75207   0.76619   38.510
 5326.00    0.74828   0.75870   38.404
 5327.00    0.75874   0.75458   38.530
 5328.00    0.77080   0.75671   38.546
 5329.00    0.77093   0.76224   38.150
 5330.00    0.76558   0.76795   37.850
 5331.00    0.76651   0.77456   38.121
 5332.00    0.77460   0.78298   38.650
 5333.00    0.78424   0.79066   38.968
 5334.00    0.78919   0.79472   39.114
 5335.00    0.78758   0.79572   39.254
 5336.00    0.78488   0.79592   39.302
 5337.00    0.78680   0.79534   39.131
 5338.00    0.79360   0.79296   38.769
 5339.00    0.80194   0.79029   38.368
 5340.00    0.80700   0.78968   38.132
 5341.00    0.80614   0.79060   38.127
 5342.00    0.80095   0.79129   38.204
 5343.00    0.79464   0.79157   38.222
 5344.00    0.78991   0.79247   38.174
 5345.00    0.78711   0.79442   37.987
 5346.00    0.78423   0.79643   37.479
 5347.00    0.78252   0.79787   36.682
 5348.00    0.78787   0.80035   35.906
 5349.00    0.80204   0.80535   35.370
 5350.00    0.81907   0.81159   35.118
 5351.00    0.83004   0.81744   35.252
 5352.00    0.82723   0.82355   35.937
 5353.00    0.81205   0.83030   36.894
 5354.00    0.79636   0.83604   37.312
 5355.00    0.79405   0.83951   36.903
 5356.00    0.81290   0.84106   36.217
 5357.00    0.83848   0.84108   35.687
 5358.00    0.84153   0.83922   35.382
 5359.00    0.82223   0.83514   35.263
 5360.00    0.80950   0.82940   35.276
 5361.00    0.81072   0.82320   35.400
 5362.00    0.80831   0.81700   35.655
 5363.00    0.79713   0.81042   36.101
 5364.00    0.78760   0.80362   -2.000
 5365.00    0.78360   0.79727   -2.000
 5366.00    0.78183   0.79177   -2.000
 5367.00    0.78538   0.78718   -2.000
 5368.00    0.79990   0.78339   -2.000
 5369.00    0.81708   0.78101   -2.000
 5370.00    0.82178   0.78160   -2.000
 5371.00    0.81513   0.78550   -2.000
 5372.00    0.80950   0.79123   -2.000
 5373.00    0.80866   0.79760   -2.000
 5374.00    0.80933   0.80417   -2.000
 5375.00    0.81142   0.81012   -2.000
 5376.00    0.81657   0.81467   -2.000
 5377.00    0.82269   0.81735   -2.000
 5378.00    0.82582   0.81789   -2.000
 5379.00    0.82449   0.81711   38.979
 5380.00    0.81920   0.81615   39.188
 5381.00    0.81048   0.81499   39.723
 5382.00    0.80010   0.81364   40.145
 5383.00    0.79286   0.81272   40.616
 5384.00    0.79259   0.81192   41.416
 5385.00    0.79716   0.81047   42.096
 5386.00    0.80273   0.80846   42.089
 5387.00    0.80912   0.80582   41.674
 5388.00    0.81524   0.80212   41.414
 5389.00    0.81432   0.79787   41.415
 5390.00    0.80351   0.79351   41.463
 5391.00    0.79274   0.78861   41.242
 5392.00    0.79029   0.78381   40.734
 5393.00    0.78975   0.78032   40.459
 5394.00    0.78441   0.77729   40.639
 5395.00    0.77963   0.77387   40.630
 5396.00    0.78231   0.77203   40.049
 5397.00    0.79177   0.77255   39.570
 5398.00    0.80213   0.77256   39.548
 5399.00    0.80562   0.77088   39.276
 5400.00    0.79868   0.76942   38.546
 5401.00    0.78537   0.76810   38.398
 5402.00    0.77228   0.76492   39.240
 5403.00    0.76462   0.76022   39.924
 5404.00    0.76375   0.75629   39.499
 5405.00    0.76655   0.75455   38.475
 5406.00    0.77004   0.75481   37.806
 5407.00    0.77387   0.75616   38.134
 5408.00    0.77992   0.75878   39.064
 5409.00    0.79064   0.76387   39.071
 5410.00    0.80237   0.77113   38.009
 5411.00    0.80567   0.77847   37.605
 5412.00    0.80048   0.78481   38.283
 5413.00    0.79804   0.79089   38.624
 5414.00    0.80040   0.79695   38.045
 5415.00    0.79799   0.80185   37.565
 5416.00    0.79323   0.80479   37.694
 5417.00    0.80135   0.80618   38.040
 5418.00    0.82095   0.80634   38.376
 5419.00    0.83270   0.80550   38.863
 5420.00    0.82973   0.80448   39.487
 5421.00    0.82155   0.80329   39.942
 5422.00    0.81534   0.80110   39.993
 5423.00    0.81169   0.79848   39.707
 5424.00    0.80928   0.79662   39.623
 5425.00    0.80676   0.79515   40.334
 5426.00    0.80395   0.79248   41.353
 5427.00    0.80163   0.78787   41.473
 5428.00    0.80022   0.78310   40.911
 5429.00    0.79946   0.78012   40.920
 5430.00    0.79839   0.77761   41.717
 5431.00    0.79589   0.77445   42.631
 5432.00    0.79169   0.77304   43.202
 5433.00    0.78673   0.77503   43.386
 5434.00    0.78341   0.77899   43.348
 5435.00    0.78417   0.78406   43.312
 5436.00    0.78908   0.79057   43.382
 5437.00    0.79654   0.79789   43.532
 5438.00    0.80506   0.80450   43.644
 5439.00    0.81280   0.80921   43.574
 5440.00    0.81654   0.81136   43.280
 5441.00    0.81318   0.81074   42.886
 5442.00    0.80216   0.80781   42.726
 5443.00    0.78665   0.80328   42.972
 5444.00    0.77432   0.79763   43.199
 5445.00    0.77224   0.79219   42.953
 5446.00    0.78078   0.78891   42.508
 5447.00    0.79542   0.78792   42.276
 5448.00    0.80979   0.78757   42.114
 5449.00    0.81786   0.78724   41.753
 5450.00    0.81628   0.78726   41.268
 5451.00    0.80748   0.78734   40.834
 5452.00    0.80146   0.78666   40.493
 5453.00    0.80404   0.78491   40.368
 5454.00    0.80776   0.78335   40.789
 5455.00    0.80627   0.78370   41.563
 5456.00    0.80560   0.78539   41.439
 5457.00    0.81155   0.78659   39.975
 5458.00    0.81975   0.78753   38.657
 5459.00    0.82155   0.78919   38.572
 5460.00    0.81002   0.79042   39.442
 5461.00    0.78911   0.79001   40.356
 5462.00    0.77612   0.78958   40.294
 5463.00    0.77991   0.79049   39.406
 5464.00    0.79043   0.79114   39.223
 5465.00    0.79851   0.79105   40.266
 5466.00    0.80551   0.79180   41.167
 5467.00    0.81074   0.79251   40.799
 5468.00    0.80731   0.79117   39.747
 5469.00    0.79658   0.78884   39.315
 5470.00    0.79107   0.78632   40.513
 5471.00    0.79415   0.78199   41.835
 5472.00    0.79556   0.77661   39.804
 5473.00    0.79300   0.77275   38.589
 5474.00    0.79533   0.76938   -2.000
 5475.00    0.79808   0.76532   -2.000
 5476.00    0.78389   0.76345   -2.000
 5477.00    0.75967   0.76498   -2.000
 5478.00    0.75949   0.76690   -2.000
 5479.00    0.80776   0.76848   -2.000
 5480.00    0.89914   0.77184   -2.000
 5481.00    0.97826   0.77640   -2.000
 5482.00    0.97295   0.77995   -2.000
 5483.00    0.90493   0.78279   -2.000
 5484.00    0.86827   0.78559   -2.000
 5485.00    0.88633   0.78727   -2.000
 5486.00    0.90941   0.78807   -2.000
 5487.00    0.90611   0.78905   -2.000
 5488.00    0.87749   0.78950   -2.000
 5489.00    0.83521   0.78932   -2.000
 5490.00    0.79559   0.78985   -2.000
 5491.00    0.77773   0.79037   -2.000
 5492.00    0.79124   0.78984   -2.000
 5493.00    0.81432   0.78980   -2.000
 5494.00    0.81603   0.79044   -2.000
 5495.00    0.80352   0.78966   -2.000
 5496.00    0.80345   0.78802   -2.000
 5497.00    0.81648   0.78758   -2.000
 5498.00    0.82665   0.78723   60.121
 5499.00    0.82832   0.78516   45.180
 5500.00    0.82473   0.78252   39.393
 5501.00    0.81981   0.78064   42.623
 5502.00    0.81634   0.77906   44.284
 5503.00    0.81513   0.77719   42.396
 5504.00    0.81510   0.77502   41.339
 5505.00    0.81376   0.77343   41.436
 5506.00    0.81027   0.77297   41.350
 5507.00    0.80845   0.77250   41.215
 5508.00    0.81037   0.77135   41.622
 5509.00    0.81016   0.77067   42.237
 5510.00    0.80491   0.77064   42.374
 5511.00    0.80468   0.77062   41.825
 5512.00    0.81508   0.77137   40.983
 5513.00    0.82251   0.77357   40.625
 5514.00    0.81701   0.77665   41.064
 5515.00    0.81070   0.78032   41.608
 5516.00    0.81573   0.78478   41.658
 5517.00    0.82675   0.78944   41.650
 5518.00    0.83319   0.79305   42.106
 5519.00    0.83004   0.79522   42.916
 5520.00    0.82070   0.79629   43.713
 5521.00    0.81635   0.79602   44.210
 5522.00    0.82182   0.79393   44.482
 5523.00    0.82845   0.79051   44.994
 5524.00    0.82754   0.78702   45.726
 5525.00    0.81836   0.78385   45.821
 5526.00    0.80595   0.78063   45.113
 5527.00    0.79818   0.77829   44.634
 5528.00    0.79806   0.77797   44.736
 5529.00    0.80127   0.77858   44.684
 5530.00    0.80299   0.77906   44.759
 5531.00    0.80143   0.78041   46.348
 5532.00    0.79811   0.78238   47.462
 5533.00    0.79687   0.78364   43.678
 5534.00    0.79979   0.78489   41.523
 5535.00    0.80561   0.78706   53.186
 5536.00    0.81071   0.78916   63.865
 5537.00    0.81150   0.79065   29.472
 5538.00    0.81109   0.79246   14.700
 5539.00    0.81691   0.79436   11.284
 5540.00    0.82558   0.79528   11.533
 5541.00    0.82527   0.79526   12.691
 5542.00    0.81704   0.79544   12.738
 5543.00    0.81405   0.79617   11.550
 5544.00    0.82116   0.79670   11.321
 5545.00    0.83263   0.79733   15.119
 5546.00    0.84133   0.79905   31.293
 5547.00    0.84265   0.80113   62.715
 5548.00    0.83773   0.80237   49.167
 5549.00    0.83177   0.80310   40.160
 5550.00    0.82848   0.80362   43.016
 5551.00    0.82849   0.80324   45.210
 5552.00    0.82873   0.80176   42.930
 5553.00    0.82607   0.80004   42.059
 5554.00    0.82414   0.79861   43.043
 5555.00    0.82767   0.79699   42.947
 5556.00    0.83078   0.79510   41.975
 5557.00    0.82494   0.79340   42.082
 5558.00    0.81462   0.79192   42.974
 5559.00    0.80972   0.79020   43.267
 5560.00    0.81061   0.78797   43.165
 5561.00    0.81140   0.78548   43.672
 5562.00    0.80788   0.78333   44.806
 5563.00    0.80046   0.78141   45.891
 5564.00    0.79590   0.77899   46.340
 5565.00    0.80018   0.77710   46.078
 5566.00    0.81005   0.77665   45.774
 5567.00    0.81829   0.77595   45.877
 5568.00    0.82085   0.77497   45.732
 5569.00    0.81834   0.77585   44.961
 5570.00    0.81617   0.77731   44.732
 5571.00    0.81837   0.77750   45.785
 5572.00    0.82216   0.77862   46.739
 5573.00    0.82395   0.78125   46.331
 5574.00    0.82452   0.78275   45.812
 5575.00    0.82406   0.78378   46.311
 5576.00    0.81856   0.78567   46.900
 5577.00    0.80768   0.78669   46.745
 5578.00    0.79961   0.78653   46.766
 5579.00    0.79946   0.78597   47.487
 5580.00    0.80215   0.78404   47.689
 5581.00    0.80316   0.78038   46.745
 5582.00    0.80472   0.77593   45.954
 5583.00    0.80814   0.77058   46.120
 5584.00    0.80935   0.76425   46.545
 5585.00    0.80320   0.75814   46.549
 5586.00    0.78703   0.75310   46.267
 5587.00    0.76593   0.74942   45.908
 5588.00    0.75236   0.74738   45.392
 5589.00    0.75114   0.74721   44.709
 5590.00    0.75501   0.74898   44.049
 5591.00    0.75918   0.75219   43.652
 5592.00    0.76582   0.75546   43.673
 5593.00    0.77433   0.75812   43.876
 5594.00    0.77968   0.76102   43.729
 5595.00    0.78233   0.76343   43.336
 5596.00    0.78868   0.76359   43.363
 5597.00    0.79825   0.76281   43.554
 5598.00    0.80279   0.76294   42.915
 5599.00    0.79884   0.76326   42.095
 5600.00    0.79005   0.76348   42.883
 5601.00    0.78069   0.76538   45.030
 5602.00    0.77382   0.76942   46.064
 5603.00    0.77203   0.77458   45.235
 5604.00    0.77663   0.78011   44.258
 5605.00    0.78484   0.78576   44.107
 5606.00    0.79176   0.79095   44.663
 5607.00    0.79659   0.79473   45.482
 5608.00    0.80172   0.79675   46.072
 5609.00    0.80722   0.79653   46.312
 5610.00    0.81028   0.79397   46.440
 5611.00    0.80701   0.79036   46.712
 5612.00    0.79627   0.78624   47.224
 5613.00    0.78580   0.78078   47.726
 5614.00    0.78531   0.77510   47.906
 5615.00    0.79200   0.77161   48.025
 5616.00    0.79598   0.76971   48.488
 5617.00    0.79355   0.76799   48.927
 5618.00    0.78693   0.76726   48.714
 5619.00    0.78011   0.76761   48.083
 5620.00    0.77610   0.76802   47.721
 5621.00    0.77417   0.76829   47.950
 5622.00    0.77230   0.76812   48.598
 5623.00    0.77107   0.76786   48.911
 5624.00    0.77217   0.76893   48.338
 5625.00    0.77599   0.77107   47.555
 5626.00    0.78071   0.77311   47.406
 5627.00    0.78207   0.77581   47.798
 5628.00    0.77887   0.77950   48.147
 5629.00    0.77806   0.78248   47.944
 5630.00    0.78530   0.78410   47.175
 5631.00    0.79570   0.78483   46.528
 5632.00    0.80050   0.78433   46.539
 5633.00    0.79451   0.78267   46.993
 5634.00    0.77951   0.78047   47.299
 5635.00    0.76536   0.77774   46.935
 5636.00    0.76028   0.77473   46.106
 5637.00    0.76347   0.77260   45.910
 5638.00    0.77069   0.77127   46.677
 5639.00    0.77875   0.76998   47.081
 5640.00    0.78616   0.76944   46.339
 5641.00    0.79294   0.77023   45.640
 5642.00    0.79828   0.77134   45.938
 5643.00    0.79953   0.77239   46.857
 5644.00    0.79533   0.77397   47.521
 5645.00    0.78744   0.77574   47.202
 5646.00    0.78003   0.77729   46.175
 5647.00    0.77819   0.77864   45.648
 5648.00    0.78282   0.77958   46.078
 5649.00    0.78928   0.77981   46.766
 5650.00    0.79320   0.77941   47.159
 5651.00    0.79334   0.77862   47.423
 5652.00    0.79140   0.77657   47.804
 5653.00    0.79072   0.77262   48.320
 5654.00    0.79168   0.76858   48.813
 5655.00    0.79110   0.76550   49.049
 5656.00    0.78683   0.76120   49.023
 5657.00    0.77958   0.75632   48.996
 5658.00    0.77304   0.75444   49.185
 5659.00    0.77195   0.75465   49.656
 5660.00    0.77629   0.75414   50.330
 5661.00    0.78127   0.75464   50.960
 5662.00    0.78305   0.75745   51.089
 5663.00    0.78056   0.76044   50.393
 5664.00    0.77539   0.76269   49.510
 5665.00    0.77111   0.76511   49.459
 5666.00    0.77136   0.76776   50.075
 5667.00    0.77836   0.77044   50.293
 5668.00    0.79049   0.77333   49.758
 5669.00    0.80311   0.77602   48.923
 5670.00    0.81171   0.77856   48.212
 5671.00    0.81387   0.78165   47.699
 5672.00    0.81179   0.78464   46.919
 5673.00    0.81024   0.78629   45.594
 5674.00    0.81188   0.78692   44.776
 5675.00    0.81611   0.78747   45.560
 5676.00    0.81890   0.78706   47.068
 5677.00    0.81673   0.78477   47.472
 5678.00    0.81277   0.78196   46.959
 5679.00    0.81176   0.77964   46.769
 5680.00    0.81125   0.77676   46.767
 5681.00    0.80583   0.77317   46.445
 5682.00    0.79447   0.77048   46.591
 5683.00    0.77986   0.76899   47.953
 5684.00    0.76597   0.76775   49.274
 5685.00    0.75641   0.76712   48.987
 5686.00    0.75284   0.76773   48.181
 5687.00    0.75536   0.76939   48.416
 5688.00    0.76327   0.77169   49.256
 5689.00    0.77538   0.77420   49.501
 5690.00    0.79022   0.77669   48.781
 5691.00    0.80567   0.77922   47.482
 5692.00    0.81868   0.78102   46.266
 5693.00    0.82653   0.78119   45.699
 5694.00    0.82820   0.78052   46.084
 5695.00    0.82472   0.77926   47.239
 5696.00    0.81918   0.77663   48.249
 5697.00    0.81432   0.77312   48.382
 5698.00    0.81076   0.77009   47.989
 5699.00    0.80736   0.76710   47.796
 5700.00    0.80192   0.76351   48.250
 5701.00    0.79408   0.76034   49.189
 5702.00    0.78668   0.75791   49.718
 5703.00    0.78272   0.75516   49.459
 5704.00    0.78334   0.75186   49.198
 5705.00    0.78695   0.74917   49.452
 5706.00    0.78965   0.74714   49.849
 5707.00    0.78932   0.74499   50.026
 5708.00    0.78734   0.74407   50.059
 5709.00    0.78592   0.74539   49.981
 5710.00    0.78648   0.74748   49.626
 5711.00    0.78833   0.75069   49.105
 5712.00    0.78924   0.75613   48.856
 5713.00    0.78960   0.76165   49.070
 5714.00    0.79292   0.76677   49.535
 5715.00    0.80067   0.77254   49.845
 5716.00    0.81094   0.77760   49.570
 5717.00    0.82100   0.78164   48.588
 5718.00    0.82851   0.78540   47.252
 5719.00    0.83237   0.78824   46.438
 5720.00    0.83290   0.79022   47.032
 5721.00    0.83186   0.79176   48.548
 5722.00    0.83111   0.79211   49.290
 5723.00    0.82939   0.79156   48.938
 5724.00    0.82399   0.79102   48.655
 5725.00    0.81765   0.78971   48.583
 5726.00    0.81636   0.78760   48.020
 5727.00    0.81987   0.78627   47.333
 5728.00    0.82301   0.78566   47.465
 5729.00    0.82400   0.78467   48.130
 5730.00    0.82436   0.78403   48.287
 5731.00    0.82489   0.78461   48.076
 5732.00    0.82504   0.78543   48.395
 5733.00    0.82347   0.78572   49.222
 5734.00    0.81928   0.78616   49.846
 5735.00    0.81370   0.78671   49.944
 5736.00    0.80944   0.78683   49.643
 5737.00    0.80890   0.78666   49.167
 5738.00    0.81301   0.78624   48.798
 5739.00    0.82007   0.78585   48.924
 5740.00    0.82668   0.78571    0.000
 5741.00    0.82948   0.78559    0.000
 5742.00    0.82650   0.78526    0.000
 5743.00    0.81845   0.78504    0.000
 5744.00    0.80825   0.78491    0.000
 5745.00    0.79988   0.78432    0.000
 5746.00    0.79616   0.78313    0.000
 5747.00    0.79645   0.78177    0.000
 5748.00    0.79841   0.78057    0.000
 5749.00    0.80039   0.77901    0.000
 5750.00    0.80179   0.77731    0.000
 5751.00    0.80312   0.77633    0.000
 5752.00    0.80419   0.77579    0.000
 5753.00    0.80275   0.77563    0.000
 5754.00    0.79827   0.77620    0.000
 5755.00    0.79458   0.77689    0.000
 5756.00    0.79468   0.77736    0.000
 5757.00    0.79689   0.77778    0.000
 5758.00    0.79864   0.77775    0.000
 5759.00    0.79932   0.77743    0.000
 5760.00    0.79910   0.77731    0.000
 5761.00    0.79806   0.77734    0.000
 5762.00    0.79633   0.77825    0.000
 5763.00    0.79423   0.78038    0.000
 5764.00    0.79226   0.78258    0.000
 5765.00    0.79104   0.78472    0.000
 5766.00    0.79118   0.78720    0.000
 5767.00    0.79305   0.78879    0.000
 5768.00    0.79618   0.78922    0.000
 5769.00    0.79934   0.78917    0.000
 5770.00    0.80294   0.78836    0.000
 5771.00    0.80885   0.78691    0.000
 5772.00    0.81550   0.78540    0.000
 5773.00    0.81755   0.78335    0.000
 5774.00    0.81294   0.78089    0.000
 5775.00    0.80447   0.77833    0.000
 5776.00    0.79456   0.77475    0.000
 5777.00    0.78393   0.77040    0.000
 5778.00    0.77387   0.76616    0.000
 5779.00    0.76653   0.76140    0.000
 5780.00    0.76325   0.75636    0.000
 5781.00    0.76382   0.75286    0.000
 5782.00    0.76626   0.75084    0.000
 5783.00    0.76820   0.74937    0.000
 5784.00    0.77054   0.74958    0.000
 5785.00    0.77606   0.75199    0.000
 5786.00    0.78328   0.75487    0.000
 5787.00    0.78661   0.75778   -2.000
 5788.00    0.78045   0.76170   -2.000
 5789.00    0.76277   0.76532   -2.000
 5790.00    0.74045   0.76821   -2.000
 5791.00    0.72530   0.77153   -2.000
 5792.00    0.72404   0.77413   -2.000
 5793.00    0.73635   0.77580   -2.000
 5794.00    0.75535   0.77807   -2.000
 5795.00    0.77108   0.78012   -2.000
 5796.00    0.77641   0.78115   -2.000
 5797.00    0.77015   0.78256   -2.000
 5798.00    0.76006   0.78455   -2.000
 5799.00    0.75664   0.78553   -2.000
 5800.00    0.76337   0.78588   -2.000
 5801.00    0.77681   0.78671   -2.000
 5802.00    0.78916   0.78687   -2.000
 5803.00    0.79411   0.78595   -2.000
 5804.00    0.79353   0.78532   -2.000
 5805.00    0.79193   0.78494   -2.000
 5806.00    0.78918   0.78443   -2.000
 5807.00    0.78434   0.78423    0.000
 5808.00    0.78037   0.78431    0.000
 5809.00    0.77998   0.78456    0.000
 5810.00    0.78126   0.78470    0.000
 5811.00    0.78177   0.78435    0.000
 5812.00    0.78242   0.78404    0.000
 5813.00    0.78516   0.78406    0.000
 5814.00    0.79063   0.78395    0.000
 5815.00    0.79804   0.78401    0.000
 5816.00    0.80536   0.78505    0.000
 5817.00    0.80953   0.78652    0.000
 5818.00    0.80732   0.78767    0.000
 5819.00    0.79979   0.78910    0.000
 5820.00    0.79417   0.79071    0.000
 5821.00    0.79535   0.79164    0.000
 5822.00    0.80109   0.79209    0.000
 5823.00    0.80777   0.79256    0.000
 5824.00    0.81386   0.79288    0.000
 5825.00    0.81861   0.79290    0.000
 5826.00    0.82133   0.79281    0.000
 5827.00    0.82205   0.79275    0.000
 5828.00    0.82178   0.79261    0.000
 5829.00    0.82189   0.79205    0.000
 5830.00    0.82320   0.79111    0.000
 5831.00    0.82300   0.79039    0.000
 5832.00    0.81610   0.78969    0.000
 5833.00    0.80458   0.78853    0.000
 5834.00    0.79809   0.78776    0.000
 5835.00    0.79987   0.78790    0.000
 5836.00    0.80448   0.78798    0.000
 5837.00    0.80927   0.78798    0.000
 5838.00    0.81600   0.78882    0.000
 5839.00    0.82254   0.78975    0.000
 5840.00    0.82300   0.78990    0.000
 5841.00    0.81640   0.78979    0.000
 5842.00    0.80741   0.78942    0.000
 5843.00    0.80083   0.78821    0.000
 5844.00    0.79886   0.78640    0.000
 5845.00    0.79856   0.78420    0.000
 5846.00    0.79470   0.78156    0.000
 5847.00    0.78800   0.77879    0.000
 5848.00    0.78365   0.77576    0.000
 5849.00    0.78365   0.77237    0.000
 5850.00    0.78613   0.76915    0.000
 5851.00    0.78784   0.76583    0.000
 5852.00    0.78663   0.76213    0.000
 5853.00    0.78493   0.75901    0.000
 5854.00    0.78656   0.75665    0.000
 5855.00    0.79000   0.75443    0.000
 5856.00    0.79079   0.75298    0.000
 5857.00    0.78752   0.75311    0.000
 5858.00    0.78187   0.75391    0.000
 5859.00    0.77711   0.75500    0.000
 5860.00    0.77623   0.75708    0.000
 5861.00    0.77956   0.75936    0.000
 5862.00    0.78532   0.76136    0.000
 5863.00    0.79095   0.76373    0.000
 5864.00    0.79485   0.76572    0.000
 5865.00    0.79811   0.76699    0.000
 5866.00    0.80156   0.76847    0.000
 5867.00    0.80264   0.76988    0.000
 5868.00    0.80040   0.77031    0.000
 5869.00    0.80050   0.77022    0.000
 5870.00    0.80802   0.76984    0.000
 5871.00    0.82051   0.76849    0.000
 5872.00    0.83370   0.76653    0.000
 5873.00    0.84685   0.76438    0.000
 5874.00    0.85880   0.76196    0.000
 5875.00    0.86484   0.75946    0.000
 5876.00    0.86170   0.75737    0.000
 5877.00    0.85113   0.75579    0.000
 5878.00    0.83553   0.75372    0.000
 5879.00    0.81524   0.75135    0.000
 5880.00    0.79282   0.74898    0.000
 5881.00    0.77495   0.74502    0.000
 5882.00    0.76500   0.73878    0.000
 5883.00    0.75921   0.73095    0.000
 5884.00    0.75331   0.72105    0.000
 5885.00    0.74619   0.70814    0.000
 5886.00    0.73803   0.69430    0.000
 5887.00    0.72929   0.68102    0.000
 5888.00    0.72064   0.66715    0.000
 5889.00    0.71297   0.65570    0.000
 5890.00    0.70741   0.64919    0.000
 5891.00    0.70491   0.64393    0.000
 5892.00    0.70490   0.64148    0.000
 5893.00    0.70553   0.64526    0.000
 5894.00    0.70699   0.65003    0.000
 5895.00    0.71170   0.65585    0.000
 5896.00    0.72064   0.66679    0.000
 5897.00    0.73274   0.67812    0.000
 5898.00    0.74758   0.68857    0.000
 5899.00    0.76544   0.70176    0.000
 5900.00    0.78449   0.71456    0.000
 5901.00    0.80117   0.72431   -1.000
 5902.00    0.81397   0.73328   -1.000
 5903.00    0.82335   0.74118   -1.000
 5904.00    0.82837   0.74655   -1.000
 5905.00    0.82725   0.75057   -1.000
 5906.00    0.82082   0.75388   -1.000
 5907.00    0.81178   0.75596   -1.000
 5908.00    0.80121   0.75688   51.806
 5909.00    0.78937   0.75716   50.951
 5910.00    0.77910   0.75701   51.320
 5911.00    0.77419   0.75617   51.569
 5912.00    0.77457   0.75482   51.550
 5913.00    0.77730   0.75387   51.993
 5914.00    0.77998   0.75336   52.508
 5915.00    0.78210   0.75297   52.312
 5916.00    0.78609   0.75343   52.169
 5917.00    0.79415   0.75448   53.196
 5918.00    0.80320   0.75548   54.575
 5919.00    0.80837   0.75709   54.684
 5920.00    0.80917   0.75845   53.870
 5921.00    0.80859   0.75917   53.434
 5922.00    0.81034   0.76012   53.629
 5923.00    0.81496   0.76057   -1.000
 5924.00    0.81583   0.76035   -1.000
 5925.00    0.80681   0.76014   54.786
 5926.00    0.79136   0.75955   55.343
 5927.00    0.77748   0.75883   56.189
 5928.00    0.77092   0.75825   56.416
 5929.00    0.77285   0.75748   55.399
 5930.00    0.77869   0.75707   54.072
 5931.00    0.78330   0.75715   53.566
 5932.00    0.78561   0.75723   54.153
 5933.00    0.78598   0.75733   55.266
 5934.00    0.78376   0.75789   55.512
 5935.00    0.77963   0.75878   54.365
 5936.00    0.77718   0.75889   53.298
 5937.00    0.77845   0.75887   53.324
 5938.00    0.78121   0.75964   53.722
 5939.00    0.78352   0.75966   53.671
 5940.00    0.78657   0.75920   53.336
 5941.00    0.79118   0.75958   53.020
 5942.00    0.79562   0.75978   52.627
 5943.00    0.79743   0.75951   52.054
 5944.00    0.79479   0.75950   51.437
 5945.00    0.78773   0.75935   51.170
 5946.00    0.77855   0.75889   51.756
 5947.00    0.77056   0.75812   52.929
 5948.00    0.76692   0.75695   53.456
 5949.00    0.76847   0.75605   53.209
 5950.00    0.77324   0.75535   53.646
 5951.00    0.77874   0.75419   54.828
 5952.00    0.78316   0.75344   54.843
 5953.00    0.78621   0.75370   53.734
 5954.00    0.78869   0.75383   53.903
 5955.00    0.78993   0.75400   55.601
 5956.00    0.78783   0.75526   56.374
 5957.00    0.78217   0.75696   55.540
 5958.00    0.77534   0.75847   55.095
 5959.00    0.77055   0.76033   55.898
 5960.00    0.77034   0.76240   57.102
 5961.00    0.77388   0.76399   57.574
 5962.00    0.77777   0.76531   56.765
 5963.00    0.78018   0.76671   55.627
 5964.00    0.78151   0.76754   55.606
 5965.00    0.78284   0.76815   56.302
 5966.00    0.78467   0.76921   56.069
 5967.00    0.78515   0.76984   54.935
 5968.00    0.78214   0.77004   54.177
 5969.00    0.77875   0.77040   53.935
 5970.00    0.78064   0.77014   53.561
 5971.00    0.78813   0.76890   53.062
 5972.00    0.79675   0.76736   52.797
 5973.00    0.80144   0.76541   52.468
 5974.00    0.79902   0.76274   51.701
 5975.00    0.79078   0.76018   51.220
 5976.00    0.78110   0.75800   51.912
 5977.00    0.77424   0.75567   53.222
 5978.00    0.77238   0.75381   53.851
 5979.00    0.77348   0.75248   53.578
 5980.00    0.77390   0.75086   53.125
 5981.00    0.77228   0.74981   53.262
 5982.00    0.76944   0.74922   54.248
 5983.00    0.76742   0.74830   55.284
 5984.00    0.76756   0.74831   55.509
 5985.00    0.76854   0.74920   55.507
 5986.00    0.76910   0.74985   56.078
 5987.00    0.77109   0.75102   56.681
 5988.00    0.77635   0.75296   56.619
 5989.00    0.78332   0.75459   56.484
 5990.00    0.78914   0.75569   56.941
 5991.00    0.79191   0.75687   57.515
 5992.00    0.79100   0.75786   57.569
 5993.00    0.78697   0.75789   57.299
 5994.00    0.78128   0.75753   57.074
 5995.00    0.77581   0.75707   56.856
 5996.00    0.77186   0.75605   56.579
 5997.00    0.76939   0.75494   56.415
 5998.00    0.76789   0.75369   56.299
 5999.00    0.76695   0.75240   55.741
 6000.00    0.76625   0.75154   54.838
 6001.00    0.76548   0.75021   54.579
 6002.00    0.76476   0.74887   55.108
 6003.00    0.76480   0.74820   55.040
 6004.00    0.76626   0.74688   53.733
 6005.00    0.76931   0.74576   52.318
 6006.00    0.77294   0.74548   51.798
 6007.00    0.77483   0.74475   52.311
 6008.00    0.77278   0.74442   53.244
 6009.00    0.76584   0.74458   53.447
 6010.00    0.75599   0.74433   52.836
 6011.00    0.74790   0.74419   52.658
 6012.00    0.74462   0.74373   53.297
 6013.00    0.74608   0.74309   53.832
 6014.00    0.75077   0.74268   53.712
 6015.00    0.75654   0.74159   53.372
 6016.00    0.76095   0.74069   53.572
 6017.00    0.76204   0.74063   54.890
 6018.00    0.76029   0.74027   56.801
 6019.00    0.75831   0.74014   57.750
 6020.00    0.75778   0.74103   57.530
 6021.00    0.75836   0.74243   57.469
 6022.00    0.75754   0.74391   57.959
 6023.00    0.75258   0.74580   58.362
 6024.00    0.74583   0.74857   58.622
 6025.00    0.74302   0.75130   59.195
 6026.00    0.74585   0.75355   59.653
 6027.00    0.75169   0.75633   59.054
 6028.00    0.75754   0.75905   57.721
 6029.00    0.76138   0.76097   56.722
 6030.00    0.76318   0.76280   56.220
 6031.00    0.76404   0.76462   55.782
 6032.00    0.76415   0.76583   55.352
 6033.00    0.76321   0.76654   55.080
 6034.00    0.76197   0.76721   54.767
 6035.00    0.76139   0.76744   54.238
 6036.00    0.76083   0.76727   54.053
 6037.00    0.75951   0.76718   54.659
 6038.00    0.75903   0.76682   55.009
 6039.00    0.76158   0.76661   53.959
 6040.00    0.76685   0.76684   52.663
 6041.00    0.77251   0.76691   52.588
 6042.00    0.77562   0.76742   53.139
 6043.00    0.77489   0.76838   53.197
 6044.00    0.77302   0.76887   53.286
 6045.00    0.77351   0.76938   54.218
 6046.00    0.77664   0.76998   55.268
 6047.00    0.77992   0.76982   55.591
 6048.00    0.77937   0.76912   56.151
 6049.00    0.77350   0.76829   57.885
 6050.00    0.76671   0.76697   59.594
 6051.00    0.76354   0.76516   59.802
 6052.00    0.76347   0.76333   59.221
 6053.00    0.76436   0.76175   59.143
 6054.00    0.76567   0.76025   59.796
 6055.00    0.76688   0.75894   60.535
 6056.00    0.76616   0.75821   60.185
 6057.00    0.76203   0.75771   58.714
 6058.00    0.75479   0.75707   57.898
 6059.00    0.74681   0.75666   58.633
 6060.00    0.74197   0.75632   59.741
 6061.00    0.74061   0.75546   59.999
 6062.00    0.73776   0.75514   59.557
 6063.00    0.73151   0.75556   58.751
 6064.00    0.72683   0.75581   57.439
 6065.00    0.72802   0.75720   55.914
 6066.00    0.73479   0.75977   55.001
 6067.00    0.74422   0.76206   54.780
 6068.00    0.75255   0.76474   54.396
 6069.00    0.75813   0.76757   53.644
 6070.00    0.76192   0.76947   53.340
 6071.00    0.76375   0.77056   53.916
 6072.00    0.76171   0.77081   55.008
 6073.00    0.75667   0.77015   55.944
 6074.00    0.75265   0.76837   56.129
 6075.00    0.75093   0.76585   55.769
 6076.00    0.74927   0.76333   55.767
 6077.00    0.74674   0.76011   56.527
 6078.00    0.74482   0.75675   57.758
 6079.00    0.74557   0.75447   59.072
 6080.00    0.75020   0.75212   60.128
 6081.00    0.75723   0.74986   60.499
 6082.00    0.76296   0.74889   59.965
 6083.00    0.76464   0.74812   59.293
 6084.00    0.76149   0.74732   59.615
 6085.00    0.75499   0.74713   60.676
 6086.00    0.74806   0.74688   61.139
 6087.00    0.74299   0.74676   60.578
 6088.00    0.74105   0.74684   59.593
 6089.00    0.74278   0.74653   58.653
 6090.00    0.74744   0.74689   57.917
 6091.00    0.75163   0.74768   57.404
 6092.00    0.75167   0.74783   57.037
 6093.00    0.74834   0.74844   56.628
 6094.00    0.74529   0.74936   56.033
 6095.00    0.74473   0.74897   55.375
 6096.00    0.74656   0.74818   54.885
 6097.00    0.74837   0.74747   54.608
 6098.00    0.74730   0.74510   54.419
 6099.00    0.74288   0.74244   54.099
 6100.00    0.73612   0.74090   53.571
 6101.00    0.72769   0.73855   53.164
 6102.00    0.71886   0.73699   53.320
 6103.00    0.71291   0.73770   54.218
 6104.00    0.71315   0.73824   55.656
 6105.00    0.72041   0.73966   56.886
 6106.00    0.73247   0.74248   57.367
 6107.00    0.74416   0.74457   57.772
 6108.00    0.75141   0.74680   58.764
 6109.00    0.75497   0.74907   59.635
 6110.00    0.75667   0.75021   59.724
 6111.00    0.75566   0.75118   59.947
 6112.00    0.75163   0.75148   60.982
 6113.00    0.74754   0.75091   61.651
 6114.00    0.74594   0.75002   61.107
 6115.00    0.74601   0.74775   60.665
 6116.00    0.74595   0.74516   61.116
 6117.00    0.74502   0.74258   61.044
 6118.00    0.74346   0.73855   59.626
 6119.00    0.74227   0.73540   58.309
 6120.00    0.74251   0.73346   58.067
 6121.00    0.74466   0.73079   58.197
 6122.00    0.74760   0.72994   58.059
 6123.00    0.74860   0.73088   57.918
 6124.00    0.74657   0.73123   57.708
 6125.00    0.74332   0.73269   56.667
 6126.00    0.74022   0.73515   55.210
 6127.00    0.73698   0.73648   54.984
 6128.00    0.73478   0.73747   55.780
 6129.00    0.73655   0.73823   55.070
 6130.00    0.74182   0.73726   52.821
 6131.00    0.74567   0.73519   51.964
 6132.00    0.74479   0.73253   53.087
 6133.00    0.73967   0.72846   53.934
 6134.00    0.73257   0.72449   53.722
 6135.00    0.72633   0.72156   54.225
 6136.00    0.72296   0.71900   56.001
 6137.00    0.72302   0.71803   57.643
 6138.00    0.72553   0.71925   58.410
 6139.00    0.72856   0.72153   59.027
 6140.00    0.73149   0.72446   60.000
 6141.00    0.73505   0.72808   61.115
 6142.00    0.73967   0.73190   61.842
 6143.00    0.74490   0.73481   61.755
 6144.00    0.74921   0.73681   61.279
 6145.00    0.75065   0.73837   61.236
 6146.00    0.74855   0.73901   61.421
 6147.00    0.74378   0.73881   61.037
 6148.00    0.73831   0.73837   60.396
 6149.00    0.73425   0.73788   60.316
 6150.00    0.73217   0.73695   60.215
 6151.00    0.73135   0.73573   58.903
 6152.00    0.73095   0.73471   56.801
 6153.00    0.72998   0.73272   55.093
 6154.00    0.72689   0.72962   54.022
 6155.00    0.72100   0.72640   53.307
 6156.00    0.71498   0.72195   52.904
 6157.00    0.71158   0.71609   52.991
 6158.00    0.70845   0.71046   53.797
 6159.00    0.70236   0.70493   55.250
 6160.00    0.69612   0.69954   56.408
 6161.00    0.69447   0.69558   56.352
 6162.00    0.69742   0.69294   55.786
 6163.00    0.70170   0.69190   55.900
 6164.00    0.70394   0.69251   56.853
 6165.00    0.70239   0.69330   58.264
 6166.00    0.69830   0.69512   59.877
 6167.00    0.69382   0.69819   61.369
 6168.00    0.68974   0.70040   62.073
 6169.00    0.68656   0.70265   61.748
 6170.00    0.68562   0.70622   61.288
 6171.00    0.68718   0.70951   61.487
 6172.00    0.68873   0.71223   62.051
 6173.00    0.68696   0.71563   62.485
 6174.00    0.67987   0.71928   62.860
 6175.00    0.66917   0.72208   -1.000
 6176.00    0.66111   0.72440   -1.000
 6177.00    0.65949   0.72710   -1.000
 6178.00    0.66115   0.72916   -1.000
 6179.00    0.66214   0.72999   -1.000
 6180.00    0.66201   0.73090   -1.000
 6181.00    0.66312   0.73124   -1.000
 6182.00    0.66916   0.73000   -1.000
 6183.00    0.68031   0.72841   54.229
 6184.00    0.69144   0.72620   53.164
 6185.00    0.69808   0.72301   53.232
 6186.00    0.69945   0.71997   53.892
 6187.00    0.69642   0.71648   54.641
 6188.00    0.69049   0.71356   55.438
 6189.00    0.68406   0.71231   56.399
 6190.00    0.67961   0.71102   57.518
 6191.00    0.67561   0.71098   -2.000
 6192.00    0.66697   0.71284   -2.000
 6193.00    0.65362   0.71452   -2.000
 6194.00    0.64268   0.71657   -2.000
 6195.00    0.64325   0.71888   -2.000
 6196.00    0.66191   0.72067   -2.000
 6197.00    0.69465   0.72241   -2.000
 6198.00    0.72761   0.72367   -2.000
 6199.00    0.74816   0.72476   -2.000
 6200.00    0.74989   0.72618   -2.000
 6201.00    0.73633   0.72739   -2.000
 6202.00    0.71860   0.72863   -2.000
 6203.00    0.70631   0.72972   57.227
 6204.00    0.70391   0.73027   57.449
 6205.00    0.70834   0.73039   57.903
 6206.00    0.71199   0.72934   58.061
 6207.00    0.71110   0.72735   58.076
 6208.00    0.70652   0.72482   58.553
 6209.00    0.70107   0.72081   59.305
 6210.00    0.69756   0.71633   59.510
 6211.00    0.69612   0.71213   58.752
 6212.00    0.69499   0.70728   57.452
 6213.00    0.69315   0.70315   56.942
 6214.00    0.69068   0.70024   58.078
 6215.00    0.68858   0.69743   59.078
 6216.00    0.68788   0.69593   57.636
 6217.00    0.68830   0.69556   55.610
 6218.00    0.68902   0.69536   55.825
 6219.00    0.69027   0.69598   58.016
 6220.00    0.69228   0.69681   60.153
 6221.00    0.69385   0.69772   60.805
 6222.00    0.69409   0.69873   59.973
 6223.00    0.69479   0.69883   59.031
 6224.00    0.69790   0.69882   59.071
 6225.00    0.70236   0.69851   59.529
 6226.00    0.70541   0.69674   59.675
 6227.00    0.70475   0.69531   60.324
 6228.00    0.70012   0.69436   62.175
 6229.00    0.69453   0.69260   63.872
 6230.00    0.69093   0.69210   63.788
 6231.00    0.68922   0.69290   62.526
 6232.00    0.68810   0.69321   61.528
 6233.00    0.68712   0.69416   61.512
 6234.00    0.68669   0.69549   62.098
 6235.00    0.68781   0.69565   61.699
 6236.00    0.69024   0.69492   59.777
 6237.00    0.69152   0.69418   58.076
 6238.00    0.68992   0.69258   57.792
 6239.00    0.68636   0.68975   58.367
 6240.00    0.68225   0.68821   58.749
 6241.00    0.67811   0.68710   58.265
 6242.00    0.67435   0.68506   57.263
 6243.00    0.67173   0.68504   56.976
 6244.00    0.67094   0.68601   57.648
 6245.00    0.67228   0.68595   57.977
 6246.00    0.67488   0.68701   57.419
 6247.00    0.67688   0.68825   57.127
 6248.00    0.67792   0.68788   57.931
 6249.00    0.67963   0.68742   59.569
 6250.00    0.68249   0.68654   61.128
 6251.00    0.68500   0.68424   61.526
 6252.00    0.68657   0.68192   61.104
 6253.00    0.68798   0.67993   61.468
 6254.00    0.68885   0.67778   62.401
 6255.00    0.68735   0.67653   61.685
 6256.00    0.68296   0.67675   59.233
 6257.00    0.67743   0.67734   57.183
 6258.00    0.67440   0.67910   56.126
 6259.00    0.67791   0.68267   55.278
 6260.00    0.68828   0.68576   54.806
 6261.00    0.70162   0.68885   55.643
 6262.00    0.71211   0.69287   57.492
 6263.00    0.71460   0.69595   58.786
 6264.00    0.70957   0.69792   58.855
 6265.00    0.70191   0.70004   58.377
 6266.00    0.69494   0.70195   58.110
 6267.00    0.69013   0.70301   58.345
 6268.00    0.68982   0.70402   58.532
 6269.00    0.69547   0.70530   57.907
 6270.00    0.70297   0.70614   56.980
 6271.00    0.70620   0.70692   56.905
 6272.00    0.70538   0.70777   57.987
 6273.00    0.70492   0.70794   59.637
 6274.00    0.70667   0.70805   60.525
 6275.00    0.70941   0.70808   59.799
 6276.00    0.71011   0.70734   59.084
 6277.00    0.70633   0.70697   60.288
 6278.00    0.69942   0.70684   62.427
 6279.00    0.69263   0.70640   63.140
 6280.00    0.68787   0.70698    0.000
 6281.00    0.68556   0.70788    0.000
 6282.00    0.68519   0.70902    0.000
 6283.00    0.68583   0.71100    0.000
 6284.00    0.68677   0.71259    0.000
 6285.00    0.68753   0.71425    0.000
 6286.00    0.68784   0.71575    0.000
 6287.00    0.68822   0.71633    0.000
 6288.00    0.69034   0.71665    0.000
 6289.00    0.69517   0.71595    0.000
 6290.00    0.70116   0.71460    0.000
 6291.00    0.70594   0.71315    0.000
 6292.00    0.70812   0.71072    0.000
 6293.00    0.70804   0.70844    0.000
 6294.00    0.70806   0.70644    0.000
 6295.00    0.71130   0.70404    0.000
 6296.00    0.72018   0.70218    0.000
 6297.00    0.73376   0.70083    0.000
 6298.00    0.74661   0.69987    0.000
 6299.00    0.75396   0.69966    0.000
 6300.00    0.75504   0.69991    0.000
 6301.00    0.75101   0.70055    0.000
 6302.00    0.74357   0.70200    0.000
 6303.00    0.73437   0.70407    0.000
 6304.00    0.72483   0.70581    0.000
 6305.00    0.71631   0.70748    0.000
 6306.00    0.71011   0.70937    0.000
 6307.00    0.70674   0.71033    0.000
 6308.00    0.70570   0.71038    0.000
 6309.00    0.70605   0.71013    0.000
 6310.00    0.70677   0.70885    0.000
 6311.00    0.70707   0.70673    0.000
 6312.00    0.70656   0.70503    0.000
 6313.00    0.70503   0.70296    0.000
 6314.00    0.70245   0.70029    0.000
 6315.00    0.69881   0.69917    0.000
 6316.00    0.69418   0.69880    0.000
 6317.00    0.68891   0.69820    0.000
 6318.00    0.68377   0.69918    0.000
 6319.00    0.68010   0.70133    0.000
 6320.00    0.67958   0.70357    0.000
 6321.00    0.68342   0.70615   60.437
 6322.00    0.69166   0.70917   60.682
 6323.00    0.70204   0.71193   60.238
 6324.00    0.71066   0.71422   60.246
 6325.00    0.71467   0.71640   60.865
 6326.00    0.71319   0.71749   61.291
 6327.00    0.70781   0.71817   61.267
 6328.00    0.70162   0.71869   61.173
 6329.00    0.69681   0.71785   61.327
 6330.00    0.69424   0.71672   61.872
 6331.00    0.69365   0.71528   62.863
 6332.00    0.69370   0.71319   64.077
 6333.00    0.69191   0.71140   64.620
 6334.00    0.68625   0.70930   63.834
 6335.00    0.67761   0.70718   62.936
 6336.00    0.66903   0.70638   63.376
 6337.00    0.66359   0.70578   64.345
 6338.00    0.66317   0.70488   64.165
 6339.00    0.66712   0.70482   63.118
 6340.00    0.67291   0.70483   62.528
 6341.00    0.67743   0.70468   62.926
 6342.00    0.67843   0.70465   63.649
 6343.00    0.67619   0.70455   62.649
 6344.00    0.67239   0.70525   60.134
 6345.00    0.66848   0.70617   61.114
 6346.00    0.66382   0.70691   66.292
 6347.00    0.65424   0.70833   -1.000
 6348.00    0.63637   0.70972   -1.000
 6349.00    0.61220   0.71037   -1.000
 6350.00    0.58875   0.71059   -1.000
 6351.00    0.57654   0.71008   -1.000
 6352.00    0.58267   0.70875   -1.000
 6353.00    0.60503   0.70651   -1.000
 6354.00    0.63402   0.70336   -1.000
 6355.00    0.65574   0.70021   62.125
 6356.00    0.66271   0.69700   64.248
 6357.00    0.66064   0.69334   59.652
 6358.00    0.65854   0.69025   59.366
 6359.00    0.66125   0.68839   61.379
 6360.00    0.66813   0.68719   61.851
 6361.00    0.67363   0.68682   61.295
 6362.00    0.67493   0.68791   61.015
 6363.00    0.67537   0.69002   60.718
 6364.00    0.67816   0.69284   60.380
 6365.00    0.68298   0.69618   60.941
 6366.00    0.68761   0.69963   62.427
 6367.00    0.68935   0.70331   63.286
 6368.00    0.68727   0.70678   62.894
 6369.00    0.68295   0.70958   62.501
 6370.00    0.67941   0.71210   62.651
 6371.00    0.67981   0.71436   62.496
 6372.00    0.68456   0.71609   61.599
 6373.00    0.69088   0.71712   60.496
 6374.00    0.69591   0.71740   59.897
 6375.00    0.69812   0.71747   60.267
 6376.00    0.69762   0.71722   61.391
 6377.00    0.69560   0.71620   62.386
 6378.00    0.69181   0.71534   62.550
 6379.00    0.68516   0.71480   61.857
 6380.00    0.67782   0.71403   61.147
 6381.00    0.67434   0.71380   61.471
 6382.00    0.67614   0.71400   62.589
 6383.00    0.68107   0.71398   63.236
 6384.00    0.68662   0.71410   63.150
 6385.00    0.69103   0.71442   63.116
 6386.00    0.69405   0.71426   63.424
 6387.00    0.69616   0.71357   63.672
 6388.00    0.69669   0.71269   63.170
 6389.00    0.69427   0.71134   61.633
 6390.00    0.68863   0.70987   60.117
 6391.00    0.68131   0.70855   59.785
 6392.00    0.67617   0.70683   59.959
 6393.00    0.67688   0.70574   59.389
 6394.00    0.68232   0.70557   58.917
 6395.00    0.68814   0.70517   59.945
 6396.00    0.69058   0.70487   61.475
 6397.00    0.68802   0.70553   61.573
 6398.00    0.68223   0.70603   60.976
 6399.00    0.67678   0.70593   61.448
 6400.00    0.67456   0.70725   62.725
 6401.00    0.67628   0.70870   63.406
 6402.00    0.67908   0.70907   62.837
 6403.00    0.67893   0.70995   61.526
 6404.00    0.67386   0.71026   60.865
 6405.00    0.66536   0.71010   61.568
 6406.00    0.65898   0.70990   62.338
 6407.00    0.65882   0.70861   61.900
 6408.00    0.66209   0.70814   61.380
 6409.00    0.66430   0.70797   62.037
 6410.00    0.66479   0.70665   63.121
 6411.00    0.66512   0.70625   63.387
 6412.00    0.66706   0.70642   62.802
 6413.00    0.67105   0.70599   62.082
 6414.00    0.67526   0.70594   61.985
 6415.00    0.67766   0.70599   62.783
 6416.00    0.67764   0.70581   63.983
 6417.00    0.67568   0.70605   64.954
 6418.00    0.67292   0.70653   65.430
 6419.00    0.67040   0.70719   65.122
 6420.00    0.66843   0.70825   63.633
 6421.00    0.66618   0.70988   61.668
 6422.00    0.66201   0.71194   60.953
 6423.00    0.65679   0.71343   -1.000
 6424.00    0.65478   0.71436   -1.000
 6425.00    0.65785   0.71510   58.964
 6426.00    0.66321   0.71502   57.761
 6427.00    0.66764   0.71413   58.520
 6428.00    0.66957   0.71312   60.067
 6429.00    0.66866   0.71150   61.348
 6430.00    0.66569   0.70981   62.417
 6431.00    0.66296   0.70921   63.074
 6432.00    0.66351   0.70869   62.545
 6433.00    0.66739   0.70832   61.087
 6434.00    0.67127   0.70844   60.026
 6435.00    0.67259   0.70862   60.087
 6436.00    0.67114   0.70945   61.083
 6437.00    0.66916   0.71014   62.127
 6438.00    0.67002   0.71062   62.150
 6439.00    0.67394   0.71241   61.763
 6440.00    0.67797   0.71411   62.593
 6441.00    0.67947   0.71510   63.841
 6442.00    0.67756   0.71609   62.849
 6443.00    0.67370   0.71610   60.276
 6444.00    0.67055   0.71535   59.033
 6445.00    0.66869   0.71371   59.703
 6446.00    0.66715   0.71112   61.116
 6447.00    0.66644   0.70866   62.567
 6448.00    0.66779   0.70555   63.959
 6449.00    0.67015   0.70270   64.880
 6450.00    0.67127   0.70183   64.850
 6451.00    0.67091   0.70131   64.312
 6452.00    0.67011   0.70138   64.041
 6453.00    0.66881   0.70258   63.807
 6454.00    0.66672   0.70356   63.033
 6455.00    0.66558   0.70472   62.162
 6456.00    0.66767   0.70618   61.921
 6457.00    0.67285   0.70720   62.040
 6458.00    0.67908   0.70761   61.819
 6459.00    0.68391   0.70773   61.180
 6460.00    0.68549   0.70785   60.487
 6461.00    0.68388   0.70719   60.074
 6462.00    0.68066   0.70684   60.217
 6463.00    0.67838   0.70780   61.159
 6464.00    0.67891   0.70854   62.678
 6465.00    0.68195   0.70925   63.510
 6466.00    0.68590   0.71048   62.773
 6467.00    0.68925   0.71158   61.655
 6468.00    0.69139   0.71230   61.317
 6469.00    0.69321   0.71307   61.125
 6470.00    0.69587   0.71340   60.471
 6471.00    0.69956   0.71356   60.297
 6472.00    0.70329   0.71415   61.275
 6473.00    0.70503   0.71420   62.360
 6474.00    0.70342   0.71378   62.433
 6475.00    0.69903   0.71358   61.878
 6476.00    0.69381   0.71323   61.422
 6477.00    0.69025   0.71218   61.181
 6478.00    0.68903   0.71097   61.063
 6479.00    0.68808   0.70998   61.034
 6480.00    0.68635   0.70866   60.994
 6481.00    0.68573   0.70725   60.750
 6482.00    0.68749   0.70638   60.475
 6483.00    0.69030   0.70584   60.779
 6484.00    0.69211   0.70504   61.732
 6485.00    0.69152   0.70357   62.478
 6486.00    0.68942   0.70153   62.352
 6487.00    0.68882   0.69862   61.561
 6488.00    0.68999   0.69430   60.816
 6489.00    0.68927   0.68884   60.896
 6490.00    0.68402   0.68239   61.873
 6491.00    0.67482   0.67601   63.008
 6492.00    0.66543   0.66997   63.799
 6493.00    0.66105   0.66392   64.328
 6494.00    0.66228   0.66023   64.537
 6495.00    0.66482   0.65884   64.132
 6496.00    0.66640   0.65918   63.346
 6497.00    0.66826   0.66223   62.870
 6498.00    0.67155   0.66622   62.921
 6499.00    0.67631   0.67163   63.140
 6500.00    0.68215   0.67806   63.011
 6501.00    0.68836   0.68390   62.213
 6502.00    0.69392   0.68959   61.154
 6503.00    0.69804   0.69456   60.561
 6504.00    0.70155   0.69854   60.382
 6505.00    0.70603   0.70180   60.021
 6506.00    0.71083   0.70408   59.391
 6507.00    0.71419   0.70539   58.898
 6508.00    0.71705   0.70623   58.875
 6509.00    0.72156   0.70666   59.372
 6510.00    0.72621   0.70655   59.926
 6511.00    0.72750   0.70596   60.069
 6512.00    0.72471   0.70514   60.440
 6513.00    0.71983   0.70434   61.958
 6514.00    0.71558   0.70331   63.931
 6515.00    0.71386   0.70240   64.768
 6516.00    0.71381   0.70222   64.414
 6517.00    0.71403   0.70207   63.872
 6518.00    0.71612   0.70225   63.498
 6519.00    0.72155   0.70319   63.153
 6520.00    0.72685   0.70398   62.741
 6521.00    0.72785   0.70469   62.307
 6522.00    0.72579   0.70517   62.054
 6523.00    0.72427   0.70536   62.086
 6524.00    0.72473   0.70557   62.140
 6525.00    0.72719   0.70502   61.862
 6526.00    0.73156   0.70417   61.154
 6527.00    0.73677   0.70358   60.157
 6528.00    0.74001   0.70288    0.000
 6529.00    0.73856   0.70231    0.000
 6530.00    0.73189   0.70175    0.000
 6531.00    0.72234   0.70120    0.000
 6532.00    0.71527   0.70103    0.000
 6533.00    0.71473   0.70106    0.000
 6534.00    0.72025   0.70124    0.000
 6535.00    0.72902   0.70135    0.000
 6536.00    0.73794   0.70091    0.000
 6537.00    0.74446   0.70024    0.000
 6538.00    0.74735   0.69946    0.000
 6539.00    0.74810   0.69797    0.000
 6540.00    0.75160   0.69570    0.000
 6541.00    0.76454   0.69301    0.000
 6542.00    0.79367   0.68991    0.000
 6543.00    0.84173   0.68687    0.000
 6544.00    0.90523   0.68363    0.000
 6545.00    0.97514   0.67990    0.000
 6546.00    1.03783   0.67676    0.000
 6547.00    1.07797   0.67374    0.000
 6548.00    1.08208   0.67029    0.000
 6549.00    1.04819   0.66646    0.000
 6550.00    0.98801   0.66176    0.000
 6551.00    0.91744   0.65652    0.000
 6552.00    0.85166   0.65043    0.000
 6553.00    0.80257   0.64272    0.000
 6554.00    0.78041   0.63395    0.000
 6555.00    0.80339   0.62431    0.000
 6556.00    0.90036   0.61346    0.000
 6557.00    1.10783   0.60205    0.000
 6558.00    1.45544   0.59106    0.000
 6559.00    1.92568   0.58128    0.000
 6560.00    2.44528   0.57377    0.000
 6561.00    2.89800   0.56815    0.000
 6562.00    3.15558   0.56594    0.000
 6563.00    3.14735   0.56985    0.000
 6564.00    2.87865   0.57698    0.000
 6565.00    2.42779   0.58537    0.000
 6566.00    1.91783   0.59578    0.000
 6567.00    1.45545   0.60670    0.000
 6568.00    1.10896   0.61683    0.000
 6569.00    0.89355   0.62631    0.000
 6570.00    0.78219   0.63450    0.000
 6571.00    0.73344   0.64120    0.000
 6572.00    0.71177   0.64705    0.000
 6573.00    0.71296   0.65201    0.000
 6574.00    0.74861   0.65648    0.000
 6575.00    0.81319   0.66090    0.000
 6576.00    0.89343   0.66491    0.000
 6577.00    0.99125   0.66854    0.000
 6578.00    1.11935   0.67178    0.000
 6579.00    1.28879   0.67476    0.000
 6580.00    1.49204   0.67703    0.000
 6581.00    1.68466   0.67925    0.000
 6582.00    1.81325   0.68137    0.000
 6583.00    1.85265   0.68270    0.000
 6584.00    1.79954   0.68403    0.000
 6585.00    1.66045   0.68454    0.000
 6586.00    1.45889   0.68470    0.000
 6587.00    1.24220   0.68453    0.000
 6588.00    1.05625   0.68355    0.000
 6589.00    0.92026   0.68245    0.000
 6590.00    0.83383   0.68117    0.000
 6591.00    0.78633   0.67971    0.000
 6592.00    0.76317   0.67828    0.000
 6593.00    0.75093   0.67807    0.000
 6594.00    0.74061   0.67885    0.000
 6595.00    0.72967   0.67981    0.000
 6596.00    0.71939   0.68125    0.000
 6597.00    0.71250   0.68290    0.000
 6598.00    0.71083   0.68460    0.000
 6599.00    0.71394   0.68642    0.000
 6600.00    0.72044   0.68757    0.000
 6601.00    0.72879   0.68803    0.000
 6602.00    0.73684   0.68800    0.000
 6603.00    0.74185   0.68732    0.000
 6604.00    0.74213   0.68651    0.000
 6605.00    0.73800   0.68578    0.000
 6606.00    0.73169   0.68519    0.000
 6607.00    0.72667   0.68493    0.000
 6608.00    0.72446   0.68489    0.000
 6609.00    0.72389   0.68588   62.185
 6610.00    0.72394   0.68754   62.988
 6611.00    0.72475   0.68915   62.920
 6612.00    0.72660   0.69079   62.404
 6613.00    0.72930   0.69243   62.308
 6614.00    0.73183   0.69437   62.694
 6615.00    0.73274   0.69584   62.757
 6616.00    0.73242   0.69659   62.216
 6617.00    0.73276   0.69699   61.524
 6618.00    0.73407   0.69693   60.923
 6619.00    0.73473   0.69647   60.298
 6620.00    0.73357   0.69565   59.595
 6621.00    0.73043   0.69436   58.863
 6622.00    0.72603   0.69291   58.055
 6623.00    0.72155   0.69125   57.160
 6624.00    0.71787   0.68952   56.583
 6625.00    0.71541   0.68835   56.823
 6626.00    0.71424   0.68701   57.598
 6627.00    0.71373   0.68549   58.138
 6628.00    0.71185   0.68423   58.360
 6629.00    0.70666   0.68305   58.728
 6630.00    0.69963   0.68220   59.285
 6631.00    0.69413   0.68159   59.785
 6632.00    0.69144   0.68105   60.339
 6633.00    0.69112   0.68091   61.260
 6634.00    0.69294   0.68143   62.517
 6635.00    0.69658   0.68227   63.715
 6636.00    0.70059   0.68304   64.283
 6637.00    0.70279   0.68367   63.917
 6638.00    0.70118   0.68412   63.118
 6639.00    0.69553   0.68455   62.567
 6640.00    0.68917   0.68508   62.293
 6641.00    0.68616   0.68524   61.934
 6642.00    0.68748   0.68497   61.189
 6643.00    0.69191   0.68502   60.109
 6644.00    0.69773   0.68552   59.265
 6645.00    0.70297   0.68597   59.125
 6646.00    0.70554   0.68628   59.492
 6647.00    0.70434   0.68665   59.700
 6648.00    0.70032   0.68719   58.963
 6649.00    0.69536   0.68770   57.415
 6650.00    0.69112   0.68786   56.599
 6651.00    0.68883   0.68783   57.392
 6652.00    0.68900   0.68775   58.683
 6653.00    0.69106   0.68735   59.216
 6654.00    0.69323   0.68681   59.387
 6655.00    0.69392   0.68591   59.917
 6656.00    0.69280   0.68467   60.667
 6657.00    0.69041   0.68329   61.140
 6658.00    0.68774   0.68169   61.014
 6659.00    0.68563   0.68003   60.735
 6660.00    0.68449   0.67834   61.501
 6661.00    0.68485   0.67689   63.225
 6662.00    0.68743   0.67553   63.607
 6663.00    0.69145   0.67493   62.030
 6664.00    0.69431   0.67516   61.088
 6665.00    0.69484   0.67550   61.777
 6666.00    0.69458   0.67627   62.162
 6667.00    0.69537   0.67736   60.929
 6668.00    0.69781   0.67850   59.035
 6669.00    0.70022   0.67956   57.813
 6670.00    0.69937   0.67998   57.984
 6671.00    0.69523   0.67934   58.978
 6672.00    0.69155   0.67822   59.131
 6673.00    0.69066   0.67673   58.372
 6674.00    0.69194   0.67503   58.396
 6675.00    0.69394   0.67319   59.355
 6676.00    0.69556   0.67105   59.619
 6677.00    0.69721   0.66969   58.966
 6678.00    0.70013   0.66970   58.834
 6679.00    0.70336   0.67083   59.470
 6680.00    0.70426   0.67219   59.879
 6681.00    0.70254   0.67385   60.047
 6682.00    0.70030   0.67602   60.865
 6683.00    0.69912   0.67832   62.016
 6684.00    0.69938   0.68046   62.117
 6685.00    0.70057   0.68203   60.905
 6686.00    0.70124   0.68311   59.439
 6687.00    0.69871   0.68377   58.967
 6688.00    0.69088   0.68419   60.118
 6689.00    0.67988   0.68415   61.656
 6690.00    0.67067   0.68360   61.496
 6691.00    0.66660   0.68292   60.195
 6692.00    0.66881   0.68202   59.629
 6693.00    0.67657   0.68112   59.652
 6694.00    0.68690   0.68031   59.131
 6695.00    0.69403   0.67928   58.280
 6696.00    0.69325   0.67871    0.000
 6697.00    0.68667   0.67841    0.000
 6698.00    0.67954   0.67816    0.000
 6699.00    0.67390   0.67836    0.000
 6700.00    0.67009   0.67841    0.000
 6701.00    0.66966   0.67846    0.000
 6702.00    0.67328   0.67846    0.000
 6703.00    0.67792   0.67828    0.000
 6704.00    0.67999   0.67811    0.000
 6705.00    0.67917   0.67785    0.000
 6706.00    0.67662   0.67730    0.000
 6707.00    0.67292   0.67641    0.000
 6708.00    0.67094   0.67545    0.000
 6709.00    0.67852   0.67405    0.000
 6710.00    0.70360   0.67248    0.000
 6711.00    0.74941   0.67075    0.000
 6712.00    0.81278   0.66878    0.000
 6713.00    0.88359   0.66728    0.000
 6714.00    0.94968   0.66581    0.000
 6715.00    1.00053   0.66464    0.000
 6716.00    1.02565   0.66406    0.000
 6717.00    1.01469   0.66411    0.000
 6718.00    0.96809   0.66517    0.000
 6719.00    0.90217   0.66628    0.000
 6720.00    0.83481   0.66743    0.000
 6721.00    0.77650   0.66889    0.000
 6722.00    0.73326   0.67046    0.000
 6723.00    0.70876   0.67206    0.000
 6724.00    0.70514   0.67325    0.000
 6725.00    0.72306   0.67407    0.000
 6726.00    0.76039   0.67492    0.000
 6727.00    0.81137   0.67563    0.000
 6728.00    0.86635   0.67616    0.000
 6729.00    0.91277   0.67652    0.000
 6730.00    0.93975   0.67664    0.000
 6731.00    0.94061   0.67651    0.000
 6732.00    0.91491   0.67610    0.000
 6733.00    0.86866   0.67555    0.000
 6734.00    0.81250   0.67489    0.000
 6735.00    0.75878   0.67416    0.000
 6736.00    0.71461   0.67305    0.000
 6737.00    0.68091   0.67175    0.000
 6738.00    0.65713   0.67066    0.000
 6739.00    0.64258   0.66969    0.000
 6740.00    0.63585   0.66880    0.000
 6741.00    0.63512   0.66777    0.000
 6742.00    0.63979   0.66661    0.000
 6743.00    0.64950   0.66591    0.000
 6744.00    0.66064   0.66525    0.000
 6745.00    0.66801   0.66461    0.000
 6746.00    0.67043   0.66409    0.000
 6747.00    0.66946   0.66342    0.000
 6748.00    0.66379   0.66349    0.000
 6749.00    0.65173   0.66356    0.000
 6750.00    0.63838   0.66406    0.000
 6751.00    0.63120   0.66498    0.000
 6752.00    0.62951   0.66581    0.000
 6753.00    0.62868   0.66757   49.164
 6754.00    0.63054   0.66926   49.767
 6755.00    0.64058   0.67099   50.853
 6756.00    0.66046   0.67270   48.352
 6757.00    0.68686   0.67410   42.785
 6758.00    0.71177   0.67534   44.806
 6759.00    0.72727   0.67600   -1.000
 6760.00    0.73194   0.67609   -1.000
 6761.00    0.72894   0.67553   22.496
 6762.00    0.72242   0.67487   14.050
 6763.00    0.71525   0.67394   12.923
 6764.00    0.70708   0.67271   14.116
 6765.00    0.69641   0.67144   14.665
 6766.00    0.68327   0.67031   14.635
 6767.00    0.67136   0.66986   15.148
 6768.00    0.66886   0.66996   14.914
 6769.00    0.67674   0.67033   13.737
 6770.00    0.68004   0.67102   14.955
 6771.00    0.67066   0.67215   24.086
 6772.00    0.66488   0.67366   54.976
 6773.00    0.67464   0.67527   67.602
 6774.00    0.68613   0.67649   48.534
 6775.00    0.68647   0.67732   46.331
 6776.00    0.68289   0.67758   51.493
 6777.00    0.68452   0.67730   52.427
 6778.00    0.68974   0.67651   50.657
 6779.00    0.69377   0.67516   51.047
 6780.00    0.69429   0.67335   52.718
 6781.00    0.69149   0.67139   53.685
 6782.00    0.68765   0.66944   53.711
 6783.00    0.68577   0.66772   53.031
 6784.00    0.68794   0.66661   51.560
 6785.00    0.69112   0.66586   49.895
 6786.00    0.68762   0.66562   49.217
 6787.00    0.67782   0.66562   49.523
 6788.00    0.67234   0.66571   49.464
 6789.00    0.67393   0.66605   48.805
 6790.00    0.67380   0.66640   48.883
 6791.00    0.67049   0.66682   49.945
 6792.00    0.67283   0.66696   50.607
 6793.00    0.68107   0.66709   50.194
 6794.00    0.68476   0.66746   49.523
 6795.00    0.68158   0.66781   49.465
 6796.00    0.67960   0.66836   50.351
 6797.00    0.68238   0.66883   51.578
 6798.00    0.68629   0.66921   51.920
 6799.00    0.68772   0.66982   51.589
 6800.00    0.68507   0.67022   52.084
 6801.00    0.67797   0.67041   53.855
 6802.00    0.66778   0.67055   56.037
 6803.00    0.65976   0.67029   57.432
 6804.00    0.65959   0.67011   57.170
 6805.00    0.66419   0.66985   55.477
 6806.00    0.66612   0.66929   53.236
 6807.00    0.66795   0.66895   50.828
 6808.00    0.67675   0.66846   48.499
 6809.00    0.68632   0.66794   47.205
 6810.00    0.68435   0.66782   47.700
 6811.00    0.67272   0.66763   48.968
 6812.00    0.66282   0.66758   49.390
 6813.00    0.66013   0.66765   50.002
 6814.00    0.66392   0.66764   52.062
 6815.00    0.67128   0.66818   51.496
 6816.00    0.67893   0.66884   47.081
 6817.00    0.68502   0.66932   50.349
 6818.00    0.68850   0.66988   72.266
 6819.00    0.68806   0.67025   58.085
 6820.00    0.68303   0.67088   24.598
 6821.00    0.67479   0.67141   15.105
 6822.00    0.66604   0.67154   13.845
 6823.00    0.65949   0.67154   15.118
 6824.00    0.65691   0.67127   15.552
 6825.00    0.65804   0.67098   15.197
 6826.00    0.66033   0.67052   15.398
 6827.00    0.65932   0.66985   15.144
 6828.00    0.65333   0.66941   14.226
 6829.00    0.64742   0.66903   15.658
 6830.00    0.64651   0.66864   24.858
 6831.00    0.64924   0.66802   54.087
 6832.00    0.65236   0.66721   66.242
 6833.00    0.65468   0.66637   47.335
 6834.00    0.65572   0.66534   42.307
 6835.00    0.65457   0.66392   44.135
 6836.00    0.65130   0.66217   45.728
 6837.00    0.64783   0.66050   46.913
 6838.00    0.64573   0.65893   49.288
 6839.00    0.64517   0.65774   51.639
 6840.00    0.64737   0.65688   52.507
 6841.00    0.65502   0.65656   52.719
 6842.00    0.66609   0.65703   53.093
 6843.00    0.67246   0.65791   53.061
 6844.00    0.67261   0.65911   52.506
 6845.00    0.67512   0.66034   52.469
 6846.00    0.68152   0.66147   53.475
 6847.00    0.68171   0.66252   54.895
 6848.00    0.67352   0.66311   55.631
 6849.00    0.66756   0.66317   54.831
 6850.00    0.66793   0.66287   53.077
 6851.00    0.66772   0.66217   51.918
 6852.00    0.66406   0.66122   51.605
 6853.00    0.66174   0.66000   51.082
 6854.00    0.66327   0.65855   49.987
 6855.00    0.66620   0.65746   48.980
 6856.00    0.66663   0.65669   48.625
 6857.00    0.66178   0.65612   49.069
 6858.00    0.65390   0.65582   49.919
 6859.00    0.64876   0.65557   50.366
 6860.00    0.64786   0.65553   49.952
 6861.00    0.64817   0.65584   48.891
 6862.00    0.64762   0.65633   47.922
 6863.00    0.64658   0.65681   47.798
 6864.00    0.64742   0.65696   48.487
 6865.00    0.65279   0.65683   49.440
 6866.00    0.66172   0.65660   50.578
 6867.00    0.66975   0.65656   52.147
 6868.00    0.67112   0.65664   53.691
 6869.00    0.66253   0.65667   54.321
 6870.00    0.64940   0.65667   54.182
 6871.00    0.64089   0.65669   54.087
 6872.00    0.63874   0.65712   54.131
 6873.00    0.63900   0.65772   53.959
 6874.00    0.63872   0.65831   53.623
 6875.00    0.63708   0.65877   53.237
 6876.00    0.63549   0.65914   52.288
 6877.00    0.63630   0.65956   50.475
 6878.00    0.64092   0.65970   48.758
 6879.00    0.64833   0.65979   48.106
 6880.00    0.65378   0.65971   48.324
 6881.00    0.65363   0.65984   48.788
 6882.00    0.65131   0.66032   49.330
 6883.00    0.65124   0.66101   49.993
 6884.00    0.65141   0.66210   50.604
 6885.00    0.64867   0.66307   50.967
 6886.00    0.64513   0.66434   51.154
 6887.00    0.64419   0.66576   51.230
 6888.00    0.64618   0.66700   51.014
 6889.00    0.65021   0.66809   50.918
 6890.00    0.65606   0.66876   52.349
 6891.00    0.66184   0.66918   53.713
 6892.00    0.66242   0.66935   47.827
 6893.00    0.65434   0.66937   36.517
 6894.00    0.64016   0.66918   28.017
 6895.00    0.63084   0.66898   23.335
 6896.00    0.64424   0.66891   20.940
 6897.00    0.68377   0.66883   19.600
 6898.00    0.72676   0.66886   18.456
 6899.00    0.74653   0.66889   17.982
 6900.00    0.72958   0.66912   20.178
 6901.00    0.68819   0.66961   27.645
 6902.00    0.65854   0.66993   39.819
 6903.00    0.65059   0.67018   46.344
 6904.00    0.63496   0.67040   48.422
 6905.00    0.62028   0.67044   51.177
 6906.00    0.66099   0.67049   46.321
 6907.00    0.70221   0.67015   41.194
 6908.00    0.58055   0.66956   -1.000
 6909.00    0.35585   0.66887   -1.000
 6910.00    0.33417   0.66794   -1.000
 6911.00    0.55753   0.66704   18.647
 6912.00    0.72652   0.66631   13.636
 6913.00    0.71315   0.66562   13.942
 6914.00    0.66568   0.66535   15.072
 6915.00    0.67375   0.66535   14.872
 6916.00    0.69217   0.66531   14.430
 6917.00    0.69005   0.66562   14.482
 6918.00    0.68372   0.66584   14.632
 6919.00    0.68330   0.66604   14.638
 6920.00    0.68307   0.66615   14.637
 6921.00    0.68134   0.66588   14.676
 6922.00    0.68196   0.66563   14.664
 6923.00    0.68386   0.66508   14.623
 6924.00    0.68212   0.66471   14.660
 6925.00    0.67729   0.66440   14.765
 6926.00    0.67417   0.66443   14.833
 6927.00    0.67427   0.66458   14.831
 6928.00    0.67584   0.66466   14.796
 6929.00    0.67737   0.66506   14.763
 6930.00    0.67789   0.66529   14.752
 6931.00    0.67614   0.66586   14.790
 6932.00    0.67159   0.66620   14.890
 6933.00    0.66615   0.66670   15.012
 6934.00    0.66288   0.66728   15.086
 6935.00    0.66323   0.66753   15.078
 6936.00    0.66671   0.66780   14.999
 6937.00    0.67124   0.66772   14.898
 6938.00    0.67453   0.66775   14.825
 6939.00    0.67610   0.66752   14.791
 6940.00    0.67654   0.66703   14.781
 6941.00    0.67635   0.66640   14.785
 6942.00    0.67532   0.66549   14.808
 6943.00    0.67233   0.66479   14.874
 6944.00    0.66721   0.66405   14.988
 6945.00    0.66275   0.66361   15.089
 6946.00    0.66189   0.66338   15.108
 6947.00    0.66465   0.66309   15.046
 6948.00    0.66847   0.66294   14.959
 6949.00    0.66927   0.66288   14.942
 6950.00    0.66534   0.66280   15.030
 6951.00    0.66037   0.66304   15.143
 6952.00    0.65924   0.66335   15.169
 6953.00    0.66395   0.66380   15.061
 6954.00    0.67165   0.66446   14.889
 6955.00    0.67488   0.66518   14.817
 6956.00    0.67406   0.66612   14.835
 6957.00    0.68180   0.66685   14.667
 6958.00    0.69056   0.66767   14.481
 6959.00    0.66538   0.66838   15.029
 6960.00    0.63522   0.66905   15.742
 6961.00    0.70460   0.66966   14.192
 6962.00    0.78968   0.66994   12.663
 6963.00    0.57823   0.67015   17.294
 6964.00    0.13365   0.67026   -1.000
 6965.00    0.03158   0.67013   -1.000
 6966.00    0.42181   0.66997   -1.000
 6967.00    0.76036   0.66957   13.152
 6968.00    0.75295   0.66870   13.281
 6969.00    0.65598   0.66750   15.244
 6970.00    0.66147   0.66567   15.118
 6971.00    0.69498   0.66365   14.389
 6972.00    0.69075   0.66151   14.477
 6973.00    0.67770   0.65894   14.756
 6974.00    0.67896   0.65639   14.728
 6975.00    0.68385   0.65411   14.623
 6976.00    0.68244   0.65235   14.653
 6977.00    0.67570   0.65138   14.799
 6978.00    0.66846   0.65114   14.960
 6979.00    0.66544   0.65212   15.028
 6980.00    0.66659   0.65377   15.002
 6981.00    0.66825   0.65566   14.964
 6982.00    0.66955   0.65786   14.935
 6983.00    0.67239   0.65998   14.872
 6984.00    0.67693   0.66205   14.773
 6985.00    0.68132   0.66376   14.677
 6986.00    0.68375   0.66494   14.625
 6987.00    0.68335   0.66581   14.634
 6988.00    0.68100   0.66625   14.684
 6989.00    0.67865   0.66647   14.735
 6990.00    0.67746   0.66661   14.761
 6991.00    0.67777   0.66647   14.754
 6992.00    0.67942   0.66611   14.718
 6993.00    0.68104   0.66556   14.683
 6994.00    0.67877   0.66487   14.732
 6995.00    0.67047   0.66422   14.915
 6996.00    0.66207   0.66324   15.104
 6997.00    0.66025   0.66225   15.146
 6998.00    0.66079   0.66119   15.133
 6999.00    0.65587   0.66021   15.247
 7000.00    0.64584   0.65963   15.484
 7001.00    0.63602   0.65915   -2.000
 7002.00    0.63075   0.65886   -2.000
 7003.00    0.63206   0.65847   -2.000
 7004.00    0.63905   0.65841   -2.000
 7005.00    0.64805   0.65861   -2.000
 7006.00    0.65338   0.65883   -2.000
 7007.00    0.65207   0.65895   -2.000
 7008.00    0.64799   0.65871   -2.000
 7009.00    0.64635   0.65845   -2.000
 7010.00    0.64833   0.65798   -2.000
 7011.00    0.65168   0.65739   -2.000
 7012.00    0.65229   0.65677   -2.000
 7013.00    0.64891   0.65595   -2.000
 7014.00    0.64612   0.65526   -2.000
 7015.00    0.64775   0.65454   -2.000
 7016.00    0.65232   0.65436   -2.000
 7017.00    0.65671   0.65467   -2.000
 7018.00    0.65901   0.65506   -2.000
 7019.00    0.65880   0.65533   -2.000
 7020.00    0.65710   0.65557   -2.000
 7021.00    0.65532   0.65587   -2.000
 7022.00    0.65462   0.65621   -2.000
 7023.00    0.65554   0.65667   -2.000
 7024.00    0.65787   0.65726   -2.000
 7025.00    0.66066   0.65809   -2.000
 7026.00    0.66257   0.65892   -2.000
 7027.00    0.66296   0.65979   -2.000
 7028.00    0.66234   0.66082   -2.000
 7029.00    0.66162   0.66175   -2.000
 7030.00    0.66158   0.66258   -2.000
 7031.00    0.66170   0.66325   -2.000
 7032.00    0.65994   0.66397   -2.000
 7033.00    0.65361   0.66468   -2.000
 7034.00    0.64243   0.66538   -2.000
 7035.00    0.63776   0.66617   -2.000
 7036.00    0.65555   0.66712   -2.000
 7037.00    0.68488   0.66812   -2.000
 7038.00    0.69423   0.66960   -2.000
 7039.00    0.68008   0.67149   -2.000
 7040.00    0.66608   0.67336   -2.000
 7041.00    0.66075   0.67497   -2.000
 7042.00    0.65579   0.67617   -2.000
 7043.00    0.65237   0.67714   -2.000
 7044.00    0.65815   0.67761   -2.000
 7045.00    0.66491   0.67774   -2.000
 7046.00    0.65801   0.67741   -2.000
 7047.00    0.64809   0.67637   -2.000
 7048.00    0.65698   0.67489   -2.000
 7049.00    0.67592   0.67274   -2.000
 7050.00    0.67935   0.67039   -2.000
 7051.00    0.66620   0.66787   -2.000
 7052.00    0.65325   0.66523   -2.000
 7053.00    0.65008   0.66310   -2.000
 7054.00    0.65640   0.66107   -2.000
 7055.00    0.66550   0.65943   -2.000
 7056.00    0.67037   0.65797   -2.000
 7057.00    0.67178   0.65663   -2.000
 7058.00    0.67347   0.65553   -2.000
 7059.00    0.67399   0.65449   -2.000
 7060.00    0.66965   0.65370   -2.000
 7061.00    0.65976   0.65308   -2.000
 7062.00    0.64720   0.65246   -2.000
 7063.00    0.63789   0.65189   -2.000
 7064.00    0.63628   0.65148   -2.000
 7065.00    0.64069   0.65108   -2.000
 7066.00    0.64722   0.65117   -2.000
 7067.00    0.65409   0.65160   -2.000
 7068.00    0.66007   0.65249   -2.000
 7069.00    0.66278   0.65381   -2.000
 7070.00    0.66127   0.65524   -2.000
 7071.00    0.65814   0.65670   -2.000
 7072.00    0.65614   0.65807   -2.000
 7073.00    0.65545   0.65934   -2.000
 7074.00    0.65531   0.66024   -2.000
 7075.00    0.65543   0.66074   -2.000
 7076.00    0.65645   0.66058   -2.000
 7077.00    0.65959   0.65992   -2.000
 7078.00    0.66287   0.65865   -2.000
 7079.00    0.66031   0.65668   -2.000
 7080.00    0.65262   0.65424   -2.000
 7081.00    0.65072   0.65122   -2.000
 7082.00    0.65736   0.64797   -2.000
 7083.00    0.66000   0.64471   -2.000
 7084.00    0.64986   0.64160   -2.000
 7085.00    0.63089   0.63898   -2.000
 7086.00    0.61224   0.63669   -2.000
 7087.00    0.60309   0.63472   -2.000
 7088.00    0.60728   0.63339   -2.000
 7089.00    0.62167   0.63256   -2.000
 7090.00    0.63912   0.63217   -2.000
 7091.00    0.65144   0.63242   -2.000
 7092.00    0.65502   0.63268   -2.000
 7093.00    0.65169   0.63339   -2.000
 7094.00    0.64363   0.63415   -2.000
 7095.00    0.63274   0.63497   -2.000
 7096.00    0.62462   0.63606   -2.000
 7097.00    0.62626   0.63685   -2.000
 7098.00    0.63495   0.63779   -2.000
 7099.00    0.63988   0.63831   -2.000
 7100.00    0.63610   0.63871   -2.000
 7101.00    0.62603   0.63892   -2.000
 7102.00    0.61248   0.63889   -2.000
 7103.00    0.59900   0.63877   -2.000
 7104.00    0.59522   0.63839   -2.000
 7105.00    0.60965   0.63785   -2.000
 7106.00    0.63146   0.63713   -2.000
 7107.00    0.64024   0.63638   -2.000
 7108.00    0.63476   0.63574   -2.000
 7109.00    0.62706   0.63513   -2.000
 7110.00    0.61962   0.63467   -2.000
 7111.00    0.60920   0.63449   -2.000
 7112.00    0.60149   0.63443   -2.000
 7113.00    0.60433   0.63467   -2.000
 7114.00    0.61250   0.63472   -2.000
 7115.00    0.61661   0.63495   -2.000
 7116.00    0.62004   0.63500   -2.000
 7117.00    0.63005   0.63488   -2.000
 7118.00    0.64164   0.63470   -2.000
 7119.00    0.64636   0.63411   -2.000
 7120.00    0.64648   0.63355   -2.000
 7121.00    0.64894   0.63260   -2.000
 7122.00    0.65544   0.63149   -2.000
 7123.00    0.66211   0.63036   -2.000
 7124.00    0.66109   0.62899   -2.000
 7125.00    0.64942   0.62776   -2.000
 7126.00    0.63694   0.62660   -2.000
 7127.00    0.63208   0.62572   -2.000
 7128.00    0.62828   0.62510   -2.000
 7129.00    0.61713   0.62481   -2.000
 7130.00    0.60117   0.62497   -2.000
 7131.00    0.58948   0.62571   -2.000
 7132.00    0.59157   0.62670   -2.000
 7133.00    0.60606   0.62790   -2.000
 7134.00    0.61536   0.62923   -2.000
 7135.00    0.61171   0.63032   -2.000
 7136.00    0.61207   0.63142   -2.000
 7137.00    0.62501   0.63217   -2.000
 7138.00    0.63243   0.63273   -2.000
 7139.00    0.62283   0.63296   -2.000
 7140.00    0.60920   0.63291   -2.000
 7141.00    0.60309   0.63263   -2.000
 7142.00    0.60080   0.63198   -2.000
 7143.00    0.59585   0.63135   -2.000
 7144.00    0.58669   0.63063   -2.000
 7145.00    0.57886   0.62988   -2.000
 7146.00    0.58251   0.62955   -2.000
 7147.00    0.59631   0.62936   -2.000
 7148.00    0.60480   0.62976   -2.000
 7149.00    0.59913   0.63067   -2.000
 7150.00    0.58455   0.63176   -2.000
 7151.00    0.57234   0.63318   -2.000
 7152.00    0.57340   0.63450   -2.000
 7153.00    0.58721   0.63581   -2.000
 7154.00    0.60239   0.63691   -2.000
 7155.00    0.61212   0.63763   -2.000
 7156.00    0.61798   0.63826   -2.000
 7157.00    0.62454   0.63824   -2.000
 7158.00    0.63538   0.63797   -2.000
 7159.00    0.64719   0.63753   -2.000
 7160.00    0.65277   0.63698   -2.000
 7161.00    0.65357   0.63650   -2.000
 7162.00    0.65693   0.63615   -2.000
 7163.00    0.66054   0.63621   -2.000
 7164.00    0.65597   0.63672   -2.000
 7165.00    0.64588   0.63779   -2.000
 7166.00    0.63914   0.63924   -2.000
 7167.00    0.63195   0.64087   -2.000
 7168.00    0.61661   0.64255   -2.000
 7169.00    0.60642   0.64412   -2.000
 7170.00    0.61876   0.64548   -2.000
 7171.00    0.63576   0.64650   -2.000
 7172.00    0.62968   0.64705   -2.000
 7173.00    0.61720   0.64709   -2.000
 7174.00    0.62880   0.64669   -2.000
 7175.00    0.64696   0.64597   -2.000
 7176.00    0.63810   0.64495   -2.000
 7177.00    0.61283   0.64377   -2.000
 7178.00    0.60109   0.64241   -2.000
 7179.00    0.60663   0.64096   -2.000
 7180.00    0.61687   0.63969   -2.000
 7181.00    0.62344   0.63852   -2.000
 7182.00    0.62317   0.63743   -2.000
 7183.00    0.61628   0.63630   -2.000
 7184.00    0.60632   0.63498   -2.000
 7185.00    0.59941   0.63385   -2.000
 7186.00    0.59631   0.63280   -2.000
 7187.00    0.58580   0.63203   -2.000
 7188.00    0.56220   0.63197   -2.000
 7189.00    0.54049   0.63194   -2.000
 7190.00    0.53673   0.63251   -2.000
 7191.00    0.55038   0.63300   -2.000
 7192.00    0.57216   0.63387   -2.000
 7193.00    0.59240   0.63483   -2.000
 7194.00    0.60669   0.63576   -2.000
 7195.00    0.61816   0.63682   -2.000
 7196.00    0.62563   0.63744   -2.000
 7197.00    0.61841   0.63800   -2.000
 7198.00    0.59740   0.63827   -2.000
 7199.00    0.58388   0.63813   -2.000
 7200.00    0.58527   0.63795   -2.000
 7201.00    0.58191   0.63749   -2.000
 7202.00    0.57359   0.63694   -2.000
 7203.00    0.59108   0.63623   -2.000
 7204.00    0.61685   0.63525   -2.000
 7205.00    0.57436   0.63462   -2.000
 7206.00    0.48043   0.63395   -2.000
 7207.00    0.46938   0.63385   -2.000
 7208.00    0.56618   0.63419   -2.000
 7209.00    0.63768   0.63466   -2.000
 7210.00    0.62156   0.63552   -2.000
 7211.00    0.58555   0.63624   -2.000
 7212.00    0.57810   0.63717   -2.000
 7213.00    0.58550   0.63800   -2.000
 7214.00    0.59241   0.63907   -2.000
 7215.00    0.59919   0.64014   -2.000
 7216.00    0.60417   0.64103   -2.000
 7217.00    0.60277   0.64191   -2.000
 7218.00    0.60293   0.64250   -2.000
