###################################################################
## OUTPUT of StarlightChains_v04.for    [Cid@UFSC - 01/Apr/2007] ##
###################################################################

## Some input info
PTF11qzq.txt                             [arq_obs]
Base.CB07.vall.4m                        [arq_base]
Masks.EmLines.NEW.gm                     [arq_masks]
StCv04.C11.config                        [arq_config]
   66                                    [N_base]
    0                                    [N_YAV_components = # of components with extra extinction!]
    0                                    [i_FitPowerLaw (1/0 = Yes/No)]
-9.99                                    [alpha_PowerLaw]
CCM                                      [red_law_option]
 1.458241                                [q_norm = A(l_norm)/A(V)]

## (Re)Sampling Parameters
 3741.00                                 [l_ini (A)]
 7218.00                                 [l_fin (A)]
    1.00                                 [dl    (A)]     (OBS: dl_cushion =    50.00 A)

## Normalization info
 4020.00                                 [l_norm (A) - for base]
 4010.00                                 [llow_norm (A) - window for f_obs]
 4060.00                                 [lupp_norm (A) - window for f_obs]
4.120659E-18                             [fobs_norm (in input units)]

## S/N
 3691.00                                 [llow_SN (A) - window for S/N]
 7268.00                                 [lupp_SN (A) - window for S/N]
   4.297                                 [S/N in S/N window]
   6.118                                 [S/N in norm. window]
   6.057                                 [S/N_err in S/N window]
   8.624                                 [S/N_err in norm. window]
  1.0000                                 [fscale_chi2]

## etc...
    -2007464                             [idum_orig]
  2250                                   [NOl_eff]
  2249                                   [Nl_eff]
     1    NSIGMA                         [Ntot_cliped & clip_method]
   717570                                [Nglobal_steps]
   7                                     [N_chains]
  11                                     [NEX0s_base = N_base in EX0s-fits]
 0   0   1       12   2.0   1.785E+01    [Clip-Bug, RC-Crash & Burn-In warning-flags, n_censored_weights, wei_nsig_threshold & wei_limit]
    11     10.590     10.096      0.493  [idt_all, wdt_TotTime, wdt_UsrTime & wdt_SysTime (sec)]

## Synthesis Results - Best model ##

 5.09325E-01                             [chi2/Nl_eff]
     9.07534                             [adev (%)]

   101.40788                             [sum-of-x (%)]
 3.68209E-18                             [Flux_tot (units of input spectrum!)]
 9.63941E-15                             [Mini_tot (???)]
 5.97027E-15                             [Mcor_tot (???)]

 -30.09                                  [v0_min  (km/s)]
 171.61                                  [vd_min  (km/s)]
-0.0942                                  [AV_min  (mag)]
 0.0000                                  [YAV_min (mag)]

# j     x_j(%)      Mini_j(%)     Mcor_j(%)     age_j(yr)     Z_j      (L/M)_j    YAV?  Mstars   component_j        a/Fe...       SSP_chi2r SSP_adev(%)   SSP_AV   SSP_x(%)
  1      0.0000     0.0000E+00    0.0000E+00    1.000000E+06  0.00400  1.094E-02    0   1.0000   age020_m42            0.0000     6.3118E-01    10.3008   2.1139    87.1619
  2      0.0000     0.0000E+00    0.0000E+00    3.160000E+06  0.00400  4.007E-02    0   0.9999   age045_m42            0.0000     5.8770E-01     9.7693   1.4036    92.6260
  3      0.0000     0.0000E+00    0.0000E+00    5.010000E+06  0.00400  2.539E-02    0   0.9488   age055_m42            0.0000     6.0707E-01     9.9839   1.7161    90.6280
  4      0.0000     0.0000E+00    0.0000E+00    6.610000E+06  0.00400  2.620E-02    0   0.9220   age061_m42            0.0000     5.9001E-01     9.7770   1.3310    92.8564
  5      0.0000     0.0000E+00    0.0000E+00    1.000000E+07  0.00400  1.322E-02    0   0.8862   age070_m42            0.0000     5.9751E-01     9.8961   1.0327    95.8813
  6      0.0000     0.0000E+00    0.0000E+00    1.445000E+07  0.00400  7.883E-03    0   0.8571   age078_m42            0.0000     6.0878E-01    10.0369   1.3584    93.4410
  7      0.0000     0.0000E+00    0.0000E+00    2.512000E+07  0.00400  5.251E-03    0   0.8174   age090_m42            0.0000     6.0398E-01     9.9427   0.8983    96.6607
  8      0.0000     0.0000E+00    0.0000E+00    4.000000E+07  0.00400  3.649E-03    0   0.7851   age104_m42            0.0000     5.9052E-01     9.8146   0.6732    97.3406
  9      0.0000     0.0000E+00    0.0000E+00    5.500000E+07  0.00400  3.098E-03    0   0.7629   age110_m42            0.0000     5.8559E-01     9.7391   0.8413    96.6096
 10      0.0000     0.0000E+00    0.0000E+00    1.015200E+08  0.00400  2.228E-03    0   0.7207   age116_m42            0.0000     5.8546E-01     9.7885   0.8700    96.3529
 11      0.0000     0.0000E+00    0.0000E+00    2.861200E+08  0.00400  1.093E-03    0   0.6648   age125_m42            0.0000     5.9197E-01     9.8943   0.2992    99.6117
 12      0.0000     0.0000E+00    0.0000E+00    5.088000E+08  0.00400  6.597E-04    0   0.6365   age130_m42            0.0000     5.7773E-01     9.9051   0.2978    99.8937
 13      0.0000     0.0000E+00    0.0000E+00    1.434000E+09  0.00400  2.132E-04    0   0.5798   age139_m42            0.0000     5.3208E-01     9.4762  -0.6800   101.9489
 14      0.0000     0.0000E+00    0.0000E+00    4.250000E+09  0.00400  5.895E-05    0   0.5377   age158_m42            0.0000     5.6237E-01     9.5142  -1.0000    93.1943
 15      0.0000     0.0000E+00    0.0000E+00    7.500000E+09  0.00400  3.510E-05    0   0.5212   age171_m42            0.0000     6.9387E-01    10.8141  -1.0000    85.6403
 16      0.0000     0.0000E+00    0.0000E+00    1.300000E+10  0.00400  2.005E-05    0   0.5034   age193_m42            0.0000     8.7461E-01    12.3836  -1.0000    79.4049
 17      0.0000     0.0000E+00    0.0000E+00    1.800000E+10  0.00400  1.525E-05    0   0.4967   age213_m42            0.0000     9.0111E-01    12.5848  -1.0000    78.2681
 18      4.6907     1.4272E-01    2.3044E-01    1.000000E+06  0.00800  1.238E-02    0   1.0000   age020_m52            0.0000     6.3002E-01    10.2928   2.1108    87.3086
 19      0.0000     0.0000E+00    0.0000E+00    3.160000E+06  0.00800  3.074E-02    0   0.9966   age045_m52            0.0000     6.2455E-01    10.2232   2.0340    88.0684
 20      0.0000     0.0000E+00    0.0000E+00    5.010000E+06  0.00800  2.668E-02    0   0.9443   age055_m52            0.0000     6.0709E-01    10.0260   1.7951    89.9348
 21     32.3171     5.6991E-01    8.4442E-01    6.610000E+06  0.00800  2.136E-02    0   0.9177   age061_m52            0.0000     5.4951E-01     9.5649   0.5183    97.4649
 22      0.0000     0.0000E+00    0.0000E+00    1.000000E+07  0.00800  1.215E-02    0   0.8827   age070_m52            0.0000     6.0826E-01    10.0502   1.2040    96.1102
 23      0.0000     0.0000E+00    0.0000E+00    1.445000E+07  0.00800  8.717E-03    0   0.8552   age078_m52            0.0000     5.9751E-01     9.9415   1.3223    94.8103
 24      0.0000     0.0000E+00    0.0000E+00    2.512000E+07  0.00800  5.592E-03    0   0.8162   age090_m52            0.0000     5.9887E-01     9.9114   0.9620    97.8541
 25      0.0000     0.0000E+00    0.0000E+00    4.000000E+07  0.00800  3.896E-03    0   0.7841   age104_m52            0.0000     5.8870E-01     9.7987   0.8824    98.2500
 26      0.0000     0.0000E+00    0.0000E+00    1.015200E+08  0.00800  2.148E-03    0   0.7226   age116_m52            0.0000     5.7498E-01     9.7073   0.8289    97.5878
 27      0.0000     0.0000E+00    0.0000E+00    2.861200E+08  0.00800  9.925E-04    0   0.6683   age125_m52            0.0000     5.7122E-01     9.8607   0.3621   100.8157
 28      0.0000     0.0000E+00    0.0000E+00    9.047900E+08  0.00800  3.141E-04    0   0.6138   age135_m52            0.0000     5.5017E-01     9.7653  -0.4293   104.5097
 29      0.0000     0.0000E+00    0.0000E+00    1.434000E+09  0.00800  1.719E-04    0   0.5853   age139_m52            0.0000     5.4406E-01     9.4914  -1.0000   101.9717
 30      0.0000     0.0000E+00    0.0000E+00    2.500000E+09  0.00800  7.872E-05    0   0.5600   age150_m52            0.0000     6.7690E-01    10.7758  -1.0000    88.7346
 31      0.0000     0.0000E+00    0.0000E+00    4.250000E+09  0.00800  4.336E-05    0   0.5426   age158_m52            0.0000     6.9749E-01    10.8971  -1.0000    87.3373
 32      0.0000     0.0000E+00    0.0000E+00    6.250000E+09  0.00800  3.159E-05    0   0.5319   age166_m52            0.0000     9.2327E-01    12.8568  -1.0000    80.0740
 33      0.0000     0.0000E+00    0.0000E+00    1.300000E+10  0.00800  1.361E-05    0   0.5073   age193_m52            0.0000     1.7040E+00    18.2791  -1.0000    64.5141
 34      0.0000     0.0000E+00    0.0000E+00    1.800000E+10  0.00800  9.886E-06    0   0.4990   age213_m52            0.0000     1.9213E+00    19.5298  -1.0000    61.0736
 35      0.0000     0.0000E+00    0.0000E+00    1.000000E+06  0.02000  1.544E-02    0   1.0000   age020_m62            0.0000     6.3090E-01    10.3032   2.1057    87.5466
 36      6.8674     6.8761E-02    1.0944E-01    3.160000E+06  0.02000  3.762E-02    0   0.9858   age045_m62            0.0000     6.3026E-01    10.2807   2.0459    88.2642
 37      0.0021     2.3443E-05    3.5361E-05    5.010000E+06  0.02000  3.296E-02    0   0.9342   age055_m62            0.0000     5.9859E-01     9.8699   1.6814    91.5027
 38      0.3826     1.2490E-02    1.7869E-02    8.710000E+06  0.02000  1.154E-02    0   0.8861   age067_m62            0.0000     7.7218E-01    11.4033   0.6162   101.2545
 39      0.0000     0.0000E+00    0.0000E+00    1.445000E+07  0.02000  7.663E-03    0   0.8472   age078_m62            0.0000     6.3210E-01    10.2950   0.8376    99.1324
 40      0.0000     0.0000E+00    0.0000E+00    2.512000E+07  0.02000  4.532E-03    0   0.8099   age090_m62            0.0000     6.5445E-01    10.4123   0.8331    98.8056
 41      0.0000     0.0000E+00    0.0000E+00    5.500000E+07  0.02000  2.733E-03    0   0.7595   age110_m62            0.0000     5.9073E-01     9.8053   0.8632    97.5845
 42      0.0000     0.0000E+00    0.0000E+00    1.609000E+08  0.02000  1.369E-03    0   0.6985   age120_m62            0.0000     5.8532E-01     9.8531   0.7212    99.2947
 43      0.0000     0.0000E+00    0.0000E+00    2.861200E+08  0.02000  9.013E-04    0   0.6714   age125_m62            0.0000     5.8130E-01    10.0055   0.4782   101.7342
 44      0.0000     0.0000E+00    0.0000E+00    5.088000E+08  0.02000  5.028E-04    0   0.6449   age130_m62            0.0000     5.6487E-01    10.0433   0.1098   103.8451
 45      0.0000     0.0000E+00    0.0000E+00    9.047900E+08  0.02000  2.428E-04    0   0.6179   age135_m62            0.0000     5.5659E-01     9.7464  -0.4783   103.2045
 46      0.0000     0.0000E+00    0.0000E+00    1.434000E+09  0.02000  1.263E-04    0   0.5908   age139_m62            0.0000     5.7795E-01     9.6548  -0.9218   101.5590
 47      0.0000     0.0000E+00    0.0000E+00    2.500000E+09  0.02000  5.985E-05    0   0.5673   age150_m62            0.0000     7.2989E-01    11.1434  -1.0000    88.9569
 48      0.0000     0.0000E+00    0.0000E+00    4.250000E+09  0.02000  3.271E-05    0   0.5468   age158_m62            0.0000     1.0853E+00    14.1492  -1.0000    77.3066
 49      0.0000     0.0000E+00    0.0000E+00    1.000000E+10  0.02000  1.360E-05    0   0.5167   age181_m62            0.0000     1.6847E+00    18.1442  -1.0000    65.8665
 50      0.0000     0.0000E+00    0.0000E+00    1.800000E+10  0.02000  7.124E-06    0   0.5013   age213_m62            0.0000     2.1099E+00    20.5140  -1.0000    59.3333
 51      0.0000     0.0000E+00    0.0000E+00    1.000000E+06  0.05000  2.592E-02    0   0.9998   age020_m72            0.0000     6.3375E-01    10.3496   2.0947    87.6660
 52      0.0000     0.0000E+00    0.0000E+00    3.160000E+06  0.05000  4.845E-02    0   0.9577   age045_m72            0.0000     6.2159E-01    10.1375   1.9349    89.1934
 53      0.0000     0.0000E+00    0.0000E+00    5.010000E+06  0.05000  3.072E-02    0   0.9147   age055_m72            0.0000     6.2890E-01    10.2961   1.4411    94.4674
 54      0.5865     1.5184E-02    2.1763E-02    6.610000E+06  0.05000  1.455E-02    0   0.8877   age061_m72            0.0000     1.0237E+00    13.0808   0.6657   102.9362
 55      0.0000     0.0000E+00    0.0000E+00    1.000000E+07  0.05000  9.074E-03    0   0.8524   age070_m72            0.0000     6.9620E-01    10.7624   1.6379    93.8863
 56      0.0000     0.0000E+00    0.0000E+00    2.512000E+07  0.05000  4.250E-03    0   0.7902   age090_m72            0.0000     6.5573E-01    10.3628   1.3356    95.6649
 57      0.0000     0.0000E+00    0.0000E+00    4.000000E+07  0.05000  3.087E-03    0   0.7618   age104_m72            0.0000     6.6420E-01    10.3668   1.1072    97.3509
 58      0.0000     0.0000E+00    0.0000E+00    1.015200E+08  0.05000  1.700E-03    0   0.7096   age116_m72            0.0000     6.0153E-01     9.9452   0.8592    99.2166
 59      0.0000     0.0000E+00    0.0000E+00    2.861200E+08  0.05000  7.384E-04    0   0.6633   age125_m72            0.0000     5.6748E-01     9.9964   0.3537   102.6999
 60     22.1465     2.1844E+01    2.2473E+01    5.088000E+08  0.05000  3.819E-04    0   0.6372   age130_m72            0.0000     5.4684E-01     9.8349  -0.1382   104.0933
 61     34.4149     7.7347E+01    7.6303E+01    9.047900E+08  0.05000  1.676E-04    0   0.6110   age135_m72            0.0000     6.0718E-01    10.0218  -0.8177   101.2617
 62      0.0000     0.0000E+00    0.0000E+00    1.434000E+09  0.05000  8.837E-05    0   0.5874   age139_m72            0.0000     7.4924E-01    11.3115  -1.0000    90.1828
 63      0.0000     0.0000E+00    0.0000E+00    2.500000E+09  0.05000  4.233E-05    0   0.5598   age150_m72            0.0000     1.1029E+00    14.2674  -1.0000    77.9143
 64      0.0000     0.0000E+00    0.0000E+00    6.250000E+09  0.05000  1.435E-05    0   0.5249   age166_m72            0.0000     1.8716E+00    19.2551  -1.0000    62.7298
 65      0.0000     0.0000E+00    0.0000E+00    1.300000E+10  0.05000  6.513E-06    0   0.5036   age193_m72            0.0000     2.4767E+00    22.3636  -1.0000    55.5905
 66      0.0000     0.0000E+00    0.0000E+00    1.800000E+10  0.05000  4.527E-06    0   0.4945   age213_m72            0.0000     2.8500E+00    24.0678  -1.0000    51.4150


## Synthesis Results - Average & Chains ##

# j      x_j: min, <> & last-chain-values for 1 ...  7 chains
  1      0.0000      0.5525      0.0000      0.0000      2.2265      0.0000      2.0267      3.5366      0.0000
  2      0.0000      1.2194      3.8488      0.0000      2.4925      0.0000      1.1726      2.2357      0.0000
  3      0.0000      0.5540      3.4188      0.0000      2.2653      0.0000      2.3930      0.0000      0.0000
  4      0.0000      0.6260      0.0000      0.6787      0.0000      0.2651      0.0000      0.9913      0.0000
  5      0.0000      0.8479      0.0000      0.0000      0.0000      0.4179      0.0000      0.0000      0.0000
  6      0.0000      0.6639      2.9128      3.7764      0.0000      0.0000      0.0000      0.0000      0.0000
  7      0.0000      1.0740      0.0000      0.0000      0.0000      0.0000      0.0000      0.0000      1.7031
  8      0.0000      0.7108      0.0000      0.3095      0.0000      0.0000      0.0000      0.0000      2.3088
  9      0.0000      0.8163      0.0000      0.0000      0.0000      0.0000      2.1298      0.0000      0.0000
 10      0.0000      0.6353      0.0000      0.0000      0.0000      0.0000      0.0000      0.0000      0.0504
 11      0.0000      0.8644      0.4270      0.0000      0.0000      0.5319      0.0000      0.0000      0.0000
 12      0.0000      1.0734      1.1606      0.0000      0.2561      0.0000      0.3382      0.0000      0.0000
 13      0.0000      0.3461      0.0000      2.1025      0.0000      0.0000      0.1557      0.0000      0.0000
 14      0.0000      0.2694      0.0000      0.0000      0.0000      0.0000      0.0000      0.0000      0.0000
 15      0.0000      0.1410      0.0000      0.0000      0.0000      0.0000      0.7613      0.0000      0.0000
 16      0.0000      0.0913      0.0000      0.0000      0.0000      0.0000      1.2521      0.0000      0.0000
 17      0.0000      0.0733      0.0000      0.0000      0.6851      0.0000      0.0000      0.0000      0.0000
 18      4.6907      0.8754      0.0000      1.4332      0.0000      2.7219      3.6464      0.0000      0.0000
 19      0.0000      0.5304      1.0169      3.3647      0.0000      0.1085      0.0000      0.0000      3.1545
 20      0.0000      0.3651      0.0000      0.0000      0.0000      0.4338      0.0000      0.0000      0.0000
 21     32.3171     17.9246     20.8887     23.4574     19.4543     25.7384     15.5971     30.4534     23.8269
 22      0.0000      0.7955      0.1985      0.0000      0.0000      0.0000      0.7381      0.0000      0.0000
 23      0.0000      0.4486      0.0000      0.0000      0.0000      0.0000      0.0000      0.0000      0.0000
 24      0.0000      1.0685      0.3794      0.4934      5.0667      3.8362      0.0000      0.0000      0.0000
 25      0.0000      0.9341      0.0000      0.0000      0.0000      0.0000      0.0000      7.9215      0.0000
 26      0.0000      1.0721      1.5540      0.0000      0.7587      0.0000      0.0000      0.0000      0.0000
 27      0.0000      1.3967      0.0000      0.0000      0.0000      0.0000      0.0000      0.0000      0.0000
 28      0.0000      1.3374      0.0000      4.2252      0.0000      0.0000      0.0000      0.0000      1.1142
 29      0.0000      0.2546      0.0000      1.9002      0.0000      0.0000      0.0000      0.0000      0.0000
 30      0.0000      0.2534      0.0000      0.3043      0.0000      0.0000      0.0000      0.0000      0.0000
 31      0.0000      0.1895      0.0000      0.0000      0.0000      0.0000      0.0000      0.0000      1.0208
 32      0.0000      0.0222      0.0000      0.0573      0.0000      0.0000      0.0000      0.0000      0.0000
 33      0.0000      0.1097      0.0000      0.0000      0.0000      0.0000      0.0000      0.0000      0.0000
 34      0.0000      0.0700      0.0000      0.0000      0.4780      0.0000      0.0000      0.0046      0.0000
 35      0.0000      0.2680      0.0000      0.0000      0.0000      0.0000      1.6900      0.0000      1.6446
 36      6.8674      0.9157      0.3046      2.3298      0.0000      2.6386      2.0729      1.7007      0.0000
 37      0.0021      0.4790      1.8332      2.3510      0.7297      2.8374      0.0000      0.0000      0.0000
 38      0.3826      1.0757      3.1739      0.0000      0.6384      0.9179      1.8185      0.0000      3.8858
 39      0.0000      1.0135      4.8878      0.0000      0.0000      0.0000      0.6191      0.0000      0.0000
 40      0.0000      0.7217      0.0000      0.0000      0.7075      0.0000      0.0000      0.0000      0.3646
 41      0.0000      0.5972      0.0000      0.0000      0.0000      0.0000      0.0000      0.0000      0.0000
 42      0.0000      0.7285      0.0000      0.0000      0.2775      0.0000      0.0000      0.0000      0.5784
 43      0.0000      0.8428      0.0000      0.0000      0.0000      0.0000      0.0000      0.0000      0.0000
 44      0.0000      2.3367      0.0000      2.0805      1.2406      0.0000      0.0000      0.0000      0.0000
 45      0.0000      4.5529      0.6247      0.0000      5.7663      8.3533      6.4554      2.8933      0.0000
 46      0.0000      1.0278      0.0000      3.2589      0.0000      0.0000      0.0000      0.0000      0.0000
 47      0.0000      0.2547      0.0000      0.0000      1.1951      0.0000      0.0000      0.0000      0.0000
 48      0.0000      0.2161      0.0000      0.0000      0.0000      0.0000      0.0000      0.0000      0.0000
 49      0.0000      0.0351      0.0000      0.0000      0.0000      0.0000      0.0000      0.3729      0.0000
 50      0.0000      0.0294      0.0000      0.0000      0.0000      0.0000      0.0000      0.0000      0.0000
 51      0.0000      0.7248      0.0000      1.3752      0.0000      0.0000      1.2033      0.0000      2.0896
 52      0.0000      0.5735      0.4227      1.6043      2.7053      0.0000      2.2445      0.0000      0.0000
 53      0.0000      0.4884      1.4552      0.0000      2.4280      0.0000      0.0000      0.0000      0.0000
 54      0.5865      0.6106      0.0000      0.0000      0.0000      0.9395      1.0615      0.0000      0.0000
 55      0.0000      0.4671      0.0000      0.3160      0.0000      0.0000      0.0000      0.0000      0.0000
 56      0.0000      0.3888      0.0000      0.0000      0.0000      0.0000      0.0000      0.0000      0.0000
 57      0.0000      0.2959      0.0000      0.0000      0.0000      1.5934      0.0000      0.0000      0.0000
 58      0.0000      0.6744      0.0000      0.0000      0.0000      0.0000      0.0000      0.6344      0.0000
 59      0.0000      1.5999      0.0000      0.0000      0.0000      0.0000      0.0000      1.0747      3.7341
 60     22.1465     37.4212     40.8805     42.3623     47.4861     44.3299     51.9722     44.0212     49.1820
 61     34.4149      4.9592     10.9887      3.8078      5.3053      6.3635      2.7127      5.7079      6.9036
 62      0.0000      0.0997      0.0000      0.0000      0.0178      0.0000      0.0000      0.0000      0.0000
 63      0.0000      0.1373      1.6937      0.0000      0.0000      0.0000      0.0000      0.4768      0.0000
 64      0.0000      0.0348      0.0000      0.0000      0.0000      0.0000      0.0000      0.0000      0.0000
 65      0.0000      0.0062      0.0000      0.0000      0.0000      0.0000      0.0000      0.1370      0.0000
 66      0.0000      0.0041      0.0000      0.0000      0.0000      0.0000      0.0000      0.0000      0.0000

# j      m_j: min, <> & last-chain-values for 1 ...  7 chains
  1  0.0000E+00  3.4001E-02  0.0000E+00  0.0000E+00  1.1589E-01  0.0000E+00  1.1659E-01  2.3509E-01  0.0000E+00
  2  0.0000E+00  2.0485E-02  7.0312E-02  0.0000E+00  3.5416E-02  0.0000E+00  1.8414E-02  4.0571E-02  0.0000E+00
  3  0.0000E+00  1.3936E-02  9.3530E-02  0.0000E+00  4.8202E-02  0.0000E+00  5.6278E-02  0.0000E+00  0.0000E+00
  4  0.0000E+00  1.4831E-02  0.0000E+00  1.8647E-02  0.0000E+00  7.6874E-03  0.0000E+00  2.5369E-02  0.0000E+00
  5  0.0000E+00  3.8265E-02  0.0000E+00  0.0000E+00  0.0000E+00  2.3084E-02  0.0000E+00  0.0000E+00  0.0000E+00
  6  0.0000E+00  4.8597E-02  2.3186E-01  3.2054E-01  0.0000E+00  0.0000E+00  0.0000E+00  0.0000E+00  0.0000E+00
  7  0.0000E+00  1.1255E-01  0.0000E+00  0.0000E+00  0.0000E+00  0.0000E+00  0.0000E+00  0.0000E+00  2.0666E-01
  8  0.0000E+00  1.0295E-01  0.0000E+00  5.1980E-02  0.0000E+00  0.0000E+00  0.0000E+00  0.0000E+00  3.8724E-01
  9  0.0000E+00  1.3533E-01  0.0000E+00  0.0000E+00  0.0000E+00  0.0000E+00  3.3007E-01  0.0000E+00  0.0000E+00
 10  0.0000E+00  1.3835E-01  0.0000E+00  0.0000E+00  0.0000E+00  0.0000E+00  0.0000E+00  0.0000E+00  1.2701E-02
 11  0.0000E+00  3.5394E-01  1.9013E-01  0.0000E+00  0.0000E+00  2.6661E-01  0.0000E+00  0.0000E+00  0.0000E+00
 12  0.0000E+00  6.9718E-01  8.1981E-01  0.0000E+00  1.4069E-01  0.0000E+00  2.0533E-01  0.0000E+00  0.0000E+00
 13  0.0000E+00  6.3360E-01  0.0000E+00  4.4636E+00  0.0000E+00  0.0000E+00  2.6640E-01  0.0000E+00  0.0000E+00
 14  0.0000E+00  1.6540E+00  0.0000E+00  0.0000E+00  0.0000E+00  0.0000E+00  0.0000E+00  0.0000E+00  0.0000E+00
 15  0.0000E+00  1.4099E+00  0.0000E+00  0.0000E+00  0.0000E+00  0.0000E+00  7.1145E+00  0.0000E+00  0.0000E+00
 16  0.0000E+00  1.5440E+00  0.0000E+00  0.0000E+00  0.0000E+00  0.0000E+00  1.9784E+01  0.0000E+00  0.0000E+00
 17  0.0000E+00  1.6069E+00  0.0000E+00  0.0000E+00  1.2706E+01  0.0000E+00  0.0000E+00  0.0000E+00  0.0000E+00
 18  2.3044E-01  4.7604E-02  0.0000E+00  9.0375E-02  0.0000E+00  1.8117E-01  1.8536E-01  0.0000E+00  0.0000E+00
 19  0.0000E+00  1.1576E-02  2.4135E-02  8.5157E-02  0.0000E+00  2.8998E-03  0.0000E+00  0.0000E+00  7.9722E-02
 20  0.0000E+00  8.6993E-03  0.0000E+00  0.0000E+00  0.0000E+00  1.2651E-02  0.0000E+00  0.0000E+00  0.0000E+00
 21  8.4442E-01  5.1843E-01  6.5701E-01  7.8676E-01  4.7594E-01  9.1120E-01  4.2172E-01  9.5149E-01  7.9799E-01
 22  0.0000E+00  3.8904E-02  1.0559E-02  0.0000E+00  0.0000E+00  0.0000E+00  3.3748E-02  0.0000E+00  0.0000E+00
 23  0.0000E+00  2.9629E-02  0.0000E+00  0.0000E+00  0.0000E+00  0.0000E+00  0.0000E+00  0.0000E+00  0.0000E+00
 24  0.0000E+00  1.0499E-01  4.0539E-02  5.6215E-02  4.2110E-01  4.6139E-01  0.0000E+00  0.0000E+00  0.0000E+00
 25  0.0000E+00  1.2655E-01  0.0000E+00  0.0000E+00  0.0000E+00  0.0000E+00  0.0000E+00  1.1594E+00  0.0000E+00
 26  0.0000E+00  2.4280E-01  3.8272E-01  0.0000E+00  1.4533E-01  0.0000E+00  0.0000E+00  0.0000E+00  0.0000E+00
 27  0.0000E+00  6.3310E-01  0.0000E+00  0.0000E+00  0.0000E+00  0.0000E+00  0.0000E+00  0.0000E+00  0.0000E+00
 28  0.0000E+00  1.7594E+00  0.0000E+00  6.4457E+00  0.0000E+00  0.0000E+00  0.0000E+00  0.0000E+00  1.6973E+00
 29  0.0000E+00  5.8363E-01  0.0000E+00  5.0507E+00  0.0000E+00  0.0000E+00  0.0000E+00  0.0000E+00  0.0000E+00
 30  0.0000E+00  1.2135E+00  0.0000E+00  1.6898E+00  0.0000E+00  0.0000E+00  0.0000E+00  0.0000E+00  0.0000E+00
 31  0.0000E+00  1.5960E+00  0.0000E+00  0.0000E+00  0.0000E+00  0.0000E+00  0.0000E+00  0.0000E+00  9.9577E+00
 32  0.0000E+00  2.5194E-01  0.0000E+00  7.5267E-01  0.0000E+00  0.0000E+00  0.0000E+00  0.0000E+00  0.0000E+00
 33  0.0000E+00  2.7528E+00  0.0000E+00  0.0000E+00  0.0000E+00  0.0000E+00  0.0000E+00  0.0000E+00  0.0000E+00
 34  0.0000E+00  2.3791E+00  0.0000E+00  0.0000E+00  1.3739E+01  0.0000E+00  0.0000E+00  1.6771E-01  0.0000E+00
 35  0.0000E+00  1.1684E-02  0.0000E+00  0.0000E+00  0.0000E+00  0.0000E+00  6.8886E-02  0.0000E+00  8.3033E-02
 36  1.0944E-01  1.6153E-02  5.8439E-03  4.7659E-02  0.0000E+00  5.6974E-02  3.4184E-02  3.2409E-02  0.0000E+00
 37  3.5361E-05  9.1396E-03  3.8040E-02  5.2018E-02  1.1777E-02  6.6269E-02  0.0000E+00  0.0000E+00  0.0000E+00
 38  1.7869E-02  5.5606E-02  1.7841E-01  0.0000E+00  2.7914E-02  5.8080E-02  8.7874E-02  0.0000E+00  2.3259E-01
 39  0.0000E+00  7.5431E-02  3.9561E-01  0.0000E+00  0.0000E+00  0.0000E+00  4.3078E-02  0.0000E+00  0.0000E+00
 40  0.0000E+00  8.6822E-02  0.0000E+00  0.0000E+00  7.1994E-02  0.0000E+00  0.0000E+00  0.0000E+00  5.0791E-02
 41  0.0000E+00  1.1173E-01  0.0000E+00  0.0000E+00  0.0000E+00  0.0000E+00  0.0000E+00  0.0000E+00  0.0000E+00
 42  0.0000E+00  2.5024E-01  0.0000E+00  0.0000E+00  8.0637E-02  0.0000E+00  0.0000E+00  0.0000E+00  2.3007E-01
 43  0.0000E+00  4.2265E-01  0.0000E+00  0.0000E+00  0.0000E+00  0.0000E+00  0.0000E+00  0.0000E+00  0.0000E+00
 44  0.0000E+00  2.0176E+00  0.0000E+00  2.0832E+00  9.0608E-01  0.0000E+00  0.0000E+00  0.0000E+00  0.0000E+00
 45  0.0000E+00  7.8001E+00  1.1638E+00  0.0000E+00  8.3560E+00  1.7517E+01  1.0339E+01  5.3546E+00  0.0000E+00
 46  0.0000E+00  3.2366E+00  0.0000E+00  1.1901E+01  0.0000E+00  0.0000E+00  0.0000E+00  0.0000E+00  0.0000E+00
 47  0.0000E+00  1.6254E+00  0.0000E+00  0.0000E+00  6.4506E+00  0.0000E+00  0.0000E+00  0.0000E+00  0.0000E+00
 48  0.0000E+00  2.4316E+00  0.0000E+00  0.0000E+00  0.0000E+00  0.0000E+00  0.0000E+00  0.0000E+00  0.0000E+00
 49  0.0000E+00  8.9853E-01  0.0000E+00  0.0000E+00  0.0000E+00  0.0000E+00  0.0000E+00  1.0304E+01  0.0000E+00
 50  0.0000E+00  1.3950E+00  0.0000E+00  0.0000E+00  0.0000E+00  0.0000E+00  0.0000E+00  0.0000E+00  0.0000E+00
 51  0.0000E+00  1.8820E-02  0.0000E+00  4.1410E-02  0.0000E+00  0.0000E+00  2.9211E-02  0.0000E+00  6.2832E-02
 52  0.0000E+00  7.6312E-03  6.1174E-03  2.4756E-02  3.0450E-02  0.0000E+00  2.7921E-02  0.0000E+00  0.0000E+00
 53  0.0000E+00  9.7903E-03  3.1720E-02  0.0000E+00  4.1166E-02  0.0000E+00  0.0000E+00  0.0000E+00  0.0000E+00
 54  2.1763E-02  2.5078E-02  0.0000E+00  0.0000E+00  0.0000E+00  4.7229E-02  4.0757E-02  0.0000E+00  0.0000E+00
 55  0.0000E+00  2.9538E-02  0.0000E+00  2.3176E-02  0.0000E+00  0.0000E+00  0.0000E+00  0.0000E+00  0.0000E+00
 56  0.0000E+00  4.8668E-02  0.0000E+00  0.0000E+00  0.0000E+00  0.0000E+00  0.0000E+00  0.0000E+00  0.0000E+00
 57  0.0000E+00  4.9163E-02  0.0000E+00  0.0000E+00  0.0000E+00  3.2402E-01  0.0000E+00  0.0000E+00  0.0000E+00
 58  0.0000E+00  1.8951E-01  0.0000E+00  0.0000E+00  0.0000E+00  0.0000E+00  0.0000E+00  1.9257E-01  0.0000E+00
 59  0.0000E+00  9.6750E-01  0.0000E+00  0.0000E+00  0.0000E+00  0.0000E+00  0.0000E+00  7.0209E-01  2.6148E+00
 60  2.2473E+01  4.2033E+01  4.9935E+01  5.5178E+01  4.5116E+01  6.0948E+01  5.4573E+01  5.3414E+01  6.3968E+01
 61  7.6303E+01  1.2171E+01  2.9327E+01  1.0837E+01  1.1013E+01  1.9116E+01  6.2237E+00  1.5133E+01  1.9619E+01
 62  0.0000E+00  4.4619E-01  0.0000E+00  0.0000E+00  6.7529E-02  0.0000E+00  0.0000E+00  0.0000E+00  0.0000E+00
 63  0.0000E+00  1.2224E+00  1.6397E+01  0.0000E+00  0.0000E+00  0.0000E+00  0.0000E+00  4.5851E+00  0.0000E+00
 64  0.0000E+00  8.5682E-01  0.0000E+00  0.0000E+00  0.0000E+00  0.0000E+00  0.0000E+00  0.0000E+00  0.0000E+00
 65  0.0000E+00  3.2185E-01  0.0000E+00  0.0000E+00  0.0000E+00  0.0000E+00  0.0000E+00  7.7028E+00  0.0000E+00
 66  0.0000E+00  3.0166E-01  0.0000E+00  0.0000E+00  0.0000E+00  0.0000E+00  0.0000E+00  0.0000E+00  0.0000E+00

# AV, chi2 & Mass for <> & i_chain = 1 ...  7 solutions
AV      -0.0942      0.1082      0.0945      0.1046      0.0680      0.1021      0.1270      0.1177      0.0991
chi2 5.0933E-01  5.2034E-01  5.1648E-01  5.1697E-01  5.1659E-01  5.1609E-01  5.1724E-01  5.1694E-01  5.1624E-01
Mass 5.9703E-15  7.0782E-15  6.3902E-15  6.0746E-15  7.9286E-15  5.7358E-15  7.7651E-15  6.6370E-15  6.0390E-15
 -30.09                                  [v0_min (km/s) before EX0s...]
 171.61                                  [vd_min (km/s) before EX0s...]


## Synthetic spectrum (Best Model) ##l_obs f_obs f_syn wei
 3478    [Nl_obs]
 3741.00    0.52473   0.73439    0.000
 3742.00    0.58299   0.73084    0.000
 3743.00    0.67700   0.71629    0.000
 3744.00    0.71408   0.69320    0.000
 3745.00    0.67600   0.66380    2.441
 3746.00    0.59158   0.63084    3.529
 3747.00    0.50490   0.59925    5.380
 3748.00    0.45469   0.57598    5.496
 3749.00    0.46059   0.56767    5.123
 3750.00    0.51074   0.57773    5.136
 3751.00    0.56887   0.60462    4.369
 3752.00    0.61001   0.64232    3.455
 3753.00    0.63215   0.68190    3.177
 3754.00    0.65608   0.71432    3.412
 3755.00    0.70239   0.73403    3.908
 3756.00    0.75553   0.74099    4.406
 3757.00    0.79206   0.73951    4.667
 3758.00    0.82066   0.73548    4.702
 3759.00    0.84815   0.73358    4.567
 3760.00    0.84834   0.73552    4.131
 3761.00    0.80571   0.73995    3.645
 3762.00    0.74220   0.74356    3.567
 3763.00    0.68223   0.74235    3.925
 3764.00    0.63578   0.73344    4.224
 3765.00    0.61127   0.71624    4.093
 3766.00    0.62398   0.69203    3.832
 3767.00    0.70356   0.66389    3.632
 3768.00    0.85631   0.63743    3.504
 3769.00    0.98404   0.61925    3.578
 3770.00    0.97262   0.61419    3.994
 3771.00    0.86041   0.62351    4.487
 3772.00    0.76192   0.64489    4.495
 3773.00    0.73610   0.67389    4.262
 3774.00    0.75525   0.70597    4.264
 3775.00    0.71291   0.73788    4.582
 3776.00    0.58281   0.76811    4.995
 3777.00    0.49071   0.79626    4.973
 3778.00    0.50743   0.82168    4.750
 3779.00    0.57503   0.84315    5.127
 3780.00    0.65609   0.85959    4.961
 3781.00    0.77088   0.87020    3.130
 3782.00    0.92751   0.87399    2.169
 3783.00    1.08536   0.87008    2.249
 3784.00    1.12903   0.85892    3.265
 3785.00    0.98607   0.84230    4.625
 3786.00    0.80964   0.82291    4.265
 3787.00    0.79042   0.80387    3.256
 3788.00    0.90629   0.78723    3.070
 3789.00    1.04183   0.77282    3.507
 3790.00    1.12504   0.75834    2.702
 3791.00    1.13279   0.74052    1.665
 3792.00    1.08161   0.71675    1.464
 3793.00    1.00139   0.68625    1.893
 3794.00    0.91787   0.65062    2.544
 3795.00    0.83879   0.61468    2.660
 3796.00    0.76037   0.58587    2.918
 3797.00    0.69934   0.57159    3.756
 3798.00    0.68662   0.57639    4.303
 3799.00    0.73452   0.60035    4.113
 3800.00    0.82752   0.63879    4.097
 3801.00    0.92113   0.68364    4.288
 3802.00    0.96941   0.72637    4.316
 3803.00    0.95754   0.76091    4.300
 3804.00    0.89964   0.78553    4.461
 3805.00    0.83088   0.80276    4.661
 3806.00    0.78916   0.81692    4.660
 3807.00    0.79759   0.83139    4.444
 3808.00    0.83750   0.84653    4.268
 3809.00    0.85525   0.85936    4.429
 3810.00    0.83452   0.86563    4.856
 3811.00    0.80766   0.86310    4.984
 3812.00    0.81038   0.85296    4.627
 3813.00    0.85266   0.83940    4.244
 3814.00    0.88938   0.82731    4.232
 3815.00    0.86207   0.81892    4.750
 3816.00    0.77104   0.81304    5.275
 3817.00    0.66106   0.80763    4.995
 3818.00    0.58745   0.80204    4.634
 3819.00    0.57520   0.79705    4.699
 3820.00    0.59500   0.79338    4.643
 3821.00    0.62076   0.79049    4.249
 3822.00    0.66048   0.78654    4.110
 3823.00    0.71516   0.77941    4.336
 3824.00    0.76284   0.76832    4.421
 3825.00    0.77869   0.75429    4.127
 3826.00    0.74640   0.73892    3.829
 3827.00    0.66779   0.72273    3.904
 3828.00    0.56990   0.70442    4.547
 3829.00    0.51106   0.68159    4.901
 3830.00    0.52997   0.65261    3.951
 3831.00    0.57385   0.61801    3.301
 3832.00    0.57417   0.58140    3.561
 3833.00    0.53929   0.54898    4.389
 3834.00    0.50551   0.52711    4.784
 3835.00    0.48945   0.51994    4.361
 3836.00    0.50723   0.52849    3.863
 3837.00    0.57881   0.55071    3.811
 3838.00    0.67974   0.58273    4.213
 3839.00    0.74390   0.62044    4.604
 3840.00    0.75460   0.66005    4.573
 3841.00    0.74781   0.69835    4.295
 3842.00    0.73431   0.73276    3.975
 3843.00    0.70942   0.76174    3.694
 3844.00    0.71128   0.78492    3.552
 3845.00    0.77592   0.80269    3.618
 3846.00    0.85992   0.81570    3.844
 3847.00    0.91121   0.82520    0.000
 3848.00    0.95141   0.83281    0.000
 3849.00    0.99838   0.83984    0.000
 3850.00    1.00906   0.84687    0.000
 3851.00    0.97456   0.85367    0.000
 3852.00    0.95669   0.85891    0.000
 3853.00    0.96581   0.86134    0.000
 3854.00    0.94457   0.86078    0.000
 3855.00    0.91378   0.85774    0.000
 3856.00    0.95613   0.85347    0.000
 3857.00    1.04341   0.85008    0.000
 3858.00    1.07580   0.84951    0.000
 3859.00    1.04276   0.85272    0.000
 3860.00    0.99658   0.85952    0.000
 3861.00    0.96811   0.86837    0.000
 3862.00    0.96054   0.87674    0.000
 3863.00    0.95790   0.88255    0.000
 3864.00    0.94407   0.88528    0.000
 3865.00    0.91553   0.88563    0.000
 3866.00    0.86718   0.88442    0.000
 3867.00    0.79204   0.88157    0.000
 3868.00    0.72082   0.87605    0.000
 3869.00    0.71272   0.86702    0.000
 3870.00    0.76403   0.85548    0.000
 3871.00    0.81457   0.84421    0.000
 3872.00    0.84283   0.83609    0.000
 3873.00    0.86640   0.83212    0.000
 3874.00    0.89546   0.83051    0.000
 3875.00    0.91894   0.82801    0.000
 3876.00    0.90201   0.82246    0.000
 3877.00    0.83289   0.81362    0.000
 3878.00    0.76613   0.80249    0.000
 3879.00    0.76567   0.79018    0.000
 3880.00    0.85259   0.77661    0.000
 3881.00    0.98938   0.76012    3.339
 3882.00    1.09192   0.73860    3.277
 3883.00    1.11390   0.71076    3.325
 3884.00    1.07260   0.67678    3.388
 3885.00    1.00621   0.63877    3.528
 3886.00    0.94392   0.60171    3.908
 3887.00    0.87176   0.57267    4.398
 3888.00    0.76480   0.55816    4.548
 3889.00    0.65860   0.56176    4.587
 3890.00    0.60347   0.58241    5.014
 3891.00    0.58841   0.61479    5.403
 3892.00    0.59833   0.65174    5.090
 3893.00    0.67453   0.68714    4.747
 3894.00    0.83205   0.71757    4.690
 3895.00    1.00167   0.74217    4.313
 3896.00    1.09909   0.76188    3.717
 3897.00    1.08300   0.77839    3.580
 3898.00    1.01447   0.79319    3.959
 3899.00    1.01536   0.80694    4.375
 3900.00    1.05864   0.81943    4.473
 3901.00    1.01009   0.82956    4.472
 3902.00    0.89052   0.83612    4.411
 3903.00    0.81843   0.83940    4.177
 3904.00    0.79465   0.84162    3.977
 3905.00    0.76184   0.84581    4.012
 3906.00    0.73466   0.85428    4.191
 3907.00    0.76342   0.86730    4.319
 3908.00    0.87325   0.88273    4.343
 3909.00    1.01656   0.89699    4.217
 3910.00    1.06922   0.90684    3.859
 3911.00    0.99288   0.91082    3.517
 3912.00    0.88850   0.90923    3.537
 3913.00    0.82224   0.90360    3.762
 3914.00    0.77977   0.89573    3.559
 3915.00    0.76666   0.88686    3.189
 3916.00    0.80690   0.87766    3.295
 3917.00    0.86334   0.86869    3.927
 3918.00    0.86922   0.86085    4.653
 3919.00    0.81628   0.85518    5.176
 3920.00    0.74069   0.85231    5.626
 3921.00    0.68322   0.85152    5.642
 3922.00    0.68637   0.85068    5.242
 3923.00    0.78826   0.84689    5.541
 3924.00    0.95914   0.83750    7.472
 3925.00    1.07668   0.82107   10.214
 3926.00    1.05329   0.79760   10.403
 3927.00    0.90421   0.76801   10.414
 3928.00    0.72209   0.73361   12.936
 3929.00    0.62231   0.69602   17.846
 3930.00    0.61717   0.65787   17.846
 3931.00    0.63483   0.62333   10.293
 3932.00    0.65264   0.59764    5.619
 3933.00    0.68789   0.58581    3.647
 3934.00    0.72823   0.59079    2.685
 3935.00    0.74774   0.61209    2.191
 3936.00    0.74259   0.64559    2.042
 3937.00    0.72286   0.68493    2.233
 3938.00    0.70067   0.72362    2.849
 3939.00    0.69447   0.75666    4.005
 3940.00    0.72796   0.78156    5.008
 3941.00    0.80327   0.79873    4.809
 3942.00    0.88794   0.81060    4.487
 3943.00    0.92383   0.82003    4.637
 3944.00    0.86276   0.82895    4.969
 3945.00    0.75768   0.83773    5.061
 3946.00    0.71198   0.84543    4.766
 3947.00    0.70806   0.85092    4.442
 3948.00    0.67376   0.85403    4.439
 3949.00    0.65414   0.85561    4.795
 3950.00    0.72465   0.85666    5.285
 3951.00    0.85052   0.85734    5.288
 3952.00    0.95333   0.85714    4.745
 3953.00    0.99150   0.85537    4.541
 3954.00    0.96149   0.85153    4.905
 3955.00    0.88722   0.84549    5.018
 3956.00    0.78659   0.83736    4.248
 3957.00    0.66717   0.82689    3.470
 3958.00    0.57901   0.81294    4.110
 3959.00    0.59462   0.79369   -1.000
 3960.00    0.68932   0.76772    0.000
 3961.00    0.76491   0.73505    0.000
 3962.00    0.78053   0.69673    0.000
 3963.00    0.74785   0.65383    0.000
 3964.00    0.67523   0.60720    0.000
 3965.00    0.58309   0.55831    0.000
 3966.00    0.52711   0.51042    0.000
 3967.00    0.52356   0.46905    0.000
 3968.00    0.49769   0.44079    0.000
 3969.00    0.43404   0.43114    0.000
 3970.00    0.44507   0.44236    0.000
 3971.00    0.55733   0.47252    0.000
 3972.00    0.64959   0.51630    0.000
 3973.00    0.66366   0.56707    0.000
 3974.00    0.64419   0.61911    0.000
 3975.00    0.60675   0.66846    0.000
 3976.00    0.54426   0.71294    0.000
 3977.00    0.52265   0.75135    0.000
 3978.00    0.61457   0.78289    0.000
 3979.00    0.76576   0.80715    0.000
 3980.00    0.88720   0.82454    0.000
 3981.00    0.98560   0.83668    4.352
 3982.00    1.09017   0.84612    3.952
 3983.00    1.17643   0.85535    3.841
 3984.00    1.20172   0.86563    3.987
 3985.00    1.14250   0.87675    4.150
 3986.00    1.03504   0.88771    4.191
 3987.00    0.96741   0.89764    4.264
 3988.00    0.97460   0.90627    4.491
 3989.00    1.01836   0.91379    4.835
 3990.00    1.04727   0.92038    5.104
 3991.00    1.03076   0.92562    5.028
 3992.00    0.99047   0.92843    4.598
 3993.00    0.97642   0.92782    4.128
 3994.00    1.01673   0.92404    3.993
 3995.00    1.08525   0.91904    4.333
 3996.00    1.08647   0.91580    4.791
 3997.00    0.98660   0.91688    4.812
 3998.00    0.90479   0.92285    4.628
 3999.00    0.92132   0.93170    4.641
 4000.00    0.97229   0.93972    4.918
 4001.00    1.00086   0.94347    5.226
 4002.00    1.01769   0.94149    5.087
 4003.00    1.02612   0.93489    4.709
 4004.00    1.01650   0.92699    4.682
 4005.00    1.03035   0.92178    5.000
 4006.00    1.11985   0.92195    5.183
 4007.00    1.23097   0.92764    4.950
 4008.00    1.26231   0.93680    4.521
 4009.00    1.19228   0.94665    4.269
 4010.00    1.06869   0.95515    4.368
 4011.00    0.96665   0.96159    4.740
 4012.00    0.92521   0.96624    5.202
 4013.00    0.90849   0.96980    5.573
 4014.00    0.89120   0.97291    5.668
 4015.00    0.90426   0.97600    5.386
 4016.00    0.96966   0.97922    4.912
 4017.00    1.06782   0.98242    4.530
 4018.00    1.14414   0.98475    4.358
 4019.00    1.14376   0.98468    4.402
 4020.00    1.09373   0.98079    4.568
 4021.00    1.06744   0.97277    4.698
 4022.00    1.06970   0.96211    4.760
 4023.00    1.05891   0.95167    4.869
 4024.00    1.01722   0.94434    5.205
 4025.00    0.95983   0.94130    5.790
 4026.00    0.92846   0.94112    5.995
 4027.00    0.94630   0.94045    5.478
 4028.00    0.98690   0.93611    5.073
 4029.00    1.02125   0.92742    5.117
 4030.00    1.04550   0.91692    5.265
 4031.00    1.05946   0.90907    5.302
 4032.00    1.05873   0.90787    5.377
 4033.00    1.04676   0.91506    5.317
 4034.00    1.03920   0.92951    4.797
 4035.00    1.06226   0.94788    4.259
 4036.00    1.12716   0.96587    4.143
 4037.00    1.18450   0.97965    4.347
 4038.00    1.17806   0.98686    4.582
 4039.00    1.13286   0.98703    4.770
 4040.00    1.09696   0.98103    4.924
 4041.00    1.06483   0.97031    4.866
 4042.00    1.00000   0.95653    4.714
 4043.00    0.87237   0.94210    5.056
 4044.00    0.72938   0.93050    5.918
 4045.00    0.69774   0.92536    5.645
 4046.00    0.79115   0.92832    4.542
 4047.00    0.87834   0.93770    4.336
 4048.00    0.89038   0.94917    5.099
 4049.00    0.85858   0.95799    5.970
 4050.00    0.81748   0.96114    5.973
 4051.00    0.78856   0.95817    5.502
 4052.00    0.79884   0.95080    5.224
 4053.00    0.86061   0.94182    5.321
 4054.00    0.94017   0.93397    5.426
 4055.00    0.99936   0.92908    5.173
 4056.00    1.04031   0.92770    4.893
 4057.00    1.05966   0.92905    4.907
 4058.00    1.01813   0.93131    5.184
 4059.00    0.91038   0.93213    5.534
 4060.00    0.79609   0.92960    5.659
 4061.00    0.73623   0.92355    5.521
 4062.00    0.75698   0.91594    5.413
 4063.00    0.83393   0.90978    5.440
 4064.00    0.91280   0.90728    5.466
 4065.00    0.97360   0.90857    5.297
 4066.00    1.02842   0.91205    4.887
 4067.00    1.08509   0.91547    4.485
 4068.00    1.13447   0.91702    4.314
 4069.00    1.14544   0.91595    4.445
 4070.00    1.10071   0.91260    4.806
 4071.00    1.03034   0.90773    5.019
 4072.00    0.96591   0.90155    4.925
 4073.00    0.90673   0.89350    5.073
 4074.00    0.85593   0.88316    5.518
 4075.00    0.83390   0.87183    5.229
 4076.00    0.83371   0.86296   -2.000
 4077.00    0.81699   0.86049   -2.000
 4078.00    0.76823   0.86617   -2.000
 4079.00    0.71627   0.87807   -2.000
 4080.00    0.73770   0.89139   -2.000
 4081.00    0.89896   0.90120   -2.000
 4082.00    1.15113   0.90504   -2.000
 4083.00    1.35249   0.90380   -2.000
 4084.00    1.34143   0.90058   -2.000
 4085.00    1.10200   0.89844   -2.000
 4086.00    0.88644   0.89870   -2.000
 4087.00    0.88692   0.90060   -2.000
 4088.00    1.00175   0.90209   -2.000
 4089.00    1.04830   0.90108   -2.000
 4090.00    0.92751   0.89620   -2.000
 4091.00    0.73611   0.88677    5.202
 4092.00    0.70448   0.87241    0.000
 4093.00    0.85193   0.85278    0.000
 4094.00    0.98506   0.82768    0.000
 4095.00    0.97340   0.79731    0.000
 4096.00    0.81624   0.76237    0.000
 4097.00    0.62938   0.72405    0.000
 4098.00    0.53238   0.68456    0.000
 4099.00    0.50849   0.64783    0.000
 4100.00    0.50171   0.61956    0.000
 4101.00    0.52750   0.60576    0.000
 4102.00    0.60865   0.61004    0.000
 4103.00    0.72003   0.63154    0.000
 4104.00    0.80406   0.66484    0.000
 4105.00    0.80204   0.70232    0.000
 4106.00    0.73689   0.73726    0.000
 4107.00    0.70173   0.76588    0.000
 4108.00    0.71308   0.78787    0.000
 4109.00    0.71350   0.80526    0.000
 4110.00    0.69039   0.82073    0.000
 4111.00    0.66427   0.83618    0.000
 4112.00    0.61968   0.85192    0.000
 4113.00    0.54858   0.86677    6.801
 4114.00    0.51635   0.87872    7.115
 4115.00    0.57345   0.88598    6.862
 4116.00    0.67105   0.88789    6.236
 4117.00    0.76078   0.88536    5.704
 4118.00    0.85945   0.88069    5.418
 4119.00    0.95367   0.87662    5.176
 4120.00    0.97606   0.87524    4.669
 4121.00    0.94154   0.87721    4.233
 4122.00    0.94930   0.88177    4.360
 4123.00    1.00849   0.88709    4.930
 4124.00    1.03176   0.89097    5.182
 4125.00    0.95217   0.89174    5.138
 4126.00    0.77825   0.88890    5.535
 4127.00    0.63202   0.88326    6.151
 4128.00    0.63182   0.87645    6.087
 4129.00    0.74189   0.87021    5.629
 4130.00    0.87488   0.86607    5.182
 4131.00    1.00188   0.86542    4.402
 4132.00    1.08017   0.86940    3.707
 4133.00    1.02084   0.87846    3.842
 4134.00    0.84424   0.89178    5.142
 4135.00    0.71464   0.90727    6.588
 4136.00    0.72419   0.92209    6.200
 4137.00    0.83279   0.93342    5.617
 4138.00    0.96603   0.93883    5.456
 4139.00    1.06166   0.93675    5.150
 4140.00    1.10084   0.92726    4.689
 4141.00    1.09545   0.91286    4.406
 4142.00    1.05491   0.89822    4.472
 4143.00    0.98981   0.88836    4.849
 4144.00    0.92262   0.88608    4.977
 4145.00    0.87509   0.89053    4.710
 4146.00    0.85597   0.89808    5.209
 4147.00    0.86916   0.90464    7.923
 4148.00    0.91383   0.90777   12.409
 4149.00    0.94996   0.90725   11.668
 4150.00    0.90894   0.90414   10.356
 4151.00    0.80815   0.89968   11.732
 4152.00    0.75259   0.89482   14.553
 4153.00    0.80111   0.89045   13.423
 4154.00    0.92955   0.88770    8.510
 4155.00    1.04520   0.88766    5.713
 4156.00    1.06292   0.89092    4.816
 4157.00    1.01795   0.89705    4.936
 4158.00    0.97983   0.90483    5.719
 4159.00    0.93027   0.91280    6.422
 4160.00    0.84768   0.91993    6.077
 4161.00    0.78708   0.92579    5.353
 4162.00    0.78373   0.93017    5.010
 4163.00    0.79693   0.93286    5.188
 4164.00    0.80133   0.93355    5.719
 4165.00    0.82380   0.93212    5.948
 4166.00    0.88853   0.92861    5.597
 4167.00    0.98725   0.92293    5.192
 4168.00    1.06194   0.91460    5.014
 4169.00    1.04368   0.90310    5.092
 4170.00    0.94467   0.88888    5.497
 4171.00    0.83690   0.87387    6.260
 4172.00    0.78224   0.86106    6.842
 4173.00    0.79468   0.85289    6.607
 4174.00    0.81686   0.84996    6.320
 4175.00    0.80406   0.85107    6.587
 4176.00    0.79301   0.85449    6.912
 4177.00    0.82357   0.85912    6.743
 4178.00    0.88457   0.86464    6.439
 4179.00    0.93744   0.87085    6.314
 4180.00    0.93943   0.87719    6.300
 4181.00    0.87686   0.88283    6.313
 4182.00    0.77643   0.88717    6.308
 4183.00    0.69920   0.88996    6.141
 4184.00    0.70161   0.89130    5.760
 4185.00    0.76095   0.89162    5.515
 4186.00    0.82348   0.89181    5.660
 4187.00    0.90066   0.89314    5.823
 4188.00    1.00185   0.89661    5.444
 4189.00    1.04793   0.90239    4.726
 4190.00    0.98773   0.90943    4.234
 4191.00    0.89508   0.91580    4.381
 4192.00    0.85215   0.91915    5.265
 4193.00    0.86903   0.91755    5.980
 4194.00    0.90797   0.91031    5.695
 4195.00    0.91544   0.89856    5.532
 4196.00    0.88380   0.88494    5.827
 4197.00    0.85428   0.87258    5.892
 4198.00    0.86024   0.86380    5.658
 4199.00    0.89782   0.85943    5.675
 4200.00    0.90405   0.85899    5.939
 4201.00    0.82490   0.86152    6.045
 4202.00    0.72103   0.86629    5.790
 4203.00    0.68614   0.87294    5.373
 4204.00    0.73458   0.88119    5.162
 4205.00    0.81994   0.89041    5.347
 4206.00    0.87329   0.89957    5.884
 4207.00    0.87325   0.90761    6.485
 4208.00    0.87257   0.91385    6.552
 4209.00    0.90884   0.91810    6.037
 4210.00    0.96848   0.92030    5.545
 4211.00    1.02351   0.92021    5.225
 4212.00    1.05261   0.91765    4.953
 4213.00    1.05781   0.91329    4.888
 4214.00    1.05183   0.90904    5.300
 4215.00    1.02452   0.90743    6.108
 4216.00    0.95848   0.91008    6.708
 4217.00    0.86293   0.91640    6.636
 4218.00    0.77127   0.92363    6.186
 4219.00    0.72799   0.92797    5.943
 4220.00    0.74830   0.92618    6.075
 4221.00    0.79206   0.91662    6.192
 4222.00    0.81373   0.89977    6.055
 4223.00    0.80026   0.87848    5.971
 4224.00    0.78827   0.85766    5.968
 4225.00    0.83961   0.84310    5.647
 4226.00    0.93148   0.83936    5.002
 4227.00    0.97395   0.84752    4.412
 4228.00    0.96007   0.86415    4.159
 4229.00    0.94992   0.88275    4.330
 4230.00    0.95843   0.89679    4.630
 4231.00    0.96616   0.90271    4.563
 4232.00    0.96815   0.90091    4.322
 4233.00    0.96210   0.89462    4.311
 4234.00    0.93040   0.88773    4.595
 4235.00    0.87124   0.88298    5.109
 4236.00    0.82181   0.88158    5.690
 4237.00    0.82837   0.88358    6.041
 4238.00    0.91258   0.88858    5.910
 4239.00    1.01120   0.89585    5.392
 4240.00    1.00422   0.90438    4.839
 4241.00    0.90593   0.91267    4.578
 4242.00    0.84608   0.91892    4.818
 4243.00    0.84671   0.92149    5.471
 4244.00    0.83255   0.91952    6.082
 4245.00    0.76826   0.91332    6.420
 4246.00    0.68235   0.90448    6.586
 4247.00    0.65529   0.89518    6.278
 4248.00    0.74096   0.88749    5.569
 4249.00    0.88908   0.88264    5.240
 4250.00    1.00293   0.88094    5.596
 4251.00    1.00559   0.88192    6.269
 4252.00    0.91130   0.88476    6.437
 4253.00    0.83205   0.88854    5.714
 4254.00    0.81845   0.89229    4.929
 4255.00    0.82309   0.89489    4.813
 4256.00    0.83144   0.89526    5.308
 4257.00    0.87636   0.89308    5.813
 4258.00    0.95643   0.88950    5.816
 4259.00    1.02759   0.88718    5.493
 4260.00    1.03168   0.88895    5.269
 4261.00    0.95511   0.89616    5.375
 4262.00    0.89262   0.90754    5.698
 4263.00    0.91221   0.91969    6.007
 4264.00    0.92242   0.92850    6.264
 4265.00    0.85612   0.93087    6.568
 4266.00    0.80059   0.92560    6.939
 4267.00    0.81572   0.91342    6.871
 4268.00    0.84495   0.89646    5.772
 4269.00    0.84231   0.87774    4.718
 4270.00    0.81755   0.86064    4.577
 4271.00    0.78391   0.84832    5.182
 4272.00    0.74803   0.84298    5.710
 4273.00    0.73092   0.84527    5.717
 4274.00    0.75725   0.85413    5.678
 4275.00    0.82556   0.86710    5.711
 4276.00    0.90419   0.88092    5.646
 4277.00    0.93783   0.89239    5.519
 4278.00    0.89931   0.89936    5.488
 4279.00    0.83483   0.90124    5.672
 4280.00    0.79613   0.89899    6.072
 4281.00    0.78851   0.89430    6.447
 4282.00    0.80372   0.88864    6.589
 4283.00    0.83906   0.88258    6.588
 4284.00    0.88499   0.87579    6.452
 4285.00    0.92108   0.86751    6.039
 4286.00    0.92245   0.85743    5.468
 4287.00    0.87668   0.84648    5.021
 4288.00    0.81683   0.83686    4.931
 4289.00    0.78884   0.83119    5.306
 4290.00    0.78049   0.83098    5.768
 4291.00    0.75635   0.83540    5.712
 4292.00    0.72141   0.84151    5.550
 4293.00    0.70253   0.84563    5.824
 4294.00    0.71661   0.84498    6.301
 4295.00    0.73937   0.83843    6.529
 4296.00    0.70363   0.82641    6.557
 4297.00    0.61546   0.81061    6.511
 4298.00    0.58028   0.79355    6.287
 4299.00    0.62413   0.77822    6.042
 4300.00    0.66621   0.76716    6.092
 4301.00    0.68282   0.76160    6.273
 4302.00    0.71209   0.76100    6.131
 4303.00    0.73745   0.76340    6.005
 4304.00    0.71584   0.76643    6.473
 4305.00    0.67484   0.76854    7.133
 4306.00    0.66621   0.76971    7.021
 4307.00    0.68381   0.77136    6.697
 4308.00    0.69981   0.77526    6.873
 4309.00    0.71119   0.78239    7.091
 4310.00    0.73483   0.79231    6.866
 4311.00    0.79033   0.80384    6.632
 4312.00    0.84412   0.81615    6.706
 4313.00    0.81523   0.82933    6.878
 4314.00    0.72759   0.84381    6.609
 4315.00    0.70559   0.85920    5.724
 4316.00    0.75961   0.87364    5.115
 4317.00    0.79714   0.88443    5.441
 4318.00    0.80679   0.88928    6.350
 4319.00    0.83201   0.88721    6.380
 4320.00    0.85243   0.87860    5.626
 4321.00    0.83433   0.86473    5.213
 4322.00    0.81677   0.84759    5.376
 4323.00    0.83775   0.83000    6.028
 4324.00    0.86014   0.81557    6.652
 4325.00    0.84517   0.80749    6.726
 4326.00    0.80671   0.80700    6.715
 4327.00    0.77954   0.81246    6.985
 4328.00    0.79527   0.82005    7.221
 4329.00    0.86530   0.82572    7.110
 4330.00    0.96780   0.82683    0.000
 4331.00    1.03069   0.82237    0.000
 4332.00    0.97849   0.81191    0.000
 4333.00    0.84609   0.79465    0.000
 4334.00    0.73209   0.76933    0.000
 4335.00    0.67593   0.73550    0.000
 4336.00    0.66698   0.69490    0.000
 4337.00    0.68390   0.65224    0.000
 4338.00    0.70117   0.61453    0.000
 4339.00    0.69504   0.58898    0.000
 4340.00    0.67529   0.58057    0.000
 4341.00    0.69170   0.59030    0.000
 4342.00    0.74670   0.61513    0.000
 4343.00    0.77586   0.64937    0.000
 4344.00    0.76236   0.68680    0.000
 4345.00    0.75117   0.72219    0.000
 4346.00    0.75034   0.75184    0.000
 4347.00    0.73034   0.77364    0.000
 4348.00    0.69041   0.78695    0.000
 4349.00    0.65426   0.79303    0.000
 4350.00    0.63789   0.79504    0.000
 4351.00    0.65239   0.79717    7.510
 4352.00    0.71118   0.80297    7.383
 4353.00    0.79875   0.81370    7.418
 4354.00    0.85214   0.82797    7.383
 4355.00    0.84674   0.84284    7.133
 4356.00    0.83972   0.85569    6.885
 4357.00    0.86948   0.86556    6.758
 4358.00    0.91141   0.87338    6.685
 4359.00    0.92361   0.88095    6.724
 4360.00    0.87637   0.88952    7.053
 4361.00    0.78017   0.89895    7.611
 4362.00    0.68385   0.90773    8.036
 4363.00    0.65080   0.91379    8.137
 4364.00    0.71527   0.91546    7.989
 4365.00    0.82470   0.91234    7.592
 4366.00    0.89583   0.90555    7.102
 4367.00    0.89564   0.89726    6.951
 4368.00    0.85074   0.88963    7.263
 4369.00    0.83450   0.88369    7.476
 4370.00    0.87793   0.87907    7.162
 4371.00    0.92646   0.87469    6.765
 4372.00    0.93525   0.87008    6.670
 4373.00    0.91334   0.86623    6.912
 4374.00    0.89341   0.86515    7.216
 4375.00    0.90492   0.86831    7.078
 4376.00    0.93579   0.87510    6.579
 4377.00    0.95351   0.88246    6.212
 4378.00    0.97091   0.88609    6.209
 4379.00    1.01386   0.88235    6.581
 4380.00    1.05018   0.86997    7.042
 4381.00    1.02814   0.85082    7.167
 4382.00    0.93755   0.82942    7.027
 4383.00    0.82312   0.81132    6.972
 4384.00    0.77514   0.80093    7.222
 4385.00    0.82573   0.79982    7.638
 4386.00    0.90168   0.80650    7.571
 4387.00    0.94257   0.81761    7.020
 4388.00    0.94627   0.82976    6.749
 4389.00    0.90534   0.84067    7.013
 4390.00    0.80752   0.84933    7.624
 4391.00    0.70547   0.85564    8.286
 4392.00    0.68345   0.86002    8.584
 4393.00    0.74868   0.86322    8.172
 4394.00    0.84474   0.86608    7.242
 4395.00    0.91183   0.86896    6.412
 4396.00    0.92818   0.87141    6.013
 4397.00    0.93947   0.87246    6.072
 4398.00    0.98376   0.87145    6.455
 4399.00    1.03082   0.86867    6.732
 4400.00    1.04323   0.86503    6.683
 4401.00    1.01768   0.86145    6.735
 4402.00    0.97023   0.85831    7.101
 4403.00    0.92324   0.85572    7.482
 4404.00    0.88972   0.85402    7.660
 4405.00    0.86824   0.85387    7.786
 4406.00    0.84535   0.85601    8.033
 4407.00    0.80983   0.86072    8.436
 4408.00    0.77833   0.86755    8.788
 4409.00    0.77262   0.87512    8.784
 4410.00    0.77993   0.88127    8.458
 4411.00    0.78980   0.88369    8.058
 4412.00    0.83570   0.88098    7.756
 4413.00    0.92479   0.87380    7.568
 4414.00    0.98711   0.86489    7.375
 4415.00    0.96815   0.85806    7.101
 4416.00    0.88725   0.85631    6.815
 4417.00    0.81198   0.86031    6.736
 4418.00    0.82604   0.86824    6.951
 4419.00    0.96734   0.87690    6.322
 4420.00    1.19840   0.88356    4.484
 4421.00    1.39198   0.88714    3.334
 4422.00    1.40866   0.88827    3.134
 4423.00    1.25359   0.88832    3.416
 4424.00    1.03650   0.88831    3.710
 4425.00    0.86109   0.88838    4.253
 4426.00    0.77807   0.88809    5.947
 4427.00    0.75816   0.88686    8.970
 4428.00    0.75694   0.88441    9.773
 4429.00    0.76672   0.88082    8.664
 4430.00    0.77979   0.87634    8.313
 4431.00    0.77377   0.87148    8.592
 4432.00    0.76482   0.86709    8.927
 4433.00    0.80405   0.86450    8.870
 4434.00    0.87617   0.86516    8.349
 4435.00    0.90864   0.86981    7.721
 4436.00    0.88924   0.87753    7.491
 4437.00    0.85826   0.88556    7.951
 4438.00    0.83232   0.89041    8.620
 4439.00    0.81337   0.88964    8.535
 4440.00    0.82168   0.88339    8.030
 4441.00    0.86503   0.87453    7.813
 4442.00    0.90535   0.86724    7.822
 4443.00    0.90834   0.86487    7.865
 4444.00    0.88414   0.86827    8.007
 4445.00    0.86511   0.87570    8.152
 4446.00    0.88135   0.88402    7.909
 4447.00    0.92247   0.89030    7.493
 4448.00    0.94012   0.89293    7.575
 4449.00    0.91537   0.89167    8.266
 4450.00    0.87208   0.88702    9.054
 4451.00    0.84859   0.87965    9.452
 4452.00    0.87277   0.87029    9.408
 4453.00    0.93065   0.85991    9.040
 4454.00    0.98440   0.84982    8.577
 4455.00    1.00749   0.84134    8.356
 4456.00    0.99448   0.83526    8.480
 4457.00    0.96371   0.83161    8.588
 4458.00    0.93532   0.82995    8.384
 4459.00    0.91411   0.82991    8.103
 4460.00    0.89659   0.83152    7.966
 4461.00    0.87677   0.83485    0.000
 4462.00    0.84928   0.83953    0.000
 4463.00    0.81497   0.84444    0.000
 4464.00    0.79396   0.84802    0.000
 4465.00    0.81134   0.84903    0.000
 4466.00    0.85179   0.84729    0.000
 4467.00    0.87780   0.84394    0.000
 4468.00    0.88408   0.84119    0.000
 4469.00    0.88864   0.84148    0.000
 4470.00    0.90546   0.84651    0.000
 4471.00    0.93802   0.85651    0.000
 4472.00    0.97789   0.87008    0.000
 4473.00    1.01452   0.88461    0.000
 4474.00    1.04067   0.89711    0.000
 4475.00    1.03665   0.90493    0.000
 4476.00    0.97364   0.90636    0.000
 4477.00    0.87007   0.90105    0.000
 4478.00    0.79124   0.89040    0.000
 4479.00    0.76635   0.87763    0.000
 4480.00    0.77681   0.86699    0.000
 4481.00    0.79730   0.86216    0.000
 4482.00    0.81231   0.86454    8.573
 4483.00    0.82601   0.87250    9.036
 4484.00    0.85105   0.88214    9.296
 4485.00    0.89044   0.88925    9.195
 4486.00    0.93483   0.89130    8.999
 4487.00    0.96407   0.88836    8.946
 4488.00    0.96284   0.88262    9.024
 4489.00    0.93219   0.87693    8.929
 4490.00    0.88596   0.87321    8.634
 4491.00    0.84497   0.87191    8.515
 4492.00    0.82321   0.87235    8.671
 4493.00    0.82596   0.87377    8.853
 4494.00    0.86220   0.87603    8.910
 4495.00    0.93462   0.87944    8.892
 4496.00    1.00771   0.88417    8.809
 4497.00    1.03658   0.88989    8.653
 4498.00    1.02954   0.89599    8.515
 4499.00    1.01790   0.90217    8.509
 4500.00    1.00216   0.90871    8.669
 4501.00    0.97215   0.91604    8.976
 4502.00    0.93447   0.92398    9.380
 4503.00    0.91145   0.93141    9.651
 4504.00    0.93149   0.93677    9.387
 4505.00    0.99009   0.93904    8.775
 4506.00    1.04122   0.93833    8.475
 4507.00    1.05337   0.93576    8.598
 4508.00    1.03097   0.93258    8.743
 4509.00    1.00325   0.92932    8.621
 4510.00    0.99641   0.92566    8.334
 4511.00    0.98115   0.92095    8.291
 4512.00    0.91787   0.91496    8.792
 4513.00    0.85219   0.90823    9.359
 4514.00    0.85011   0.90188    9.180
 4515.00    0.89614   0.89699    8.633
 4516.00    0.94708   0.89404    8.278
 4517.00    0.99392   0.89273    7.957
 4518.00    1.02980   0.89210    7.560
 4519.00    1.02857   0.89100    7.327
 4520.00    0.98336   0.88841    7.419
 4521.00    0.92219   0.88373    7.797
 4522.00    0.87940   0.87693    8.196
 4523.00    0.87633   0.86838    8.188
 4524.00    0.90143   0.85874    7.870
 4525.00    0.91738   0.84884    7.727
 4526.00    0.89186   0.83969    7.930
 4527.00    0.82264   0.83233    8.356
 4528.00    0.76372   0.82753    8.637
 4529.00    0.76873   0.82551    8.438
 4530.00    0.81731   0.82582    7.990
 4531.00    0.86237   0.82782    7.629
 4532.00    0.88327   0.83120    7.414
 4533.00    0.87497   0.83631    7.347
 4534.00    0.83896   0.84368    7.474
 4535.00    0.79611   0.85319    7.792
 4536.00    0.78155   0.86352    8.185
 4537.00    0.79593   0.87258    8.463
 4538.00    0.80703   0.87852    8.489
 4539.00    0.81372   0.88078    8.458
 4540.00    0.84146   0.88014    8.693
 4541.00    0.88839   0.87805    9.069
 4542.00    0.92644   0.87561    9.168
 4543.00    0.92560   0.87306    8.996
 4544.00    0.88027   0.87000    8.797
 4545.00    0.83259   0.86587    8.581
 4546.00    0.82702   0.86049    8.354
 4547.00    0.86506   0.85429    8.294
 4548.00    0.90935   0.84814    8.487
 4549.00    0.90152   0.84293    8.785
 4550.00    0.82519   0.83918    0.000
 4551.00    0.72632   0.83697    0.000
 4552.00    0.66024   0.83626    0.000
 4553.00    0.65722   0.83730    0.000
 4554.00    0.68862   0.84067    0.000
 4555.00    0.69756   0.84684    0.000
 4556.00    0.68494   0.85554    0.000
 4557.00    0.68599   0.86551    0.000
 4558.00    0.70179   0.87477    0.000
 4559.00    0.71728   0.88141    0.000
 4560.00    0.73583   0.88424    0.000
 4561.00    0.76691   0.88328    0.000
 4562.00    0.80968   0.87981    0.000
 4563.00    0.84618   0.87596    0.000
 4564.00    0.84717   0.87384    0.000
 4565.00    0.82140   0.87455    0.000
 4566.00    0.81975   0.87773    0.000
 4567.00    0.85265   0.88179    0.000
 4568.00    0.88114   0.88494    0.000
 4569.00    0.88495   0.88617    0.000
 4570.00    0.87265   0.88576    0.000
 4571.00    0.85900   0.88481    0.000
 4572.00    0.85157   0.88439    0.000
 4573.00    0.83913   0.88471    0.000
 4574.00    0.81279   0.88506    0.000
 4575.00    0.79108   0.88422    0.000
 4576.00    0.79490   0.88113    0.000
 4577.00    0.82300   0.87542    0.000
 4578.00    0.85750   0.86758    0.000
 4579.00    0.87432   0.85876    0.000
 4580.00    0.86866   0.85044    0.000
 4581.00    0.85910   0.84408    0.000
 4582.00    0.85492   0.84069    0.000
 4583.00    0.85386   0.84072    0.000
 4584.00    0.87073   0.84382    0.000
 4585.00    0.91941   0.84901    0.000
 4586.00    0.96089   0.85484    0.000
 4587.00    0.95146   0.85981    0.000
 4588.00    0.92967   0.86276    0.000
 4589.00    0.94844   0.86330    0.000
 4590.00    0.98463   0.86183    0.000
 4591.00    0.99065   0.85936    0.000
 4592.00    0.95014   0.85703    0.000
 4593.00    0.88019   0.85566    0.000
 4594.00    0.82135   0.85554    0.000
 4595.00    0.79563   0.85643    0.000
 4596.00    0.79389   0.85783    0.000
 4597.00    0.80681   0.85919    0.000
 4598.00    0.82937   0.86017    0.000
 4599.00    0.84106   0.86076    0.000
 4600.00    0.82595   0.86124    0.000
 4601.00    0.82199   0.86207    0.000
 4602.00    0.87319   0.86374    0.000
 4603.00    0.94500   0.86665    0.000
 4604.00    0.97608   0.87099    0.000
 4605.00    0.95183   0.87667    0.000
 4606.00    0.89614   0.88315    0.000
 4607.00    0.85150   0.88945    0.000
 4608.00    0.84206   0.89440    0.000
 4609.00    0.85644   0.89710    0.000
 4610.00    0.87712   0.89734    0.000
 4611.00    0.89381   0.89558    0.000
 4612.00    0.89691   0.89272    0.000
 4613.00    0.87933   0.88956    0.000
 4614.00    0.84792   0.88653    0.000
 4615.00    0.81797   0.88377    0.000
 4616.00    0.79642   0.88138    0.000
 4617.00    0.78548   0.87968    0.000
 4618.00    0.79229   0.87916    0.000
 4619.00    0.81662   0.88019    0.000
 4620.00    0.83817   0.88266    0.000
 4621.00    0.84137   0.88584    0.000
 4622.00    0.83550   0.88870    0.000
 4623.00    0.84043   0.89026    0.000
 4624.00    0.87281   0.89008    0.000
 4625.00    0.92946   0.88830    0.000
 4626.00    0.98588   0.88554    0.000
 4627.00    1.01757   0.88258    0.000
 4628.00    1.01044   0.88001    0.000
 4629.00    0.96695   0.87802    0.000
 4630.00    0.90591   0.87636    0.000
 4631.00    0.85779   0.87456    0.000
 4632.00    0.84439   0.87220    0.000
 4633.00    0.85225   0.86920    0.000
 4634.00    0.85423   0.86585    0.000
 4635.00    0.83811   0.86269    0.000
 4636.00    0.81103   0.86025    0.000
 4637.00    0.79611   0.85888    0.000
 4638.00    0.80403   0.85863    0.000
 4639.00    0.82163   0.85914    0.000
 4640.00    0.84151   0.85965    0.000
 4641.00    0.86839   0.85908    0.000
 4642.00    0.89195   0.85644    0.000
 4643.00    0.88956   0.85128    0.000
 4644.00    0.85801   0.84410    0.000
 4645.00    0.81573   0.83641    0.000
 4646.00    0.78981   0.83022    0.000
 4647.00    0.79728   0.82726    0.000
 4648.00    0.82427   0.82824    0.000
 4649.00    0.85165   0.83255    0.000
 4650.00    0.88306   0.83850    0.000
 4651.00    0.92005   0.84417    0.000
 4652.00    0.94268   0.84823    0.000
 4653.00    0.92978   0.85058    0.000
 4654.00    0.87684   0.85224    0.000
 4655.00    0.81486   0.85463    0.000
 4656.00    0.79724   0.85866    0.000
 4657.00    0.82955   0.86405    0.000
 4658.00    0.87135   0.86929    0.000
 4659.00    0.90117   0.87234    0.000
 4660.00    0.92144   0.87147    0.000
 4661.00    0.93573   0.86596    0.000
 4662.00    0.94649   0.85624    0.000
 4663.00    0.95728   0.84363    0.000
 4664.00    0.96570   0.83001    0.000
 4665.00    0.95741   0.81751    0.000
 4666.00    0.92172   0.80823    0.000
 4667.00    0.86462   0.80383    0.000
 4668.00    0.80839   0.80499    0.000
 4669.00    0.78306   0.81108    0.000
 4670.00    0.79305   0.82044    0.000
 4671.00    0.81528   0.83092    0.000
 4672.00    0.84130   0.84063    0.000
 4673.00    0.87587   0.84832    0.000
 4674.00    0.89924   0.85339    0.000
 4675.00    0.88315   0.85567    0.000
 4676.00    0.83658   0.85532    0.000
 4677.00    0.79349   0.85286    0.000
 4678.00    0.78253   0.84925    0.000
 4679.00    0.80694   0.84568    0.000
 4680.00    0.83341   0.84321    0.000
 4681.00    0.83593   0.84239    0.000
 4682.00    0.82412   0.84310    0.000
 4683.00    0.80278   0.84473    0.000
 4684.00    0.75902   0.84652    0.000
 4685.00    0.71439   0.84794    0.000
 4686.00    0.72209   0.84872    0.000
 4687.00    0.78449   0.84893    0.000
 4688.00    0.85145   0.84884    0.000
 4689.00    0.88286   0.84880    0.000
 4690.00    0.86970   0.84916    0.000
 4691.00    0.84123   0.85009    0.000
 4692.00    0.83206   0.85146    0.000
 4693.00    0.83819   0.85269    0.000
 4694.00    0.83944   0.85291    0.000
 4695.00    0.82745   0.85132    0.000
 4696.00    0.80068   0.84752    0.000
 4697.00    0.76126   0.84181    0.000
 4698.00    0.73018   0.83502    0.000
 4699.00    0.74377   0.82827    0.000
 4700.00    0.80284   0.82256    0.000
 4701.00    0.86546   0.81849    0.000
 4702.00    0.89415   0.81617    0.000
 4703.00    0.87830   0.81527    0.000
 4704.00    0.84831   0.81526    0.000
 4705.00    0.84671   0.81568    0.000
 4706.00    0.87324   0.81637    0.000
 4707.00    0.89955   0.81740    0.000
 4708.00    0.90241   0.81897    0.000
 4709.00    0.87634   0.82113    0.000
 4710.00    0.83954   0.82366    0.000
 4711.00    0.81572   0.82631    0.000
 4712.00    0.81680   0.82907    0.000
 4713.00    0.82548   0.83233    0.000
 4714.00    0.80309   0.83667    0.000
 4715.00    0.75844   0.84242    0.000
 4716.00    0.74563   0.84936    0.000
 4717.00    0.76943   0.85670    0.000
 4718.00    0.79284   0.86341    0.000
 4719.00    0.82153   0.86867    0.000
 4720.00    0.87845   0.87205    0.000
 4721.00    0.92945   0.87346    0.000
 4722.00    0.92761   0.87285    0.000
 4723.00    0.88394   0.87004    0.000
 4724.00    0.83500   0.86484    0.000
 4725.00    0.80278   0.85735    0.000
 4726.00    0.79410   0.84824    0.000
 4727.00    0.80426   0.83880    0.000
 4728.00    0.82507   0.83064    0.000
 4729.00    0.84845   0.82512    0.000
 4730.00    0.86324   0.82291    0.000
 4731.00    0.85899   0.82375    0.000
 4732.00    0.84063   0.82665    0.000
 4733.00    0.82454   0.83043    0.000
 4734.00    0.81975   0.83418    0.000
 4735.00    0.82614   0.83745    0.000
 4736.00    0.83898   0.84027    0.000
 4737.00    0.85133   0.84284    0.000
 4738.00    0.85647   0.84536    0.000
 4739.00    0.85346   0.84787    0.000
 4740.00    0.84989   0.85030    0.000
 4741.00    0.84639   0.85254    0.000
 4742.00    0.82961   0.85457    0.000
 4743.00    0.79600   0.85640    0.000
 4744.00    0.76217   0.85802    0.000
 4745.00    0.75398   0.85933    0.000
 4746.00    0.79091   0.86020    0.000
 4747.00    0.85547   0.86040    0.000
 4748.00    0.90348   0.85966    0.000
 4749.00    0.90692   0.85773    0.000
 4750.00    0.86824   0.85459    0.000
 4751.00    0.82488   0.85049    0.000
 4752.00    0.80864   0.84597    0.000
 4753.00    0.80011   0.84181    0.000
 4754.00    0.78302   0.83875    0.000
 4755.00    0.78988   0.83715    0.000
 4756.00    0.82965   0.83678    0.000
 4757.00    0.85085   0.83681    0.000
 4758.00    0.82949   0.83609    0.000
 4759.00    0.80067   0.83356    0.000
 4760.00    0.79555   0.82882    0.000
 4761.00    0.81504   0.82238    9.454
 4762.00    0.83000   0.81553    9.208
 4763.00    0.81149   0.80995    9.607
 4764.00    0.79151   0.80705   10.199
 4765.00    0.81878   0.80753   10.042
 4766.00    0.87021   0.81115    9.404
 4767.00    0.89454   0.81693    9.047
 4768.00    0.88213   0.82359    9.162
 4769.00    0.86280   0.83001    9.569
 4770.00    0.88554   0.83560    9.748
 4771.00    0.94262   0.84041    9.589
 4772.00    0.94631   0.84470    9.760
 4773.00    0.86958   0.84865   10.393
 4774.00    0.78661   0.85219   10.618
 4775.00    0.74618   0.85496   10.184
 4776.00    0.74218   0.85646    9.834
 4777.00    0.77180   0.85638    9.721
 4778.00    0.83369   0.85474    9.548
 4779.00    0.88978   0.85175    9.349
 4780.00    0.89656   0.84778    9.350
 4781.00    0.86474   0.84333    9.606
 4782.00    0.82918   0.83881    9.995
 4783.00    0.80274   0.83448   10.243
 4784.00    0.77951   0.83065   10.273
 4785.00    0.74668   0.82765   10.488
 4786.00    0.71295   0.82580   10.967
 4787.00    0.71542   0.82542   11.014
 4788.00    0.76127   0.82683   10.525
 4789.00    0.81360   0.83018   10.295
 4790.00    0.84884   0.83523   10.426
 4791.00    0.87035   0.84135   10.378
 4792.00    0.88416   0.84759   10.154
 4793.00    0.89078   0.85268   10.187
 4794.00    0.88364   0.85553   10.472
 4795.00    0.86087   0.85568   10.755
 4796.00    0.84200   0.85339   11.050
 4797.00    0.84657   0.84962   11.383
 4798.00    0.86758   0.84563   11.351
 4799.00    0.88276   0.84241   10.878
 4800.00    0.87097   0.84034   10.659
 4801.00    0.83780   0.83910   10.892
 4802.00    0.82034   0.83800   10.908
 4803.00    0.83199   0.83645   10.487
 4804.00    0.84794   0.83431   10.216
 4805.00    0.85232   0.83191   10.213
 4806.00    0.85041   0.82984   10.165
 4807.00    0.85280   0.82862   10.207
 4808.00    0.86362   0.82850   10.685
 4809.00    0.86727   0.82945   11.169
 4810.00    0.84830   0.83130   10.948
 4811.00    0.82297   0.83382   10.601
 4812.00    0.81397   0.83683   10.792
 4813.00    0.81851   0.84025   11.059
 4814.00    0.82812   0.84389   10.844
 4815.00    0.84613   0.84736   10.514
 4816.00    0.87122   0.85005   10.392
 4817.00    0.88994   0.85116   10.294
 4818.00    0.89531   0.85002   10.043
 4819.00    0.89159   0.84635    9.678
 4820.00    0.87844   0.84046    9.367
 4821.00    0.85219   0.83327    9.287
 4822.00    0.82370   0.82615    9.495
 4823.00    0.80560   0.82042    9.910
 4824.00    0.77996   0.81691   10.252
 4825.00    0.72940   0.81563   10.248
 4826.00    0.68797   0.81586   10.090
 4827.00    0.68927   0.81660   10.088
 4828.00    0.70643   0.81707   10.257
 4829.00    0.70375   0.81691   10.519
 4830.00    0.68260   0.81616   10.858
 4831.00    0.66421   0.81520   11.104
 4832.00    0.67179   0.81440   10.893
 4833.00    0.70924   0.81375   10.342
 4834.00    0.75565   0.81289    9.984
 4835.00    0.78041   0.81143    9.952
 4836.00    0.76267   0.80912   10.047
 4837.00    0.72515   0.80601   10.156
 4838.00    0.71035   0.80245   10.294
 4839.00    0.71969   0.79896   10.476
 4840.00    0.73408   0.79607   10.645
 4841.00    0.75904   0.79398   10.612
 4842.00    0.80521   0.79238   10.312
 4843.00    0.86098   0.79068   10.031
 4844.00    0.89875   0.78835   10.006
 4845.00    0.88711   0.78499   10.224
 4846.00    0.82002   0.78043   10.580
 4847.00    0.72874   0.77487   10.927
 4848.00    0.65615   0.76854    0.000
 4849.00    0.63536   0.76127    0.000
 4850.00    0.66032   0.75251    0.000
 4851.00    0.69443   0.74174    0.000
 4852.00    0.71643   0.72847    0.000
 4853.00    0.72547   0.71234    0.000
 4854.00    0.72765   0.69315    0.000
 4855.00    0.73247   0.67091    0.000
 4856.00    0.75031   0.64621    0.000
 4857.00    0.78037   0.62049    0.000
 4858.00    0.80232   0.59587    0.000
 4859.00    0.81089   0.57519    0.000
 4860.00    0.83577   0.56168    0.000
 4861.00    0.88930   0.55781    0.000
 4862.00    0.94255   0.56441    0.000
 4863.00    0.96363   0.58038    0.000
 4864.00    0.93710   0.60276    0.000
 4865.00    0.86713   0.62739    0.000
 4866.00    0.77335   0.65027    0.000
 4867.00    0.67850   0.66874    0.000
 4868.00    0.60163   0.68191    0.000
 4869.00    0.55169   0.69069    0.000
 4870.00    0.52660   0.69684    0.000
 4871.00    0.51490   0.70223    0.000
 4872.00    0.51105   0.70840    0.000
 4873.00    0.52840   0.71621    0.000
 4874.00    0.57743   0.72577    0.000
 4875.00    0.64869   0.73646   11.467
 4876.00    0.72036   0.74725   11.560
 4877.00    0.76748   0.75702   11.738
 4878.00    0.77938   0.76469   11.983
 4879.00    0.76466   0.76963   12.035
 4880.00    0.74252   0.77166   11.935
 4881.00    0.73352   0.77097   11.975
 4882.00    0.74516   0.76820   12.127
 4883.00    0.77248   0.76431   12.086
 4884.00    0.80570   0.76013   11.640
 4885.00    0.82991   0.75624   10.992
 4886.00    0.82494   0.75311   10.768
 4887.00    0.78797   0.75126   11.164
 4888.00    0.75167   0.75117   11.363
 4889.00    0.74371   0.75350   10.818
 4890.00    0.75787   0.75895   10.298
 4891.00    0.77536   0.76768   10.176
 4892.00    0.78161   0.77906   10.082
 4893.00    0.77929   0.79168    9.970
 4894.00    0.78637   0.80351   10.204
 4895.00    0.81290   0.81266   10.642
 4896.00    0.85156   0.81812   10.670
 4897.00    0.87440   0.81946   10.408
 4898.00    0.85630   0.81735   10.440
 4899.00    0.81513   0.81351   10.815
 4900.00    0.78595   0.80974   11.220
 4901.00    0.77806   0.80721   11.371
 4902.00    0.78257   0.80629   11.191
 4903.00    0.78720   0.80656   10.881
 4904.00    0.78852   0.80712   10.689
 4905.00    0.79641   0.80679   10.741
 4906.00    0.81276   0.80470   10.947
 4907.00    0.82498   0.80095   10.988
 4908.00    0.83005   0.79643   10.757
 4909.00    0.83788   0.79230   10.448
 4910.00    0.84999   0.78972   10.171
 4911.00    0.86129   0.78926    9.929
 4912.00    0.87919   0.79043    9.782
 4913.00    0.90831   0.79151    9.772
 4914.00    0.91899   0.79034    9.780
 4915.00    0.88441   0.78535    9.747
 4916.00    0.83178   0.77610    9.944
 4917.00    0.80239   0.76367   10.489
 4918.00    0.80686   0.75027   10.784
 4919.00    0.82970   0.73852   10.441
 4920.00    0.84163   0.73085   10.069
 4921.00    0.83163   0.72891   10.043
 4922.00    0.81625   0.73297   10.172
 4923.00    0.80630   0.74222   10.287
 4924.00    0.79874   0.75507   10.392
 4925.00    0.79478   0.76946   10.412
 4926.00    0.80009   0.78336   10.253
 4927.00    0.81248   0.79495   10.094
 4928.00    0.82591   0.80279   10.161
 4929.00    0.84136   0.80625   10.321
 4930.00    0.85970   0.80545   10.344
 4931.00    0.87135   0.80111   10.329
 4932.00    0.86655   0.79445   10.483
 4933.00    0.84641   0.78669   10.853
 4934.00    0.82211   0.77905   11.241
 4935.00    0.80999   0.77285   11.231
 4936.00    0.81259   0.76908   10.932
 4937.00    0.81494   0.76825   11.010
 4938.00    0.80994   0.77065   11.501
 4939.00    0.80307   0.77590   11.729
 4940.00    0.79530   0.78296    0.000
 4941.00    0.78209   0.79079    0.000
 4942.00    0.76274   0.79853    0.000
 4943.00    0.74269   0.80522    0.000
 4944.00    0.73306   0.81013    0.000
 4945.00    0.74219   0.81319    0.000
 4946.00    0.76568   0.81501    0.000
 4947.00    0.79230   0.81619    0.000
 4948.00    0.81085   0.81682    0.000
 4949.00    0.81241   0.81674    0.000
 4950.00    0.79331   0.81567    0.000
 4951.00    0.76436   0.81291    0.000
 4952.00    0.74733   0.80766    0.000
 4953.00    0.74336   0.80020    0.000
 4954.00    0.73236   0.79207    0.000
 4955.00    0.70762   0.78489    0.000
 4956.00    0.68537   0.78000    0.000
 4957.00    0.70091   0.77842    0.000
 4958.00    0.77389   0.78046    0.000
 4959.00    0.85786   0.78529    0.000
 4960.00    0.89081   0.79123    0.000
 4961.00    0.86456   0.79661    0.000
 4962.00    0.80888   0.80000    0.000
 4963.00    0.76440   0.80035    0.000
 4964.00    0.74862   0.79786    0.000
 4965.00    0.74367   0.79401    0.000
 4966.00    0.74685   0.79043    0.000
 4967.00    0.78113   0.78817    0.000
 4968.00    0.83455   0.78779    0.000
 4969.00    0.86011   0.78946    0.000
 4970.00    0.84246   0.79281    0.000
 4971.00    0.80256   0.79688    0.000
 4972.00    0.76549   0.80056    0.000
 4973.00    0.74629   0.80284    0.000
 4974.00    0.74037   0.80289    0.000
 4975.00    0.74276   0.80023    0.000
 4976.00    0.76915   0.79458    0.000
 4977.00    0.82186   0.78589    0.000
 4978.00    0.86366   0.77465    0.000
 4979.00    0.86231   0.76208    0.000
 4980.00    0.82029   0.74991    0.000
 4981.00    0.76425   0.73986    0.000
 4982.00    0.72901   0.73358    0.000
 4983.00    0.72269   0.73197    0.000
 4984.00    0.72420   0.73480    0.000
 4985.00    0.71293   0.74096    0.000
 4986.00    0.68048   0.74900    0.000
 4987.00    0.63649   0.75718    0.000
 4988.00    0.59781   0.76393    0.000
 4989.00    0.57110   0.76833    0.000
 4990.00    0.56527   0.77065    0.000
 4991.00    0.60474   0.77170    0.000
 4992.00    0.69003   0.77223    0.000
 4993.00    0.77090   0.77266    0.000
 4994.00    0.80683   0.77280    0.000
 4995.00    0.80307   0.77194    0.000
 4996.00    0.78251   0.76940    0.000
 4997.00    0.76613   0.76502    0.000
 4998.00    0.75803   0.75929    0.000
 4999.00    0.74872   0.75274    0.000
 5000.00    0.73792   0.74583    0.000
 5001.00    0.73595   0.73906    0.000
 5002.00    0.75316   0.73326    0.000
 5003.00    0.79140   0.72943    0.000
 5004.00    0.83591   0.72803    0.000
 5005.00    0.87293   0.72868    0.000
 5006.00    0.90868   0.73056    0.000
 5007.00    0.94761   0.73262    0.000
 5008.00    0.97460   0.73373    0.000
 5009.00    0.97226   0.73323    0.000
 5010.00    0.93440   0.73085    0.000
 5011.00    0.87215   0.72661    0.000
 5012.00    0.80893   0.72097    0.000
 5013.00    0.75417   0.71483    0.000
 5014.00    0.70271   0.70958    0.000
 5015.00    0.65821   0.70645    0.000
 5016.00    0.63106   0.70593    0.000
 5017.00    0.62161   0.70760    0.000
 5018.00    0.61794   0.71093    0.000
 5019.00    0.59980   0.71564    0.000
 5020.00    0.56385   0.72134    0.000
 5021.00    0.54594   0.72759    0.000
 5022.00    0.57387   0.73385    0.000
 5023.00    0.62980   0.73921    0.000
 5024.00    0.67728   0.74331    0.000
 5025.00    0.68614   0.74661    0.000
 5026.00    0.65914   0.74956    0.000
 5027.00    0.63156   0.75247    0.000
 5028.00    0.62815   0.75563    0.000
 5029.00    0.64872   0.75911   10.757
 5030.00    0.67232   0.76230   10.285
 5031.00    0.67908   0.76424   10.301
 5032.00    0.68776   0.76423   10.521
 5033.00    0.72730   0.76186   10.302
 5034.00    0.78717   0.75694    9.739
 5035.00    0.84048   0.74962    9.311
 5036.00    0.87609   0.74036    9.328
 5037.00    0.89006   0.73037    9.776
 5038.00    0.87676   0.72199   10.185
 5039.00    0.83501   0.71736   10.325
 5040.00    0.77402   0.71717   10.684
 5041.00    0.72139   0.72108   11.267
 5042.00    0.71310   0.72822   11.218
 5043.00    0.74911   0.73695   10.580
 5044.00    0.79349   0.74524   10.248
 5045.00    0.81436   0.75142   10.430
 5046.00    0.79676   0.75419   10.857
 5047.00    0.74664   0.75318   11.273
 5048.00    0.68642   0.74995   11.506
 5049.00    0.64627   0.74672   11.518
 5050.00    0.64513   0.74506   11.461
 5051.00    0.67408   0.74579   11.632
 5052.00    0.71567   0.74909   12.056
 5053.00    0.76002   0.75442   12.191
 5054.00    0.79908   0.76072   11.817
 5055.00    0.82397   0.76702   11.463
 5056.00    0.83106   0.77279   11.388
 5057.00    0.82334   0.77753   11.439
 5058.00    0.80541   0.78071   11.624
 5059.00    0.78146   0.78191   12.097
 5060.00    0.75487   0.78066   12.621
 5061.00    0.72772   0.77702   12.684
 5062.00    0.70076   0.77167   12.356
 5063.00    0.67935   0.76523   12.031
 5064.00    0.68029   0.75840   11.781
 5065.00    0.71329   0.75225   11.513
 5066.00    0.76323   0.74768   11.174
 5067.00    0.81181   0.74462   10.824
 5068.00    0.85324   0.74286   10.611
 5069.00    0.87775   0.74231   10.541
 5070.00    0.86727   0.74204   10.457
 5071.00    0.82213   0.74131   10.415
 5072.00    0.76744   0.74037   10.640
 5073.00    0.73439   0.73919   10.882
 5074.00    0.74518   0.73681   10.585
 5075.00    0.79281   0.73266   10.063
 5076.00    0.84423   0.72754    9.944
 5077.00    0.85687   0.72224   10.167
 5078.00    0.81211   0.71723   10.390
 5079.00    0.75152   0.71334   10.613
 5080.00    0.72374   0.71150   10.849
 5081.00    0.72831   0.71221   10.713
 5082.00    0.74156   0.71532   10.194
 5083.00    0.74280   0.72061    9.960
 5084.00    0.72624   0.72721   10.285
 5085.00    0.70192   0.73379   10.829
 5086.00    0.67545   0.73954   11.309
 5087.00    0.64657   0.74459   11.748
 5088.00    0.63289   0.74914   11.889
 5089.00    0.65797   0.75297   11.389
 5090.00    0.70634   0.75584   10.797
 5091.00    0.73946   0.75754   10.773
 5092.00    0.74282   0.75736   11.142
 5093.00    0.72552   0.75459   11.407
 5094.00    0.70713   0.74922   11.566
 5095.00    0.70482   0.74204   11.709
 5096.00    0.72152   0.73448   11.489
 5097.00    0.74135   0.72808   11.016
 5098.00    0.73472   0.72389   11.118
 5099.00    0.70166   0.72228   11.904
 5100.00    0.68167   0.72306   12.224
 5101.00    0.69251   0.72553   11.664
 5102.00    0.71600   0.72853   11.243
 5103.00    0.73618   0.73075   11.358
 5104.00    0.75015   0.73130   11.722
 5105.00    0.76352   0.73005   11.876
 5106.00    0.77946   0.72773   11.594
 5107.00    0.78325   0.72577   11.354
 5108.00    0.76093   0.72528   11.555
 5109.00    0.72525   0.72644   -2.000
 5110.00    0.69786   0.72917   -2.000
 5111.00    0.68917   0.73331   -2.000
 5112.00    0.70327   0.73830   -2.000
 5113.00    0.73944   0.74345   -2.000
 5114.00    0.77356   0.74822   -2.000
 5115.00    0.76179   0.75160   -2.000
 5116.00    0.69690   0.75282   -2.000
 5117.00    0.62106   0.75179   -2.000
 5118.00    0.59159   0.74845   -2.000
 5119.00    0.64153   0.74283   -2.000
 5120.00    0.71951   0.73542   -2.000
 5121.00    0.74272   0.72707   -2.000
 5122.00    0.70703   0.71888   -2.000
 5123.00    0.66126   0.71172   10.866
 5124.00    0.64789   0.70612   10.903
 5125.00    0.67886   0.70233   10.799
 5126.00    0.72388   0.70054   10.568
 5127.00    0.74506   0.70087   10.417
 5128.00    0.72479   0.70279   10.724
 5129.00    0.67563   0.70543   11.524
 5130.00    0.63469   0.70853   12.205
 5131.00    0.62391   0.71207   12.260
 5132.00    0.63889   0.71537   11.902
 5133.00    0.66450   0.71747   11.522
 5134.00    0.68438   0.71787   11.361
 5135.00    0.69079   0.71648   11.442
 5136.00    0.68251   0.71406   11.682
 5137.00    0.65846   0.71139   12.034
 5138.00    0.62507   0.70826   12.400
 5139.00    0.60431   0.70487   12.496
 5140.00    0.60732   0.70255   12.201
 5141.00    0.61425   0.70168   11.851
 5142.00    0.61361   0.70141   11.801
 5143.00    0.62435   0.70138   12.184
 5144.00    0.65814   0.70126   12.668
 5145.00    0.70354   0.70110   12.441
 5146.00    0.74619   0.70142   11.582
 5147.00    0.77533   0.70166   10.955
 5148.00    0.77830   0.70119   10.883
 5149.00    0.74593   0.70041   11.281
 5150.00    0.68742   0.69991   11.880
 5151.00    0.62634   0.70013   12.326
 5152.00    0.58798   0.70139   12.541
 5153.00    0.58737   0.70382   12.678
 5154.00    0.61823   0.70745   12.824
 5155.00    0.66357   0.71203   12.917
 5156.00    0.70780   0.71679   12.759
 5157.00    0.74553   0.72083   12.355
 5158.00    0.78364   0.72302   12.003
 5159.00    0.82455   0.72243   11.880
 5160.00    0.85943   0.71863   11.923
 5161.00    0.87673   0.71121   11.940
 5162.00    0.86825   0.69995   11.725
 5163.00    0.83624   0.68538   11.326
 5164.00    0.78872   0.66889   10.987
 5165.00    0.72617   0.65295   10.932
 5166.00    0.65213   0.63979   11.226
 5167.00    0.59269   0.62960   11.576
 5168.00    0.57101   0.62193   11.646
 5169.00    0.57557   0.61804   11.627
 5170.00    0.58216   0.62000   11.733
 5171.00    0.57826   0.62802   11.728
 5172.00    0.57115   0.63991   11.390
 5173.00    0.58438   0.65313   10.871
 5174.00    0.61932   0.66636   10.516
 5175.00    0.64838   0.67923   10.634
 5176.00    0.66259   0.69065   11.095
 5177.00    0.67843   0.69798   11.342
 5178.00    0.70543   0.69880   11.202
 5179.00    0.73762   0.69292   10.999
 5180.00    0.75631   0.68290   10.948
 5181.00    0.74701   0.67252   11.092
 5182.00    0.72311   0.66460   11.386
 5183.00    0.70771   0.66022   11.694
 5184.00    0.70795   0.65946   11.802
 5185.00    0.71381   0.66216   11.686
 5186.00    0.70377   0.66819   11.676
 5187.00    0.67253   0.67580   11.972
 5188.00    0.64273   0.68160   12.399
 5189.00    0.63337   0.68400   12.628
 5190.00    0.64427   0.68412    0.000
 5191.00    0.65974   0.68312    0.000
 5192.00    0.66055   0.68187    0.000
 5193.00    0.65100   0.68112    0.000
 5194.00    0.65101   0.68159    0.000
 5195.00    0.66535   0.68429    0.000
 5196.00    0.68652   0.68892    0.000
 5197.00    0.70888   0.69356    0.000
 5198.00    0.72909   0.69711    0.000
 5199.00    0.74402   0.69934    0.000
 5200.00    0.75005   0.69944    0.000
 5201.00    0.74321   0.69648    0.000
 5202.00    0.72319   0.69087    0.000
 5203.00    0.69638   0.68403    0.000
 5204.00    0.67831   0.67720    0.000
 5205.00    0.68704   0.67141    0.000
 5206.00    0.71692   0.66812    0.000
 5207.00    0.74303   0.66820    0.000
 5208.00    0.75757   0.67193    0.000
 5209.00    0.76486   0.67866    0.000
 5210.00    0.75298   0.68644    0.000
 5211.00    0.71513   0.69332   11.749
 5212.00    0.68619   0.69869   11.579
 5213.00    0.69898   0.70257   10.836
 5214.00    0.73423   0.70541   -2.000
 5215.00    0.76545   0.70788   -2.000
 5216.00    0.79864   0.71021   -2.000
 5217.00    0.85489   0.71251   -2.000
 5218.00    0.94677   0.71490   -2.000
 5219.00    1.03073   0.71689   -2.000
 5220.00    1.02115   0.71704   -2.000
 5221.00    0.91320   0.71384   -2.000
 5222.00    0.75787   0.70669   -2.000
 5223.00    0.49023   0.69658   -2.000
 5224.00    0.06499   0.68633   -2.000
 5225.00   -0.21645   0.67871   -2.000
 5226.00   -0.07246   0.67447   -2.000
 5227.00    0.18046   0.67344   -2.000
 5228.00    0.17595   0.67516   -2.000
 5229.00    0.12748   0.67861   -2.000
 5230.00    0.28941   0.68306   -2.000
 5231.00    0.51600   0.68756   -2.000
 5232.00    0.63592   0.69110   -2.000
 5233.00    0.67469   0.69408   -2.000
 5234.00    0.70299   0.69730   -2.000
 5235.00    0.75608   0.70122   -2.000
 5236.00    0.82420   0.70632   -2.000
 5237.00    0.87148   0.71237   11.762
 5238.00    0.88859   0.71829   12.100
 5239.00    0.88686   0.72292   12.286
 5240.00    0.86182   0.72597   12.137
 5241.00    0.80583   0.72782   11.988
 5242.00    0.73483   0.72822   12.216
 5243.00    0.67529   0.72661   12.825
 5244.00    0.64508   0.72331   13.019
 5245.00    0.64467   0.71929   12.468
 5246.00    0.65540   0.71489   12.201
 5247.00    0.66271   0.71016   12.593
 5248.00    0.66768   0.70578   12.783
 5249.00    0.67417   0.70273   12.314
 5250.00    0.68336   0.70136   11.731
 5251.00    0.69670   0.70120   11.273
 5252.00    0.71437   0.70201   10.861
 5253.00    0.72939   0.70453   10.750
 5254.00    0.73051   0.70851   11.204
 5255.00    0.71094   0.71231   11.711
 5256.00    0.67642   0.71443   11.542
 5257.00    0.65190   0.71408   11.233
 5258.00    0.65592   0.71080   11.406
 5259.00    0.67553   0.70399   11.620
 5260.00    0.69043   0.69338   11.431
 5261.00    0.69330   0.67980   11.267
 5262.00    0.68497   0.66506   11.441
 5263.00    0.67102   0.65148   11.731
 5264.00    0.66301   0.64084   11.898
 5265.00    0.67208   0.63288   11.921
 5266.00    0.68724   0.62689   11.845
 5267.00    0.68435   0.62419   11.724
 5268.00    0.66472   0.62606   11.608
 5269.00    0.64834   0.63113   11.537
 5270.00    0.64418   0.63702   11.525
 5271.00    0.64705   0.64282   11.652
 5272.00    0.64256   0.64950   12.173
 5273.00    0.62514   0.65850   12.960
 5274.00    0.61304   0.66882   12.753
 5275.00    0.62592   0.67782   11.324
 5276.00    0.66550   0.68460   10.234
 5277.00    0.71204   0.68965    9.959
 5278.00    0.73193   0.69348   10.000
 5279.00    0.71504   0.69614    9.841
 5280.00    0.68315   0.69703    9.369
 5281.00    0.66445   0.69697    9.167
 5282.00    0.67627   0.69834    9.961
 5283.00    0.70552   0.70217   11.548
 5284.00    0.71988   0.70769   12.461
 5285.00    0.69669   0.71415   12.406
 5286.00    0.63914   0.72134   12.456
 5287.00    0.58735   0.72875   12.731
 5288.00    0.58037   0.73469   12.813
 5289.00    0.61778   0.73745   12.550
 5290.00    0.67003   0.73711   12.122
 5291.00    0.69647   0.73480   11.864
 5292.00    0.68753   0.73077   11.955
 5293.00    0.67546   0.72448   12.327
 5294.00    0.68152   0.71626   12.668
 5295.00    0.69860   0.70812   12.555
 5296.00    0.70973   0.70211   12.134
 5297.00    0.70048   0.69825   11.934
 5298.00    0.67270   0.69576   12.139
 5299.00    0.63956   0.69525   12.569
 5300.00    0.61155   0.69795   12.715
 5301.00    0.59629   0.70353   12.313
 5302.00    0.60132   0.70981   12.016
 5303.00    0.63097   0.71500   12.184
 5304.00    0.68208   0.71926   12.089
 5305.00    0.73710   0.72346   11.451
 5306.00    0.76596   0.72742   11.170
 5307.00    0.76334   0.73016   11.413
 5308.00    0.75720   0.73131   11.288
 5309.00    0.75914   0.73129   10.705
 5310.00    0.75412   0.73047   10.523
 5311.00    0.73400   0.72890   10.940
 5312.00    0.70605   0.72606   11.535
 5313.00    0.68708   0.72176   11.842
 5314.00    0.68790   0.71731   11.725
 5315.00    0.69101   0.71392   11.639
 5316.00    0.67390   0.71150   12.010
 5317.00    0.64234   0.70960   12.551
 5318.00    0.61795   0.70793   12.711
 5319.00    0.61993   0.70623   12.416
 5320.00    0.64909   0.70362   11.942
 5321.00    0.68278   0.69912   11.559
 5322.00    0.70405   0.69319   11.307
 5323.00    0.71319   0.68624   11.046
 5324.00    0.70905   0.67748   10.783
 5325.00    0.68772   0.66780   10.639
 5326.00    0.66200   0.66088   10.467
 5327.00    0.65636   0.65901   10.048
 5328.00    0.68237   0.66086    9.643
 5329.00    0.72985   0.66437    9.588
 5330.00    0.76386   0.66964    9.766
 5331.00    0.75732   0.67769    9.897
 5332.00    0.72893   0.68676    9.951
 5333.00    0.70750   0.69345   10.053
 5334.00    0.69571   0.69674   10.298
 5335.00    0.68246   0.69773   10.602
 5336.00    0.65729   0.69694   10.668
 5337.00    0.62812   0.69449   10.541
 5338.00    0.62136   0.69191   10.679
 5339.00    0.64798   0.69082   11.026
 5340.00    0.69470   0.69116   10.963
 5341.00    0.73900   0.69201   10.533
 5342.00    0.76168   0.69287   10.340
 5343.00    0.76308   0.69444   10.621
 5344.00    0.75563   0.69684   11.214
 5345.00    0.74595   0.69845   11.481
 5346.00    0.73467   0.69879   11.054
 5347.00    0.72030   0.69942   10.790
 5348.00    0.70212   0.70159   11.222
 5349.00    0.68268   0.70510   11.602
 5350.00    0.66809   0.70921   11.327
 5351.00    0.66669   0.71421   11.096
 5352.00    0.68144   0.72038   11.367
 5353.00    0.70643   0.72666   11.870
 5354.00    0.72903   0.73171   12.275
 5355.00    0.73728   0.73518   12.474
 5356.00    0.73772   0.73723   12.505
 5357.00    0.74644   0.73751   12.485
 5358.00    0.75987   0.73531   12.532
 5359.00    0.76235   0.73077   12.650
 5360.00    0.74817   0.72500   12.585
 5361.00    0.71825   0.71853   12.319
 5362.00    0.67285   0.71151   12.505
 5363.00    0.61903   0.70452   13.488
 5364.00    0.57613   0.69802   14.319
 5365.00    0.56153   0.69235   13.987
 5366.00    0.57931   0.68708   13.126
 5367.00    0.61388   0.68174   12.563
 5368.00    0.63737   0.67751   12.538
 5369.00    0.64725   0.67611   12.763
 5370.00    0.66591   0.67786   12.612
 5371.00    0.69977   0.68171   11.991
 5372.00    0.73622   0.68696   11.331
 5373.00    0.76243   0.69340   10.970
 5374.00    0.77153   0.70049   10.981
 5375.00    0.76545   0.70693   11.072
 5376.00    0.75012   0.71097   10.963
 5377.00    0.72919   0.71206   10.857
 5378.00    0.70368   0.71117   10.989
 5379.00    0.67292   0.70937   11.264
 5380.00    0.63994   0.70736   11.541
 5381.00    0.61297   0.70592   11.816
 5382.00    0.59609   0.70530   12.074
 5383.00    0.58748   0.70518   12.192
 5384.00    0.59105   0.70525   12.045
 5385.00    0.61400   0.70504   11.659
 5386.00    0.64925   0.70419   11.395
 5387.00    0.67997   0.70241   11.617
 5388.00    0.69879   0.69938   12.136
 5389.00    0.70616   0.69531   12.450
 5390.00    0.70181   0.69077   12.496
 5391.00    0.68636   0.68636   12.475
 5392.00    0.66450   0.68226   12.380
 5393.00    0.64411   0.67797   12.201
 5394.00    0.63455   0.67380   12.100
 5395.00    0.64329   0.67129   12.165
 5396.00    0.67125   0.67049   12.306
 5397.00    0.70060   0.66992   12.483
 5398.00    0.70038   0.66903   12.752
 5399.00    0.66626   0.66841   12.967
 5400.00    0.62182   0.66768   12.826
 5401.00    0.58317   0.66526   12.406
 5402.00    0.55304   0.66085   11.999
 5403.00    0.52909   0.65640   11.613
 5404.00    0.50876   0.65345   11.206
 5405.00    0.49374   0.65143   10.999
 5406.00    0.49111   0.64972   11.144
 5407.00    0.51236   0.64954   11.415
 5408.00    0.56084   0.65253   11.523
 5409.00    0.62305   0.65816   11.469
 5410.00    0.67974   0.66402   11.401
 5411.00    0.71523   0.66882   11.454
 5412.00    0.72502   0.67357   11.621
 5413.00    0.71625   0.67950   11.750
 5414.00    0.69727   0.68549   11.750
 5415.00    0.67353   0.68957   11.668
 5416.00    0.64723   0.69152   11.634
 5417.00    0.62480   0.69238   11.714
 5418.00    0.63000   0.69298   11.708
 5419.00    0.67838   0.69300   11.414
 5420.00    0.73944   0.69142   11.051
 5421.00    0.77288   0.68849   10.806
 5422.00    0.77301   0.68619   10.469
 5423.00    0.75565   0.68560    9.986
 5424.00    0.74074   0.68560    9.706
 5425.00    0.73605   0.68408    9.823
 5426.00    0.73230   0.68073   10.241
 5427.00    0.72457   0.67801   10.839
 5428.00    0.71847   0.67686   11.520
 5429.00    0.71668   0.67504   11.964
 5430.00    0.71642   0.67153   11.820
 5431.00    0.71563   0.66809   11.540
 5432.00    0.71506   0.66729   11.753
 5433.00    0.71870   0.66950   12.076
 5434.00    0.73008   0.67307   11.781
 5435.00    0.74683   0.67772   11.282
 5436.00    0.76081   0.68375   11.193
 5437.00    0.76044   0.69057   11.437
 5438.00    0.74109   0.69688   11.751
 5439.00    0.71190   0.70154   12.037
 5440.00    0.68621   0.70386   12.262
 5441.00    0.67429   0.70317   12.367
 5442.00    0.67884   0.69941   12.257
 5443.00    0.69432   0.69348   11.862
 5444.00    0.71108   0.68757   11.281
 5445.00    0.71733   0.68376   10.761
 5446.00    0.70106   0.68203   10.624
 5447.00    0.66090   0.68150   11.024
 5448.00    0.62398   0.68202   11.449
 5449.00    0.62384   0.68390   11.203
 5450.00    0.66537   0.68627   10.687
 5451.00    0.72843   0.68685   10.502
 5452.00    0.78021   0.68478   10.615
 5453.00    0.80295   0.68216   10.747
 5454.00    0.80950   0.68108   10.657
 5455.00    0.80967   0.68123   10.474
 5456.00    0.79477   0.68159   10.654
 5457.00    0.76152   0.68213   11.295
 5458.00    0.72161   0.68349   11.919
 5459.00    0.69580   0.68477   12.027
 5460.00    0.70048   0.68456   11.632
 5461.00    0.72127   0.68359   11.330
 5462.00    0.72731   0.68281   11.645
 5463.00    0.70872   0.68211   12.310
 5464.00    0.67569   0.68166   12.628
 5465.00    0.64631   0.68223   12.535
 5466.00    0.63252   0.68373   12.413
 5467.00    0.62982   0.68474   12.482
 5468.00    0.63772   0.68433   12.645
 5469.00    0.67101   0.68272   12.498
 5470.00    0.72818   0.67989   12.059
 5471.00    0.78002   0.67591   11.853
 5472.00    0.80282   0.67109   11.887
 5473.00    0.79321   0.66523   11.638
 5474.00    0.76702   0.65935   11.118
 5475.00    0.74575   0.65557   10.782
 5476.00    0.72717   0.65452   10.747
 5477.00    0.69810   0.65450   10.908
 5478.00    0.66877   0.65460   11.214
 5479.00    0.65719   0.65667   11.548
 5480.00    0.66076   0.66138   11.525
 5481.00    0.66677   0.66655   11.101
 5482.00    0.66768   0.67048   10.966
 5483.00    0.66782   0.67319   11.344
 5484.00    0.68341   0.67529   11.440
 5485.00    0.71999   0.67703   10.949
 5486.00    0.76272   0.67835   10.668
 5487.00    0.79081   0.67895   10.868
 5488.00    0.79040   0.67877   11.118
 5489.00    0.77339   0.67832   11.123
 5490.00    0.76663   0.67815   10.949
 5491.00    0.77372   0.67839   10.697
 5492.00    0.77820   0.67882   10.439
 5493.00    0.76572   0.67889   10.271
 5494.00    0.73265   0.67807   10.220
 5495.00    0.69095   0.67710   10.151
 5496.00    0.65595   0.67710   10.028
 5497.00    0.63348   0.67709   10.094
 5498.00    0.61898   0.67544   10.471
 5499.00    0.60062   0.67288   10.910
 5500.00    0.57504   0.67125   11.272
 5501.00    0.55327   0.67038   11.797
 5502.00    0.54886   0.66850   12.376
 5503.00    0.56935   0.66555   12.403
 5504.00    0.60682   0.66343   12.019
 5505.00    0.64425   0.66296   11.886
 5506.00    0.67594   0.66283   11.861
 5507.00    0.70393   0.66200   11.516
 5508.00    0.72391   0.66090   11.271
 5509.00    0.73062   0.66043   11.535
 5510.00    0.72718   0.66068   11.695
 5511.00    0.71903   0.66129   11.281
 5512.00    0.70702   0.66252   -2.000
 5513.00    0.68847   0.66454   -2.000
 5514.00    0.65937   0.66734   -2.000
 5515.00    0.61890   0.67117   -2.000
 5516.00    0.57270   0.67545   -2.000
 5517.00    0.53585   0.67906   -2.000
 5518.00    0.52790   0.68153   -2.000
 5519.00    0.55477   0.68294   -2.000
 5520.00    0.60503   0.68322   -2.000
 5521.00    0.65491   0.68184   -2.000
 5522.00    0.68665   0.67882   -2.000
 5523.00    0.71453   0.67484   -2.000
 5524.00    0.75463   0.67035   -2.000
 5525.00    0.78462   0.66581   -2.000
 5526.00    0.77726   0.66228   -2.000
 5527.00    0.73520   0.66052   -2.000
 5528.00    0.67920   0.66015   -2.000
 5529.00    0.63387   0.66050   -2.000
 5530.00    0.60889   0.66151   -2.000
 5531.00    0.59574   0.66328   12.244
 5532.00    0.59290   0.66507   11.965
 5533.00    0.60908   0.66651   11.780
 5534.00    0.64292   0.66793   11.709
 5535.00    0.68205   0.66933   11.566
 5536.00    0.71505   0.67077   11.534
 5537.00    0.73989   0.67273   11.754
 5538.00    0.77151   0.67515   11.543
 5539.00    0.81687   0.67677   10.528
 5540.00    0.84649   0.67708    9.705
 5541.00    0.83011   0.67701    9.655
 5542.00    0.77117   0.67706   10.104
 5543.00    0.69410   0.67694   10.617
 5544.00    0.63092   0.67686   10.960
 5545.00    0.60920   0.67757   11.067
 5546.00    0.64257   0.67927   10.986
 5547.00    0.71790   0.68118   10.735
 5548.00    0.79861   0.68272   10.307
 5549.00    0.84808   0.68391    9.812
 5550.00    0.84575   0.68435    9.439
 5551.00    0.80530   0.68365    9.373
 5552.00    0.75696   0.68231    9.660
 5553.00    0.71372   0.68094    9.952
 5554.00    0.67561   0.67949    9.897
 5555.00    0.64178   0.67786    9.812
 5556.00    0.61476   0.67645    9.947
 5557.00    0.60182   0.67547    9.901
 5558.00    0.60692   0.67443    9.575
 5559.00    0.62681   0.67268    9.578
 5560.00    0.65983   0.67047   10.090
 5561.00    0.70690   0.66841   10.546
 5562.00    0.75746   0.66628   10.593
 5563.00    0.78989   0.66390   10.527
 5564.00    0.78783   0.66169   10.582
 5565.00    0.74942   0.66005   10.817
 5566.00    0.69565   0.65886   11.367
 5567.00    0.65928   0.65797   12.214
 5568.00    0.66368   0.65773   12.527
 5569.00    0.70762   0.65782   11.736
 5570.00    0.75485   0.65773   10.977
 5571.00    0.76943   0.65822   11.006
 5572.00    0.74707   0.65985   11.447
 5573.00    0.70850   0.66159   11.614
 5574.00    0.68852   0.66269   11.150
 5575.00    0.71361   0.66419   10.389
 5576.00    0.78443   0.66643    9.914
 5577.00    0.85444   0.66802    9.730
 5578.00    0.85460   0.66845    9.543
 5579.00    0.78025   0.66804    9.592
 5580.00    0.68681   0.66667   10.341
 5581.00    0.62987   0.66422   11.344
 5582.00    0.63361   0.66046   11.439
 5583.00    0.66574   0.65498   10.945
 5584.00    0.67938   0.64848   10.810
 5585.00    0.66408   0.64237   11.096
 5586.00    0.62944   0.63722   11.509
 5587.00    0.58628   0.63327   11.797
 5588.00    0.54809   0.63102   11.913
 5589.00    0.53072   0.63090   12.040
 5590.00    0.54171   0.63252   12.126
 5591.00    0.57519   0.63501   11.865
 5592.00    0.61299   0.63830   11.510
 5593.00    0.63285   0.64218   11.640
 5594.00    0.62838   0.64523   12.147
 5595.00    0.60844   0.64628   12.399
 5596.00    0.58468   0.64623   12.320
 5597.00    0.56607   0.64656   12.264
 5598.00    0.55510   0.64673   12.277
 5599.00    0.55382   0.64564   12.210
 5600.00    0.56972   0.64486   11.979
 5601.00    0.60260   0.64668   11.706
 5602.00    0.63630   0.65070   11.682
 5603.00    0.66217   0.65536   11.825
 5604.00    0.68992   0.66045   11.563
 5605.00    0.72522   0.66612   10.997
 5606.00    0.76064   0.67165   10.847
 5607.00    0.78326   0.67547   11.068
 5608.00    0.78296   0.67703   11.018
 5609.00    0.76598   0.67678   10.834
 5610.00    0.74967   0.67500   11.056
 5611.00    0.74529   0.67123   11.207
 5612.00    0.75144   0.66545   10.680
 5613.00    0.75129   0.65943   10.390
 5614.00    0.73301   0.65517   11.030
 5615.00    0.70995   0.65234   11.587
 5616.00    0.69645   0.64964   11.055
 5617.00    0.68896   0.64775   10.547
 5618.00    0.68548   0.64838   10.685
 5619.00    0.69374   0.65054   10.821
 5620.00    0.70826   0.65154   10.701
 5621.00    0.70948   0.65076   10.893
 5622.00    0.69829   0.64977   11.358
 5623.00    0.69402   0.64992   11.375
 5624.00    0.69859   0.65083   11.065
 5625.00    0.69699   0.65169   11.114
 5626.00    0.67727   0.65312   11.466
 5627.00    0.64199   0.65619   11.696
 5628.00    0.61694   0.66004   11.884
 5629.00    0.62834   0.66295   12.256
 5630.00    0.67692   0.66448   12.567
 5631.00    0.74015   0.66494   12.549
 5632.00    0.78113   0.66426   12.388
 5633.00    0.77928   0.66232   12.285
 5634.00    0.74479   0.65939   12.232
 5635.00    0.69960   0.65613   12.307
 5636.00    0.66354   0.65350   12.646
 5637.00    0.63929   0.65154   12.834
 5638.00    0.61678   0.64972   12.247
 5639.00    0.59634   0.64844   11.561
 5640.00    0.58754   0.64858   11.639
 5641.00    0.59554   0.64970   11.979
 5642.00    0.61567   0.65075   11.719
 5643.00    0.63083   0.65195   11.495
 5644.00    0.62741   0.65387   12.043
 5645.00    0.61121   0.65594   12.810
 5646.00    0.59731   0.65726   12.894
 5647.00    0.59877   0.65785   12.443
 5648.00    0.61617   0.65813   11.998
 5649.00    0.63577   0.65824   11.806
 5650.00    0.64764   0.65745   11.767
 5651.00    0.65140   0.65506   11.592
 5652.00    0.64794   0.65167   11.311
 5653.00    0.63841   0.64847   11.225
 5654.00    0.62864   0.64498   11.463
 5655.00    0.62389   0.63987   11.961
 5656.00    0.61787   0.63435   12.479
 5657.00    0.60357   0.63134   12.799
 5658.00    0.58943   0.63064   13.125
 5659.00    0.58610   0.62957   13.623
 5660.00    0.59143   0.62868   13.818
 5661.00    0.59965   0.63068   13.480
 5662.00    0.60952   0.63470   13.252
 5663.00    0.62339   0.63764   13.354
 5664.00    0.64444   0.63933   13.242
 5665.00    0.66873   0.64153   12.911
 5666.00    0.68621   0.64456   12.971
 5667.00    0.69476   0.64727   13.291
 5668.00    0.69804   0.64935   13.100
 5669.00    0.68966   0.65162   12.467
 5670.00    0.66067   0.65472   12.057
 5671.00    0.61931   0.65794   12.186
 5672.00    0.58413   0.66029   12.793
 5673.00    0.56948   0.66193   13.289
 5674.00    0.57978   0.66332   13.098
 5675.00    0.60633   0.66374   12.575
 5676.00    0.63187   0.66246   12.227
 5677.00    0.63815   0.66023   12.154
 5678.00    0.62647   0.65794   12.260
 5679.00    0.62027   0.65489   12.387
 5680.00    0.62702   0.65075   12.532
 5681.00    0.63149   0.64693   12.835
 5682.00    0.62690   0.64430   13.138
 5683.00    0.62050   0.64209   13.133
 5684.00    0.62205   0.63991   13.160
 5685.00    0.63500   0.63880   13.698
 5686.00    0.64677   0.63947   14.114
 5687.00    0.64145   0.64123   13.646
 5688.00    0.61854   0.64326   13.290
 5689.00    0.59180   0.64561   13.866
 5690.00    0.58296   0.64858   14.538
 5691.00    0.60000   0.65144   14.294
 5692.00    0.62592   0.65342   13.646
 5693.00    0.64461   0.65451   13.297
 5694.00    0.65323   0.65478   13.418
 5695.00    0.65082   0.65374   13.844
 5696.00    0.63750   0.65161   14.138
 5697.00    0.62751   0.64925   13.907
 5698.00    0.64133   0.64657   13.183
 5699.00    0.67880   0.64327   12.562
 5700.00    0.72032   0.64015   12.448
 5701.00    0.74092   0.63783   12.367
 5702.00    0.72635   0.63534   11.826
 5703.00    0.68916   0.63214   11.355
 5704.00    0.65333   0.62900   11.432
 5705.00    0.63589   0.62626   11.817
 5706.00    0.63495   0.62337   12.095
 5707.00    0.62836   0.62069   12.113
 5708.00    0.60695   0.61928   11.988
 5709.00    0.58632   0.61934   11.957
 5710.00    0.57938   0.62093   12.067
 5711.00    0.58508   0.62433   12.177
 5712.00    0.59014   0.62894   12.333
 5713.00    0.58163   0.63386   12.695
 5714.00    0.57220   0.63901   13.056
 5715.00    0.58380   0.64419   13.071
 5716.00    0.61160   0.64862   12.994
 5717.00    0.63442   0.65231   13.217
 5718.00    0.63655   0.65549   13.582
 5719.00    0.62010   0.65806   13.728
 5720.00    0.61019   0.66001   13.575
 5721.00    0.62573   0.66141   13.250
 5722.00    0.66088   0.66218   12.901
 5723.00    0.70037   0.66229   12.540
 5724.00    0.72950   0.66154   12.068
 5725.00    0.73795   0.66017   11.529
 5726.00    0.72223   0.65897   11.091
 5727.00    0.68834   0.65800   10.901
 5728.00    0.64883   0.65657   11.027
 5729.00    0.61471   0.65505   11.394
 5730.00    0.59440   0.65470   11.788
 5731.00    0.59497   0.65530   11.956
 5732.00    0.62113   0.65565   11.769
 5733.00    0.67291   0.65573   11.380
 5734.00    0.73773   0.65622   10.997
 5735.00    0.78649   0.65693   10.712
 5736.00    0.79631   0.65710   10.629
 5737.00    0.76620   0.65675   10.918
 5738.00    0.71402   0.65628   11.575
 5739.00    0.66924   0.65578   12.280
 5740.00    0.65377   0.65513    0.000
 5741.00    0.67175   0.65443    0.000
 5742.00    0.70268   0.65402    0.000
 5743.00    0.71591   0.65379    0.000
 5744.00    0.70492   0.65314    0.000
 5745.00    0.68315   0.65178    0.000
 5746.00    0.66436   0.65036    0.000
 5747.00    0.65223   0.64922    0.000
 5748.00    0.63409   0.64773    0.000
 5749.00    0.60420   0.64546    0.000
 5750.00    0.58190   0.64306    0.000
 5751.00    0.58439   0.64135    0.000
 5752.00    0.60894   0.64048    0.000
 5753.00    0.64263   0.64027    0.000
 5754.00    0.67031   0.64049    0.000
 5755.00    0.68260   0.64098    0.000
 5756.00    0.67887   0.64182    0.000
 5757.00    0.66699   0.64269    0.000
 5758.00    0.65933   0.64303    0.000
 5759.00    0.66445   0.64258    0.000
 5760.00    0.67769   0.64185    0.000
 5761.00    0.67189   0.64181    0.000
 5762.00    0.63193   0.64289    0.000
 5763.00    0.59195   0.64445    0.000
 5764.00    0.58557   0.64621    0.000
 5765.00    0.60276   0.64848    0.000
 5766.00    0.62529   0.65090    0.000
 5767.00    0.64974   0.65240    0.000
 5768.00    0.67092   0.65272    0.000
 5769.00    0.67737   0.65227    0.000
 5770.00    0.66795   0.65139    0.000
 5771.00    0.65326   0.65025    0.000
 5772.00    0.64187   0.64879    0.000
 5773.00    0.63657   0.64720    0.000
 5774.00    0.63495   0.64568    0.000
 5775.00    0.63407   0.64387    0.000
 5776.00    0.63655   0.64139    0.000
 5777.00    0.64292   0.63823    0.000
 5778.00    0.64345   0.63425    0.000
 5779.00    0.63507   0.62974    0.000
 5780.00    0.63326   0.62583    0.000
 5781.00    0.64714   0.62275    0.000
 5782.00    0.66594   0.62002    0.000
 5783.00    0.67632   0.61846    0.000
 5784.00    0.67152   0.61919    0.000
 5785.00    0.65147   0.62134    0.000
 5786.00    0.62346   0.62363    0.000
 5787.00    0.60349   0.62616    0.000
 5788.00    0.60562   0.62906    0.000
 5789.00    0.62099   0.63184    0.000
 5790.00    0.63205   0.63420    0.000
 5791.00    0.63938   0.63603    0.000
 5792.00    0.65030   0.63745    0.000
 5793.00    0.66193   0.63889    0.000
 5794.00    0.66593   0.64015    0.000
 5795.00    0.65585   0.64083    0.000
 5796.00    0.63816   0.64166    0.000
 5797.00    0.63346   0.64305    0.000
 5798.00    0.65002   0.64412    0.000
 5799.00    0.67567   0.64461    0.000
 5800.00    0.69485   0.64520    0.000
 5801.00    0.69748   0.64565    0.000
 5802.00    0.68479   0.64517    0.000
 5803.00    0.66448   0.64421    0.000
 5804.00    0.63858   0.64347    0.000
 5805.00    0.60843   0.64284    0.000
 5806.00    0.58504   0.64226    0.000
 5807.00    0.58320   0.64219    0.000
 5808.00    0.61204   0.64275    0.000
 5809.00    0.66433   0.64340    0.000
 5810.00    0.71262   0.64371    0.000
 5811.00    0.73661   0.64390    0.000
 5812.00    0.73761   0.64403    0.000
 5813.00    0.72424   0.64378    0.000
 5814.00    0.70416   0.64345    0.000
 5815.00    0.68085   0.64383    0.000
 5816.00    0.65500   0.64483    0.000
 5817.00    0.63079   0.64583    0.000
 5818.00    0.61558   0.64707    0.000
 5819.00    0.61567   0.64876    0.000
 5820.00    0.62949   0.65025    0.000
 5821.00    0.64050   0.65114    0.000
 5822.00    0.63534   0.65179    0.000
 5823.00    0.62248   0.65233    0.000
 5824.00    0.61382   0.65250    0.000
 5825.00    0.60979   0.65241    0.000
 5826.00    0.61100   0.65245    0.000
 5827.00    0.62354   0.65250    0.000
 5828.00    0.64722   0.65215    0.000
 5829.00    0.67229   0.65154    0.000
 5830.00    0.68738   0.65104    0.000
 5831.00    0.68546   0.65041    0.000
 5832.00    0.67160   0.64931    0.000
 5833.00    0.65903   0.64835    0.000
 5834.00    0.65793   0.64804    0.000
 5835.00    0.67005   0.64777    0.000
 5836.00    0.68520   0.64736    0.000
 5837.00    0.69259   0.64761    0.000
 5838.00    0.69299   0.64844    0.000
 5839.00    0.69534   0.64897    0.000
 5840.00    0.71024   0.64908    0.000
 5841.00    0.73340   0.64912    0.000
 5842.00    0.74408   0.64878    0.000
 5843.00    0.74048   0.64775    0.000
 5844.00    0.74280   0.64620    0.000
 5845.00    0.74990   0.64431    0.000
 5846.00    0.73985   0.64215    0.000
 5847.00    0.70744   0.63979    0.000
 5848.00    0.66610   0.63737    0.000
 5849.00    0.63306   0.63483    0.000
 5850.00    0.61768   0.63178    0.000
 5851.00    0.61099   0.62830    0.000
 5852.00    0.60521   0.62530    0.000
 5853.00    0.61224   0.62282    0.000
 5854.00    0.63684   0.61999    0.000
 5855.00    0.65843   0.61726    0.000
 5856.00    0.65673   0.61609    0.000
 5857.00    0.62738   0.61640    0.000
 5858.00    0.57997   0.61713    0.000
 5859.00    0.53248   0.61825    0.000
 5860.00    0.49780   0.62008    0.000
 5861.00    0.48062   0.62260    0.000
 5862.00    0.48085   0.62539    0.000
 5863.00    0.49603   0.62770    0.000
 5864.00    0.52376   0.62933    0.000
 5865.00    0.55947   0.63103    0.000
 5866.00    0.59288   0.63300    0.000
 5867.00    0.61138   0.63445    0.000
 5868.00    0.60537   0.63522    0.000
 5869.00    0.58028   0.63577    0.000
 5870.00    0.56115   0.63601    0.000
 5871.00    0.56780   0.63568    0.000
 5872.00    0.60059   0.63481    0.000
 5873.00    0.64282   0.63342    0.000
 5874.00    0.67088   0.63173    0.000
 5875.00    0.68104   0.63020    0.000
 5876.00    0.68465   0.62887    0.000
 5877.00    0.67704   0.62715    0.000
 5878.00    0.64640   0.62533    0.000
 5879.00    0.60175   0.62391    0.000
 5880.00    0.56384   0.62231    0.000
 5881.00    0.54581   0.61954    0.000
 5882.00    0.54645   0.61557    0.000
 5883.00    0.54865   0.61019    0.000
 5884.00    0.54038   0.60299    0.000
 5885.00    0.52795   0.59434    0.000
 5886.00    0.52038   0.58404    0.000
 5887.00    0.52017   0.57189    0.000
 5888.00    0.52430   0.56067    0.000
 5889.00    0.52622   0.55264    0.000
 5890.00    0.51980   0.54644    0.000
 5891.00    0.50294   0.54209    0.000
 5892.00    0.48245   0.54128    0.000
 5893.00    0.46951   0.54255    0.000
 5894.00    0.46965   0.54528    0.000
 5895.00    0.48093   0.55138    0.000
 5896.00    0.49475   0.55918    0.000
 5897.00    0.50669   0.56652   -2.000
 5898.00    0.52530   0.57538   -2.000
 5899.00    0.55929   0.58596   -2.000
 5900.00    0.60686   0.59524   -2.000
 5901.00    0.65275   0.60255   -2.000
 5902.00    0.67553   0.60893   -2.000
 5903.00    0.68113   0.61378   -2.000
 5904.00    0.69754   0.61695   -2.000
 5905.00    0.71816   0.61934   -2.000
 5906.00    0.70993   0.62106   -2.000
 5907.00    0.67060   0.62169   -2.000
 5908.00    0.62401   0.62181   -2.000
 5909.00    0.58949   0.62193   10.819
 5910.00    0.57729   0.62147   11.298
 5911.00    0.58924   0.62006   12.124
 5912.00    0.61583   0.61852   12.525
 5913.00    0.63583   0.61755   12.827
 5914.00    0.63470   0.61690   13.426
 5915.00    0.61669   0.61657   13.763
 5916.00    0.59831   0.61690   13.578
 5917.00    0.59968   0.61791   13.480
 5918.00    0.62674   0.61939   13.418
 5919.00    0.66737   0.62083   12.703
 5920.00    0.70144   0.62196   11.646
 5921.00    0.71079   0.62290   11.027
 5922.00    0.69376   0.62362   11.028
 5923.00    0.66283   0.62374   11.521
 5924.00    0.63480   0.62334   12.233
 5925.00    0.62140   0.62268   12.781
 5926.00    0.62086   0.62179   12.921
 5927.00    0.62779   0.62050   12.556
 5928.00    0.64229   0.61907   11.688
 5929.00    0.66240   0.61834   10.734
 5930.00    0.67992   0.61821   10.276
 5931.00    0.69004   0.61793   10.415
 5932.00    0.69451   0.61773   10.851
 5933.00    0.69360   0.61847   11.493
 5934.00    0.68433   0.61967   12.563
 5935.00    0.66501   0.62022   13.786
 5936.00    0.63833   0.62049   14.215
 5937.00    0.61465   0.62118   13.824
 5938.00    0.60421   0.62155   13.416
 5939.00    0.60409   0.62116   13.267
 5940.00    0.60485   0.62086   13.307
 5941.00    0.60098   0.62081   13.447
 5942.00    0.58846   0.62040   13.595
 5943.00    0.56358   0.61982   13.637
 5944.00    0.53850   0.61954   13.444
 5945.00    0.54430   0.61914   12.939
 5946.00    0.59188   0.61803   12.255
 5947.00    0.65720   0.61677   11.681
 5948.00    0.70409   0.61623   11.488
 5949.00    0.70430   0.61571   11.873
 5950.00    0.66650   0.61442   12.772
 5951.00    0.62561   0.61350   13.711
 5952.00    0.60290   0.61387   13.868
 5953.00    0.60132   0.61425   12.986
 5954.00    0.61219   0.61396   12.148
 5955.00    0.61944   0.61422   12.138
 5956.00    0.60514   0.61539   12.707
 5957.00    0.56715   0.61661   13.237
 5958.00    0.53024   0.61771   13.270
 5959.00    0.51881   0.61908   12.718
 5960.00    0.53747   0.62054   11.871
 5961.00    0.57106   0.62183   11.094
 5962.00    0.59345   0.62291   10.667
 5963.00    0.59733   0.62354   10.839
 5964.00    0.59675   0.62392   11.814
 5965.00    0.60282   0.62452   13.070
 5966.00    0.61478   0.62503   13.335
 5967.00    0.61744   0.62529   13.159
 5968.00    0.59711   0.62565   13.891
 5969.00    0.56581   0.62590   14.837
 5970.00    0.54621   0.62554   14.538
 5971.00    0.54935   0.62472   13.912
 5972.00    0.57022   0.62350   13.954
 5973.00    0.58895   0.62157   14.023
 5974.00    0.59029   0.61934   13.566
 5975.00    0.57582   0.61734   13.083
 5976.00    0.56068   0.61553   13.049
 5977.00    0.56413   0.61385   13.539
 5978.00    0.58364   0.61257   14.206
 5979.00    0.59628   0.61153   14.390
 5980.00    0.58810   0.61050   14.176
 5981.00    0.56305   0.60914   14.197
 5982.00    0.54302   0.60754   14.474
 5983.00    0.55085   0.60665   14.605
 5984.00    0.58552   0.60629   14.404
 5985.00    0.63083   0.60573   14.036
 5986.00    0.67012   0.60575   13.888
 5987.00    0.69301   0.60699   14.070
 5988.00    0.69927   0.60828   14.151
 5989.00    0.69472   0.60894   13.936
 5990.00    0.68722   0.60990   13.826
 5991.00    0.68090   0.61122   13.862
 5992.00    0.67312   0.61176   13.635
 5993.00    0.65383   0.61164   13.455
 5994.00    0.61439   0.61151   14.046
 5995.00    0.57040   0.61107   14.890
 5996.00    0.54930   0.61017   14.577
 5997.00    0.55462   0.60928   13.753
 5998.00    0.57345   0.60855   13.648
 5999.00    0.59767   0.60779   13.831
 6000.00    0.62062   0.60676   13.574
 6001.00    0.63075   0.60571   13.382
 6002.00    0.62001   0.60498   13.875
 6003.00    0.59125   0.60405   14.967
 6004.00    0.55601   0.60283   16.052
 6005.00    0.53011   0.60170   16.240
 6006.00    0.52104   0.60059   15.666
 6007.00    0.52535   0.60002   15.436
 6008.00    0.54027   0.60014   15.656
 6009.00    0.56457   0.60009   15.560
 6010.00    0.59040   0.59968   15.061
 6011.00    0.60743   0.59947   14.616
 6012.00    0.61474   0.59965   14.210
 6013.00    0.61858   0.59941   13.698
 6014.00    0.62501   0.59824   13.340
 6015.00    0.63258   0.59720   13.399
 6016.00    0.62752   0.59692   13.817
 6017.00    0.60224   0.59609   14.366
 6018.00    0.56870   0.59469   14.767
 6019.00    0.54535   0.59433   14.805
 6020.00    0.54512   0.59480   14.493
 6021.00    0.56218   0.59493   14.146
 6022.00    0.57554   0.59535   14.152
 6023.00    0.58100   0.59716   14.449
 6024.00    0.59181   0.59921   14.626
 6025.00    0.61250   0.60073   14.688
 6026.00    0.63631   0.60289   14.959
 6027.00    0.65363   0.60556   15.419
 6028.00    0.65713   0.60757   15.795
 6029.00    0.64646   0.60917   15.953
 6030.00    0.62663   0.61106   15.992
 6031.00    0.60524   0.61271   16.187
 6032.00    0.58954   0.61363   16.543
 6033.00    0.58409   0.61427   16.524
 6034.00    0.58947   0.61486   15.941
 6035.00    0.60225   0.61504   15.301
 6036.00    0.61773   0.61480   14.853
 6037.00    0.63170   0.61438   14.486
 6038.00    0.64181   0.61391   14.279
 6039.00    0.64815   0.61337   14.360
 6040.00    0.65308   0.61279   14.271
 6041.00    0.65737   0.61268   13.540
 6042.00    0.65385   0.61288   12.863
 6043.00    0.63616   0.61297   12.937
 6044.00    0.61204   0.61324   13.455
 6045.00    0.59776   0.61391   13.766
 6046.00    0.60826   0.61421   13.738
 6047.00    0.64072   0.61394   13.629
 6048.00    0.66724   0.61368   13.732
 6049.00    0.66478   0.61313   14.146
 6050.00    0.63312   0.61178   14.681
 6051.00    0.59373   0.61013   15.034
 6052.00    0.57738   0.60878   14.964
 6053.00    0.58814   0.60743   14.528
 6054.00    0.60545   0.60595   13.995
 6055.00    0.61785   0.60517   13.524
 6056.00    0.62629   0.60498   13.168
 6057.00    0.63448   0.60482   12.965
 6058.00    0.64476   0.60467   12.895
 6059.00    0.65534   0.60454   12.799
 6060.00    0.66318   0.60403   12.556
 6061.00    0.66730   0.60342   12.250
 6062.00    0.66746   0.60279   12.055
 6063.00    0.66270   0.60181   12.143
 6064.00    0.64974   0.60162   12.615
 6065.00    0.62549   0.60278   13.424
 6066.00    0.60059   0.60409   14.138
 6067.00    0.59526   0.60554   14.054
 6068.00    0.60785   0.60776   13.503
 6069.00    0.61882   0.61000   13.423
 6070.00    0.62363   0.61151   13.869
 6071.00    0.62870   0.61241   14.334
 6072.00    0.63028   0.61263   14.700
 6073.00    0.62073   0.61189   15.188
 6074.00    0.60163   0.61050   15.903
 6075.00    0.58270   0.60858   16.677
 6076.00    0.57743   0.60585   17.004
 6077.00    0.59127   0.60310   16.709
 6078.00    0.61520   0.60107   16.339
 6079.00    0.63797   0.59890   16.027
 6080.00    0.65283   0.59652   15.344
 6081.00    0.65536   0.59517   14.646
 6082.00    0.64435   0.59458   14.737
 6083.00    0.62798   0.59375   15.236
 6084.00    0.62021   0.59312   14.715
 6085.00    0.62820   0.59319   12.904
 6086.00    0.64904   0.59346   10.885
 6087.00    0.67003   0.59335    9.520
 6088.00    0.67982   0.59312    8.942
 6089.00    0.68157   0.59344    8.846
 6090.00    0.68201   0.59394    9.006
 6091.00    0.67988   0.59406    9.502
 6092.00    0.67320   0.59445   10.374
 6093.00    0.66401   0.59537   11.262
 6094.00    0.65151   0.59580   11.876
 6095.00    0.63187   0.59563   12.531
 6096.00    0.61395   0.59523   13.462
 6097.00    0.61546   0.59411   14.421
 6098.00    0.63239   0.59239   15.053
 6099.00    0.64250   0.59042   15.228
 6100.00    0.63506   0.58761   15.156
 6101.00    0.61439   0.58513   15.147
 6102.00    0.59353   0.58468   15.233
 6103.00    0.58385   0.58486   15.309
 6104.00    0.58412   0.58512   15.369
 6105.00    0.58856   0.58665   15.406
 6106.00    0.59470   0.58893   15.292
 6107.00    0.59593   0.59108   14.887
 6108.00    0.57986   0.59295   14.182
 6109.00    0.55163   0.59429   13.428
 6110.00    0.53779   0.59515   12.961
 6111.00    0.55143   0.59586   12.718
 6112.00    0.58184   0.59611   12.442
 6113.00    0.60734   0.59558   12.424
 6114.00    0.61039   0.59456   13.212
 6115.00    0.60061   0.59351   14.554
 6116.00    0.60134   0.59201   15.236
 6117.00    0.61904   0.58959   14.572
 6118.00    0.64519   0.58724   13.135
 6119.00    0.66580   0.58513   11.799
 6120.00    0.66941   0.58260   11.089
 6121.00    0.65381   0.58107   11.307
 6122.00    0.62786   0.58105   12.450
 6123.00    0.60873   0.58089   13.777
 6124.00    0.60299   0.58107   14.506
 6125.00    0.60226   0.58245   14.933
 6126.00    0.60521   0.58365   15.242
 6127.00    0.61862   0.58417   14.980
 6128.00    0.63512   0.58487   14.055
 6129.00    0.63898   0.58520   12.929
 6130.00    0.63255   0.58428   12.153
 6131.00    0.62819   0.58242   11.967
 6132.00    0.62619   0.57986   12.119
 6133.00    0.62285   0.57661   12.275
 6134.00    0.62375   0.57272   12.486
 6135.00    0.63564   0.56863   12.634
 6136.00    0.65755   0.56602   12.009
 6137.00    0.68136   0.56541   10.769
 6138.00    0.69530   0.56553    9.938
 6139.00    0.69635   0.56611    9.690
 6140.00    0.69216   0.56839    9.598
 6141.00    0.68359   0.57208    9.745
 6142.00    0.66520   0.57497   10.727
 6143.00    0.64557   0.57700   12.452
 6144.00    0.63855   0.57930   13.447
 6145.00    0.63355   0.58098   13.029
 6146.00    0.61187   0.58128   12.247
 6147.00    0.58140   0.58131   11.817
 6148.00    0.56036   0.58154   11.900
 6149.00    0.55182   0.58138   12.357
 6150.00    0.54771   0.58109   13.029
 6151.00    0.53705   0.58108   13.940
 6152.00    0.51900   0.58049   14.792
 6153.00    0.50716   0.57935   14.682
 6154.00    0.50825   0.57834   13.833
 6155.00    0.51484   0.57641   13.553
 6156.00    0.51910   0.57312   14.070
 6157.00    0.52045   0.56976   14.531
 6158.00    0.53075   0.56620   14.195
 6159.00    0.56196   0.56159   13.134
 6160.00    0.59894   0.55727   12.024
 6161.00    0.61234   0.55474   11.397
 6162.00    0.58791   0.55347   11.401
 6163.00    0.53402   0.55272   12.031
 6164.00    0.48197   0.55284   13.133
 6165.00    0.45850   0.55453   14.392
 6166.00    0.46368   0.55662   15.419
 6167.00    0.48517   0.55756   16.006
 6168.00    0.51056   0.55867   16.324
 6169.00    0.53422   0.56124   16.428
 6170.00    0.55777   0.56340   16.099
 6171.00    0.58009   0.56453   15.482
 6172.00    0.59521   0.56670   15.043
 6173.00    0.59683   0.56967   15.067
 6174.00    0.58282   0.57153   15.525
 6175.00    0.56137   0.57301   15.822
 6176.00    0.54854   0.57538   15.330
 6177.00    0.56156   0.57734   14.497
 6178.00    0.60473   0.57821   13.821
 6179.00    0.65655   0.57944   13.032
 6180.00    0.68751   0.58078   12.235
 6181.00    0.67911   0.58096   12.225
 6182.00    0.63895   0.58061   13.169
 6183.00    0.60157   0.58020   13.952
 6184.00    0.59042   0.57888   13.706
 6185.00    0.60271   0.57668   13.125
 6186.00    0.62269   0.57421   12.834
 6187.00    0.63181   0.57206   12.936
 6188.00    0.62160   0.57006   13.359
 6189.00    0.59728   0.56777   13.962
 6190.00    0.57686   0.56666   14.610
 6191.00    0.57623   0.56749   15.193
 6192.00    0.58853   0.56847   15.631
 6193.00    0.59912   0.56946   15.867
 6194.00    0.60502   0.57151   15.856
 6195.00    0.60858   0.57378   15.612
 6196.00    0.60982   0.57517   15.243
 6197.00    0.60292   0.57601   15.003
 6198.00    0.57771   0.57684   15.196
 6199.00    0.53532   0.57777   15.642
 6200.00    0.49155   0.57858   15.669
 6201.00    0.46276   0.57926   15.458
 6202.00    0.45897   0.58013   15.830
 6203.00    0.47998   0.58118   16.460
 6204.00    0.51672   0.58192   16.192
 6205.00    0.55610   0.58203   15.244
 6206.00    0.58632   0.58170   14.617
 6207.00    0.60303   0.58081   14.769
 6208.00    0.60743   0.57892   15.681
 6209.00    0.60294   0.57633   16.669
 6210.00    0.59252   0.57344   17.059
 6211.00    0.57652   0.57000   17.289
 6212.00    0.55154   0.56651   17.846
 6213.00    0.51286   0.56360   17.846
 6214.00    0.46865   0.56106   17.846
 6215.00    0.43985   0.55925   17.846
 6216.00    0.43777   0.55842   17.846
 6217.00    0.45855   0.55800   17.846
 6218.00    0.48984   0.55808   17.846
 6219.00    0.51615   0.55892   17.302
 6220.00    0.52573   0.56009   14.783
 6221.00    0.51523   0.56111   14.393
 6222.00    0.49360   0.56194   15.008
 6223.00    0.47508   0.56277   15.144
 6224.00    0.47030   0.56303   14.653
 6225.00    0.48063   0.56221   14.256
 6226.00    0.49653   0.56112   14.567
 6227.00    0.51066   0.55980   15.415
 6228.00    0.52410   0.55762   15.549
 6229.00    0.53712   0.55590   14.861
 6230.00    0.54691   0.55540   14.731
 6231.00    0.55400   0.55500   15.359
 6232.00    0.56225   0.55515   15.802
 6233.00    0.57297   0.55638   15.777
 6234.00    0.58255   0.55729   15.768
 6235.00    0.58165   0.55737   15.826
 6236.00    0.56467   0.55740   15.772
 6237.00    0.54221   0.55681   15.760
 6238.00    0.53020   0.55493   15.817
 6239.00    0.53640   0.55325   15.396
 6240.00    0.55728   0.55181   14.433
 6241.00    0.57905   0.54947   13.708
 6242.00    0.59199   0.54788   13.458
 6243.00    0.59671   0.54755   13.254
 6244.00    0.59415   0.54682   13.027
 6245.00    0.58305   0.54656   13.165
 6246.00    0.56712   0.54753   13.651
 6247.00    0.55366   0.54806   14.036
 6248.00    0.54453   0.54805   14.219
 6249.00    0.53799   0.54820   14.494
 6250.00    0.53586   0.54749   15.071
 6251.00    0.54081   0.54597   15.887
 6252.00    0.55087   0.54455   16.418
 6253.00    0.56068   0.54298   16.270
 6254.00    0.56432   0.54151   15.943
 6255.00    0.56163   0.54095   15.771
 6256.00    0.56063   0.54097   15.345
 6257.00    0.56438   0.54177   14.650
 6258.00    0.56614   0.54391   14.285
 6259.00    0.56268   0.54620   14.422
 6260.00    0.55883   0.54850   14.679
 6261.00    0.56275   0.55163   14.558
 6262.00    0.57926   0.55436   13.857
 6263.00    0.59828   0.55590   13.061
 6264.00    0.60301   0.55752   12.710
 6265.00    0.58904   0.55916   12.787
 6266.00    0.56369   0.55980   13.019
 6267.00    0.53973   0.56015   13.178
 6268.00    0.52706   0.56090   13.199
 6269.00    0.52549   0.56149   13.254
 6270.00    0.52687   0.56188   13.511
 6271.00    0.52000   0.56245   13.967
 6272.00    0.50594   0.56285   14.555
 6273.00    0.50073   0.56298   15.183
 6274.00    0.51110   0.56296   15.602
 6275.00    0.52973   0.56242   15.533
 6276.00    0.55356   0.56169   15.252
 6277.00    0.58526   0.56098   15.250
 6278.00    0.62268   0.56004   15.241
 6279.00    0.65642   0.55951   14.718
 6280.00    0.67096   0.55951    0.000
 6281.00    0.65816   0.55976    0.000
 6282.00    0.63274   0.56063    0.000
 6283.00    0.61114   0.56184    0.000
 6284.00    0.59123   0.56304    0.000
 6285.00    0.57000   0.56425    0.000
 6286.00    0.55552   0.56521    0.000
 6287.00    0.55231   0.56573    0.000
 6288.00    0.55535   0.56566    0.000
 6289.00    0.56075   0.56515    0.000
 6290.00    0.56965   0.56436    0.000
 6291.00    0.58571   0.56297    0.000
 6292.00    0.60921   0.56127    0.000
 6293.00    0.62636   0.55963    0.000
 6294.00    0.62089   0.55769    0.000
 6295.00    0.59727   0.55553    0.000
 6296.00    0.57138   0.55352    0.000
 6297.00    0.55376   0.55174    0.000
 6298.00    0.54937   0.55030    0.000
 6299.00    0.55941   0.54918    0.000
 6300.00    0.58047   0.54855    0.000
 6301.00    0.60436   0.54890    0.000
 6302.00    0.62075   0.54998    0.000
 6303.00    0.62097   0.55116    0.000
 6304.00    0.60692   0.55271    0.000
 6305.00    0.58957   0.55463    0.000
 6306.00    0.57425   0.55597    0.000
 6307.00    0.56097   0.55658    0.000
 6308.00    0.55515   0.55683    0.000
 6309.00    0.56096   0.55615    0.000
 6310.00    0.56723   0.55449    0.000
 6311.00    0.55907   0.55280    0.000
 6312.00    0.53563   0.55059    0.000
 6313.00    0.51186   0.54760    0.000
 6314.00    0.51408   0.54550    0.000
 6315.00    0.55044   0.54411    0.000
 6316.00    0.59623   0.54238    0.000
 6317.00    0.62641   0.54176    0.000
 6318.00    0.63368   0.54276    0.000
 6319.00    0.62819   0.54400    0.000
 6320.00    0.62719   0.54559    0.000
 6321.00    0.62739   0.54816   15.516
 6322.00    0.61042   0.55084   15.888
 6323.00    0.57284   0.55309   16.341
 6324.00    0.52750   0.55520   16.719
 6325.00    0.49419   0.55678   16.689
 6326.00    0.48622   0.55772   16.087
 6327.00    0.49718   0.55829   15.247
 6328.00    0.51284   0.55812   14.618
 6329.00    0.52388   0.55730   14.498
 6330.00    0.52856   0.55606   14.943
 6331.00    0.53211   0.55438   15.700
 6332.00    0.53852   0.55247   16.306
 6333.00    0.54704   0.55030   16.324
 6334.00    0.55561   0.54806   16.037
 6335.00    0.56272   0.54657   16.144
 6336.00    0.56840   0.54556   16.484
 6337.00    0.57295   0.54455   16.346
 6338.00    0.57374   0.54424   16.018
 6339.00    0.56975   0.54450   16.130
 6340.00    0.56916   0.54458   16.266
 6341.00    0.57912   0.54442   15.850
 6342.00    0.59318   0.54432   15.381
 6343.00    0.60116   0.54453   15.241
 6344.00    0.59954   0.54471   14.938
 6345.00    0.59204   0.54479   14.421
 6346.00    0.58800   0.54560   14.460
 6347.00    0.59536   0.54686   14.965
 6348.00    0.61541   0.54774   14.713
 6349.00    0.63757   0.54850   13.945
 6350.00    0.64441   0.54918   14.041
 6351.00    0.63091   0.54928   14.802
 6352.00    0.60503   0.54853   14.862
 6353.00    0.57737   0.54702   14.416
 6354.00    0.55500   0.54523   14.549
 6355.00    0.53611   0.54318   15.178
 6356.00    0.51651   0.54046   15.685
 6357.00    0.49819   0.53776   16.014
 6358.00    0.48735   0.53577   16.408
 6359.00    0.49053   0.53395   16.898
 6360.00    0.50558   0.53244   17.277
 6361.00    0.51963   0.53204   17.223
 6362.00    0.52797   0.53250   16.872
 6363.00    0.53817   0.53345   16.759
 6364.00    0.55019   0.53499   16.841
 6365.00    0.55441   0.53695   16.608
 6366.00    0.54687   0.53905   16.253
 6367.00    0.53434   0.54117   16.249
 6368.00    0.53481   0.54312   16.075
 6369.00    0.55996   0.54485   15.136
 6370.00    0.59049   0.54655   14.213
 6371.00    0.60256   0.54819   14.063
 6372.00    0.60025   0.54946   14.557
 6373.00    0.59780   0.55038   15.223
 6374.00    0.60084   0.55127   15.558
 6375.00    0.60542   0.55173   15.422
 6376.00    0.60137   0.55146   15.222
 6377.00    0.58671   0.55120   15.311
 6378.00    0.57127   0.55091   15.720
 6379.00    0.56446   0.55018   16.076
 6380.00    0.57053   0.54970   15.841
 6381.00    0.58864   0.54972   15.271
 6382.00    0.61373   0.54962   14.984
 6383.00    0.63828   0.54969   14.908
 6384.00    0.65338   0.55019   14.765
 6385.00    0.65044   0.55045   14.847
 6386.00    0.63031   0.55040   15.307
 6387.00    0.61104   0.55026   15.308
 6388.00    0.60764   0.54949   14.394
 6389.00    0.61553   0.54834   13.500
 6390.00    0.61838   0.54722   13.207
 6391.00    0.59883   0.54555   13.360
 6392.00    0.56051   0.54394   13.692
 6393.00    0.53035   0.54321   13.909
 6394.00    0.53034   0.54226   13.462
 6395.00    0.56408   0.54115   12.105
 6396.00    0.60996   0.54119   10.692
 6397.00    0.63825   0.54125    9.923
 6398.00    0.64709   0.54059    9.665
 6399.00    0.65809   0.54090    9.552
 6400.00    0.69721   0.54175    9.339
 6401.00    0.76793   0.54188    8.990
 6402.00    0.82961   0.54225    8.700
 6403.00    0.83935   0.54284    8.746
 6404.00    0.78871   0.54292    9.445
 6405.00    0.70313   0.54259   10.930
 6406.00    0.62997   0.54171   12.550
 6407.00    0.59374   0.54100   13.208
 6408.00    0.58205   0.54055   12.834
 6409.00    0.56974   0.53941   12.342
 6410.00    0.53723   0.53875   12.540
 6411.00    0.49344   0.53902   13.418
 6412.00    0.46494   0.53864   14.345
 6413.00    0.46443   0.53824   14.894
 6414.00    0.49129   0.53854   15.129
 6415.00    0.54098   0.53834   15.358
 6416.00    0.60256   0.53787   15.698
 6417.00    0.65546   0.53797   15.725
 6418.00    0.67840   0.53816   15.314
 6419.00    0.65929   0.53843   15.157
 6420.00    0.61003   0.53941   15.653
 6421.00    0.56657   0.54101   16.455
 6422.00    0.55057   0.54250   16.780
 6423.00    0.55574   0.54398   16.087
 6424.00    0.56221   0.54554   15.339
 6425.00    0.55545   0.54627   15.547
 6426.00    0.55827   0.54604   14.944
 6427.00    0.59972   0.54553   11.935
 6428.00    0.64526   0.54437    9.221
 6429.00    0.63634   0.54270    7.907
 6430.00    0.56317   0.54141    7.481
 6431.00    0.45653   0.54034    7.570
 6432.00    0.36470   0.53954    8.104
 6433.00    0.32220   0.53917    9.038
 6434.00    0.32930   0.53892   10.042
 6435.00    0.36778   0.53907   10.618
 6436.00    0.41445   0.53932   10.634
 6437.00    0.45424   0.53933   10.564
 6438.00    0.48435   0.54008   11.074
 6439.00    0.50894   0.54130   12.177
 6440.00    0.53670   0.54223   13.014
 6441.00    0.57923   0.54343   13.034
 6442.00    0.64127   0.54475   12.547
 6443.00    0.70460   0.54532   11.890
 6444.00    0.74116   0.54488   11.274
 6445.00    0.73533   0.54378   10.915
 6446.00    0.69058   0.54228   10.924
 6447.00    0.63015   0.53982   11.235
 6448.00    0.57364   0.53700   11.761
 6449.00    0.52329   0.53518   12.448
 6450.00    0.49101   0.53348   12.895
 6451.00    0.50276   0.53182   12.377
 6452.00    0.54781   0.53156   11.296
 6453.00    0.57832   0.53175   10.673
 6454.00    0.57916   0.53153   10.597
 6455.00    0.57002   0.53209   10.681
 6456.00    0.55564   0.53300   10.968
 6457.00    0.52908   0.53300   11.754
 6458.00    0.49892   0.53310   12.790
 6459.00    0.48032   0.53371   13.467
 6460.00    0.47732   0.53344   13.963
 6461.00    0.49124   0.53303   14.487
 6462.00    0.52836   0.53370   14.053
 6463.00    0.57654   0.53415   12.655
 6464.00    0.59567   0.53438   11.820
 6465.00    0.56832   0.53559   11.895
 6466.00    0.52044   0.53667   12.115
 6467.00    0.48384   0.53704   12.319
 6468.00    0.47725   0.53778   13.228
 6469.00    0.50073   0.53831   14.556
 6470.00    0.53570   0.53814   14.689
 6471.00    0.55016   0.53838   14.079
 6472.00    0.52424   0.53879   14.171
 6473.00    0.48952   0.53863   13.967
 6474.00    0.49078   0.53870   12.272
 6475.00    0.52859   0.53899   10.538
 6476.00    0.57700   0.53855    9.750
 6477.00    0.60959   0.53772    9.838
 6478.00    0.60910   0.53709   10.701
 6479.00    0.57415   0.53608   12.333
 6480.00    0.52530   0.53472   14.360
 6481.00    0.49952   0.53381   15.347
 6482.00    0.51534   0.53323   14.346
 6483.00    0.56346   0.53258   12.318
 6484.00    0.62373   0.53207   10.098
 6485.00    0.67170   0.53151    8.210
 6486.00    0.68155   0.53025    7.248
 6487.00    0.64055   0.52816    7.434
 6488.00    0.57106   0.52505    8.699
 6489.00    0.50960   0.52062   10.850
 6490.00    0.47527   0.51545   13.247
 6491.00    0.46933   0.50988   14.601
 6492.00    0.48022   0.50401   14.519
 6493.00    0.49589   0.49922   14.013
 6494.00    0.51162   0.49596   14.143
 6495.00    0.52505   0.49408   14.999
 6496.00    0.53327   0.49459   15.495
 6497.00    0.53318   0.49698   14.991
 6498.00    0.52545   0.50058   14.049
 6499.00    0.52513   0.50560   12.931
 6500.00    0.54905   0.51085   11.671
 6501.00    0.58191   0.51583   10.702
 6502.00    0.59310   0.52069   10.408
 6503.00    0.57689   0.52458   10.895
 6504.00    0.54744   0.52752   12.078
 6505.00    0.52320   0.52991   13.213
 6506.00    0.51903   0.53136   13.121
 6507.00    0.53946   0.53205   11.825
 6508.00    0.57123   0.53239   10.343
 6509.00    0.58492   0.53223    9.386
 6510.00    0.56961   0.53145    8.959
 6511.00    0.54208   0.53041    8.797
 6512.00    0.50999   0.52931    9.030
 6513.00    0.46854   0.52780   10.150
 6514.00    0.43408   0.52620   11.984
 6515.00    0.43425   0.52520   12.947
 6516.00    0.46507   0.52442   12.991
 6517.00    0.50096   0.52383   13.781
 6518.00    0.52683   0.52410   15.196
 6519.00    0.54296   0.52475   15.753
 6520.00    0.56186   0.52534   15.292
 6521.00    0.58385   0.52608   14.750
 6522.00    0.58107   0.52669   14.694
 6523.00    0.54238   0.52696   15.211
 6524.00    0.49848   0.52684   15.885
 6525.00    0.48298   0.52641   15.833
 6526.00    0.50913   0.52590   14.409
 6527.00    0.56400   0.52520   12.540
 6528.00    0.61541   0.52441    0.000
 6529.00    0.63718   0.52378    0.000
 6530.00    0.61945   0.52324    0.000
 6531.00    0.57404   0.52278    0.000
 6532.00    0.52676   0.52244    0.000
 6533.00    0.50250   0.52226    0.000
 6534.00    0.51372   0.52223    0.000
 6535.00    0.55042   0.52210    0.000
 6536.00    0.59078   0.52191    0.000
 6537.00    0.61270   0.52165    0.000
 6538.00    0.60014   0.52092    0.000
 6539.00    0.54978   0.51980    0.000
 6540.00    0.48546   0.51835    0.000
 6541.00    0.45129   0.51633    0.000
 6542.00    0.46012   0.51406    0.000
 6543.00    0.48793   0.51170    0.000
 6544.00    0.51448   0.50909    0.000
 6545.00    0.53338   0.50671    0.000
 6546.00    0.54796   0.50456    0.000
 6547.00    0.56422   0.50224    0.000
 6548.00    0.58173   0.49997    0.000
 6549.00    0.59822   0.49748    0.000
 6550.00    0.61553   0.49431    0.000
 6551.00    0.62912   0.49048    0.000
 6552.00    0.62176   0.48576    0.000
 6553.00    0.58798   0.47990    0.000
 6554.00    0.54623   0.47281    0.000
 6555.00    0.51539   0.46448    0.000
 6556.00    0.50267   0.45512    0.000
 6557.00    0.50463   0.44460    0.000
 6558.00    0.51454   0.43355    0.000
 6559.00    0.54051   0.42368    0.000
 6560.00    0.60772   0.41502    0.000
 6561.00    0.75073   0.40839    0.000
 6562.00    0.98161   0.40646    0.000
 6563.00    1.24644   0.40835    0.000
 6564.00    1.45557   0.41273    0.000
 6565.00    1.53042   0.42108    0.000
 6566.00    1.44146   0.43147    0.000
 6567.00    1.23138   0.44126    0.000
 6568.00    0.97825   0.45111    0.000
 6569.00    0.76122   0.46033    0.000
 6570.00    0.61930   0.46746    0.000
 6571.00    0.54210   0.47347    0.000
 6572.00    0.50665   0.47883    0.000
 6573.00    0.49427   0.48308    0.000
 6574.00    0.49768   0.48697    0.000
 6575.00    0.51492   0.49075    0.000
 6576.00    0.53429   0.49400    0.000
 6577.00    0.54240   0.49700    0.000
 6578.00    0.54059   0.49973    0.000
 6579.00    0.54161   0.50181    0.000
 6580.00    0.56173   0.50356    0.000
 6581.00    0.60834   0.50500    0.000
 6582.00    0.67199   0.50593    0.000
 6583.00    0.73835   0.50678    0.000
 6584.00    0.79580   0.50739    0.000
 6585.00    0.83228   0.50758    0.000
 6586.00    0.83517   0.50773    0.000
 6587.00    0.79696   0.50743    0.000
 6588.00    0.72297   0.50656    0.000
 6589.00    0.64502   0.50571    0.000
 6590.00    0.60040   0.50464    0.000
 6591.00    0.58521   0.50330    0.000
 6592.00    0.57098   0.50259    0.000
 6593.00    0.54311   0.50250    0.000
 6594.00    0.50889   0.50257    0.000
 6595.00    0.49609   0.50350    0.000
 6596.00    0.51769   0.50511    0.000
 6597.00    0.54856   0.50659    0.000
 6598.00    0.56379   0.50824    0.000
 6599.00    0.56067   0.50980    0.000
 6600.00    0.54321   0.51074    0.000
 6601.00    0.51731   0.51126    0.000
 6602.00    0.50126   0.51133    0.000
 6603.00    0.51701   0.51088    0.000
 6604.00    0.55902   0.51019    0.000
 6605.00    0.59700   0.50945    0.000
 6606.00    0.59802   0.50884    0.000
 6607.00    0.55093   0.50849    0.000
 6608.00    0.49169   0.50856    0.000
 6609.00    0.46467   0.50915   13.786
 6610.00    0.47792   0.51004   14.443
 6611.00    0.51296   0.51120   15.372
 6612.00    0.54001   0.51260   15.822
 6613.00    0.54032   0.51399   15.441
 6614.00    0.51726   0.51526   15.099
 6615.00    0.48705   0.51635   15.263
 6616.00    0.47045   0.51723   15.600
 6617.00    0.48054   0.51781   15.495
 6618.00    0.51505   0.51801   14.690
 6619.00    0.54892   0.51790   14.036
 6620.00    0.55534   0.51747   14.317
 6621.00    0.54664   0.51679   14.806
 6622.00    0.54951   0.51588   14.317
 6623.00    0.56086   0.51477   13.515
 6624.00    0.56627   0.51377   13.217
 6625.00    0.56442   0.51269   13.013
 6626.00    0.55455   0.51145   12.625
 6627.00    0.52898   0.51042   12.612
 6628.00    0.49982   0.50928   13.247
 6629.00    0.50165   0.50794   14.052
 6630.00    0.53139   0.50690   14.471
 6631.00    0.54296   0.50597   14.443
 6632.00    0.51874   0.50514   14.303
 6633.00    0.48004   0.50492   14.464
 6634.00    0.45198   0.50508   15.041
 6635.00    0.44700   0.50535   15.727
 6636.00    0.45287   0.50606   15.656
 6637.00    0.45427   0.50683   14.492
 6638.00    0.46304   0.50724   13.408
 6639.00    0.49264   0.50764   13.113
 6640.00    0.52989   0.50794   13.153
 6641.00    0.55546   0.50782   13.020
 6642.00    0.56170   0.50776   12.804
 6643.00    0.55045   0.50797   12.769
 6644.00    0.52955   0.50809   13.085
 6645.00    0.50716   0.50836   13.717
 6646.00    0.48766   0.50899   14.419
 6647.00    0.46729   0.50960   15.115
 6648.00    0.44298   0.51013   15.916
 6649.00    0.43554   0.51066   16.549
 6650.00    0.46757   0.51111   16.577
 6651.00    0.51590   0.51132   16.393
 6652.00    0.53986   0.51129   16.566
 6653.00    0.53018   0.51119   16.826
 6654.00    0.50324   0.51088   16.690
 6655.00    0.48535   0.51022   16.269
 6656.00    0.48657   0.50945   15.852
 6657.00    0.48773   0.50848   15.522
 6658.00    0.47439   0.50712   15.201
 6659.00    0.45273   0.50572   14.780
 6660.00    0.43094   0.50440   14.490
 6661.00    0.41296   0.50293   14.727
 6662.00    0.40524   0.50178   15.285
 6663.00    0.41600   0.50124   15.459
 6664.00    0.44795   0.50083   15.283
 6665.00    0.49299   0.50091   15.262
 6666.00    0.52716   0.50166   15.252
 6667.00    0.52909   0.50237   15.017
 6668.00    0.50448   0.50319   15.101
 6669.00    0.47625   0.50408   15.810
 6670.00    0.46935   0.50444   16.206
 6671.00    0.49189   0.50443   15.756
 6672.00    0.52567   0.50398   15.594
 6673.00    0.54640   0.50285   16.075
 6674.00    0.53959   0.50154   16.073
 6675.00    0.51605   0.50014   15.368
 6676.00    0.50423   0.49871   14.988
 6677.00    0.50820   0.49797   15.046
 6678.00    0.50876   0.49787   14.952
 6679.00    0.49620   0.49823   14.787
 6680.00    0.47140   0.49942   14.971
 6681.00    0.43507   0.50114   15.253
 6682.00    0.39932   0.50281   15.183
 6683.00    0.40015   0.50453   15.021
 6684.00    0.44743   0.50618   15.176
 6685.00    0.48562   0.50736   15.620
 6686.00    0.47544   0.50813   16.142
 6687.00    0.44592   0.50865   16.530
 6688.00    0.43534   0.50879   16.539
 6689.00    0.45645   0.50854   16.016
 6690.00    0.49680   0.50811   15.291
 6691.00    0.52838   0.50741   14.836
 6692.00    0.53372   0.50648   14.442
 6693.00    0.51375   0.50554   13.638
 6694.00    0.48615   0.50449   12.684
 6695.00    0.46734   0.50359   12.166
 6696.00    0.44565   0.50293    0.000
 6697.00    0.41468   0.50231    0.000
 6698.00    0.41473   0.50204    0.000
 6699.00    0.46805   0.50193    0.000
 6700.00    0.52291   0.50173    0.000
 6701.00    0.53038   0.50170    0.000
 6702.00    0.49737   0.50159    0.000
 6703.00    0.45459   0.50132    0.000
 6704.00    0.43204   0.50115    0.000
 6705.00    0.43889   0.50084    0.000
 6706.00    0.46239   0.50041    0.000
 6707.00    0.48747   0.50006    0.000
 6708.00    0.50206   0.49943    0.000
 6709.00    0.49580   0.49857    0.000
 6710.00    0.46983   0.49770    0.000
 6711.00    0.45095   0.49648   -2.000
 6712.00    0.46197   0.49516   -2.000
 6713.00    0.48594   0.49395   -2.000
 6714.00    0.50223   0.49279   -2.000
 6715.00    0.52082   0.49197   -2.000
 6716.00    0.55875   0.49159   -2.000
 6717.00    0.61988   0.49173   -2.000
 6718.00    0.68783   0.49229   -2.000
 6719.00    0.72958   0.49315   -2.000
 6720.00    0.72117   0.49441   -2.000
 6721.00    0.66258   0.49563   -2.000
 6722.00    0.58916   0.49669   -2.000
 6723.00    0.54854   0.49773   -2.000
 6724.00    0.54549   0.49853   -2.000
 6725.00    0.55026   0.49912   -2.000
 6726.00    0.53284   0.49957   -2.000
 6727.00    0.48585   0.49989   -2.000
 6728.00    0.44253   0.50019   -2.000
 6729.00    0.44909   0.50037   -2.000
 6730.00    0.53179   0.50039   -2.000
 6731.00    0.65719   0.50032   -2.000
 6732.00    0.72939   0.50013   -2.000
 6733.00    0.70537   0.49974   -2.000
 6734.00    0.63212   0.49917   -2.000
 6735.00    0.55993   0.49850   -2.000
 6736.00    0.51092   0.49772   -2.000
 6737.00    0.48891   0.49688   -2.000
 6738.00    0.48669   0.49604   -2.000
 6739.00    0.49442   0.49522   -2.000
 6740.00    0.50319   0.49446   -2.000
 6741.00    0.50789   0.49377   -2.000
 6742.00    0.51040   0.49315   -2.000
 6743.00    0.52111   0.49257   -2.000
 6744.00    0.54233   0.49200   -2.000
 6745.00    0.55686   0.49152   -2.000
 6746.00    0.55249   0.49106   -2.000
 6747.00    0.53627   0.49068   -2.000
 6748.00    0.52051   0.49041   -2.000
 6749.00    0.51249   0.49034   -2.000
 6750.00    0.50520   0.49056   -2.000
 6751.00    0.48471   0.49084   -2.000
 6752.00    0.45869   0.49151   -2.000
 6753.00    0.44719   0.49244   -2.000
 6754.00    0.44781   0.49329   -2.000
 6755.00    0.44283   0.49441   -2.000
 6756.00    0.42217   0.49556   -2.000
 6757.00    0.39484   0.49641   -2.000
 6758.00    0.39385   0.49716   -2.000
 6759.00    0.43697   0.49773   -2.000
 6760.00    0.49678   0.49779   -2.000
 6761.00    0.53396   0.49754   -2.000
 6762.00    0.52612   0.49707   -2.000
 6763.00    0.49194   0.49614   -2.000
 6764.00    0.48144   0.49512   -2.000
 6765.00    0.50206   0.49411   -2.000
 6766.00    0.51815   0.49304   -2.000
 6767.00    0.52269   0.49234   -2.000
 6768.00    0.53145   0.49190   -2.000
 6769.00    0.53253   0.49179   -2.000
 6770.00    0.51082   0.49220   -2.000
 6771.00    0.49683   0.49286   -2.000
 6772.00    0.52319   0.49372   -2.000
 6773.00    0.57067   0.49475   -2.000
 6774.00    0.60023   0.49579   -2.000
 6775.00    0.58768   0.49657   -2.000
 6776.00    0.53745   0.49697   -2.000
 6777.00    0.48420   0.49714   -2.000
 6778.00    0.46607   0.49682   -2.000
 6779.00    0.50732   0.49599   -2.000
 6780.00    0.60449   0.49500   -2.000
 6781.00    0.72021   0.49380   -2.000
 6782.00    0.78194   0.49249   -2.000
 6783.00    0.73274   0.49146   -2.000
 6784.00    0.62595   0.49068   -2.000
 6785.00    0.56263   0.49013   -2.000
 6786.00    0.57260   0.48999   -2.000
 6787.00    0.62046   0.49007   -2.000
 6788.00    0.63862   0.49021   -2.000
 6789.00    0.58871   0.49044   -2.000
 6790.00    0.50326   0.49059   -2.000
 6791.00    0.44054   0.49056   -2.000
 6792.00    0.44336   0.49046   -2.000
 6793.00    0.49148   0.49037   -2.000
 6794.00    0.51472   0.49016   -2.000
 6795.00    0.51000   0.49004   -2.000
 6796.00    0.53272   0.49013   -2.000
 6797.00    0.57029   0.49015   -2.000
 6798.00    0.56816   0.49027   -2.000
 6799.00    0.54181   0.49047   -2.000
 6800.00    0.54006   0.49049   -2.000
 6801.00    0.56249   0.49054   -2.000
 6802.00    0.57724   0.49044   -2.000
 6803.00    0.55638   0.49018   -2.000
 6804.00    0.50240   0.48996   -2.000
 6805.00    0.45765   0.48954   -2.000
 6806.00    0.44750   0.48920   -2.000
 6807.00    0.45608   0.48892   -2.000
 6808.00    0.47855   0.48844   -2.000
 6809.00    0.52483   0.48828   -2.000
 6810.00    0.54994   0.48817   -2.000
 6811.00    0.49031   0.48789   -2.000
 6812.00    0.41110   0.48797   -2.000
 6813.00    0.44654   0.48808   -2.000
 6814.00    0.61837   0.48815   -2.000
 6815.00    0.83712   0.48844   -2.000
 6816.00    0.96228   0.48869   -2.000
 6817.00    0.90705   0.48903   -2.000
 6818.00    0.73096   0.48940   -2.000
 6819.00    0.55828   0.48968   -2.000
 6820.00    0.49468   0.49000   -2.000
 6821.00    0.56767   0.49019   -2.000
 6822.00    0.70905   0.49031   -2.000
 6823.00    0.82253   0.49028   -2.000
 6824.00    0.83520   0.49002   -2.000
 6825.00    0.75980   0.48973   -2.000
 6826.00    0.66850   0.48934   -2.000
 6827.00    0.58067   0.48894   -2.000
 6828.00    0.48329   0.48863   -2.000
 6829.00    0.41723   0.48823   -2.000
 6830.00    0.42302   0.48796   -2.000
 6831.00    0.45180   0.48772   -2.000
 6832.00    0.45640   0.48719   -2.000
 6833.00    0.48364   0.48648   -2.000
 6834.00    0.55242   0.48554   -2.000
 6835.00    0.57669   0.48420   -2.000
 6836.00    0.51881   0.48268   -2.000
 6837.00    0.45293   0.48098   -2.000
 6838.00    0.43116   0.47932   -2.000
 6839.00    0.44271   0.47803   -2.000
 6840.00    0.48010   0.47708   -2.000
 6841.00    0.54372   0.47670   -2.000
 6842.00    0.59953   0.47695   -2.000
 6843.00    0.60257   0.47767   -2.000
 6844.00    0.55687   0.47880   -2.000
 6845.00    0.50506   0.48013   -2.000
 6846.00    0.49524   0.48145   -2.000
 6847.00    0.53083   0.48250   -2.000
 6848.00    0.53890   0.48317   -2.000
 6849.00    0.48861   0.48354   -2.000
 6850.00    0.45963   0.48334   -2.000
 6851.00    0.49728   0.48267   -2.000
 6852.00    0.55090   0.48185   -2.000
 6853.00    0.58170   0.48073   -2.000
 6854.00    0.59511   0.47958   -2.000
 6855.00    0.58941   0.47860   -2.000
 6856.00    0.54906   0.47765   -2.000
 6857.00    0.47006   0.47712   -2.000
 6858.00    0.37580   0.47691   -2.000
 6859.00    0.32914   0.47670   -2.000
 6860.00    0.35961   0.47688   -2.000
 6861.00    0.37926   0.47725   -2.000
 6862.00    0.34040   0.47743   -2.000
 6863.00    0.37047   0.47763   -2.000
 6864.00    0.51484   0.47783   -2.000
 6865.00    0.59287   0.47775   -2.000
 6866.00    0.53164   0.47754   -2.000
 6867.00    0.48547   0.47739   -2.000
 6868.00    0.52283   0.47709   -2.000
 6869.00    0.55605   0.47681   -2.000
 6870.00    0.54560   0.47672   -2.000
 6871.00    0.52479   0.47666    9.730
 6872.00    0.50479   0.47670   11.926
 6873.00    0.48833   0.47683   17.846
 6874.00    0.52746   0.47702   11.125
 6875.00    0.65215   0.47722    4.353
 6876.00    0.77587   0.47726    8.820
 6877.00    0.80949   0.47723   -2.000
 6878.00    0.77336   0.47719    2.757
 6879.00    0.71542   0.47698    0.572
 6880.00    0.65114   0.47676    0.485
 6881.00    0.60771   0.47672    1.274
 6882.00    0.62488   0.47675   -2.000
 6883.00    0.65298   0.47702   -2.000
 6884.00    0.58306   0.47753    4.965
 6885.00    0.46031   0.47824    8.056
 6886.00    0.43236   0.47915   17.846
 6887.00    0.48949   0.47993   14.051
 6888.00    0.52305   0.48073   10.882
 6889.00    0.52119   0.48149   12.919
 6890.00    0.52340   0.48189   13.849
 6891.00    0.52449   0.48208   12.223
 6892.00    0.51497   0.48216   10.923
 6893.00    0.52285   0.48202   10.314
 6894.00    0.55351   0.48180    9.957
 6895.00    0.55822   0.48166    9.485
 6896.00    0.51183   0.48143    9.192
 6897.00    0.44223   0.48131    9.902
 6898.00    0.37416   0.48136   12.045
 6899.00    0.32268   0.48140   14.573
 6900.00    0.34106   0.48150   14.187
 6901.00    0.47888   0.48162   10.788
 6902.00    0.66269   0.48178    8.065
 6903.00    0.75810   0.48197    6.886
 6904.00    0.71579   0.48192    6.903
 6905.00    0.57314   0.48190    7.637
 6906.00    0.41918   0.48180    7.281
 6907.00    0.32373   0.48131    5.895
 6908.00    0.28390   0.48088    5.955
 6909.00    0.28718   0.48019    9.078
 6910.00    0.34595   0.47918   15.601
 6911.00    0.42738   0.47841   15.334
 6912.00    0.44929   0.47751   13.527
 6913.00    0.41064   0.47670   14.503
 6914.00    0.39396   0.47634   14.757
 6915.00    0.42278   0.47603   13.300
 6916.00    0.45146   0.47606   12.598
 6917.00    0.43739   0.47644   13.031
 6918.00    0.37833   0.47662   13.847
 6919.00    0.34001   0.47693   14.168
 6920.00    0.37148   0.47717   13.718
 6921.00    0.40977   0.47702   13.368
 6922.00    0.40365   0.47675   13.468
 6923.00    0.41598   0.47641   12.974
 6924.00    0.47447   0.47595   11.688
 6925.00    0.49508   0.47547   10.827
 6926.00    0.44870   0.47511   10.798
 6927.00    0.41038   0.47492   11.288
 6928.00    0.40780   0.47489   12.029
 6929.00    0.39869   0.47484   12.816
 6930.00    0.37693   0.47487   12.981
 6931.00    0.37925   0.47502   11.854
 6932.00    0.43217   0.47512   10.035
 6933.00    0.52311   0.47526    8.462
 6934.00    0.57999   0.47533    7.517
 6935.00    0.55793   0.47546    7.182
 6936.00    0.53033   0.47561    7.279
 6937.00    0.54129   0.47556    7.800
 6938.00    0.49690   0.47530    9.163
 6939.00    0.39132   0.47497   11.548
 6940.00    0.39690   0.47445   12.727
 6941.00    0.52130   0.47360   11.807
 6942.00    0.54475   0.47284   12.107
 6943.00    0.44174   0.47206   14.148
 6944.00    0.40227   0.47120   14.452
 6945.00    0.44651   0.47069   12.787
 6946.00    0.44807   0.47020   12.354
 6947.00    0.40561   0.46982   13.318
 6948.00    0.39678   0.46976   14.373
 6949.00    0.42127   0.46963   14.426
 6950.00    0.43867   0.46958   13.568
 6951.00    0.44024   0.46972   12.784
 6952.00    0.44446   0.46978   12.436
 6953.00    0.47889   0.47001   11.965
 6954.00    0.53291   0.47046   11.342
 6955.00    0.54489   0.47090   11.350
 6956.00    0.48796   0.47136   12.162
 6957.00    0.40372   0.47203   12.942
 6958.00    0.36576   0.47259   12.835
 6959.00    0.42711   0.47294   11.999
 6960.00    0.52232   0.47342   11.287
 6961.00    0.53083   0.47368   11.334
 6962.00    0.45410   0.47378   12.087
 6963.00    0.37091   0.47400   13.045
 6964.00    0.31683   0.47397   13.551
 6965.00    0.30701   0.47397   13.037
 6966.00    0.37473   0.47396   11.525
 6967.00    0.49593   0.47351    9.877
 6968.00    0.54814   0.47314    8.916
 6969.00    0.48816   0.47260    8.680
 6970.00    0.42628   0.47148    8.777
 6971.00    0.41996   0.47013    8.965
 6972.00    0.41370   0.46841    9.276
 6973.00    0.39080   0.46655    9.754
 6974.00    0.39225   0.46459   10.374
 6975.00    0.41762   0.46257   11.121
 6976.00    0.43257   0.46111   11.953
 6977.00    0.43602   0.46020   12.579
 6978.00    0.44659   0.45988   12.743
 6979.00    0.46307   0.46027   12.866
 6980.00    0.47186   0.46118   13.187
 6981.00    0.46356   0.46277   12.822
 6982.00    0.45028   0.46452   11.811
 6983.00    0.46838   0.46606   11.782
 6984.00    0.51363   0.46767   12.988
 6985.00    0.52388   0.46890   13.104
 6986.00    0.48995   0.46972   11.516
 6987.00    0.47441   0.47037   10.542
 6988.00    0.49217   0.47077   10.639
 6989.00    0.50007   0.47099   11.110
 6990.00    0.48114   0.47100   11.157
 6991.00    0.44560   0.47090   10.599
 6992.00    0.39063   0.47073   10.472
 6993.00    0.32512   0.47031   11.494
 6994.00    0.30960   0.46970   12.023
 6995.00    0.36690   0.46888   10.761
 6996.00    0.39907   0.46785   10.594
 6997.00    0.36320   0.46685   12.083
 6998.00    0.38454   0.46581   10.154
 6999.00    0.51472   0.46474    6.899
 7000.00    0.62586   0.46376    6.226
 7001.00    0.63778   0.46295   -2.000
 7002.00    0.58890   0.46245   -2.000
 7003.00    0.50559   0.46221   -2.000
 7004.00    0.39868   0.46205   -2.000
 7005.00    0.36741   0.46205   -2.000
 7006.00    0.49807   0.46227   -2.000
 7007.00    0.63654   0.46242   -2.000
 7008.00    0.59555   0.46246   -2.000
 7009.00    0.48805   0.46238   -2.000
 7010.00    0.48484   0.46209   -2.000
 7011.00    0.52859   0.46160   -2.000
 7012.00    0.52269   0.46070   -2.000
 7013.00    0.48936   0.45983   -2.000
 7014.00    0.46235   0.45927   -2.000
 7015.00    0.43049   0.45872   -2.000
 7016.00    0.40808   0.45833   -2.000
 7017.00    0.43721   0.45815   -2.000
 7018.00    0.48685   0.45823   -2.000
 7019.00    0.47922   0.45859   -2.000
 7020.00    0.43626   0.45883   -2.000
 7021.00    0.42920   0.45900   -2.000
 7022.00    0.42390   0.45936   -2.000
 7023.00    0.38015   0.45968   -2.000
 7024.00    0.40800   0.45993   -2.000
 7025.00    0.52466   0.46034   -2.000
 7026.00    0.44416   0.46089   -2.000
 7027.00    0.11593   0.46158   -2.000
 7028.00    0.00000   0.46214   -2.000
 7029.00    0.00000   0.46266   -2.000
 7030.00    0.00000   0.46309   -2.000
 7031.00    0.00000   0.46325   -2.000
 7032.00    0.00000   0.46348   -2.000
 7033.00    0.00000   0.46357   -2.000
 7034.00    0.00000   0.46346   -2.000
 7035.00    0.00000   0.46369   -2.000
 7036.00    0.00000   0.46413   -2.000
 7037.00    0.00000   0.46483   -2.000
 7038.00    0.00000   0.46575   -2.000
 7039.00    0.00000   0.46662   -2.000
 7040.00    0.00000   0.46772   -2.000
 7041.00    0.00000   0.46894   -2.000
 7042.00    0.00000   0.46994   -2.000
 7043.00    0.00000   0.47071   -2.000
 7044.00    0.00000   0.47128   -2.000
 7045.00    0.00000   0.47153   -2.000
 7046.00    0.00000   0.47136   -2.000
 7047.00    0.00000   0.47104   -2.000
 7048.00    0.00000   0.47036   -2.000
 7049.00    0.00000   0.46934   -2.000
 7050.00    0.00000   0.46830   -2.000
 7051.00    0.00000   0.46708   -2.000
 7052.00    0.00000   0.46592   -2.000
 7053.00    0.00000   0.46479   -2.000
 7054.00    0.00000   0.46374   -2.000
 7055.00    0.00000   0.46300   -2.000
 7056.00    0.00000   0.46231   -2.000
 7057.00    0.00000   0.46188   -2.000
 7058.00    0.00000   0.46157   -2.000
 7059.00    0.00000   0.46119   -2.000
 7060.00    0.00000   0.46094   -2.000
 7061.00    0.00000   0.46060   -2.000
 7062.00    0.00000   0.46021   -2.000
 7063.00    0.00000   0.45988   -2.000
 7064.00    0.00000   0.45933   -2.000
 7065.00    0.00000   0.45893   -2.000
 7066.00    0.00000   0.45886   -2.000
 7067.00    0.00000   0.45865   -2.000
 7068.00    0.00000   0.45866   -2.000
 7069.00    0.00000   0.45898   -2.000
 7070.00    0.00000   0.45948   -2.000
 7071.00    0.00000   0.46025   -2.000
 7072.00    0.00000   0.46095   -2.000
 7073.00    0.00000   0.46152   -2.000
 7074.00    0.00000   0.46206   -2.000
 7075.00    0.00000   0.46228   -2.000
 7076.00    0.00000   0.46218   -2.000
 7077.00    0.00000   0.46175   -2.000
 7078.00    0.00000   0.46090   -2.000
 7079.00    0.00000   0.45973   -2.000
 7080.00    0.00000   0.45802   -2.000
 7081.00    0.00000   0.45610   -2.000
 7082.00    0.00000   0.45426   -2.000
 7083.00    0.00000   0.45218   -2.000
 7084.00    0.00000   0.45016   -2.000
 7085.00    0.00000   0.44844   -2.000
 7086.00    0.00000   0.44686   -2.000
 7087.00    0.00000   0.44591   -2.000
 7088.00    0.00000   0.44527   -2.000
 7089.00    0.00000   0.44462   -2.000
 7090.00    0.00000   0.44458   -2.000
 7091.00    0.00000   0.44461   -2.000
 7092.00    0.00000   0.44480   -2.000
 7093.00    0.00000   0.44541   -2.000
 7094.00    0.00000   0.44588   -2.000
 7095.00    0.00000   0.44670   -2.000
 7096.00    0.00000   0.44756   -2.000
 7097.00    0.00000   0.44830   -2.000
 7098.00    0.00000   0.44910   -2.000
 7099.00    0.00000   0.44968   -2.000
 7100.00    0.00000   0.45029   -2.000
 7101.00    0.00000   0.45063   -2.000
 7102.00    0.00000   0.45065   -2.000
 7103.00    0.00000   0.45041   -2.000
 7104.00    0.00000   0.44996   -2.000
 7105.00    0.00000   0.44949   -2.000
 7106.00    0.00000   0.44872   -2.000
 7107.00    0.00000   0.44777   -2.000
 7108.00    0.00000   0.44683   -2.000
 7109.00    0.00000   0.44604   -2.000
 7110.00    0.00000   0.44546   -2.000
 7111.00    0.00000   0.44486   -2.000
 7112.00    0.00000   0.44445   -2.000
 7113.00    0.00000   0.44421   -2.000
 7114.00    0.00000   0.44415   -2.000
 7115.00    0.00000   0.44413   -2.000
 7116.00    0.00000   0.44400   -2.000
 7117.00    0.00000   0.44399   -2.000
 7118.00    0.00000   0.44375   -2.000
 7119.00    0.00000   0.44364   -2.000
 7120.00    0.00000   0.44365   -2.000
 7121.00    0.00000   0.44342   -2.000
 7122.00    0.00000   0.44331   -2.000
 7123.00    0.00000   0.44310   -2.000
 7124.00    0.00000   0.44301   -2.000
 7125.00    0.00000   0.44306   -2.000
 7126.00    0.00000   0.44267   -2.000
 7127.00    0.00000   0.44238   -2.000
 7128.00    0.00000   0.44244   -2.000
 7129.00    0.00000   0.44257   -2.000
 7130.00    0.00000   0.44296   -2.000
 7131.00    0.00000   0.44340   -2.000
 7132.00    0.00000   0.44402   -2.000
 7133.00    0.00000   0.44515   -2.000
 7134.00    0.00000   0.44619   -2.000
 7135.00    0.00000   0.44699   -2.000
 7136.00    0.00000   0.44772   -2.000
 7137.00    0.00000   0.44830   -2.000
 7138.00    0.00000   0.44859   -2.000
 7139.00    0.00000   0.44848   -2.000
 7140.00    0.00000   0.44810   -2.000
 7141.00    0.00000   0.44741   -2.000
 7142.00    0.00000   0.44680   -2.000
 7143.00    0.00000   0.44592   -2.000
 7144.00    0.00000   0.44465   -2.000
 7145.00    0.00000   0.44391   -2.000
 7146.00    0.00000   0.44334   -2.000
 7147.00    0.00000   0.44290   -2.000
 7148.00    0.00000   0.44299   -2.000
 7149.00    0.00000   0.44317   -2.000
 7150.00    0.00000   0.44389   -2.000
 7151.00    0.00000   0.44484   -2.000
 7152.00    0.00000   0.44566   -2.000
 7153.00    0.00000   0.44683   -2.000
 7154.00    0.00000   0.44761   -2.000
 7155.00    0.00000   0.44801   -2.000
 7156.00    0.00000   0.44811   -2.000
 7157.00    0.00000   0.44784   -2.000
 7158.00    0.00000   0.44763   -2.000
 7159.00    0.00000   0.44693   -2.000
 7160.00    0.00000   0.44574   -2.000
 7161.00    0.00000   0.44470   -2.000
 7162.00    0.00000   0.44399   -2.000
 7163.00    0.00000   0.44373   -2.000
 7164.00    0.00000   0.44374   -2.000
 7165.00    0.00000   0.44393   -2.000
 7166.00    0.00000   0.44454   -2.000
 7167.00    0.00000   0.44573   -2.000
 7168.00    0.00000   0.44720   -2.000
 7169.00    0.00000   0.44848   -2.000
 7170.00    0.00000   0.44951   -2.000
 7171.00    0.00000   0.45015   -2.000
 7172.00    0.00000   0.45036   -2.000
 7173.00    0.00000   0.45040   -2.000
 7174.00    0.00000   0.45011   -2.000
 7175.00    0.00000   0.44930   -2.000
 7176.00    0.00000   0.44815   -2.000
 7177.00    0.00000   0.44680   -2.000
 7178.00    0.00000   0.44561   -2.000
 7179.00    0.00000   0.44479   -2.000
 7180.00    0.00000   0.44372   -2.000
 7181.00    0.00000   0.44256   -2.000
 7182.00    0.00000   0.44160   -2.000
 7183.00    0.00000   0.44059   -2.000
 7184.00    0.00000   0.43992   -2.000
 7185.00    0.00000   0.43928   -2.000
 7186.00    0.00000   0.43848   -2.000
 7187.00    0.00000   0.43808   -2.000
 7188.00    0.00000   0.43760   -2.000
 7189.00    0.00000   0.43740   -2.000
 7190.00    0.00000   0.43769   -2.000
 7191.00    0.00000   0.43816   -2.000
 7192.00    0.00000   0.43884   -2.000
 7193.00    0.00000   0.43939   -2.000
 7194.00    0.00000   0.44011   -2.000
 7195.00    0.00000   0.44093   -2.000
 7196.00    0.00000   0.44170   -2.000
 7197.00    0.00000   0.44223   -2.000
 7198.00    0.00000   0.44227   -2.000
 7199.00    0.00000   0.44249   -2.000
 7200.00    0.00000   0.44261   -2.000
 7201.00    0.00000   0.44233   -2.000
 7202.00    0.00000   0.44186   -2.000
 7203.00    0.00000   0.44088   -2.000
 7204.00    0.00000   0.44027   -2.000
 7205.00    0.00000   0.43994   -2.000
 7206.00    0.00000   0.43942   -2.000
 7207.00    0.00000   0.43923   -2.000
 7208.00    0.00000   0.43895   -2.000
 7209.00    0.00000   0.43906   -2.000
 7210.00    0.00000   0.43957   -2.000
 7211.00    0.00000   0.43997   -2.000
 7212.00    0.00000   0.44049   -2.000
 7213.00    0.00000   0.44088   -2.000
 7214.00    0.00000   0.44115   -2.000
 7215.00    0.00000   0.44133   -2.000
 7216.00    0.00000   0.44143   -2.000
 7217.00    0.00000   0.44143   -2.000
 7218.00    0.00000   0.44141   -2.000
