###################################################################
## OUTPUT of StarlightChains_v04.for    [Cid@UFSC - 01/Apr/2007] ##
###################################################################

## Some input info
PTF12ikt.txt                             [arq_obs]
Base.CB07.vall.4m                        [arq_base]
Masks.EmLines.NEW.gm                     [arq_masks]
StCv04.C11.config                        [arq_config]
   66                                    [N_base]
    0                                    [N_YAV_components = # of components with extra extinction!]
    0                                    [i_FitPowerLaw (1/0 = Yes/No)]
-9.99                                    [alpha_PowerLaw]
CCM                                      [red_law_option]
 1.458241                                [q_norm = A(l_norm)/A(V)]

## (Re)Sampling Parameters
 3741.00                                 [l_ini (A)]
 7218.00                                 [l_fin (A)]
    1.00                                 [dl    (A)]     (OBS: dl_cushion =    50.00 A)

## Normalization info
 4020.00                                 [l_norm (A) - for base]
 4010.00                                 [llow_norm (A) - window for f_obs]
 4060.00                                 [lupp_norm (A) - window for f_obs]
2.221915E-18                             [fobs_norm (in input units)]

## S/N
 3691.00                                 [llow_SN (A) - window for S/N]
 7268.00                                 [lupp_SN (A) - window for S/N]
   4.229                                 [S/N in S/N window]
   5.044                                 [S/N in norm. window]
   0.000                                 [S/N_err in S/N window]
   0.000                                 [S/N_err in norm. window]
  1.0000                                 [fscale_chi2]

## etc...
    -2007465                             [idum_orig]
  2076                                   [NOl_eff]
  2074                                   [Nl_eff]
     2    NSIGMA                         [Ntot_cliped & clip_method]
   959280                                [Nglobal_steps]
   7                                     [N_chains]
  19                                     [NEX0s_base = N_base in EX0s-fits]
 0   0   1        2   2.0   2.037E+01    [Clip-Bug, RC-Crash & Burn-In warning-flags, n_censored_weights, wei_nsig_threshold & wei_limit]
    14     14.624     14.129      0.495  [idt_all, wdt_TotTime, wdt_UsrTime & wdt_SysTime (sec)]

## Synthesis Results - Best model ##

 5.79873E-01                             [chi2/Nl_eff]
    19.63560                             [adev (%)]

   106.95724                             [sum-of-x (%)]
 1.05843E-18                             [Flux_tot (units of input spectrum!)]
 2.24282E-14                             [Mini_tot (???)]
 1.17372E-14                             [Mcor_tot (???)]

  68.37                                  [v0_min  (km/s)]
 136.38                                  [vd_min  (km/s)]
-0.6022                                  [AV_min  (mag)]
 0.0000                                  [YAV_min (mag)]

# j     x_j(%)      Mini_j(%)     Mcor_j(%)     age_j(yr)     Z_j      (L/M)_j    YAV?  Mstars   component_j        a/Fe...       SSP_chi2r SSP_adev(%)   SSP_AV   SSP_x(%)
  1      2.7618     1.1139E-02    2.1284E-02    1.000000E+06  0.00400  1.094E-02    0   1.0000   age020_m42            0.0000     6.7442E-01    22.4933   2.5182    93.7647
  2      0.0000     0.0000E+00    0.0000E+00    3.160000E+06  0.00400  4.007E-02    0   0.9999   age045_m42            0.0000     6.5241E-01    21.5835   1.7937   100.3333
  3      0.0000     0.0000E+00    0.0000E+00    5.010000E+06  0.00400  2.539E-02    0   0.9488   age055_m42            0.0000     6.6246E-01    22.0777   2.1130    97.8651
  4      0.0000     0.0000E+00    0.0000E+00    6.610000E+06  0.00400  2.620E-02    0   0.9220   age061_m42            0.0000     6.5103E-01    21.6835   1.7192   100.6924
  5      0.0000     0.0000E+00    0.0000E+00    1.000000E+07  0.00400  1.322E-02    0   0.8862   age070_m42            0.0000     6.4698E-01    22.3499   1.3968   105.1263
  6      0.0000     0.0000E+00    0.0000E+00    1.445000E+07  0.00400  7.883E-03    0   0.8571   age078_m42            0.0000     6.5541E-01    22.5356   1.7330   101.9660
  7      0.0000     0.0000E+00    0.0000E+00    2.512000E+07  0.00400  5.251E-03    0   0.8174   age090_m42            0.0000     6.5039E-01    22.4668   1.2593   106.1494
  8      0.0000     0.0000E+00    0.0000E+00    4.000000E+07  0.00400  3.649E-03    0   0.7851   age104_m42            0.0000     6.4291E-01    22.1929   1.0346   106.8867
  9      0.0000     0.0000E+00    0.0000E+00    5.500000E+07  0.00400  3.098E-03    0   0.7629   age110_m42            0.0000     6.4138E-01    21.7458   1.2077   105.8344
 10      0.0000     0.0000E+00    0.0000E+00    1.015200E+08  0.00400  2.228E-03    0   0.7207   age116_m42            0.0000     6.4112E-01    21.4660   1.2410   105.3490
 11      0.0000     0.0000E+00    0.0000E+00    2.861200E+08  0.00400  1.093E-03    0   0.6648   age125_m42            0.0000     6.3031E-01    21.3586   0.6682   109.1741
 12      0.0000     0.0000E+00    0.0000E+00    5.088000E+08  0.00400  6.597E-04    0   0.6365   age130_m42            0.0000     6.2213E-01    20.8190   0.6750   109.0529
 13      0.0000     0.0000E+00    0.0000E+00    1.434000E+09  0.00400  2.132E-04    0   0.5798   age139_m42            0.0000     5.9620E-01    19.9492  -0.2872   110.5256
 14      0.0000     0.0000E+00    0.0000E+00    4.250000E+09  0.00400  5.895E-05    0   0.5377   age158_m42            0.0000     5.8266E-01    19.4326  -0.6862   103.9663
 15      0.2283     2.8702E-01    2.8586E-01    7.500000E+09  0.00400  3.510E-05    0   0.5212   age171_m42            0.0000     5.8327E-01    19.2525  -0.8529   102.2758
 16     15.4065     3.3904E+01    3.2613E+01    1.300000E+10  0.00400  2.005E-05    0   0.5034   age193_m42            0.0000     5.8586E-01    19.1344  -0.9973   100.8119
 17      7.2594     2.1003E+01    1.9935E+01    1.800000E+10  0.00400  1.525E-05    0   0.4967   age213_m42            0.0000     5.8595E-01    19.1373  -1.0000    99.5403
 18      2.1942     7.8201E-03    1.4943E-02    1.000000E+06  0.00800  1.238E-02    0   1.0000   age020_m52            0.0000     6.7394E-01    22.5037   2.5145    93.9444
 19      0.0000     0.0000E+00    0.0000E+00    3.160000E+06  0.00800  3.074E-02    0   0.9966   age045_m52            0.0000     6.7308E-01    22.4676   2.4383    94.7466
 20      0.0000     0.0000E+00    0.0000E+00    5.010000E+06  0.00800  2.668E-02    0   0.9443   age055_m52            0.0000     6.6236E-01    22.2327   2.1929    97.0760
 21      0.9269     1.9147E-03    3.3576E-03    6.610000E+06  0.00800  2.136E-02    0   0.9177   age061_m52            0.0000     6.2203E-01    21.9729   0.8980   106.0919
 22      0.0000     0.0000E+00    0.0000E+00    1.000000E+07  0.00800  1.215E-02    0   0.8827   age070_m52            0.0000     6.5157E-01    22.7055   1.5704   105.3256
 23      0.0000     0.0000E+00    0.0000E+00    1.445000E+07  0.00800  8.717E-03    0   0.8552   age078_m52            0.0000     6.5019E-01    22.4625   1.6946   103.5704
 24      0.0000     0.0000E+00    0.0000E+00    2.512000E+07  0.00800  5.592E-03    0   0.8162   age090_m52            0.0000     6.4778E-01    22.4531   1.3246   107.4426
 25      0.0000     0.0000E+00    0.0000E+00    4.000000E+07  0.00800  3.896E-03    0   0.7841   age104_m52            0.0000     6.4131E-01    22.0878   1.2483   107.7077
 26      0.0000     0.0000E+00    0.0000E+00    1.015200E+08  0.00800  2.148E-03    0   0.7226   age116_m52            0.0000     6.3479E-01    21.5646   1.2049   106.4846
 27      0.0000     0.0000E+00    0.0000E+00    2.861200E+08  0.00800  9.925E-04    0   0.6683   age125_m52            0.0000     6.2143E-01    20.7868   0.7408   110.0113
 28      0.3183     4.4719E-02    5.2451E-02    9.047900E+08  0.00800  3.141E-04    0   0.6138   age135_m52            0.0000     5.9587E-01    19.5023  -0.0208   112.5212
 29     21.7895     5.5928E+00    6.2551E+00    1.434000E+09  0.00800  1.719E-04    0   0.5853   age139_m52            0.0000     5.8418E-01    19.4143  -0.5848   109.4326
 30      0.0000     0.0000E+00    0.0000E+00    2.500000E+09  0.00800  7.872E-05    0   0.5600   age150_m52            0.0000     5.8600E-01    19.0548  -0.8170   104.4192
 31     10.4560     1.0640E+01    1.1032E+01    4.250000E+09  0.00800  4.336E-05    0   0.5426   age158_m52            0.0000     5.8447E-01    19.0797  -0.8294   103.2590
 32     16.6205     2.3214E+01    2.3594E+01    6.250000E+09  0.00800  3.159E-05    0   0.5319   age166_m52            0.0000     5.9137E-01    18.8735  -1.0000   101.7556
 33      0.0000     0.0000E+00    0.0000E+00    1.300000E+10  0.00800  1.361E-05    0   0.5073   age193_m52            0.0000     7.2171E-01    19.6247  -1.0000    82.6838
 34      0.0000     0.0000E+00    0.0000E+00    1.800000E+10  0.00800  9.886E-06    0   0.4990   age213_m52            0.0000     7.7501E-01    20.1805  -1.0000    78.3979
 35      0.0000     0.0000E+00    0.0000E+00    1.000000E+06  0.02000  1.544E-02    0   1.0000   age020_m62            0.0000     6.7407E-01    22.5324   2.5100    94.1865
 36      0.0000     0.0000E+00    0.0000E+00    3.160000E+06  0.02000  3.762E-02    0   0.9858   age045_m62            0.0000     6.7452E-01    22.5460   2.4515    94.9321
 37      0.0000     0.0000E+00    0.0000E+00    5.010000E+06  0.02000  3.296E-02    0   0.9342   age055_m62            0.0000     6.5839E-01    21.8751   2.0783    98.8422
 38      0.0000     0.0000E+00    0.0000E+00    8.710000E+06  0.02000  1.154E-02    0   0.8861   age067_m62            0.0000     7.1718E-01    25.1139   0.9496   112.8549
 39      0.0000     0.0000E+00    0.0000E+00    1.445000E+07  0.02000  7.663E-03    0   0.8472   age078_m62            0.0000     6.5350E-01    23.1535   1.1981   109.0716
 40      0.0000     0.0000E+00    0.0000E+00    2.512000E+07  0.02000  4.532E-03    0   0.8099   age090_m62            0.0000     6.6141E-01    23.2576   1.1921   108.8199
 41      0.0000     0.0000E+00    0.0000E+00    5.500000E+07  0.02000  2.733E-03    0   0.7595   age110_m62            0.0000     6.3889E-01    22.1547   1.2314   106.8886
 42      0.0000     0.0000E+00    0.0000E+00    1.609000E+08  0.02000  1.369E-03    0   0.6985   age120_m62            0.0000     6.3364E-01    21.3501   1.0908   108.7135
 43      0.0000     0.0000E+00    0.0000E+00    2.861200E+08  0.02000  9.013E-04    0   0.6714   age125_m62            0.0000     6.2844E-01    20.8260   0.8463   111.4637
 44      0.0000     0.0000E+00    0.0000E+00    5.088000E+08  0.02000  5.028E-04    0   0.6449   age130_m62            0.0000     6.1404E-01    19.8465   0.4991   112.7076
 45      0.0000     0.0000E+00    0.0000E+00    9.047900E+08  0.02000  2.428E-04    0   0.6179   age135_m62            0.0000     5.9151E-01    19.1943  -0.0528   110.2082
 46      0.0085     2.9826E-03    3.3672E-03    1.434000E+09  0.02000  1.263E-04    0   0.5908   age139_m62            0.0000     5.8716E-01    19.0718  -0.4786   107.5723
 47      0.0000     0.0000E+00    0.0000E+00    2.500000E+09  0.02000  5.985E-05    0   0.5673   age150_m62            0.0000     5.9407E-01    18.9080  -0.8077   104.1682
 48      0.0000     0.0000E+00    0.0000E+00    4.250000E+09  0.02000  3.271E-05    0   0.5468   age158_m62            0.0000     6.1661E-01    18.7610  -1.0000    98.2989
 49      0.0000     0.0000E+00    0.0000E+00    1.000000E+10  0.02000  1.360E-05    0   0.5167   age181_m62            0.0000     7.2061E-01    19.6623  -1.0000    84.2620
 50      0.0000     0.0000E+00    0.0000E+00    1.800000E+10  0.02000  7.124E-06    0   0.5013   age213_m62            0.0000     8.2691E-01    20.7961  -1.0000    76.1793
 51      4.3664     7.4327E-03    1.4200E-02    1.000000E+06  0.05000  2.592E-02    0   0.9998   age020_m72            0.0000     6.7631E-01    22.6654   2.4990    94.3117
 52      0.0000     0.0000E+00    0.0000E+00    3.160000E+06  0.05000  4.845E-02    0   0.9577   age045_m72            0.0000     6.7067E-01    22.2827   2.3400    95.9678
 53      0.0000     0.0000E+00    0.0000E+00    5.010000E+06  0.05000  3.072E-02    0   0.9147   age055_m72            0.0000     6.5085E-01    22.7784   1.8321   102.5753
 54      4.6303     1.4041E-02    2.3818E-02    6.610000E+06  0.05000  1.455E-02    0   0.8877   age061_m72            0.0000     7.8332E-01    26.2685   1.0205   114.4364
 55      0.0000     0.0000E+00    0.0000E+00    1.000000E+07  0.05000  9.074E-03    0   0.8524   age070_m72            0.0000     6.5877E-01    22.7025   2.0532   101.2302
 56      0.0000     0.0000E+00    0.0000E+00    2.512000E+07  0.05000  4.250E-03    0   0.7902   age090_m72            0.0000     6.5560E-01    22.5418   1.7252   104.0861
 57      0.0000     0.0000E+00    0.0000E+00    4.000000E+07  0.05000  3.087E-03    0   0.7618   age104_m72            0.0000     6.5878E-01    22.5721   1.4858   106.4761
 58      0.0000     0.0000E+00    0.0000E+00    1.015200E+08  0.05000  1.700E-03    0   0.7096   age116_m72            0.0000     6.4014E-01    21.6729   1.2260   108.8463
 59      0.0000     0.0000E+00    0.0000E+00    2.861200E+08  0.05000  7.384E-04    0   0.6633   age125_m72            0.0000     6.2010E-01    20.2864   0.7345   111.8569
 60      0.0000     0.0000E+00    0.0000E+00    5.088000E+08  0.05000  3.819E-04    0   0.6372   age130_m72            0.0000     6.0257E-01    19.4592   0.2726   111.8251
 61     19.9619     5.2551E+00    6.1356E+00    9.047900E+08  0.05000  1.676E-04    0   0.6110   age135_m72            0.0000     5.9697E-01    18.9361  -0.3662   106.7502
 62      0.0285     1.4219E-02    1.5960E-02    1.434000E+09  0.05000  8.837E-05    0   0.5874   age139_m72            0.0000     5.9954E-01    18.9151  -0.8018   105.3897
 63      0.0000     0.0000E+00    0.0000E+00    2.500000E+09  0.05000  4.233E-05    0   0.5598   age150_m72            0.0000     6.2572E-01    18.7986  -1.0000    99.0536
 64      0.0000     0.0000E+00    0.0000E+00    6.250000E+09  0.05000  1.435E-05    0   0.5249   age166_m72            0.0000     7.7051E-01    20.0968  -1.0000    80.4054
 65      0.0000     0.0000E+00    0.0000E+00    1.300000E+10  0.05000  6.513E-06    0   0.5036   age193_m72            0.0000     9.3771E-01    21.8555  -1.0000    71.6125
 66      0.0000     0.0000E+00    0.0000E+00    1.800000E+10  0.05000  4.527E-06    0   0.4945   age213_m72            0.0000     1.0520E+00    23.0003  -1.0000    66.4426


## Synthesis Results - Average & Chains ##

# j      x_j: min, <> & last-chain-values for 1 ...  7 chains
  1      2.7618      0.2650      0.0000      0.0000      1.5891      1.5671      1.9219      0.0000      0.0000
  2      0.0000      0.6068      1.3649      0.0000      0.0000      0.0000      0.0000      0.0000      0.0000
  3      0.0000      0.3382      0.8458      0.6601      0.0000      0.0000      2.9584      0.0000      0.0000
  4      0.0000      0.7907      0.0000      4.4978      0.0000      4.8132      0.1584      0.0000      2.7186
  5      0.0000      0.5628      0.0000      0.0000      0.0000      0.0000      0.0000      0.0000      0.0000
  6      0.0000      0.4113      0.0000      0.0000      0.0000      0.0000      0.0000      2.6610      0.0000
  7      0.0000      0.4331      0.0000      0.0000      0.0000      0.7797      0.0000      0.0000      0.6722
  8      0.0000      0.5018      0.0000      3.5986      1.4832      0.6103      0.0000      0.0000      1.1640
  9      0.0000      0.3554      0.0000      0.0000      0.0000      0.0000      0.8211      0.0000      0.0000
 10      0.0000      0.3969      0.0000      0.0000      0.0000      0.0000      0.0000      0.0000      0.0000
 11      0.0000      0.8715      0.0000      0.0000      0.0000      0.0000      0.0000      0.0000      0.0000
 12      0.0000      1.3811      0.0000      0.0000      0.0000      0.0000      0.0000      0.0000      0.0000
 13      0.0000      6.3980      0.0000      0.0000      2.9443      0.0000      0.0000      1.2043      1.2004
 14      0.0000      2.5754      5.0176      1.5330      3.5953     10.8821      8.7068      3.1904      0.0000
 15      0.2283      0.8738      1.5069      0.0000      0.0000      0.0000     12.8342      0.0000      0.0000
 16     15.4065      1.1307      3.3364      3.0570      0.7415      2.1739      2.6891      3.1111      0.4238
 17      7.2594      0.3505      0.0000      0.9155      0.0000      1.6744      8.1984      0.0000      0.0000
 18      2.1942      0.3353      0.0000      0.0000      0.0000      0.0000      2.1008      0.0000      1.4373
 19      0.0000      0.1363      0.0000      0.0000      0.0000      0.0000      0.0000      0.0000      0.1264
 20      0.0000      0.2462      0.0000      0.0000      0.0000      0.7652      0.0000      0.0000      0.0000
 21      0.9269      2.2429      3.1230      0.0000      0.0000      2.9934      1.9151      5.2012      1.1806
 22      0.0000      1.2021      0.0000      0.0000      0.0000      0.0000      0.0000      1.5821      0.0000
 23      0.0000      0.6261      0.0000      0.0000      0.0000      6.5728      0.0000      0.0000      0.0000
 24      0.0000      0.4629      1.8359      0.0000      0.0000      4.4055      0.0000      0.0000      0.0000
 25      0.0000      0.3994      0.0000      0.0000      0.0000      0.0000      0.0000      1.4380      0.0000
 26      0.0000      0.5650      0.0000      0.0000      0.3341      0.0000      0.0000      0.0000      1.4021
 27      0.0000      1.5374      4.4717      0.0000      0.0000      2.0219      0.0000      0.0000      0.0000
 28      0.3183      8.9644      6.3796      5.4118      0.0000      0.0000      4.5515      8.3676     12.6904
 29     21.7895      4.3161      1.1810      5.6944      3.5323      4.8197     23.2348      5.4039     10.2451
 30      0.0000      1.7913      0.0000      2.6716      0.8913      0.0000      0.0000      0.1743      2.3384
 31     10.4560      1.9488      3.2357      0.0000      5.8956      9.0840      6.5298      0.5079      0.0000
 32     16.6205      0.6845      1.6870      0.0000      2.1450      1.0845      1.0284      0.5874      0.0000
 33      0.0000      0.2028      0.0000      0.0000      0.0000      0.0000      0.0000      0.0000      0.0000
 34      0.0000      0.1169      0.0000      0.0000      0.0000      0.0000      0.0000      0.5343      0.0000
 35      0.0000      0.3992      0.0000      0.0000      1.2664      0.9875      0.0000      0.8758      0.0000
 36      0.0000      0.5007      0.0000      1.7325      0.0000      0.0000      0.0000      0.0000      1.7488
 37      0.0000      0.2464      2.4743      0.0000      0.0000      0.0000      0.0000      0.0000      0.0000
 38      0.0000      0.6167      0.0000      0.5126      0.0000      0.0000      0.0000      0.0000      0.0000
 39      0.0000      0.4927      0.0000      0.0000      1.0143      0.0000      0.3567      0.0000      0.0000
 40      0.0000      0.5489      0.0000      2.8730      3.8056      0.5682      0.0000      1.2912      0.0000
 41      0.0000      0.6299      0.0000      0.0000      0.0000      0.0000      0.0000      0.0000      0.3286
 42      0.0000      0.6484      0.0000      0.0000      0.0000      0.0000      0.0000      0.0000      0.1464
 43      0.0000      0.6514      0.0000      0.0000      0.6296      0.0000      0.0000      0.0000      0.0000
 44      0.0000      1.0642      0.0584      0.0000      0.0000      0.0000      0.0000      0.0125      0.0000
 45      0.0000     16.7538     21.7124     29.2589     19.5082     17.9669      0.0000     18.3833     18.1060
 46      0.0085     10.7999     10.9835      2.5299     21.4256      0.0000      1.9292     12.3730     23.9363
 47      0.0000      2.4292      2.7111      3.6337      0.0000      0.0000      0.0000      6.1648      3.5007
 48      0.0000      1.2125      3.8458      4.5655      0.5545      0.0000      0.0000      0.2683      0.0000
 49      0.0000      0.2543      1.6103      0.0000      0.0000      0.0000      0.0000      0.8463      0.0000
 50      0.0000      0.0893      0.0000      0.0000      0.0000      0.0000      0.0000      0.0000      0.0000
 51      4.3664      0.6139      0.0000      0.0000      0.0000      1.0158      1.3332      4.6006      0.0000
 52      0.0000      0.2782      0.9145      4.2091      0.0000      0.0000      0.0000      0.0000      0.0000
 53      0.0000      0.3890      4.6849      1.3586      1.5016      0.0000      0.0000      0.0000      0.0000
 54      4.6303      0.7935      1.4607      0.0000      0.0000      0.0000      1.5170      4.3780      2.6836
 55      0.0000      0.3672      0.0000      1.4080      1.1862      0.0000      0.0000      0.5711      1.2815
 56      0.0000      0.6681      3.1916      0.0000      0.0000      0.0000      0.0000      0.0000      0.0000
 57      0.0000      0.6124      0.0000      0.0000      3.9157      0.0000      0.0000      1.3804      2.3965
 58      0.0000      0.4067      0.0000      0.8846      2.3908      0.0000      0.0000      0.0000      1.0047
 59      0.0000      0.6457      0.0000      0.0000      0.0000      0.4266      1.7768      0.0000      0.0000
 60      0.0000      2.2121      3.4208      3.1856     11.9019      0.8193      0.0000      0.0000      0.0000
 61     19.9619     18.1696     14.3551     24.6641     16.1509     29.6950     14.2155     23.8055     17.1077
 62      0.0285      1.3124      0.0000      0.0000      1.8287      2.0232      1.4667      0.0000      0.9394
 63      0.0000      0.5968      2.4623      0.5883      0.0000      0.0000      5.5527      0.0000      1.0747
 64      0.0000      0.2778      0.0000      0.0000      0.0000      0.0000      0.0000      0.0000      0.0000
 65      0.0000      0.1634      1.5112      0.0000      0.0000      0.0000      0.0000      0.0000      0.0000
 66      0.0000      0.1823      0.0000      0.0253      0.0000      0.8496      0.1919      0.0000      0.0000

# j      m_j: min, <> & last-chain-values for 1 ...  7 chains
  1  2.1284E-02  5.0729E-03  0.0000E+00  0.0000E+00  3.2881E-02  2.3019E-02  1.8317E-02  0.0000E+00  0.0000E+00
  2  0.0000E+00  3.1712E-03  4.8175E-03  0.0000E+00  0.0000E+00  0.0000E+00  0.0000E+00  0.0000E+00  0.0000E+00
  3  0.0000E+00  2.6470E-03  4.4706E-03  5.1981E-03  0.0000E+00  0.0000E+00  1.1527E-02  0.0000E+00  0.0000E+00
  4  0.0000E+00  5.8276E-03  0.0000E+00  3.3355E-02  0.0000E+00  2.7219E-02  5.8121E-04  0.0000E+00  2.6077E-02
  5  0.0000E+00  7.9012E-03  0.0000E+00  0.0000E+00  0.0000E+00  0.0000E+00  0.0000E+00  0.0000E+00  0.0000E+00
  6  0.0000E+00  9.3652E-03  0.0000E+00  0.0000E+00  0.0000E+00  0.0000E+00  0.0000E+00  6.0495E-02  0.0000E+00
  7  0.0000E+00  1.4120E-02  0.0000E+00  0.0000E+00  0.0000E+00  1.9504E-02  0.0000E+00  0.0000E+00  2.8520E-02
  8  0.0000E+00  2.2609E-02  0.0000E+00  1.6316E-01  7.2237E-02  2.1100E-02  0.0000E+00  0.0000E+00  6.8262E-02
  9  0.0000E+00  1.8329E-02  0.0000E+00  0.0000E+00  0.0000E+00  0.0000E+00  2.1082E-02  0.0000E+00  0.0000E+00
 10  0.0000E+00  2.6887E-02  0.0000E+00  0.0000E+00  0.0000E+00  0.0000E+00  0.0000E+00  0.0000E+00  0.0000E+00
 11  0.0000E+00  1.1102E-01  0.0000E+00  0.0000E+00  0.0000E+00  0.0000E+00  0.0000E+00  0.0000E+00  0.0000E+00
 12  0.0000E+00  2.7907E-01  0.0000E+00  0.0000E+00  0.0000E+00  0.0000E+00  0.0000E+00  0.0000E+00  0.0000E+00
 13  0.0000E+00  3.6440E+00  0.0000E+00  0.0000E+00  1.8126E+00  0.0000E+00  0.0000E+00  6.8477E-01  8.8983E-01
 14  0.0000E+00  4.9197E+00  6.4732E+00  2.9467E+00  7.4235E+00  1.5951E+01  8.2805E+00  6.0845E+00  0.0000E+00
 15  2.8586E-01  2.7175E+00  3.1648E+00  0.0000E+00  0.0000E+00  0.0000E+00  1.9871E+01  0.0000E+00  0.0000E+00
 16  3.2613E+01  5.9454E+00  1.1848E+01  1.6174E+01  4.2144E+00  8.7708E+00  7.0395E+00  1.6332E+01  2.9003E+00
 17  1.9935E+01  2.3911E+00  0.0000E+00  6.2834E+00  0.0000E+00  8.7639E+00  2.7842E+01  0.0000E+00  0.0000E+00
 18  1.4943E-02  5.6720E-03  0.0000E+00  0.0000E+00  0.0000E+00  0.0000E+00  1.7694E-02  0.0000E+00  3.1644E-02
 19  0.0000E+00  9.2547E-04  0.0000E+00  0.0000E+00  0.0000E+00  0.0000E+00  0.0000E+00  0.0000E+00  1.1171E-03
 20  0.0000E+00  1.8253E-03  0.0000E+00  0.0000E+00  0.0000E+00  4.3523E-03  0.0000E+00  0.0000E+00  0.0000E+00
 21  3.3576E-03  2.0181E-02  1.8978E-02  0.0000E+00  0.0000E+00  2.0667E-02  8.5788E-03  4.6723E-02  1.3825E-02
 22  0.0000E+00  1.8291E-02  0.0000E+00  0.0000E+00  0.0000E+00  0.0000E+00  0.0000E+00  2.4033E-02  0.0000E+00
 23  0.0000E+00  1.2864E-02  0.0000E+00  0.0000E+00  0.0000E+00  1.0362E-01  0.0000E+00  0.0000E+00  0.0000E+00
 24  0.0000E+00  1.4149E-02  3.7901E-02  0.0000E+00  0.0000E+00  1.0333E-01  0.0000E+00  0.0000E+00  0.0000E+00
 25  0.0000E+00  1.6837E-02  0.0000E+00  0.0000E+00  0.0000E+00  0.0000E+00  0.0000E+00  6.0510E-02  0.0000E+00
 26  0.0000E+00  3.9810E-02  0.0000E+00  0.0000E+00  2.5440E-02  0.0000E+00  0.0000E+00  0.0000E+00  1.2857E-01
 27  0.0000E+00  2.1681E-01  4.2588E-01  0.0000E+00  0.0000E+00  2.1879E-01  0.0000E+00  0.0000E+00  0.0000E+00
 28  5.2451E-02  3.6688E+00  1.7633E+00  2.2286E+00  0.0000E+00  0.0000E+00  9.2738E-01  3.4189E+00  6.7595E+00
 29  6.2551E+00  3.0778E+00  5.6878E-01  4.0858E+00  2.7226E+00  2.6371E+00  8.2487E+00  3.8472E+00  9.5082E+00
 30  0.0000E+00  2.6688E+00  0.0000E+00  4.0050E+00  1.4353E+00  0.0000E+00  0.0000E+00  2.5923E-01  4.5342E+00
 31  1.1032E+01  5.1073E+00  5.7271E+00  0.0000E+00  1.6701E+01  1.8267E+01  8.5199E+00  1.3289E+00  0.0000E+00
 32  2.3594E+01  2.4140E+00  4.0177E+00  0.0000E+00  8.1758E+00  2.9345E+00  1.8055E+00  2.0678E+00  0.0000E+00
 33  0.0000E+00  1.5832E+00  0.0000E+00  0.0000E+00  0.0000E+00  0.0000E+00  0.0000E+00  0.0000E+00  0.0000E+00
 34  0.0000E+00  1.2359E+00  0.0000E+00  0.0000E+00  0.0000E+00  0.0000E+00  0.0000E+00  5.6384E+00  0.0000E+00
 35  0.0000E+00  5.4145E-03  0.0000E+00  0.0000E+00  1.8567E-02  1.0278E-02  0.0000E+00  1.1860E-02  0.0000E+00
 36  0.0000E+00  2.7477E-03  0.0000E+00  9.5669E-03  0.0000E+00  0.0000E+00  0.0000E+00  0.0000E+00  1.2491E-02
 37  0.0000E+00  1.4629E-03  9.9193E-03  0.0000E+00  0.0000E+00  0.0000E+00  0.0000E+00  0.0000E+00  0.0000E+00
 38  0.0000E+00  9.9175E-03  0.0000E+00  8.2949E-03  0.0000E+00  0.0000E+00  0.0000E+00  0.0000E+00  0.0000E+00
 39  0.0000E+00  1.1408E-02  0.0000E+00  0.0000E+00  2.5385E-02  0.0000E+00  4.1116E-03  0.0000E+00  0.0000E+00
 40  0.0000E+00  2.0545E-02  0.0000E+00  1.0819E-01  1.5395E-01  1.6319E-02  0.0000E+00  4.8245E-02  0.0000E+00
 41  0.0000E+00  3.6660E-02  0.0000E+00  0.0000E+00  0.0000E+00  0.0000E+00  0.0000E+00  0.0000E+00  2.4894E-02
 42  0.0000E+00  6.9284E-02  0.0000E+00  0.0000E+00  0.0000E+00  0.0000E+00  0.0000E+00  0.0000E+00  2.0364E-02
 43  0.0000E+00  1.0162E-01  0.0000E+00  0.0000E+00  1.0617E-01  0.0000E+00  0.0000E+00  0.0000E+00  0.0000E+00
 44  0.0000E+00  2.8587E-01  1.0588E-02  0.0000E+00  0.0000E+00  0.0000E+00  0.0000E+00  3.3651E-03  0.0000E+00
 45  0.0000E+00  8.9296E+00  7.8154E+00  1.5691E+01  1.1239E+01  7.3477E+00  0.0000E+00  9.7818E+00  1.2560E+01
 46  3.3672E-03  1.0580E+01  7.2669E+00  2.4939E+00  2.2688E+01  0.0000E+00  9.4095E-01  1.2102E+01  3.0519E+01
 47  0.0000E+00  4.8225E+00  3.6346E+00  7.2581E+00  0.0000E+00  0.0000E+00  0.0000E+00  1.2218E+01  9.0445E+00
 48  0.0000E+00  4.2449E+00  9.0930E+00  1.6083E+01  2.0984E+00  0.0000E+00  0.0000E+00  9.3766E-01  0.0000E+00
 49  0.0000E+00  2.0231E+00  8.6535E+00  0.0000E+00  0.0000E+00  0.0000E+00  0.0000E+00  6.7232E+00  0.0000E+00
 50  0.0000E+00  1.3157E+00  0.0000E+00  0.0000E+00  0.0000E+00  0.0000E+00  0.0000E+00  0.0000E+00  0.0000E+00
 51  1.4200E-02  4.9592E-03  0.0000E+00  0.0000E+00  0.0000E+00  6.2966E-03  5.3620E-03  3.7104E-02  0.0000E+00
 52  0.0000E+00  1.1518E-03  2.5566E-03  1.7533E-02  0.0000E+00  0.0000E+00  0.0000E+00  0.0000E+00  0.0000E+00
 53  0.0000E+00  2.4260E-03  1.9730E-02  8.5247E-03  1.0121E-02  0.0000E+00  0.0000E+00  0.0000E+00  0.0000E+00
 54  2.3818E-02  1.0139E-02  1.2605E-02  0.0000E+00  0.0000E+00  0.0000E+00  9.6500E-03  5.5848E-02  4.4628E-02
 55  0.0000E+00  7.2251E-03  0.0000E+00  2.7872E-02  2.5225E-02  0.0000E+00  0.0000E+00  1.1216E-02  3.2813E-02
 56  0.0000E+00  2.6015E-02  8.3931E-02  0.0000E+00  0.0000E+00  0.0000E+00  0.0000E+00  0.0000E+00  0.0000E+00
 57  0.0000E+00  3.1653E-02  0.0000E+00  0.0000E+00  2.1874E-01  0.0000E+00  0.0000E+00  7.1227E-02  1.6120E-01
 58  0.0000E+00  3.5557E-02  0.0000E+00  7.7808E-02  2.2590E-01  0.0000E+00  0.0000E+00  0.0000E+00  1.1431E-01
 59  0.0000E+00  1.2147E-01  0.0000E+00  0.0000E+00  0.0000E+00  6.1576E-02  1.6642E-01  0.0000E+00  0.0000E+00
 60  0.0000E+00  7.7301E-01  8.0730E-01  1.1201E+00  4.4954E+00  2.1967E-01  0.0000E+00  0.0000E+00  0.0000E+00
 61  6.1356E+00  1.3873E+01  7.4020E+00  1.8948E+01  1.3329E+01  1.7396E+01  5.4035E+00  1.8146E+01  1.7000E+01
 62  1.5960E-02  1.8271E+00  0.0000E+00  0.0000E+00  2.7517E+00  2.1611E+00  1.0165E+00  0.0000E+00  1.7021E+00
 63  0.0000E+00  1.6530E+00  4.6058E+00  1.6395E+00  0.0000E+00  0.0000E+00  7.6565E+00  0.0000E+00  3.8741E+00
 64  0.0000E+00  2.1285E+00  0.0000E+00  0.0000E+00  0.0000E+00  0.0000E+00  0.0000E+00  0.0000E+00  0.0000E+00
 65  0.0000E+00  2.6454E+00  1.6527E+01  0.0000E+00  0.0000E+00  0.0000E+00  0.0000E+00  0.0000E+00  0.0000E+00
 66  0.0000E+00  4.1716E+00  0.0000E+00  5.8345E-01  0.0000E+00  1.4914E+01  2.1853E+00  0.0000E+00  0.0000E+00

# AV, chi2 & Mass for <> & i_chain = 1 ...  7 solutions
AV      -0.6022     -0.1578     -0.2637     -0.1537     -0.1916     -0.2007     -0.5130     -0.1631     -0.1920
chi2 5.7987E-01  5.8645E-01  5.8466E-01  5.8551E-01  5.8567E-01  5.8505E-01  5.8185E-01  5.8497E-01  5.8512E-01
Mass 1.1737E-14  8.5827E-15  1.1024E-14  8.5772E-15  7.5885E-15  1.0560E-14  1.0700E-14  8.5366E-15  6.2986E-15
  68.37                                  [v0_min (km/s) before EX0s...]
 136.38                                  [vd_min (km/s) before EX0s...]


## Synthetic spectrum (Best Model) ##l_obs f_obs f_syn wei
 3478    [Nl_obs]
 3741.00    0.74327   0.72583    0.000
 3742.00    0.58203   0.73701    0.000
 3743.00    0.35337   0.72627    0.000
 3744.00    0.22796   0.70089    0.000
 3745.00    0.28302   0.66875    1.871
 3746.00    0.37495   0.63400    1.842
 3747.00    0.39800   0.59819    1.870
 3748.00    0.41718   0.56326    1.898
 3749.00    0.48746   0.53574    1.902
 3750.00    0.57614   0.52765    1.930
 3751.00    0.64588   0.54775    1.976
 3752.00    0.69068   0.59418    1.963
 3753.00    0.73179   0.65441    1.928
 3754.00    0.80345   0.71251    1.984
 3755.00    0.91885   0.75457    2.058
 3756.00    1.04173   0.77104    1.961
 3757.00    1.05002   0.76039    1.840
 3758.00    0.85870   0.73228    1.913
 3759.00    0.64713   0.70483    2.102
 3760.00    0.64257   0.69278    2.135
 3761.00    0.74491   0.69820    2.042
 3762.00    0.74388   0.71318    2.034
 3763.00    0.64889   0.72771    2.162
 3764.00    0.55795   0.73564    2.363
 3765.00    0.48455   0.73534    2.434
 3766.00    0.38376   0.72634    2.306
 3767.00    0.20747   0.70947    2.243
 3768.00    0.03844   0.68888    2.324
 3769.00    0.11769   0.66962    2.267
 3770.00    0.48227   0.65663    2.029
 3771.00    0.84458   0.65562    1.912
 3772.00    1.00875   0.67018    1.969
 3773.00    1.02442   0.69702    2.024
 3774.00    1.00283   0.72751    2.003
 3775.00    1.02094   0.75436    2.013
 3776.00    1.06059   0.77616    2.075
 3777.00    1.05418   0.79623    2.101
 3778.00    1.04262   0.81749    2.059
 3779.00    1.12465   0.84028    2.003
 3780.00    1.27148   0.86270    1.975
 3781.00    1.36689   0.88135    1.994
 3782.00    1.34191   0.89359    2.058
 3783.00    1.19179   0.89820    2.146
 3784.00    0.96513   0.89369    2.212
 3785.00    0.73676   0.87782    2.237
 3786.00    0.57539   0.84999    2.286
 3787.00    0.51270   0.81569    2.398
 3788.00    0.52311   0.78426    2.453
 3789.00    0.57012   0.76224    2.386
 3790.00    0.64231   0.75099    2.354
 3791.00    0.74243   0.74634    2.430
 3792.00    0.86961   0.74097    2.478
 3793.00    0.97277   0.72783    2.443
 3794.00    0.96273   0.70391    2.472
 3795.00    0.86370   0.67098    2.595
 3796.00    0.82750   0.63398    2.636
 3797.00    0.95502   0.59958    2.497
 3798.00    1.21990   0.57680    2.274
 3799.00    1.44222   0.57613    2.075
 3800.00    1.42684   0.60272    1.947
 3801.00    1.28625   0.65148    1.896
 3802.00    1.27668   0.70941    1.911
 3803.00    1.35411   0.76276    1.966
 3804.00    1.30908   0.80169    2.025
 3805.00    1.10435   0.82212    2.067
 3806.00    0.81441   0.82740    2.094
 3807.00    0.48379   0.82656    2.128
 3808.00    0.16423   0.83040    2.197
 3809.00   -0.03249   0.84365    0.000
 3810.00    0.02084   0.86070    2.419
 3811.00    0.40405   0.87032    2.325
 3812.00    1.01022   0.86352    2.071
 3813.00    1.50707   0.83943    1.918
 3814.00    1.67780   0.80676    1.936
 3815.00    1.58791   0.77835    2.028
 3816.00    1.40423   0.76280    2.105
 3817.00    1.27022   0.76036    2.153
 3818.00    1.18879   0.76235    2.200
 3819.00    1.04486   0.75841    2.276
 3820.00    0.81753   0.74687    2.370
 3821.00    0.61113   0.73496    2.433
 3822.00    0.55177   0.72939    2.434
 3823.00    0.68836   0.72724    2.390
 3824.00    0.85287   0.71947    2.358
 3825.00    0.81693   0.70220    2.389
 3826.00    0.60772   0.68066    2.475
 3827.00    0.41372   0.66257    2.557
 3828.00    0.36647   0.65154    2.565
 3829.00    0.47441   0.64462    2.489
 3830.00    0.59789   0.63553    2.438
 3831.00    0.62144   0.61833    2.473
 3832.00    0.60518   0.59035    2.513
 3833.00    0.62800   0.55545    2.470
 3834.00    0.66291   0.52275    2.385
 3835.00    0.65911   0.50094    2.320
 3836.00    0.60928   0.49475    2.295
 3837.00    0.58618   0.50292    2.302
 3838.00    0.70605   0.52018    2.310
 3839.00    0.89656   0.54358    2.297
 3840.00    0.90108   0.57351    2.272
 3841.00    0.65605   0.61086    2.298
 3842.00    0.35889   0.65502    2.442
 3843.00    0.25690   0.70057    2.556
 3844.00    0.47334   0.74004    2.376
 3845.00    0.76452   0.76980    2.140
 3846.00    0.75883   0.78970    2.147
 3847.00    0.51930   0.80242    0.000
 3848.00    0.36460   0.80976    0.000
 3849.00    0.40817   0.81192    0.000
 3850.00    0.56745   0.81146    0.000
 3851.00    0.68450   0.81321    0.000
 3852.00    0.66151   0.81933    0.000
 3853.00    0.57849   0.82616    0.000
 3854.00    0.57611   0.82808    0.000
 3855.00    0.72972   0.82223    0.000
 3856.00    0.97086   0.80935    0.000
 3857.00    1.08744   0.79335    0.000
 3858.00    1.02804   0.77745    0.000
 3859.00    1.00541   0.76421    0.000
 3860.00    1.09704   0.75976    0.000
 3861.00    1.13677   0.76953    0.000
 3862.00    1.08962   0.79203    0.000
 3863.00    1.10600   0.81881    0.000
 3864.00    1.19236   0.83954    0.000
 3865.00    1.19361   0.84927    0.000
 3866.00    1.04272   0.85018    0.000
 3867.00    0.80722   0.84752    0.000
 3868.00    0.63561   0.84364    0.000
 3869.00    0.68407   0.83673    0.000
 3870.00    1.00706   0.82321    0.000
 3871.00    1.51224   0.80289    0.000
 3872.00    1.93743   0.78162    0.000
 3873.00    2.03772   0.76851    0.000
 3874.00    1.80709   0.76976    0.000
 3875.00    1.39348   0.78104    0.000
 3876.00    0.97782   0.79059    0.000
 3877.00    0.68311   0.78933    0.000
 3878.00    0.51680   0.77728    0.000
 3879.00    0.42884   0.76292    0.000
 3880.00    0.36417   0.75450    0.000
 3881.00    0.31778   0.75093    2.578
 3882.00    0.34377   0.74678    2.620
 3883.00    0.46600   0.73802    2.659
 3884.00    0.64266   0.72199    2.631
 3885.00    0.79004   0.69676    2.537
 3886.00    0.81964   0.66186    2.452
 3887.00    0.71764   0.62265    2.451
 3888.00    0.55257   0.58910    2.575
 3889.00    0.43235   0.57177    2.735
 3890.00    0.44307   0.57830    2.742
 3891.00    0.55302   0.60781    2.610
 3892.00    0.66068   0.65014    2.498
 3893.00    0.70554   0.69245    2.472
 3894.00    0.68684   0.72533    2.518
 3895.00    0.65725   0.74713    2.569
 3896.00    0.63760   0.76188    2.567
 3897.00    0.53944   0.77420    2.566
 3898.00    0.32494   0.78481    2.601
 3899.00    0.13760   0.79354    2.584
 3900.00    0.11977   0.80198    2.462
 3901.00    0.27182   0.81124    2.323
 3902.00    0.48919   0.81995    2.250
 3903.00    0.62406   0.82337    2.265
 3904.00    0.64650   0.82020    2.337
 3905.00    0.66804   0.81348    2.387
 3906.00    0.70777   0.80900    2.396
 3907.00    0.67213   0.81485    2.429
 3908.00    0.61516   0.83324    2.490
 3909.00    0.70689   0.85931    2.506
 3910.00    0.90681   0.88557    2.453
 3911.00    1.01153   0.90509    2.385
 3912.00    0.96420   0.91503    2.381
 3913.00    0.85753   0.91548    2.483
 3914.00    0.80486   0.90825    2.591
 3915.00    0.87118   0.89710    2.551
 3916.00    1.01088   0.88408    2.454
 3917.00    1.12844   0.86965    2.438
 3918.00    1.16554   0.85408    2.469
 3919.00    1.10700   0.83686    2.469
 3920.00    0.97613   0.81972    2.449
 3921.00    0.83383   0.80610    2.451
 3922.00    0.76241   0.79877    2.483
 3923.00    0.75519   0.79687    2.530
 3924.00    0.68009   0.79551    2.554
 3925.00    0.50391   0.78782    2.552
 3926.00    0.37056   0.76768    2.562
 3927.00    0.36355   0.73386    2.586
 3928.00    0.42276   0.68795    2.578
 3929.00    0.46262   0.63320    2.546
 3930.00    0.42912   0.57369    2.560
 3931.00    0.32767   0.51269    2.665
 3932.00    0.22464   0.45533    2.846
 3933.00    0.22723   0.40895    2.947
 3934.00    0.39506   0.38227    2.799
 3935.00    0.58069   0.38258    2.610
 3936.00    0.59634   0.41132    2.617
 3937.00    0.53507   0.46298    2.751
 3938.00    0.57301   0.52709    2.817
 3939.00    0.63726   0.59226    2.811
 3940.00    0.60463   0.64944    2.837
 3941.00    0.56378   0.69231    2.891
 3942.00    0.66006   0.71978    2.901
 3943.00    0.91879   0.73662    2.808
 3944.00    1.21274   0.74987    2.657
 3945.00    1.29405   0.76620    2.588
 3946.00    1.08323   0.78777    2.654
 3947.00    0.79303   0.80966    2.795
 3948.00    0.61725   0.82628    2.923
 3949.00    0.57726   0.83744    2.982
 3950.00    0.58875   0.84585    2.956
 3951.00    0.53939   0.85364    2.886
 3952.00    0.44065   0.86050    2.924
 3953.00    0.41573   0.86523    3.195
 3954.00    0.51779   0.86824    3.218
 3955.00    0.70419   0.86831    2.615
 3956.00    0.90010   0.86291    2.581
 3957.00    1.02831   0.85337    4.410
 3958.00    1.03684   0.84265    3.243
 3959.00    0.92237   0.82980    1.267
 3960.00    0.75411   0.80979    0.000
 3961.00    0.61713   0.77721   -2.000
 3962.00    0.53749   0.73271    0.000
 3963.00    0.50114   0.68285    0.000
 3964.00    0.48632   0.63154   -2.000
 3965.00    0.49176   0.57739   -2.000
 3966.00    0.54709   0.51789    0.000
 3967.00    0.63197   0.45466    0.000
 3968.00    0.65188   0.39660   -2.000
 3969.00    0.63564   0.35678   -2.000
 3970.00    0.77459   0.34581    0.000
 3971.00    1.05833   0.36670    0.000
 3972.00    1.21785   0.41415   -2.000
 3973.00    1.18569   0.47754   -2.000
 3974.00    1.14984   0.54600    0.000
 3975.00    1.14809   0.61255    0.000
 3976.00    1.05548   0.67357   -2.000
 3977.00    0.88971   0.72778   -2.000
 3978.00    0.77613   0.77590    0.000
 3979.00    0.70854   0.81750    0.000
 3980.00    0.63304   0.85026   -2.000
 3981.00    0.66847   0.87187   -2.000
 3982.00    0.89980   0.88242    0.000
 3983.00    1.05981   0.88694    0.000
 3984.00    0.89819   0.89216   -2.000
 3985.00    0.62727   0.90159    0.000
 3986.00    0.53773   0.91481    0.000
 3987.00    0.60631   0.92861   -2.000
 3988.00    0.71460   0.94101   -2.000
 3989.00    0.84299   0.95135    0.000
 3990.00    1.01665   0.95908    0.000
 3991.00    1.24822   0.96646   -2.000
 3992.00    1.46977   0.97451   -2.000
 3993.00    1.54094   0.98082    0.000
 3994.00    1.43288   0.98161    0.000
 3995.00    1.26514   0.97423   -2.000
 3996.00    1.14733   0.96112   -2.000
 3997.00    1.12815   0.94861    0.000
 3998.00    1.21854   0.94355    0.000
 3999.00    1.38457   0.95050   -2.000
 4000.00    1.51611   0.96819   -2.000
 4001.00    1.47568   0.98851    0.000
 4002.00    1.20774   1.00246    0.000
 4003.00    0.78212   1.00457   -2.000
 4004.00    0.41672   0.99338   -2.000
 4005.00    0.30299   0.97293    0.000
 4006.00    0.38981   0.95391   -2.000
 4007.00    0.56377   0.94799   -2.000
 4008.00    0.85397   0.95794    0.000
 4009.00    1.25970   0.97702    0.000
 4010.00    1.60371   0.99628    0.000
 4011.00    1.71552   1.01032    0.000
 4012.00    1.57123   1.01830    0.000
 4013.00    1.27187   1.02246    0.000
 4014.00    0.99719   1.02548    0.000
 4015.00    0.87344   1.02815    0.000
 4016.00    0.91342   1.03090    0.000
 4017.00    1.03918   1.03326    0.000
 4018.00    1.12912   1.03527   -2.000
 4019.00    1.13346   1.03885   -2.000
 4020.00    1.08780   1.04295    0.000
 4021.00    1.04690   1.04354    0.000
 4022.00    1.04576   1.03857   -2.000
 4023.00    1.05840   1.02943   -2.000
 4024.00    1.03677   1.01983    0.000
 4025.00    0.99341   1.01447    0.000
 4026.00    0.97476   1.01743   -2.000
 4027.00    1.00000   1.02662   -2.000
 4028.00    1.04616   1.03299    0.000
 4029.00    1.04847   1.02774   -2.000
 4030.00    0.98177   1.00706   -2.000
 4031.00    0.92730   0.97576    0.000
 4032.00    0.95658   0.94663    0.000
 4033.00    1.03797   0.93055   -2.000
 4034.00    1.08156   0.93230   -2.000
 4035.00    0.99745   0.95183    0.000
 4036.00    0.82154   0.98368    0.000
 4037.00    0.73263   1.01956   -2.000
 4038.00    0.82827   1.04974   -2.000
 4039.00    1.04187   1.06670    0.000
 4040.00    1.21933   1.06896    0.000
 4041.00    1.20503   1.05958   -2.000
 4042.00    1.00149   1.04294   -2.000
 4043.00    0.74823   1.02022    0.000
 4044.00    0.55442   0.99031    0.000
 4045.00    0.46138   0.95772   -2.000
 4046.00    0.45468   0.93448   -2.000
 4047.00    0.50853   0.93364    0.000
 4048.00    0.64824   0.95647    0.001
 4049.00    0.87381   0.98968   -2.000
 4050.00    1.05597   1.01917   -2.000
 4051.00    1.07823   1.03684    0.001
 4052.00    0.99562   1.03971   -2.000
 4053.00    0.91235   1.03079   -2.000
 4054.00    0.86116   1.01611    0.012
 4055.00    0.84914   1.00043    0.006
 4056.00    0.89253   0.98795   -2.000
 4057.00    0.97398   0.98102   -2.000
 4058.00    1.03260   0.97939    0.050
 4059.00    1.05192   0.98325    0.057
 4060.00    1.07354   0.98995   -2.000
 4061.00    1.07031   0.99198   -2.000
 4062.00    0.95322   0.98320    0.272
 4063.00    0.76684   0.96433    0.534
 4064.00    0.67135   0.94447   -2.000
 4065.00    0.71505   0.93595   -2.000
 4066.00    0.82323   0.94226    1.217
 4067.00    0.91666   0.95682    2.234
 4068.00    0.95830   0.97331    6.292
 4069.00    0.98426   0.98701    3.231
 4070.00    1.04424   0.99303    2.497
 4071.00    1.10862   0.98926    2.884
 4072.00    1.12220   0.97994    3.109
 4073.00    1.08258   0.97282    2.930
 4074.00    0.99113   0.96881    2.898
 4075.00    0.80644   0.96045    3.087
 4076.00    0.55500   0.94319    3.317
 4077.00    0.39780   0.92114    3.294
 4078.00    0.42273   0.90603    3.046
 4079.00    0.53437   0.90965    2.952
 4080.00    0.66179   0.93241    3.096
 4081.00    0.84335   0.96351    3.179
 4082.00    1.05658   0.98920    3.065
 4083.00    1.17802   1.00046    3.007
 4084.00    1.13621   0.99897    3.115
 4085.00    0.96795   0.99425    3.284
 4086.00    0.80385   0.99535    3.366
 4087.00    0.78547   1.00601    3.302
 4088.00    0.87950   1.02314    3.245
 4089.00    0.94557   1.03879    3.366
 4090.00    0.96584   1.04610    3.495
 4091.00    1.00420   1.04363    3.339
 4092.00    1.06071   1.03354    0.000
 4093.00    1.09830   1.01834    0.000
 4094.00    1.11070   0.99998    0.000
 4095.00    1.09544   0.97690    0.000
 4096.00    1.01860   0.94717    0.000
 4097.00    0.87027   0.91297    0.000
 4098.00    0.71249   0.87583    0.000
 4099.00    0.62021   0.83461    0.000
 4100.00    0.62949   0.78985    0.000
 4101.00    0.71896   0.74664    0.000
 4102.00    0.81284   0.71642    0.000
 4103.00    0.84550   0.71277    0.000
 4104.00    0.79707   0.73865    0.000
 4105.00    0.69908   0.78395    0.000
 4106.00    0.62162   0.83462    0.000
 4107.00    0.62416   0.87790    0.000
 4108.00    0.72918   0.90692    0.000
 4109.00    0.89924   0.92272    0.000
 4110.00    1.05810   0.93043    0.000
 4111.00    1.15292   0.93656    0.000
 4112.00    1.17144   0.94625    0.000
 4113.00    1.14509   0.96083    3.738
 4114.00    1.12654   0.97843    3.728
 4115.00    1.15280   0.99464    3.733
 4116.00    1.21284   1.00477    3.687
 4117.00    1.22256   1.00654    3.669
 4118.00    1.12213   0.99972    3.761
 4119.00    0.97055   0.98740    3.901
 4120.00    0.85678   0.97669    3.972
 4121.00    0.81616   0.97229    3.936
 4122.00    0.83485   0.97335    3.863
 4123.00    0.86837   0.97842    3.876
 4124.00    0.90355   0.98625    3.937
 4125.00    0.97304   0.99398    3.819
 4126.00    1.05818   0.99760    3.608
 4127.00    1.07671   0.99447    3.639
 4128.00    1.01415   0.98546    3.859
 4129.00    0.93803   0.97351    3.793
 4130.00    0.88080   0.96115    3.496
 4131.00    0.82845   0.94906    3.413
 4132.00    0.78874   0.93757    3.535
 4133.00    0.79568   0.93035    3.590
 4134.00    0.88049   0.93305    3.585
 4135.00    1.05181   0.94728    3.697
 4136.00    1.27312   0.97067    3.788
 4137.00    1.45827   0.99682    3.643
 4138.00    1.48053   1.01854    3.493
 4139.00    1.30131   1.03265    3.566
 4140.00    1.09657   1.03525    3.721
 4141.00    1.03799   1.02301    3.717
 4142.00    1.08668   0.99782    3.581
 4143.00    1.12786   0.96648    3.484
 4144.00    1.09694   0.94159    3.554
 4145.00    1.01186   0.93525    3.746
 4146.00    0.96228   0.94743    3.766
 4147.00    0.97205   0.96696    3.561
 4148.00    0.96432   0.98315    3.463
 4149.00    0.92644   0.99051    3.573
 4150.00    0.93259   0.98910    3.713
 4151.00    0.96821   0.98382    3.728
 4152.00    0.93531   0.97821    3.635
 4153.00    0.84721   0.97204    3.550
 4154.00    0.82895   0.96522    3.561
 4155.00    0.98143   0.95941    3.579
 4156.00    1.29832   0.95776    3.453
 4157.00    1.58203   0.96210    3.260
 4158.00    1.63184   0.97245    3.146
 4159.00    1.54815   0.98707    3.122
 4160.00    1.51660   1.00203    3.142
 4161.00    1.48304   1.01426    3.192
 4162.00    1.33171   1.02326   -2.000
 4163.00    1.10813   1.02988   -2.000
 4164.00    0.92122   1.03269   -2.000
 4165.00    0.83879   1.03024   -2.000
 4166.00    0.89763   1.02426   -2.000
 4167.00    1.10056   1.01608   -2.000
 4168.00    1.32185   1.00702   -2.000
 4169.00    1.32673   0.99880   -2.000
 4170.00    1.13128   0.98870   -2.000
 4171.00    1.04138   0.97167   -2.000
 4172.00    1.11727   0.94773   -2.000
 4173.00    1.11708   0.92356   -2.000
 4174.00    1.00763   0.90830   -2.000
 4175.00    0.98277   0.90585   -2.000
 4176.00    1.06911   0.91254   -2.000
 4177.00    1.13350   0.92242   -2.000
 4178.00    1.12782   0.93168    3.063
 4179.00    1.09886   0.94052    3.070
 4180.00    1.10744   0.95034    3.269
 4181.00    1.17302   0.95931    3.638
 4182.00    1.22195   0.96477    3.394
 4183.00    1.18087   0.96792    2.773
 4184.00    1.08758   0.97083    3.444
 4185.00    0.99812   0.97270    8.537
 4186.00    0.89388   0.97232    2.884
 4187.00    0.77122   0.96844    1.305
 4188.00    0.70623   0.96325   -2.000
 4189.00    0.75663   0.96345   -2.000
 4190.00    0.90141   0.97088    0.676
 4191.00    1.08714   0.98170    0.262
 4192.00    1.25405   0.99319   -2.000
 4193.00    1.32967   1.00365   -2.000
 4194.00    1.25167   1.00839    0.067
 4195.00    1.05846   1.00148    0.043
 4196.00    0.87683   0.98299   -2.000
 4197.00    0.78934   0.95931   -2.000
 4198.00    0.80235   0.93643    0.007
 4199.00    0.86869   0.91841    0.008
 4200.00    0.92234   0.90961   -2.000
 4201.00    0.93365   0.90964   -2.000
 4202.00    0.89574   0.91343    0.001
 4203.00    0.78909   0.92035    0.003
 4204.00    0.64672   0.93191   -2.000
 4205.00    0.63153   0.94609    0.031
 4206.00    0.83429   0.96187    0.000
 4207.00    1.07086   0.97883   -2.000
 4208.00    1.16057   0.99379   -2.000
 4209.00    1.17076   1.00428    0.000
 4210.00    1.21972   1.00986    0.000
 4211.00    1.31677   1.01201   -2.000
 4212.00    1.37661   1.01217   -2.000
 4213.00    1.27507   1.00837    0.000
 4214.00    1.04582   0.99853    0.000
 4215.00    0.89921   0.98450   -2.000
 4216.00    0.90673   0.97213   -2.000
 4217.00    0.94735   0.97021    0.000
 4218.00    0.96376   0.98207    0.000
 4219.00    1.00372   1.00038   -2.000
 4220.00    1.09358   1.01601   -2.000
 4221.00    1.20307   1.02261    0.000
 4222.00    1.24994   1.01457    0.000
 4223.00    1.16568   0.98874   -2.000
 4224.00    1.00616   0.94795   -2.000
 4225.00    0.87462   0.89982    0.000
 4226.00    0.78218   0.85532    0.000
 4227.00    0.69685   0.82850   -2.000
 4228.00    0.62776   0.83194    0.000
 4229.00    0.61995   0.86551    0.000
 4230.00    0.72938   0.91199   -2.000
 4231.00    0.93913   0.95238   -2.000
 4232.00    1.11115   0.97626    0.000
 4233.00    1.12218   0.98022    0.000
 4234.00    0.95388   0.97055   -2.000
 4235.00    0.65990   0.95827   -2.000
 4236.00    0.34179   0.94782    0.000
 4237.00    0.13788   0.94121    0.000
 4238.00    0.17919   0.94185    0.000
 4239.00    0.44941   0.94846    0.000
 4240.00    0.78773   0.95869    0.000
 4241.00    1.05537   0.97290    0.000
 4242.00    1.18618   0.98923    0.000
 4243.00    1.18010   1.00306    0.000
 4244.00    1.08671   1.01239    0.000
 4245.00    0.97525   1.01605    0.000
 4246.00    0.90496   1.01011   -2.000
 4247.00    0.88719   0.99416   -2.000
 4248.00    0.89020   0.97386    0.000
 4249.00    0.85875   0.95611    0.000
 4250.00    0.77301   0.94423   -2.000
 4251.00    0.70286   0.93878    0.000
 4252.00    0.72151   0.94077    0.000
 4253.00    0.82394   0.94736   -2.000
 4254.00    0.95696   0.95254   -2.000
 4255.00    1.05704   0.95584    0.000
 4256.00    1.10977   0.96070    0.000
 4257.00    1.16227   0.96628   -2.000
 4258.00    1.20439   0.96671   -2.000
 4259.00    1.14758   0.95838    0.000
 4260.00    0.99238   0.94603    0.000
 4261.00    0.85255   0.93877   -2.000
 4262.00    0.79467   0.94485   -2.000
 4263.00    0.80172   0.96583    0.000
 4264.00    0.83023   0.99319    0.000
 4265.00    0.84381   1.01617   -2.000
 4266.00    0.84914   1.02849   -2.000
 4267.00    0.87370   1.02681    0.000
 4268.00    0.91088   1.01046    0.000
 4269.00    0.93618   0.98353   -2.000
 4270.00    0.94622   0.95102   -2.000
 4271.00    0.94060   0.91638    0.000
 4272.00    0.89490   0.88579   -2.000
 4273.00    0.79481   0.86870   -2.000
 4274.00    0.67231   0.86870    0.000
 4275.00    0.58369   0.88188    0.000
 4276.00    0.58214   0.90559   -2.000
 4277.00    0.67735   0.93570   -2.000
 4278.00    0.81459   0.96270    0.001
 4279.00    0.91038   0.97888    0.001
 4280.00    0.89424   0.98202   -2.000
 4281.00    0.80019   0.97575   -2.000
 4282.00    0.76385   0.96731    0.005
 4283.00    0.85198   0.96035    0.010
 4284.00    1.01320   0.95496   -2.000
 4285.00    1.13535   0.94913   -2.000
 4286.00    1.11603   0.93904    0.036
 4287.00    0.98751   0.92422    0.120
 4288.00    0.87049   0.90623   -2.000
 4289.00    0.81385   0.88644   -2.000
 4290.00    0.79742   0.86955    0.256
 4291.00    0.79599   0.86385    1.643
 4292.00    0.79835   0.87322   -2.000
 4293.00    0.81614   0.89142    4.943
 4294.00    0.85455   0.90715    1.497
 4295.00    0.88014   0.91240    5.337
 4296.00    0.84955   0.90599   14.163
 4297.00    0.74467   0.88838    4.044
 4298.00    0.60917   0.86083    3.775
 4299.00    0.55438   0.82775    5.100
 4300.00    0.62734   0.79540    5.024
 4301.00    0.74841   0.77234    4.347
 4302.00    0.83336   0.76286    4.319
 4303.00    0.85858   0.76317    4.485
 4304.00    0.85081   0.76884    4.463
 4305.00    0.85854   0.77538    4.397
 4306.00    0.87525   0.77664    4.414
 4307.00    0.85309   0.77133    4.471
 4308.00    0.81625   0.76308    4.480
 4309.00    0.83165   0.75828    4.395
 4310.00    0.86767   0.76424    4.300
 4311.00    0.83285   0.78234    4.303
 4312.00    0.71176   0.80846    4.372
 4313.00    0.55865   0.83866    4.412
 4314.00    0.44368   0.87167    4.432
 4315.00    0.40792   0.90841    4.462
 4316.00    0.42326   0.95027    4.413
 4317.00    0.46780   0.99329    4.240
 4318.00    0.59815   1.02689    4.079
 4319.00    0.83090   1.04422    4.020
 4320.00    1.05140   1.04504    3.996
 4321.00    1.15093   1.03096    3.963
 4322.00    1.12393   1.00475    3.990
 4323.00    1.02571   0.97050    4.094
 4324.00    0.93006   0.93156    4.164
 4325.00    0.86579   0.89571    4.157
 4326.00    0.81083   0.87469    4.167
 4327.00    0.78486   0.87753    4.250
 4328.00    0.84585   0.90319    4.374
 4329.00    0.96279   0.93830    4.443
 4330.00    1.03462   0.96782    0.000
 4331.00    1.04521   0.98528    0.000
 4332.00    1.05027   0.99306    0.000
 4333.00    1.06226   0.99468    0.000
 4334.00    1.05434   0.98945    0.000
 4335.00    1.01250   0.97488    0.000
 4336.00    0.95988   0.94705    0.000
 4337.00    0.97147   0.90151    0.000
 4338.00    1.08323   0.84123    0.000
 4339.00    1.19406   0.77993    0.000
 4340.00    1.18695   0.73198    0.000
 4341.00    1.05373   0.70772    0.000
 4342.00    0.86152   0.71503    0.000
 4343.00    0.70672   0.75014    0.000
 4344.00    0.64872   0.79758    0.000
 4345.00    0.67479   0.84564    0.000
 4346.00    0.73756   0.88969    0.000
 4347.00    0.78694   0.92503    0.000
 4348.00    0.81309   0.94880    0.000
 4349.00    0.84378   0.96127    0.000
 4350.00    0.86934   0.96138    0.000
 4351.00    0.84626   0.94814    4.648
 4352.00    0.78635   0.92821    4.691
 4353.00    0.74878   0.91617    4.700
 4354.00    0.75791   0.92122    4.709
 4355.00    0.80101   0.93891    4.723
 4356.00    0.86319   0.96044    4.722
 4357.00    0.92714   0.98018    4.692
 4358.00    0.96309   0.99353    4.694
 4359.00    0.95199   0.99897    4.774
 4360.00    0.91606   1.00196    4.853
 4361.00    0.89608   1.00987    4.838
 4362.00    0.92084   1.02349    4.778
 4363.00    0.99208   1.03800    4.744
 4364.00    1.07815   1.04934    4.720
 4365.00    1.14620   1.05563    4.664
 4366.00    1.18503   1.05427    4.570
 4367.00    1.19668   1.04345    4.512
 4368.00    1.19109   1.02693    4.626
 4369.00    1.19004   1.01220    4.879
 4370.00    1.21345   1.00295    4.988
 4371.00    1.21887   0.99681    4.877
 4372.00    1.11885   0.99050    4.808
 4373.00    0.91570   0.98145    4.892
 4374.00    0.70946   0.96861    5.032
 4375.00    0.59730   0.95627    5.082
 4376.00    0.62459   0.95326    4.966
 4377.00    0.74301   0.96425    4.820
 4378.00    0.85971   0.98382    4.805
 4379.00    0.93933   1.00007    4.837
 4380.00    0.98370   1.00294    4.780
 4381.00    0.97686   0.98855    4.768
 4382.00    0.91035   0.95822    4.950
 4383.00    0.82136   0.91679    5.156
 4384.00    0.76992   0.87603    5.141
 4385.00    0.80723   0.85329    4.990
 4386.00    0.93818   0.85732    4.863
 4387.00    1.09897   0.88067    4.769
 4388.00    1.19946   0.90855    4.706
 4389.00    1.16744   0.93160    4.735
 4390.00    1.02500   0.94755    4.863
 4391.00    0.89430   0.95727    4.998
 4392.00    0.83940   0.96403    5.061
 4393.00    0.82061   0.97038    5.056
 4394.00    0.79597   0.97519    5.047
 4395.00    0.76128   0.97799    5.103
 4396.00    0.75013   0.98263    5.207
 4397.00    0.80404   0.99161    5.265
 4398.00    0.90268   1.00008    5.242
 4399.00    0.98273   1.00131    5.164
 4400.00    1.01051   0.99439    5.049
 4401.00    0.99264   0.98324    4.929
 4402.00    0.96689   0.97352    4.898
 4403.00    0.96855   0.96656    5.010
 4404.00    0.98962   0.95692    5.134
 4405.00    1.00750   0.94342    5.120
 4406.00    1.02277   0.93460    5.040
 4407.00    1.05736   0.93642    5.000
 4408.00    1.14355   0.94544    4.961
 4409.00    1.27840   0.95940    4.903
 4410.00    1.39926   0.97990    4.910
 4411.00    1.44219   1.00327    4.985
 4412.00    1.37847   1.02080    4.981
 4413.00    1.20833   1.02670    4.907
 4414.00    0.96141   1.01916    4.981
 4415.00    0.71486   1.00040    5.232
 4416.00    0.57279   0.98095    5.405
 4417.00    0.57423   0.97343    5.373
 4418.00    0.67915   0.98043    5.280
 4419.00    0.81823   0.99675    5.225
 4420.00    0.93089   1.01499    5.215
 4421.00    1.01549   1.02679    5.250
 4422.00    1.10012   1.02803    5.306
 4423.00    1.16972   1.02218    5.260
 4424.00    1.18604   1.01619    5.062
 4425.00    1.13858   1.01348    4.928
 4426.00    1.05332   1.01257    5.033
 4427.00    0.98940   1.01192    5.232
 4428.00    0.98769   1.01158    5.284
 4429.00    1.02366   1.01165    5.199
 4430.00    1.05185   1.01034    5.140
 4431.00    1.04844   1.00632    5.243
 4432.00    1.01803   1.00134    5.493
 4433.00    0.98863   0.99515    5.643
 4434.00    0.96871   0.98590    5.527
 4435.00    0.93506   0.97672    5.308
 4436.00    0.88982   0.97512    5.199
 4437.00    0.87304   0.98645    5.316
 4438.00    0.90781   1.00748    5.534
 4439.00    0.98396   1.02769    5.518
 4440.00    1.07476   1.03727    5.317
 4441.00    1.15102   1.03192    5.275
 4442.00    1.20152   1.01534    5.397
 4443.00    1.22303   0.99726    5.452
 4444.00    1.19064   0.98813    5.430
 4445.00    1.08744   0.99335    5.471
 4446.00    0.96192   1.00972    5.545
 4447.00    0.88802   1.02744    5.543
 4448.00    0.89682   1.03925    5.491
 4449.00    0.97891   1.04458    5.435
 4450.00    1.09847   1.04389    5.292
 4451.00    1.20198   1.03732    5.089
 4452.00    1.23230   1.02713    5.069
 4453.00    1.18691   1.01395    5.299
 4454.00    1.14430   0.99608    5.432
 4455.00    1.14732   0.97488    5.248
 4456.00    1.14498   0.95634    5.050
 4457.00    1.08519   0.94603    5.027
 4458.00    0.96649   0.94273    5.101
 4459.00    0.83983   0.94189    5.180
 4460.00    0.77916   0.94174    5.253
 4461.00    0.78356   0.94306    0.000
 4462.00    0.78549   0.94676    0.000
 4463.00    0.76935   0.95520    0.000
 4464.00    0.77475   0.96920    0.000
 4465.00    0.82432   0.98333    0.000
 4466.00    0.90675   0.99211    0.000
 4467.00    0.97926   0.99469    0.000
 4468.00    0.99842   0.99249    0.000
 4469.00    0.96598   0.98825    0.000
 4470.00    0.91773   0.98651    0.000
 4471.00    0.89788   0.99212    0.000
 4472.00    0.93052   1.00603    0.000
 4473.00    0.99511   1.02554    0.000
 4474.00    1.04636   1.04660    0.000
 4475.00    1.04007   1.06463    0.000
 4476.00    0.98001   1.07633    0.000
 4477.00    0.93429   1.08123    0.000
 4478.00    0.94375   1.07901    0.000
 4479.00    0.97911   1.06749    0.000
 4480.00    0.99815   1.04697    0.000
 4481.00    0.98080   1.02362    0.000
 4482.00    0.95121   1.00718    5.305
 4483.00    0.96059   1.00519    5.384
 4484.00    1.00939   1.01832    5.367
 4485.00    1.05765   1.03888    5.318
 4486.00    1.11517   1.05646    5.295
 4487.00    1.22194   1.06413    5.312
 4488.00    1.35791   1.05983    5.379
 4489.00    1.45960   1.04686    5.481
 4490.00    1.48271   1.03276    5.539
 4491.00    1.41615   1.02470    5.498
 4492.00    1.28539   1.02408    5.467
 4493.00    1.14264   1.02640    5.558
 4494.00    1.05112   1.02627    5.710
 4495.00    1.04471   1.02274    5.794
 4496.00    1.09406   1.02044    5.773
 4497.00    1.13411   1.02370    5.714
 4498.00    1.09851   1.03288    5.730
 4499.00    0.98458   1.04517    5.829
 4500.00    0.87547   1.05648    5.853
 4501.00    0.83854   1.06495    5.742
 4502.00    0.87631   1.07268    5.629
 4503.00    0.95730   1.08404    5.595
 4504.00    1.03756   1.09912    5.611
 4505.00    1.08327   1.11219    5.639
 4506.00    1.08090   1.11860    5.671
 4507.00    1.04213   1.11807    5.744
 4508.00    1.00199   1.11335    5.880
 4509.00    1.00986   1.10814    5.938
 4510.00    1.09784   1.10464    5.759
 4511.00    1.22660   1.10195    5.542
 4512.00    1.32351   1.09711    5.529
 4513.00    1.35919   1.08856    5.623
 4514.00    1.34627   1.07779    5.599
 4515.00    1.31889   1.06740    5.455
 4516.00    1.29986   1.05965    5.335
 4517.00    1.27164   1.05560    5.370
 4518.00    1.21159   1.05419    5.576
 4519.00    1.12432   1.05451    5.765
 4520.00    1.03064   1.05644    5.755
 4521.00    0.95381   1.05793    5.620
 4522.00    0.89801   1.05564    5.540
 4523.00    0.84410   1.04727    5.651
 4524.00    0.79044   1.03416    5.908
 4525.00    0.76448   1.01902    6.046
 4526.00    0.78802   1.00200    5.963
 4527.00    0.85934   0.98375    5.849
 4528.00    0.94354   0.96706    5.788
 4529.00    0.99133   0.95518    5.718
 4530.00    0.99525   0.95024    5.628
 4531.00    0.98794   0.95167    5.576
 4532.00    1.00460   0.95604    5.632
 4533.00    1.06473   0.95983    5.802
 4534.00    1.15545   0.96136    5.887
 4535.00    1.23861   0.96377    5.698
 4536.00    1.26721   0.97314    5.463
 4537.00    1.21264   0.99199    5.444
 4538.00    1.09262   1.01577    5.626
 4539.00    0.95370   1.03523    5.868
 4540.00    0.84720   1.04461    6.021
 4541.00    0.79995   1.04516    6.000
 4542.00    0.79719   1.04177    5.844
 4543.00    0.81719   1.03873    5.686
 4544.00    0.85213   1.03630    5.669
 4545.00    0.88930   1.03229    5.776
 4546.00    0.90828   1.02645    5.806
 4547.00    0.91701   1.02004    5.697
 4548.00    0.95137   1.01292    5.620
 4549.00    1.01435   1.00463    5.687
 4550.00    1.06891   0.99678    0.000
 4551.00    1.08462   0.99273    0.000
 4552.00    1.05767   0.99266    0.000
 4553.00    1.02251   0.99255    0.000
 4554.00    1.01889   0.99103    0.000
 4555.00    1.02420   0.99100    0.000
 4556.00    0.99448   0.99670    0.000
 4557.00    0.95021   1.01028    0.000
 4558.00    0.93166   1.02935    0.000
 4559.00    0.92457   1.04802    0.000
 4560.00    0.90812   1.06140    0.000
 4561.00    0.91261   1.06756    0.000
 4562.00    0.95941   1.06638    0.000
 4563.00    1.00875   1.05889    0.000
 4564.00    1.02129   1.04780    0.000
 4565.00    1.00364   1.03856   -2.000
 4566.00    0.98254   1.03655   -2.000
 4567.00    0.98238   1.04283    0.000
 4568.00    1.00324   1.05342    0.000
 4569.00    1.02049   1.06179   -2.000
 4570.00    1.02639   1.06373   -2.000
 4571.00    1.03820   1.05954    0.000
 4572.00    1.06705   1.05297    0.000
 4573.00    1.11056   1.05018   -2.000
 4574.00    1.16215   1.05415   -2.000
 4575.00    1.21104   1.06073    0.000
 4576.00    1.23674   1.06447    0.000
 4577.00    1.22596   1.06330   -2.000
 4578.00    1.20325   1.05676   -2.000
 4579.00    1.19490   1.04513    0.000
 4580.00    1.17039   1.03025    0.000
 4581.00    1.09039   1.01583   -2.000
 4582.00    0.97417   1.00564    0.000
 4583.00    0.87326   1.00104    0.000
 4584.00    0.83267   1.00082   -2.000
 4585.00    0.85647   1.00391   -2.000
 4586.00    0.89303   1.01020    0.000
 4587.00    0.91285   1.01909    0.000
 4588.00    0.95036   1.02936   -2.000
 4589.00    1.03038   1.03838   -2.000
 4590.00    1.12925   1.04286    0.000
 4591.00    1.19658   1.04121    0.000
 4592.00    1.18128   1.03470   -2.000
 4593.00    1.08542   1.02680   -2.000
 4594.00    0.96761   1.02112    0.000
 4595.00    0.89083   1.01897    0.000
 4596.00    0.89089   1.01953   -2.000
 4597.00    0.94165   1.02180   -2.000
 4598.00    0.98231   1.02456    0.000
 4599.00    0.98978   1.02642    0.000
 4600.00    0.97685   1.02665   -2.000
 4601.00    0.96325   1.02518   -2.000
 4602.00    0.96144   1.02378    0.000
 4603.00    0.96541   1.02443    0.000
 4604.00    0.96730   1.02719   -2.000
 4605.00    0.97638   1.03173    0.000
 4606.00    1.00314   1.03822    0.000
 4607.00    1.04235   1.04734   -2.000
 4608.00    1.07221   1.05889   -2.000
 4609.00    1.06291   1.07075    0.000
 4610.00    1.02753   1.07940    0.000
 4611.00    1.03276   1.08216   -2.000
 4612.00    1.09047   1.07948   -2.000
 4613.00    1.12382   1.07448    0.000
 4614.00    1.06471   1.06999    0.000
 4615.00    0.90535   1.06750    0.000
 4616.00    0.72469   1.06657    0.000
 4617.00    0.64367   1.06553    0.000
 4618.00    0.68034   1.06417    0.000
 4619.00    0.76396   1.06303    0.000
 4620.00    0.86075   1.06281    0.000
 4621.00    0.97028   1.06507    0.000
 4622.00    1.06453   1.06981    0.000
 4623.00    1.11181   1.07431    0.000
 4624.00    1.12849   1.07644    0.000
 4625.00    1.14368   1.07572    0.000
 4626.00    1.14768   1.07246    0.000
 4627.00    1.12548   1.06799    0.000
 4628.00    1.09581   1.06379   -2.000
 4629.00    1.08900   1.06027   -2.000
 4630.00    1.12240   1.05759    0.000
 4631.00    1.18500   1.05658    0.000
 4632.00    1.23575   1.05665   -2.000
 4633.00    1.24957   1.05493   -2.000
 4634.00    1.23930   1.04992    0.000
 4635.00    1.23078   1.04322    0.000
 4636.00    1.24199   1.03665   -2.000
 4637.00    1.25251   1.03068   -2.000
 4638.00    1.21259   1.02553    0.000
 4639.00    1.10758   1.02230    0.000
 4640.00    0.97341   1.02238   -2.000
 4641.00    0.88107   1.02577   -2.000
 4642.00    0.89134   1.03077    0.000
 4643.00    0.97315   1.03383    0.000
 4644.00    1.04909   1.03130   -2.000
 4645.00    1.10138   1.02238   -2.000
 4646.00    1.14906   1.00921    0.000
 4647.00    1.19051   0.99580    0.000
 4648.00    1.20950   0.98734   -2.000
 4649.00    1.19261   0.98737    0.000
 4650.00    1.14172   0.99514    0.000
 4651.00    1.08139   1.00654   -2.000
 4652.00    1.03627   1.01657   -2.000
 4653.00    1.01328   1.02197    0.000
 4654.00    1.00559   1.02222    0.000
 4655.00    1.00050   1.01901   -2.000
 4656.00    1.00250   1.01669   -2.000
 4657.00    1.03237   1.02010    0.000
 4658.00    1.07188   1.03088    0.000
 4659.00    1.06342   1.04646   -2.000
 4660.00    0.99296   1.06093   -2.000
 4661.00    0.90554   1.06818    0.000
 4662.00    0.86189   1.06542    0.000
 4663.00    0.90460   1.05387   -2.000
 4664.00    1.01174   1.03673   -2.000
 4665.00    1.11812   1.01680    0.000
 4666.00    1.17725   0.99562    0.000
 4667.00    1.17773   0.97473   -2.000
 4668.00    1.14712   0.95826   -2.000
 4669.00    1.11548   0.95208    0.000
 4670.00    1.07096   0.95858   -2.000
 4671.00    1.00011   0.97407   -2.000
 4672.00    0.93286   0.99224    0.000
 4673.00    0.90459   1.00792    0.000
 4674.00    0.91985   1.01914    0.000
 4675.00    0.96234   1.02677    0.000
 4676.00    1.00732   1.03203   -2.000
 4677.00    1.03986   1.03451   -2.000
 4678.00    1.06094   1.03256    0.000
 4679.00    1.06617   1.02562    0.000
 4680.00    1.04516   1.01608   -2.000
 4681.00    1.02041   1.00790   -2.000
 4682.00    1.03953   1.00394    0.000
 4683.00    1.10148   1.00504    0.000
 4684.00    1.15671   1.01010   -2.000
 4685.00    1.17196   1.01630   -2.000
 4686.00    1.14520   1.02083    0.000
 4687.00    1.09872   1.02288    0.000
 4688.00    1.06034   1.02308   -2.000
 4689.00    1.03441   1.02235   -2.000
 4690.00    1.01314   1.02159    0.000
 4691.00    1.00017   1.02141    0.000
 4692.00    1.00585   1.02258   -2.000
 4693.00    1.03717   1.02620    0.000
 4694.00    1.09130   1.03211    0.000
 4695.00    1.15137   1.03817   -2.000
 4696.00    1.19547   1.04160   -2.000
 4697.00    1.20627   1.04010    0.000
 4698.00    1.18464   1.03269    0.000
 4699.00    1.14797   1.02075   -2.000
 4700.00    1.07491   1.00791   -2.000
 4701.00    0.90228   0.99751    0.000
 4702.00    0.64410   0.99024    0.000
 4703.00    0.41721   0.98548   -2.000
 4704.00    0.33841   0.98335   -2.000
 4705.00    0.45952   0.98405    0.000
 4706.00    0.69590   0.98602    0.000
 4707.00    0.88130   0.98655   -2.000
 4708.00    0.94737   0.98505   -2.000
 4709.00    0.93269   0.98407    0.000
 4710.00    0.91021   0.98652    0.000
 4711.00    0.93525   0.99306   -2.000
 4712.00    0.98897   1.00153   -2.000
 4713.00    1.02246   1.00833    0.000
 4714.00    1.02628   1.01155   -2.000
 4715.00    1.01800   1.01296   -2.000
 4716.00    1.01713   1.01635    0.000
 4717.00    1.02977   1.02409    0.000
 4718.00    1.04033   1.03493   -2.000
 4719.00    1.03597   1.04556   -2.000
 4720.00    1.02231   1.05373    0.000
 4721.00    1.00373   1.05870    0.000
 4722.00    0.97364   1.06059    0.000
 4723.00    0.93001   1.06019    0.000
 4724.00    0.88246   1.05843    0.000
 4725.00    0.84823   1.05500    0.000
 4726.00    0.84650   1.04794    0.000
 4727.00    0.88583   1.03564    0.000
 4728.00    0.95655   1.01921    0.000
 4729.00    1.02280   1.00300    0.000
 4730.00    1.04387   0.99196    0.000
 4731.00    1.02449   0.98814    0.000
 4732.00    0.99886   0.99040    0.000
 4733.00    0.98175   0.99652    0.000
 4734.00    0.96835   1.00399    0.000
 4735.00    0.94801   1.01034    0.000
 4736.00    0.91404   1.01449   -2.000
 4737.00    0.87258   1.01667    0.000
 4738.00    0.83669   1.01816    0.000
 4739.00    0.81853   1.02074   -2.000
 4740.00    0.82247   1.02418   -2.000
 4741.00    0.84179   1.02682    0.000
 4742.00    0.87121   1.02863    0.000
 4743.00    0.91290   1.03091   -2.000
 4744.00    0.96121   1.03418   -2.000
 4745.00    1.00001   1.03779    0.000
 4746.00    1.03027   1.04106    0.000
 4747.00    1.06968   1.04412   -2.000
 4748.00    1.10454   1.04691   -2.000
 4749.00    1.09380   1.04850    0.000
 4750.00    1.03567   1.04819    0.000
 4751.00    0.97078   1.04587   -2.000
 4752.00    0.93812   1.04129   -2.000
 4753.00    0.95887   1.03450    0.000
 4754.00    1.02723   1.02669    0.000
 4755.00    1.11324   1.01969   -2.000
 4756.00    1.17192   1.01492   -2.000
 4757.00    1.16710   1.01288    0.000
 4758.00    1.10136   1.01297    0.000
 4759.00    1.01247   1.01364   -2.000
 4760.00    0.95943   1.01261    0.000
 4761.00    0.96665   1.00780    0.000
 4762.00    0.98336   0.99828   -2.000
 4763.00    0.96075   0.98536   -2.000
 4764.00    0.90689   0.97269    0.000
 4765.00    0.84326   0.96402    0.000
 4766.00    0.77855   0.96105   -2.000
 4767.00    0.72777   0.96388   -2.000
 4768.00    0.71815   0.97173    0.001
 4769.00    0.77015   0.98236    0.001
 4770.00    0.88350   0.99265   -2.000
 4771.00    1.01947   1.00038   -2.000
 4772.00    1.11396   1.00519    0.005
 4773.00    1.12996   1.00879    0.014
 4774.00    1.07165   1.01364   -2.000
 4775.00    0.98077   1.02030   -2.000
 4776.00    0.91004   1.02683    0.035
 4777.00    0.87683   1.03084    0.235
 4778.00    0.87216   1.03162   -2.000
 4779.00    0.88767   1.02956   -2.000
 4780.00    0.91964   1.02497    0.268
 4781.00    0.96761   1.01869   15.198
 4782.00    1.02230   1.01204   -2.000
 4783.00    1.05617   1.00562    3.352
 4784.00    1.04943   0.99941    1.753
 4785.00    1.01118   0.99395   13.184
 4786.00    0.96577   0.98981   20.373
 4787.00    0.93765   0.98653    5.281
 4788.00    0.92695   0.98421    5.190
 4789.00    0.90603   0.98435    7.439
 4790.00    0.86666   0.98750    7.110
 4791.00    0.83460   0.99359    6.225
 4792.00    0.83871   1.00293    6.433
 4793.00    0.89254   1.01461    6.682
 4794.00    0.97728   1.02651    6.480
 4795.00    1.05197   1.03621    6.405
 4796.00    1.09231   1.04103    6.509
 4797.00    1.09693   1.03942    6.424
 4798.00    1.07854   1.03252    6.313
 4799.00    1.05886   1.02364    6.534
 4800.00    1.06214   1.01655    6.843
 4801.00    1.09733   1.01378    6.719
 4802.00    1.13698   1.01522    6.346
 4803.00    1.14415   1.01810    6.136
 4804.00    1.10675   1.01895    6.148
 4805.00    1.03706   1.01588    6.297
 4806.00    0.96613   1.00982    6.484
 4807.00    0.93086   1.00356    6.581
 4808.00    0.95797   0.99953    6.476
 4809.00    1.02353   0.99821    6.273
 4810.00    1.04675   0.99931    6.254
 4811.00    0.98956   1.00223    6.429
 4812.00    0.89240   1.00589    6.451
 4813.00    0.79871   1.00970    6.275
 4814.00    0.72776   1.01386    6.256
 4815.00    0.69839   1.01858    6.440
 4816.00    0.72964   1.02379    6.507
 4817.00    0.81765   1.02901    6.286
 4818.00    0.93365   1.03342    5.920
 4819.00    1.03572   1.03584    5.656
 4820.00    1.08721   1.03496    5.651
 4821.00    1.08530   1.02993    5.869
 4822.00    1.05109   1.02082    6.151
 4823.00    1.00521   1.00940    6.345
 4824.00    0.96327   0.99856    6.388
 4825.00    0.93560   0.99142    6.367
 4826.00    0.93576   0.99006    6.349
 4827.00    0.98552   0.99298    6.221
 4828.00    1.07748   0.99603    5.967
 4829.00    1.15168   0.99654    5.815
 4830.00    1.16724   0.99455    5.882
 4831.00    1.14733   0.99167    6.042
 4832.00    1.13046   0.98940    6.130
 4833.00    1.13519   0.98851    6.098
 4834.00    1.13986   0.98966    6.041
 4835.00    1.09363   0.99263    6.115
 4836.00    0.99346   0.99527    6.255
 4837.00    0.89217   0.99535    6.201
 4838.00    0.82643   0.99243    6.040
 4839.00    0.80615   0.98732    6.086
 4840.00    0.84868   0.98112    6.225
 4841.00    0.96476   0.97557    6.081
 4842.00    1.11070   0.97257    5.822
 4843.00    1.21474   0.97265    5.822
 4844.00    1.24060   0.97463    6.029
 4845.00    1.19013   0.97711    6.168
 4846.00    1.08999   0.97911    6.168
 4847.00    0.98120   0.97908    6.147
 4848.00    0.90714   0.97589    0.000
 4849.00    0.89318   0.97046    0.000
 4850.00    0.92833   0.96487    0.000
 4851.00    0.96521   0.96043    0.000
 4852.00    0.93411   0.95572    0.000
 4853.00    0.82583   0.94767    0.000
 4854.00    0.72746   0.93487    0.000
 4855.00    0.72119   0.91785    0.000
 4856.00    0.83178   0.89749    0.000
 4857.00    1.04621   0.87469    0.000
 4858.00    1.32433   0.84936    0.000
 4859.00    1.60177   0.81956    0.000
 4860.00    1.80493   0.78518    0.000
 4861.00    1.89060   0.75219    0.000
 4862.00    1.85409   0.73053    0.000
 4863.00    1.71940   0.72873    0.000
 4864.00    1.52221   0.74874    0.000
 4865.00    1.28281   0.78291    0.000
 4866.00    1.02438   0.81977    0.000
 4867.00    0.80816   0.85190    0.000
 4868.00    0.69498   0.87549    0.000
 4869.00    0.68799   0.88894    0.000
 4870.00    0.74060   0.89330    0.000
 4871.00    0.77952   0.89181    0.000
 4872.00    0.76671   0.88852    0.000
 4873.00    0.74402   0.88804    0.000
 4874.00    0.76571   0.89397    0.000
 4875.00    0.84660   0.90557    7.147
 4876.00    0.96814   0.91898    7.255
 4877.00    1.08931   0.93172    7.171
 4878.00    1.17193   0.94338    6.840
 4879.00    1.19363   0.95340    6.579
 4880.00    1.14889   0.96067    6.578
 4881.00    1.05296   0.96449    6.830
 4882.00    0.95305   0.96377    7.098
 4883.00    0.90896   0.95882    7.021
 4884.00    0.93336   0.95219    6.757
 4885.00    0.99288   0.94552    6.720
 4886.00    1.04715   0.93885    6.849
 4887.00    1.06521   0.93261    6.810
 4888.00    1.03894   0.92744    6.607
 4889.00    0.98477   0.92335    6.463
 4890.00    0.94074   0.92041    6.477
 4891.00    0.93938   0.92030    6.603
 4892.00    0.97700   0.92611    6.647
 4893.00    1.02946   0.94037    6.505
 4894.00    1.07306   0.96285    6.379
 4895.00    1.09754   0.98814    6.389
 4896.00    1.11175   1.00930    6.356
 4897.00    1.12043   1.02231    6.190
 4898.00    1.11195   1.02611    6.080
 4899.00    1.08051   1.02226    6.155
 4900.00    1.03757   1.01378    6.362
 4901.00    1.00515   1.00389    6.552
 4902.00    1.00340   0.99586    6.557
 4903.00    1.01839   0.99181    6.415
 4904.00    1.00977   0.99137    6.327
 4905.00    0.96831   0.99346    6.321
 4906.00    0.92057   0.99700    6.291
 4907.00    0.89623   0.99942    6.258
 4908.00    0.91504   0.99747    6.313
 4909.00    0.97778   0.99011    6.391
 4910.00    1.06466   0.98000    6.349
 4911.00    1.13674   0.97154    6.183
 4912.00    1.15138   0.96840    6.022
 4913.00    1.08469   0.97190    6.022
 4914.00    0.95580   0.97963    6.238
 4915.00    0.84352   0.98651    6.468
 4916.00    0.81589   0.98769    6.479
 4917.00    0.86742   0.97999    6.332
 4918.00    0.94902   0.96270    6.198
 4919.00    1.00205   0.93884    6.170
 4920.00    1.00336   0.91492    6.231
 4921.00    0.98238   0.89814    6.279
 4922.00    0.97143   0.89282    6.299
 4923.00    0.97955   0.89881    6.402
 4924.00    0.99372   0.91249    6.553
 4925.00    0.99043   0.92941    6.554
 4926.00    0.97054   0.94733    6.463
 4927.00    0.95961   0.96595    6.538
 4928.00    0.97619   0.98404    6.704
 4929.00    1.02164   0.99863    6.637
 4930.00    1.07872   1.00730    6.401
 4931.00    1.12510   1.00887    6.286
 4932.00    1.15772   1.00314    6.321
 4933.00    1.18142   0.99184    6.401
 4934.00    1.18609   0.97806    6.542
 4935.00    1.16159   0.96486    6.766
 4936.00    1.11940   0.95469    6.907
 4937.00    1.08097   0.94793    6.833
 4938.00    1.06243   0.94309    6.721
 4939.00    1.06936   0.94041    6.752
 4940.00    1.09348   0.94262    0.000
 4941.00    1.11300   0.95186    0.000
 4942.00    1.09845   0.96692    0.000
 4943.00    1.04340   0.98325    0.000
 4944.00    0.97467   0.99627    0.000
 4945.00    0.91899   1.00459    0.000
 4946.00    0.88579   1.00912    0.000
 4947.00    0.86418   1.01157    0.000
 4948.00    0.83349   1.01399    0.000
 4949.00    0.79762   1.01743    0.000
 4950.00    0.78224   1.02084    0.000
 4951.00    0.80079   1.02230    0.000
 4952.00    0.84863   1.02039    0.000
 4953.00    0.90957   1.01412    0.000
 4954.00    0.96073   1.00266    0.000
 4955.00    0.97947   0.98607    0.000
 4956.00    0.96575   0.96609    0.000
 4957.00    0.96758   0.94625    0.000
 4958.00    1.02988   0.93139    0.000
 4959.00    1.13516   0.92608    0.000
 4960.00    1.23308   0.93253    0.000
 4961.00    1.27781   0.94736    0.000
 4962.00    1.25437   0.96265    0.000
 4963.00    1.19016   0.97210    0.000
 4964.00    1.11232   0.97410    0.000
 4965.00    1.02434   0.97016    0.000
 4966.00    0.92963   0.96281    0.000
 4967.00    0.84400   0.95495    0.000
 4968.00    0.79198   0.94946    0.000
 4969.00    0.79805   0.94802    0.000
 4970.00    0.86347   0.95057    0.000
 4971.00    0.95950   0.95632    0.000
 4972.00    1.03251   0.96408    0.000
 4973.00    1.02973   0.97240    0.000
 4974.00    0.95344   0.97958    0.000
 4975.00    0.85302   0.98382    0.000
 4976.00    0.78468   0.98390    0.000
 4977.00    0.78282   0.97918    0.000
 4978.00    0.82992   0.96973    0.000
 4979.00    0.88268   0.95627    0.000
 4980.00    0.91161   0.93970    0.000
 4981.00    0.90531   0.92138    0.000
 4982.00    0.86910   0.90343    0.000
 4983.00    0.81777   0.88860    0.000
 4984.00    0.76857   0.88025    0.000
 4985.00    0.73604   0.88116    0.000
 4986.00    0.72877   0.89115    0.000
 4987.00    0.75052   0.90654    0.000
 4988.00    0.79985   0.92228    0.000
 4989.00    0.86463   0.93439    0.000
 4990.00    0.92194   0.94105    0.000
 4991.00    0.94782   0.94302    0.000
 4992.00    0.92572   0.94286    0.000
 4993.00    0.86027   0.94296    0.000
 4994.00    0.78056   0.94444    0.000
 4995.00    0.73626   0.94671    0.000
 4996.00    0.77020   0.94834    0.000
 4997.00    0.86446   0.94802    0.000
 4998.00    0.95629   0.94439    0.000
 4999.00    0.98749   0.93682    0.000
 5000.00    0.94135   0.92649    0.000
 5001.00    0.87807   0.91563    0.000
 5002.00    0.87497   0.90634    0.000
 5003.00    0.95177   0.89953    0.000
 5004.00    1.08257   0.89457    0.000
 5005.00    1.21832   0.89055    0.000
 5006.00    1.31084   0.88767    0.000
 5007.00    1.33230   0.88726    0.000
 5008.00    1.28726   0.89040    0.000
 5009.00    1.21281   0.89634    0.000
 5010.00    1.14186   0.90160    0.000
 5011.00    1.08504   0.90185    0.000
 5012.00    1.03925   0.89529    0.000
 5013.00    0.99647   0.88404    0.000
 5014.00    0.95953   0.87231    0.000
 5015.00    0.94042   0.86401    0.000
 5016.00    0.93931   0.86098    0.000
 5017.00    0.94423   0.86267    0.000
 5018.00    0.94533   0.86721    0.000
 5019.00    0.93990   0.87272    0.000
 5020.00    0.93509   0.87843    0.000
 5021.00    0.94222   0.88455    0.000
 5022.00    0.96684   0.89102    0.000
 5023.00    1.00438   0.89722    0.000
 5024.00    1.03753   0.90276    0.000
 5025.00    1.04841   0.90771    0.000
 5026.00    1.03192   0.91191    0.000
 5027.00    0.99531   0.91496    0.000
 5028.00    0.95517   0.91746    0.000
 5029.00    0.92706   0.92101    6.583
 5030.00    0.91706   0.92689    6.521
 5031.00    0.91638   0.93495    6.421
 5032.00    0.90402   0.94303    6.505
 5033.00    0.87381   0.94804    6.776
 5034.00    0.84208   0.94784    6.924
 5035.00    0.82447   0.94160    6.810
 5036.00    0.82424   0.92987    6.657
 5037.00    0.82651   0.91437    6.674
 5038.00    0.81153   0.89735    6.923
 5039.00    0.79330   0.88084    7.158
 5040.00    0.80374   0.86648    7.001
 5041.00    0.83703   0.85659    6.652
 5042.00    0.86376   0.85484    6.543
 5043.00    0.87774   0.86397    6.724
 5044.00    0.89679   0.88284    6.946
 5045.00    0.94880   0.90623    6.793
 5046.00    1.03467   0.92641    6.235
 5047.00    1.09271   0.93751    5.894
 5048.00    1.06774   0.93816    6.106
 5049.00    0.97987   0.93072    6.615
 5050.00    0.88989   0.91983    6.938
 5051.00    0.85794   0.91085    6.900
 5052.00    0.89093   0.90774    6.723
 5053.00    0.92672   0.91149    6.753
 5054.00    0.93157   0.92040    7.042
 5055.00    0.94118   0.93181    7.238
 5056.00    0.99813   0.94314    7.145
 5057.00    1.11452   0.95248    6.987
 5058.00    1.24576   0.95923    6.886
 5059.00    1.31361   0.96377    6.786
 5060.00    1.30028   0.96645    6.744
 5061.00    1.24998   0.96681    6.881
 5062.00    1.20239   0.96371    7.108
 5063.00    1.17073   0.95638    7.188
 5064.00    1.13352   0.94519    7.116
 5065.00    1.05985   0.93199    7.067
 5066.00    0.95274   0.91978    7.124
 5067.00    0.84748   0.91129    7.242
 5068.00    0.79630   0.90783    7.250
 5069.00    0.82268   0.90851    7.078
 5070.00    0.87931   0.91069    6.958
 5071.00    0.90964   0.91253    7.040
 5072.00    0.90506   0.91359    7.138
 5073.00    0.88180   0.91385    7.089
 5074.00    0.85759   0.91324    7.030
 5075.00    0.83745   0.91200    7.119
 5076.00    0.81258   0.90988    7.365
 5077.00    0.79410   0.90528    7.573
 5078.00    0.81514   0.89690    7.414
 5079.00    0.87038   0.88556    7.042
 5080.00    0.91089   0.87372    6.929
 5081.00    0.91126   0.86445    7.049
 5082.00    0.88203   0.86064    7.002
 5083.00    0.83946   0.86383    6.824
 5084.00    0.79464   0.87282    6.868
 5085.00    0.74923   0.88448    7.101
 5086.00    0.70639   0.89615    7.215
 5087.00    0.69113   0.90652    7.148
 5088.00    0.72945   0.91498    7.029
 5089.00    0.81278   0.92143    6.857
 5090.00    0.91073   0.92660    6.616
 5091.00    0.99419   0.93138    6.435
 5092.00    1.04509   0.93588    6.399
 5093.00    1.06213   0.93912    6.433
 5094.00    1.04927   0.93964    6.480
 5095.00    1.00718   0.93606    6.622
 5096.00    0.94451   0.92763    6.836
 5097.00    0.88327   0.91520    6.858
 5098.00    0.84322   0.90149    6.674
 5099.00    0.83305   0.89021    6.646
 5100.00    0.85273   0.88436    6.785
 5101.00    0.89471   0.88488    6.672
 5102.00    0.94415   0.89026    6.341
 5103.00    0.98197   0.89722    6.241
 5104.00    0.99396   0.90209    6.403
 5105.00    0.97880   0.90258    6.512
 5106.00    0.95995   0.89884    6.499
 5107.00    0.96873   0.89269    6.537
 5108.00    1.00460   0.88644    6.599
 5109.00    1.03844   0.88211    6.556
 5110.00    1.03385   0.88111    6.474
 5111.00    0.98054   0.88414    6.493
 5112.00    0.93019   0.89074    6.594
 5113.00    0.93294   0.89957    6.639
 5114.00    0.96547   0.90930    6.469
 5115.00    0.98638   0.91867    6.140
 5116.00    0.99227   0.92663    5.963
 5117.00    0.99330   0.93255    6.055
 5118.00    0.99168   0.93571    6.166
 5119.00    0.98823   0.93512    6.112
 5120.00    0.98637   0.93000    6.037
 5121.00    0.98628   0.92022    6.031
 5122.00    0.98152   0.90678    6.012
 5123.00    0.95862   0.89176    5.985
 5124.00    0.90305   0.87768    6.077
 5125.00    0.81950   0.86666    6.253
 5126.00    0.73289   0.85975    6.321
 5127.00    0.67110   0.85685    6.315
 5128.00    0.65524   0.85710    6.434
 5129.00    0.68935   0.85939    6.588
 5130.00    0.75594   0.86318    6.531
 5131.00    0.81389   0.86847    6.407
 5132.00    0.82707   0.87516    6.487
 5133.00    0.80705   0.88251    6.687
 5134.00    0.79095   0.88922    6.763
 5135.00    0.80433   0.89367    6.694
 5136.00    0.85036   0.89453    6.570
 5137.00    0.90540   0.89142    6.399
 5138.00    0.93933   0.88511    6.241
 5139.00    0.93416   0.87726    6.273
 5140.00    0.88972   0.86990    6.485
 5141.00    0.82457   0.86460    6.510
 5142.00    0.76354   0.86169    6.251
 5143.00    0.72818   0.86064    6.106
 5144.00    0.72631   0.86073    6.225
 5145.00    0.74729   0.86114    6.376
 5146.00    0.76248   0.86158    6.377
 5147.00    0.74058   0.86209    6.273
 5148.00    0.69299   0.86240    6.181
 5149.00    0.66423   0.86222    6.188
 5150.00    0.67082   0.86150    6.272
 5151.00    0.69811   0.86015    6.336
 5152.00    0.72766   0.85837    6.310
 5153.00    0.74100   0.85724    6.209
 5154.00    0.71724   0.85848    6.144
 5155.00    0.65754   0.86368    6.220
 5156.00    0.61596   0.87311    6.416
 5157.00    0.64688   0.88529    6.615
 5158.00    0.74175   0.89772    6.669
 5159.00    0.85790   0.90776    6.538
 5160.00    0.95479   0.91335    6.376
 5161.00    1.00856   0.91334    6.325
 5162.00    1.02088   0.90722    6.398
 5163.00    1.01675   0.89457    6.567
 5164.00    1.03388   0.87493    6.788
 5165.00    1.07715   0.84823    6.938
 5166.00    1.10829   0.81618    6.847
 5167.00    1.10595   0.78294    6.626
 5168.00    1.08204   0.75378    6.585
 5169.00    1.04464   0.73286    6.719
 5170.00    0.99082   0.72138    6.757
 5171.00    0.92532   0.71764    6.754
 5172.00    0.86484   0.71948    7.000
 5173.00    0.83437   0.72663    7.326
 5174.00    0.84780   0.74060    7.259
 5175.00    0.87492   0.76225    6.998
 5176.00    0.87399   0.78951    7.011
 5177.00    0.85121   0.81725    7.229
 5178.00    0.83555   0.83889    7.328
 5179.00    0.83447   0.84926    7.231
 5180.00    0.83819   0.84650    7.081
 5181.00    0.83186   0.83182    7.036
 5182.00    0.80864   0.80894    7.113
 5183.00    0.77867   0.78420    7.100
 5184.00    0.75721   0.76567    6.912
 5185.00    0.75523   0.76012    6.788
 5186.00    0.77918   0.76959    6.881
 5187.00    0.82929   0.79036    7.094
 5188.00    0.89071   0.81502    7.183
 5189.00    0.93531   0.83576    6.926
 5190.00    0.94528   0.84758    0.000
 5191.00    0.92225   0.85001    0.000
 5192.00    0.88520   0.84606    0.000
 5193.00    0.85946   0.84017    0.000
 5194.00    0.85061   0.83624    0.000
 5195.00    0.84781   0.83647    0.000
 5196.00    0.84572   0.84139    0.000
 5197.00    0.84554   0.85005    0.000
 5198.00    0.84792   0.86041    0.000
 5199.00    0.84756   0.87025    0.000
 5200.00    0.82869   0.87773    0.000
 5201.00    0.78219   0.88107    0.000
 5202.00    0.72479   0.87882    0.000
 5203.00    0.67760   0.87050    0.000
 5204.00    0.64476   0.85690    0.000
 5205.00    0.62913   0.84016    0.000
 5206.00    0.64366   0.82340    0.000
 5207.00    0.69073   0.80997    0.000
 5208.00    0.75094   0.80256    0.000
 5209.00    0.79967   0.80280    0.000
 5210.00    0.82024   0.81098    0.000
 5211.00    0.81869   0.82570    6.799
 5212.00    0.81893   0.84390    6.922
 5213.00    0.82288   0.86168    6.695
 5214.00    0.81089   0.87545    6.453
 5215.00    0.78609   0.88338    6.467
 5216.00    0.77801   0.88637    6.813
 5217.00    0.81811   0.88743    7.246
 5218.00    0.91707   0.88973   -2.000
 5219.00    1.03406   0.89472   -2.000
 5220.00    1.10104   0.90139   -2.000
 5221.00    1.07237   0.90682   -2.000
 5222.00    0.93952   0.90757   -2.000
 5223.00    0.73849   0.90121   -2.000
 5224.00    0.53332   0.88746   -2.000
 5225.00    0.39378   0.86866   -2.000
 5226.00    0.36309   0.84945   -2.000
 5227.00    0.43234   0.83536   -2.000
 5228.00    0.55228   0.83061   -2.000
 5229.00    0.65395   0.83595   -2.000
 5230.00    0.71005   0.84820   -2.000
 5231.00    0.75620   0.86185   -2.000
 5232.00    0.81214   0.87215    7.253
 5233.00    0.85379   0.87737    7.235
 5234.00    0.86434   0.87909    7.103
 5235.00    0.85268   0.88078    7.062
 5236.00    0.84090   0.88530    7.149
 5237.00    0.85083   0.89317    7.220
 5238.00    0.88047   0.90282    7.176
 5239.00    0.91091   0.91196    7.036
 5240.00    0.93527   0.91882    6.903
 5241.00    0.95636   0.92290    6.873
 5242.00    0.97059   0.92467    6.933
 5243.00    0.97172   0.92469    6.988
 5244.00    0.96063   0.92304    6.919
 5245.00    0.94482   0.91920    6.694
 5246.00    0.93509   0.91265    6.456
 5247.00    0.93703   0.90356    6.363
 5248.00    0.94406   0.89321    6.489
 5249.00    0.94861   0.88356    6.745
 5250.00    0.95042   0.87631    6.794
 5251.00    0.94595   0.87239    6.569
 5252.00    0.92441   0.87187    6.500
 5253.00    0.88890   0.87419    6.758
 5254.00    0.86250   0.87860    7.023
 5255.00    0.86111   0.88475    7.045
 5256.00    0.88316   0.89252    6.947
 5257.00    0.91970   0.90130    6.815
 5258.00    0.96069   0.90924    6.623
 5259.00    1.00189   0.91335    6.521
 5260.00    1.04224   0.91057    6.715
 5261.00    1.07266   0.89920    7.037
 5262.00    1.07753   0.87990    7.065
 5263.00    1.04390   0.85564    6.919
 5264.00    0.97454   0.83072    6.993
 5265.00    0.90419   0.80920    7.248
 5266.00    0.86678   0.79348    7.408
 5267.00    0.84951   0.78377    7.434
 5268.00    0.82339   0.77870    7.458
 5269.00    0.78400   0.77692    7.570
 5270.00    0.74675   0.77837    7.756
 5271.00    0.73534   0.78417    7.883
 5272.00    0.75751   0.79509    7.828
 5273.00    0.79175   0.81015    7.628
 5274.00    0.81703   0.82695    7.445
 5275.00    0.83242   0.84337    7.453
 5276.00    0.85747   0.85867    7.595
 5277.00    0.92039   0.87290    7.560
 5278.00    1.01103   0.88558    7.344
 5279.00    1.07706   0.89517    7.283
 5280.00    1.07842   0.89980    7.434
 5281.00    1.01082   0.89886    7.568
 5282.00    0.91546   0.89401    7.608
 5283.00    0.85429   0.88881    7.637
 5284.00    0.84937   0.88712    7.545
 5285.00    0.88487   0.89130    7.235
 5286.00    0.93808   0.90117    7.053
 5287.00    0.99623   0.91422    7.221
 5288.00    1.07039   0.92711    7.119
 5289.00    1.15661   0.93718    6.551
 5290.00    1.18858   0.94335    6.883
 5291.00    1.08193   0.94571    8.364
 5292.00    0.79452   0.94467    6.151
 5293.00    0.40276   0.94040    3.306
 5294.00    0.13071   0.93277    2.435
 5295.00    0.12717   0.92170    2.365
 5296.00    0.32931   0.90782    2.212
 5297.00    0.59574   0.89294    1.938
 5298.00    0.80308   0.87990    2.239
 5299.00    0.90890   0.87155    4.222
 5300.00    0.95718   0.86957    9.403
 5301.00    0.99303   0.87379    7.836
 5302.00    1.03332   0.88259    6.003
 5303.00    1.08161   0.89388    6.266
 5304.00    1.13268   0.90575    6.645
 5305.00    1.17113   0.91651    6.377
 5306.00    1.18010   0.92499    6.271
 5307.00    1.15902   0.93073    6.470
 5308.00    1.11301   0.93419    6.606
 5309.00    1.03004   0.93631    6.672
 5310.00    0.90769   0.93775    6.911
 5311.00    0.79315   0.93848    7.343
 5312.00    0.74868   0.93795    7.763
 5313.00    0.80292   0.93563    7.879
 5314.00    0.92664   0.93146    7.608
 5315.00    1.02526   0.92600    7.259
 5316.00    1.02411   0.92023    7.119
 5317.00    0.93125   0.91524    7.266
 5318.00    0.80458   0.91183    7.601
 5319.00    0.71773   0.91003    7.815
 5320.00    0.70913   0.90898    7.697
 5321.00    0.76404   0.90724    7.378
 5322.00    0.85038   0.90337    7.072
 5323.00    0.93661   0.89647    6.907
 5324.00    0.99675   0.88635    6.883
 5325.00    1.01733   0.87332   -2.000
 5326.00    1.01155   0.85816   -2.000
 5327.00    1.00607   0.84243   -2.000
 5328.00    1.00139   0.82892   -2.000
 5329.00    0.96972   0.82124   -2.000
 5330.00    0.87014   0.82223   -2.000
 5331.00    0.66775   0.83216   -2.000
 5332.00    0.35393   0.84829   -2.000
 5333.00   -0.12968   0.86623   -2.000
 5334.00   -0.95954   0.88198   -2.000
 5335.00   -2.03567   0.89324   -2.000
 5336.00   -2.64033   0.89928   -2.000
 5337.00   -2.24192   0.90033   -2.000
 5338.00   -1.15570   0.89711   -2.000
 5339.00    0.00848   0.89098   -2.000
 5340.00    0.81068   0.88400   -2.000
 5341.00    1.13039   0.87861   -2.000
 5342.00    1.17065   0.87663   -2.000
 5343.00    1.13204   0.87842   -2.000
 5344.00    1.07632   0.88260   -2.000
 5345.00    1.02630   0.88695   -2.000
 5346.00    1.00192   0.88963   -2.000
 5347.00    0.99999   0.89018   -2.000
 5348.00    0.99791   0.88951    0.007
 5349.00    0.98135   0.88933    0.007
 5350.00    0.95262   0.89129   -2.000
 5351.00    0.93150   0.89628   -2.000
 5352.00    0.94240   0.90415    0.001
 5353.00    0.99126   0.91390    0.002
 5354.00    1.05905   0.92417   -2.000
 5355.00    1.10065   0.93375   -2.000
 5356.00    1.07883   0.94176    0.000
 5357.00    1.00323   0.94752   -2.000
 5358.00    0.91704   0.95048   -2.000
 5359.00    0.87473   0.95019    0.000
 5360.00    0.90097   0.94650    0.000
 5361.00    0.96520   0.93968   -2.000
 5362.00    1.02321   0.93054   -2.000
 5363.00    1.04670   0.92033    0.000
 5364.00    1.02581   0.91035    0.000
 5365.00    0.96972   0.90148   -2.000
 5366.00    0.90653   0.89385   -2.000
 5367.00    0.87441   0.88681    0.000
 5368.00    0.89115   0.87941    0.000
 5369.00    0.94282   0.87119   -2.000
 5370.00    0.98473   0.86302   -2.000
 5371.00    0.96826   0.85720    0.000
 5372.00    0.90158   0.85652    0.000
 5373.00    0.83364   0.86262   -2.000
 5374.00    0.79369   0.87470   -2.000
 5375.00    0.78347   0.88971    0.000
 5376.00    0.78544   0.90383    0.000
 5377.00    0.78068   0.91414   -2.000
 5378.00    0.77028   0.91953    0.000
 5379.00    0.76911   0.92045    0.000
 5380.00    0.79407   0.91816   -2.000
 5381.00    0.84523   0.91418   -2.000
 5382.00    0.89404   0.90995    0.000
 5383.00    0.91583   0.90672    0.000
 5384.00    0.91281   0.90525   -2.000
 5385.00    0.90347   0.90554   -2.000
 5386.00    0.90938   0.90670    0.000
 5387.00    0.92755   0.90733    0.000
 5388.00    0.92695   0.90612    0.000
 5389.00    0.88871   0.90250    0.000
 5390.00    0.82052   0.89676    0.000
 5391.00    0.74796   0.88986    0.000
 5392.00    0.70050   0.88277    0.000
 5393.00    0.68343   0.87606    0.000
 5394.00    0.68102   0.86973    0.000
 5395.00    0.68064   0.86366    0.000
 5396.00    0.68269   0.85809   -2.000
 5397.00    0.70700   0.85394   -2.000
 5398.00    0.76703   0.85242    0.000
 5399.00    0.83252   0.85410    0.000
 5400.00    0.86151   0.85810   -2.000
 5401.00    0.84526   0.86214    0.000
 5402.00    0.80458   0.86348    0.000
 5403.00    0.77746   0.86031   -2.000
 5404.00    0.78879   0.85273   -2.000
 5405.00    0.82867   0.84288    0.000
 5406.00    0.86937   0.83385    0.000
 5407.00    0.88324   0.82830   -2.000
 5408.00    0.87126   0.82727   -2.000
 5409.00    0.86562   0.83026    0.000
 5410.00    0.87210   0.83619    0.000
 5411.00    0.85828   0.84418   -2.000
 5412.00    0.80806   0.85366   -2.000
 5413.00    0.73589   0.86402    0.000
 5414.00    0.66611   0.87434    0.000
 5415.00    0.62120   0.88366   -2.000
 5416.00    0.60977   0.89135   -2.000
 5417.00    0.62800   0.89709    0.000
 5418.00    0.66865   0.90075    0.000
 5419.00    0.72201   0.90224   -2.000
 5420.00    0.77454   0.90171   -2.000
 5421.00    0.80910   0.89960    0.000
 5422.00    0.80705   0.89659    0.002
 5423.00    0.76653   0.89346   -2.000
 5424.00    0.71976   0.89088    0.000
 5425.00    0.70533   0.88924    0.000
 5426.00    0.73985   0.88827   -2.000
 5427.00    0.81020   0.88695   -2.000
 5428.00    0.87513   0.88392    0.001
 5429.00    0.90163   0.87851    0.001
 5430.00    0.88608   0.87131   -2.000
 5431.00    0.84524   0.86387   -2.000
 5432.00    0.80495   0.85764    0.006
 5433.00    0.77565   0.85337    0.009
 5434.00    0.74824   0.85138   -2.000
 5435.00    0.71442   0.85214   -2.000
 5436.00    0.67535   0.85645    0.037
 5437.00    0.64516   0.86480    0.106
 5438.00    0.64265   0.87664   -2.000
 5439.00    0.67077   0.89020   -2.000
 5440.00    0.71096   0.90298    0.260
 5441.00    0.72334   0.91252    1.462
 5442.00    0.68024   0.91697   -2.000
 5443.00    0.61364   0.91532   -1.000
 5444.00    0.57808   0.90764    1.606
 5445.00    0.59581   0.89534    6.697
 5446.00    0.66012   0.88127   -1.000
 5447.00    0.74684   0.86911    5.755
 5448.00    0.82753   0.86201    4.861
 5449.00    0.88139   0.86110    7.092
 5450.00    0.90709   0.86487    7.495
 5451.00    0.92547   0.86994    6.391
 5452.00    0.95060   0.87279    6.296
 5453.00    0.97543   0.87143    6.587
 5454.00    0.98354   0.86618    6.648
 5455.00    0.96186   0.85944    6.692
 5456.00    0.92567   0.85445    6.833
 5457.00    0.91066   0.85360    6.834
 5458.00    0.92036   0.85710    6.700
 5459.00    0.92747   0.86300    6.679
 5460.00    0.91917   0.86828    6.769
 5461.00    0.90019   0.87068    6.812
 5462.00    0.87492   0.86984    6.888
 5463.00    0.84715   0.86721    7.155
 5464.00    0.82606   0.86495    7.371
 5465.00    0.82265   0.86468    7.192
 5466.00    0.84336   0.86671    6.869
 5467.00    0.88809   0.87014    6.742
 5468.00    0.94865   0.87354    6.764
 5469.00    1.00621   0.87561    6.788
 5470.00    1.03200   0.87559    6.810
 5471.00    1.01118   0.87329    6.872
 5472.00    0.95825   0.86883    6.969
 5473.00    0.89696   0.86251    7.055
 5474.00    0.84443   0.85478    7.075
 5475.00    0.80062   0.84643    7.076
 5476.00    0.75005   0.83876    7.201
 5477.00    0.69073   0.83333    7.436
 5478.00    0.64124   0.83131    7.558
 5479.00    0.62142   0.83284    7.515
 5480.00    0.64282   0.83692    7.486
 5481.00    0.70235   0.84217    7.533
 5482.00    0.78522   0.84770    7.575
 5483.00    0.87609   0.85333    7.531
 5484.00    0.95956   0.85905    7.394
 5485.00    1.01647   0.86441    7.292
 5486.00    1.02803   0.86853    7.340
 5487.00    0.98399   0.87075    7.459
 5488.00    0.89141   0.87122    7.516
 5489.00    0.78235   0.87086    7.546
 5490.00    0.69295   0.87069    7.619
 5491.00    0.64051   0.87122    7.659
 5492.00    0.62554   0.87228    7.592
 5493.00    0.63779   0.87327    7.478
 5494.00    0.67352   0.87364    7.372
 5495.00    0.74276   0.87315    7.239
 5496.00    0.84205   0.87194    7.037
 5497.00    0.94187   0.87037    6.777
 5498.00    1.00608   0.86880    6.576
 5499.00    1.00773   0.86736    6.591
 5500.00    0.95140   0.86585    6.786
 5501.00    0.87494   0.86393    6.934
 5502.00    0.82689   0.86147    6.948
 5503.00    0.84463   0.85868    6.947
 5504.00    0.91878   0.85595    6.984
 5505.00    1.00068   0.85359    7.022
 5506.00    1.03919   0.85185    7.050
 5507.00    1.00890   0.85089    7.082
 5508.00    0.94266   0.85068    7.110
 5509.00    0.89484   0.85078    7.133
 5510.00    0.88213   0.85041    7.193
 5511.00    0.89607   0.84892    7.296
 5512.00    0.92737   0.84636    7.304
 5513.00    0.96353   0.84376    7.151
 5514.00    0.98513   0.84266    7.015
 5515.00    0.97591   0.84434    6.967
 5516.00    0.93132   0.84922    6.799
 5517.00    0.85904   0.85666    6.500
 5518.00    0.77751   0.86528    6.373
 5519.00    0.70757   0.87348    6.495
 5520.00    0.66783   0.87996    6.607
 5521.00    0.67408   0.88394    6.609
 5522.00    0.73000   0.88517    6.706
 5523.00    0.79622   0.88374    6.973
 5524.00    0.81090   0.87981    7.258
 5525.00    0.77903   0.87366    7.406
 5526.00    0.76050   0.86594    7.376
 5527.00    0.77939   0.85793    7.243
 5528.00    0.81836   0.85139    7.130
 5529.00    0.85210   0.84797    7.116
 5530.00    0.86704   0.84831    7.188
 5531.00    0.88004   0.85160    7.192
 5532.00    0.91265   0.85605    7.008
 5533.00    0.95453   0.85981    6.782
 5534.00    0.97639   0.86198    6.672
 5535.00    0.95094   0.86284    6.632
 5536.00    0.87195   0.86348    6.541
 5537.00    0.76625   0.86494    6.320
 5538.00    0.67000   0.86766    6.038
 5539.00    0.60817   0.87133    5.874
 5540.00    0.58152   0.87509    5.906
 5541.00    0.56650   0.87794    6.060
 5542.00    0.54990   0.87916    6.260
 5543.00    0.54235   0.87868    6.480
 5544.00    0.56287   0.87713    6.669
 5545.00    0.62547   0.87560    6.736
 5546.00    0.71814   0.87517    6.681
 5547.00    0.80830   0.87642    6.615
 5548.00    0.87519   0.87919    6.672
 5549.00    0.91579   0.88264    6.924
 5550.00    0.93758   0.88561    7.181
 5551.00    0.94713   0.88705    7.152
 5552.00    0.93389   0.88643    6.992
 5553.00    0.88612   0.88396    7.032
 5554.00    0.81791   0.88042    7.301
 5555.00    0.76436   0.87683    7.608
 5556.00    0.76779   0.87403    7.677
 5557.00    0.83993   0.87235    7.420
 5558.00    0.93196   0.87155    7.114
 5559.00    0.98544   0.87106    6.991
 5560.00    0.97697   0.87020    7.048
 5561.00    0.92186   0.86850    7.148
 5562.00    0.86599   0.86580    7.097
 5563.00    0.84049   0.86231    6.907
 5564.00    0.84145   0.85848    6.823
 5565.00    0.85195   0.85484    6.871
 5566.00    0.85570   0.85177    6.825
 5567.00    0.84735   0.84948    6.649
 5568.00    0.83220   0.84796    6.539
 5569.00    0.81412   0.84711    6.604
 5570.00    0.79389   0.84676    6.804
 5571.00    0.77395   0.84680    6.937
 5572.00    0.75766   0.84719    6.807
 5573.00    0.74546   0.84807    6.627
 5574.00    0.73573   0.84961    6.688
 5575.00    0.72757   0.85192    6.858
 5576.00    0.72369   0.85483    6.839
 5577.00    0.73265   0.85799    6.658
 5578.00    0.75629   0.86093    6.506
 5579.00    0.77749   0.86317    6.462
 5580.00    0.77907   0.86437    6.528
 5581.00    0.76125   0.86426    6.660
 5582.00    0.73416   0.86261    6.798
 5583.00    0.70922   0.85914    6.892
 5584.00    0.68807   0.85356    6.941
 5585.00    0.66011   0.84569    7.002
 5586.00    0.62303   0.83588    7.110
 5587.00    0.59241   0.82527    7.233
 5588.00    0.59696   0.81569    7.268
 5589.00    0.66053   0.80905    7.115
 5590.00    0.75133   0.80651    6.917
 5591.00    0.79953   0.80801    6.916
 5592.00    0.79051   0.81240    7.045
 5593.00    0.76274   0.81815    7.031
 5594.00    0.74413   0.82398    6.869
 5595.00    0.73955   0.82900    6.767
 5596.00    0.73589   0.83262    6.824
 5597.00    0.71911   0.83426    6.997
 5598.00    0.69761   0.83354    7.094
 5599.00    0.69471   0.83063    6.950
 5600.00    0.73317   0.82647    6.679
 5601.00    0.81372   0.82262    6.466
 5602.00    0.89957   0.82081    6.373
 5603.00    0.95634   0.82245    6.373
 5604.00    0.98440   0.82809    6.392
 5605.00    1.00016   0.83715    6.375
 5606.00    1.01798   0.84806    6.327
 5607.00    1.03112   0.85883    6.224
 5608.00    1.01162   0.86771    6.013
 5609.00    0.95668   0.87374    5.792
 5610.00    0.89771   0.87664    5.735
 5611.00    0.85295   0.87643    5.714
 5612.00    0.81414   0.87308    5.428
 5613.00    0.76328   0.86659    5.084
 5614.00    0.69001   0.85750    5.087
 5615.00    0.61997   0.84726    5.414
 5616.00    0.59698   0.83808    5.737
 5617.00    0.63250   0.83205    5.947
 5618.00    0.70731   0.83018    6.189
 5619.00    0.79268   0.83194    6.414
 5620.00    0.85912   0.83565    6.477
 5621.00    0.88459   0.83927    6.483
 5622.00    0.86883   0.84124    6.587
 5623.00    0.84476   0.84096    6.715
 5624.00    0.84224   0.83895    6.776
 5625.00    0.85537   0.83660    6.891
 5626.00    0.86327   0.83552    7.144
 5627.00    0.84930   0.83685    7.373
 5628.00    0.80750   0.84073    7.393
 5629.00    0.74544   0.84633   -2.000
 5630.00    0.68133   0.85226   -2.000
 5631.00    0.63516   0.85715   -2.000
 5632.00    0.59889   0.86004   -2.000
 5633.00    0.54389   0.86053   -2.000
 5634.00    0.48841   0.85872   -2.000
 5635.00    0.49240   0.85513   -2.000
 5636.00    0.57686   0.85052   -2.000
 5637.00    0.70590   0.84572   -2.000
 5638.00    0.80184   0.84143   -2.000
 5639.00    0.79493   0.83812   -2.000
 5640.00    0.70687   0.83594   -2.000
 5641.00    0.62265   0.83488   -2.000
 5642.00    0.61981   0.83488   -2.000
 5643.00    0.72109   0.83590   -2.000
 5644.00    0.85569   0.83783   -2.000
 5645.00    0.94385   0.84043   -2.000
 5646.00    0.98397   0.84335   -2.000
 5647.00    0.99562   0.84618   -2.000
 5648.00    0.96791   0.84862    6.272
 5649.00    0.89489   0.85058    6.372
 5650.00    0.80086   0.85206    6.491
 5651.00    0.72423   0.85308    6.500
 5652.00    0.69962   0.85342    6.574
 5653.00    0.72443   0.85261    6.778
 5654.00    0.75539   0.85008    6.909
 5655.00    0.75600   0.84545    6.849
 5656.00    0.71896   0.83880    6.674
 5657.00    0.67531   0.83086    6.388
 5658.00    0.67057   0.82292    5.986
 5659.00    0.69842   0.81646    5.703
 5660.00    0.71696   0.81267    5.783
 5661.00    0.71842   0.81193    6.181
 5662.00    0.72153   0.81386    6.619
 5663.00    0.73251   0.81757    6.846
 5664.00    0.74334   0.82210    6.783
 5665.00    0.73981   0.82656    6.548
 5666.00    0.71380   0.83027    6.301
 5667.00    0.67576   0.83291    6.106
 5668.00    0.65079   0.83461    5.991
 5669.00    0.67044   0.83600    5.987
 5670.00    0.74696   0.83789    6.084
 5671.00    0.85612   0.84086    6.187
 5672.00    0.95465   0.84494    6.168
 5673.00    0.99860   0.84965    5.953
 5674.00    0.97455   0.85419    5.622
 5675.00    0.90866   0.85787    5.351
 5676.00    0.83499   0.86024    5.223
 5677.00    0.78006   0.86117    5.242
 5678.00    0.75949   0.86065    5.427
 5679.00    0.77443   0.85875    5.810
 5680.00    0.80510   0.85556    6.296
 5681.00    0.82202   0.85133    6.632
 5682.00    0.81607   0.84649    6.748
 5683.00    0.79649   0.84167    6.815
 5684.00    0.77264   0.83741    6.921
 5685.00    0.74800   0.83409    7.017
 5686.00    0.71771   0.83179    6.961
 5687.00    0.68722   0.83057    6.722
 5688.00    0.69359   0.83061    6.544
 5689.00    0.76355   0.83221    6.578
 5690.00    0.86849   0.83549    6.620
 5691.00    0.95065   0.84016    6.511
 5692.00    0.95682   0.84543    6.453
 5693.00    0.88601   0.85027    6.496
 5694.00    0.80750   0.85375    6.307
 5695.00    0.77108   0.85532    5.915
 5696.00    0.76297   0.85482    5.818
 5697.00    0.75825   0.85243    6.131
 5698.00    0.74868   0.84851    6.469
 5699.00    0.74407   0.84361    6.553
 5700.00    0.76453   0.83841    6.544
 5701.00    0.81537   0.83361    6.522
 5702.00    0.88039   0.82977    6.409
 5703.00    0.92669   0.82700    6.275
 5704.00    0.92524   0.82487    6.269
 5705.00    0.89037   0.82256    6.355
 5706.00    0.85735   0.81924    6.396
 5707.00    0.82878   0.81460    6.398
 5708.00    0.78779   0.80912    6.425
 5709.00    0.73122   0.80396    6.399
 5710.00    0.67187   0.80053    6.262
 5711.00    0.63359   0.80004    6.161
 5712.00    0.63092   0.80301    6.222
 5713.00    0.65212   0.80913    6.364
 5714.00    0.68049   0.81738    6.466
 5715.00    0.71257   0.82635    6.514
 5716.00    0.75422   0.83480    6.514
 5717.00    0.81391   0.84196    6.424
 5718.00    0.88543   0.84768    6.264
 5719.00    0.94252   0.85225    6.139
 5720.00    0.95631   0.85610    6.161
 5721.00    0.91100   0.85945    6.411
 5722.00    0.82945   0.86220    6.821
 5723.00    0.76366   0.86397    7.141
 5724.00    0.73976   0.86433    7.234
 5725.00    0.74870   0.86312    7.204
 5726.00    0.76519   0.86058    7.162
 5727.00    0.76622   0.85735    7.137
 5728.00    0.75653   0.85421    7.067
 5729.00    0.75188   0.85176    6.901
 5730.00    0.74475   0.85031    6.751
 5731.00    0.72222   0.84986    6.737
 5732.00    0.69621   0.85033    6.803
 5733.00    0.69242   0.85157    6.821
 5734.00    0.73161   0.85332    6.720
 5735.00    0.80822   0.85519    6.536
 5736.00    0.87895   0.85672    6.391
 5737.00    0.91149   0.85758    6.358
 5738.00    0.91560   0.85768    6.400
 5739.00    0.90475   0.85719    6.462
 5740.00    0.87666   0.85642    0.000
 5741.00    0.84063   0.85568    0.000
 5742.00    0.82404   0.85522    0.000
 5743.00    0.84011   0.85514    0.000
 5744.00    0.87666   0.85539    0.000
 5745.00    0.90451   0.85570    0.000
 5746.00    0.89608   0.85573    0.000
 5747.00    0.86604   0.85519    0.000
 5748.00    0.85467   0.85403    0.000
 5749.00    0.86760   0.85232    0.000
 5750.00    0.88354   0.85016    0.000
 5751.00    0.89311   0.84751    0.000
 5752.00    0.90280   0.84445    0.000
 5753.00    0.92866   0.84140    0.000
 5754.00    0.97558   0.83916    0.000
 5755.00    1.01553   0.83859    0.000
 5756.00    1.01442   0.83999    0.000
 5757.00    0.96237   0.84274    0.000
 5758.00    0.87901   0.84547    0.000
 5759.00    0.81018   0.84678    0.000
 5760.00    0.79133   0.84590    0.000
 5761.00    0.82385   0.84317    0.000
 5762.00    0.88391   0.83989    0.000
 5763.00    0.93352   0.83768    0.000
 5764.00    0.94369   0.83770    0.000
 5765.00    0.90707   0.84019    0.000
 5766.00    0.84423   0.84441    0.000
 5767.00    0.79518   0.84907    0.000
 5768.00    0.78758   0.85292    0.000
 5769.00    0.82507   0.85520    0.000
 5770.00    0.88419   0.85574    0.000
 5771.00    0.93323   0.85484    0.000
 5772.00    0.97054   0.85307    0.000
 5773.00    1.01293   0.85102    0.000
 5774.00    1.06310   0.84915    0.000
 5775.00    1.10710   0.84766    0.000
 5776.00    1.11993   0.84634    0.000
 5777.00    1.08608   0.84469    0.000
 5778.00    1.01966   0.84197    0.000
 5779.00    0.94415   0.83762    0.000
 5780.00    0.87279   0.83155    0.000
 5781.00    0.81780   0.82438    0.000
 5782.00    0.79573   0.81723    0.000
 5783.00    0.80765   0.81139    0.000
 5784.00    0.83054   0.80783    0.000
 5785.00    0.83840   0.80703    0.000
 5786.00    0.81668   0.80889    0.000
 5787.00    0.77453   0.81280    0.000
 5788.00    0.74135   0.81783    0.000
 5789.00    0.73864   0.82299    0.000
 5790.00    0.76307   0.82758    0.000
 5791.00    0.76930   0.83138    0.000
 5792.00    0.71000   0.83459    0.000
 5793.00    0.63343   0.83752    0.000
 5794.00    0.63277   0.84029    0.000
 5795.00    0.71217   0.84276    0.000
 5796.00    0.81007   0.84469    0.000
 5797.00    0.87506   0.84609    0.000
 5798.00    0.89215   0.84735    0.000
 5799.00    0.89611   0.84898    0.000
 5800.00    0.91518   0.85122    0.000
 5801.00    0.91795   0.85377    0.000
 5802.00    0.87480   0.85589    0.000
 5803.00    0.80981   0.85682    0.000
 5804.00    0.76287   0.85624    0.000
 5805.00    0.75759   0.85450    0.000
 5806.00    0.78791   0.85236    0.000
 5807.00    0.82098   0.85065    0.000
 5808.00    0.84131   0.84985    0.000
 5809.00    0.86204   0.84999    0.000
 5810.00    0.88717   0.85067    0.000
 5811.00    0.90345   0.85132    0.000
 5812.00    0.90220   0.85139    0.000
 5813.00    0.88847   0.85057    0.000
 5814.00    0.88514   0.84890    0.000
 5815.00    0.91507   0.84682    0.000
 5816.00    0.96323   0.84505    0.000
 5817.00    0.99507   0.84434    0.000
 5818.00    1.00081   0.84507    0.000
 5819.00    0.98871   0.84710    0.000
 5820.00    0.96472   0.84986    0.000
 5821.00    0.93229   0.85260    0.000
 5822.00    0.89603   0.85475    0.000
 5823.00    0.86883   0.85612    0.000
 5824.00    0.87447   0.85685    0.000
 5825.00    0.91689   0.85725    0.000
 5826.00    0.96181   0.85760    0.000
 5827.00    0.97645   0.85801    0.000
 5828.00    0.95476   0.85847    0.000
 5829.00    0.90899   0.85887    0.000
 5830.00    0.86073   0.85906    0.000
 5831.00    0.82553   0.85891    0.000
 5832.00    0.80741   0.85837    0.000
 5833.00    0.80330   0.85746    0.000
 5834.00    0.80388   0.85629    0.000
 5835.00    0.79161   0.85508    0.000
 5836.00    0.75433   0.85403    0.000
 5837.00    0.71674   0.85334    0.000
 5838.00    0.71967   0.85315    0.000
 5839.00    0.76734   0.85353    0.000
 5840.00    0.83392   0.85445    0.000
 5841.00    0.89050   0.85569    0.000
 5842.00    0.91465   0.85685    0.000
 5843.00    0.89777   0.85739    0.000
 5844.00    0.85174   0.85689    0.000
 5845.00    0.81160   0.85514    0.000
 5846.00    0.80329   0.85225    0.000
 5847.00    0.81806   0.84861    0.000
 5848.00    0.83461   0.84464    0.000
 5849.00    0.83824   0.84061    0.000
 5850.00    0.82967   0.83656    0.000
 5851.00    0.82461   0.83233    0.000
 5852.00    0.83033   0.82776    0.000
 5853.00    0.83867   0.82284    0.000
 5854.00    0.84432   0.81778    0.000
 5855.00    0.85002   0.81291    0.000
 5856.00    0.85955   0.80859    0.000
 5857.00    0.87413   0.80519    0.000
 5858.00    0.88955   0.80312    0.000
 5859.00    0.89619   0.80270    0.000
 5860.00    0.88095   0.80399    0.000
 5861.00    0.83334   0.80665    0.000
 5862.00    0.75537   0.81000    0.000
 5863.00    0.66481   0.81336    0.000
 5864.00    0.59532   0.81622    0.000
 5865.00    0.57230   0.81841    0.000
 5866.00    0.58576   0.82009    0.000
 5867.00    0.60747   0.82163    0.000
 5868.00    0.61288   0.82338    0.000
 5869.00    0.59915   0.82546    0.000
 5870.00    0.59341   0.82770    0.000
 5871.00    0.62144   0.82971    0.000
 5872.00    0.68677   0.83104    0.000
 5873.00    0.77390   0.83143    0.000
 5874.00    0.85547   0.83083    0.000
 5875.00    0.91281   0.82936    0.000
 5876.00    0.94171   0.82719    0.000
 5877.00    0.93969   0.82452    0.000
 5878.00    0.90409   0.82154    0.000
 5879.00    0.84011   0.81847    0.000
 5880.00    0.76257   0.81553    0.000
 5881.00    0.69381   0.81289    0.000
 5882.00    0.65506   0.81053    0.000
 5883.00    0.65084   0.80811    0.000
 5884.00    0.66726   0.80478    0.000
 5885.00    0.67593   0.79917    0.000
 5886.00    0.66043   0.78974    0.000
 5887.00    0.64707   0.77558    0.000
 5888.00    0.66689   0.75702    0.000
 5889.00    0.71176   0.73609    0.000
 5890.00    0.75282   0.71617    0.000
 5891.00    0.76360   0.70061    0.000
 5892.00    0.73877   0.69121    0.000
 5893.00    0.70131   0.68769    0.000
 5894.00    0.67004   0.68827    0.000
 5895.00    0.64439   0.69099    0.000
 5896.00    0.62970   0.69514    0.000
 5897.00    0.64291   0.70139    0.000
 5898.00    0.68282   0.71086    0.000
 5899.00    0.72763   0.72386    0.000
 5900.00    0.76725   0.73941    0.000
 5901.00    0.80716   0.75559    7.409
 5902.00    0.84924   0.77032    7.094
 5903.00    0.88580   0.78217    6.815
 5904.00    0.89903   0.79073    6.688
 5905.00    0.87791   0.79637    6.726
 5906.00    0.84671   0.79988    6.941
 5907.00    0.83743   0.80212    7.294
 5908.00    0.84313   0.80373    7.533
 5909.00    0.83817   0.80492    7.448
 5910.00    0.81072   0.80558    7.292
 5911.00    0.75891   0.80541    7.343
 5912.00    0.68459   0.80416    7.538
 5913.00    0.60688   0.80187    7.684
 5914.00    0.56741   0.79898    7.659
 5915.00    0.58631   0.79623    7.481
 5916.00    0.63849   0.79442    7.272
 5917.00    0.69127   0.79406    7.133
 5918.00    0.72646   0.79517    7.090
 5919.00    0.74035   0.79729    7.147
 5920.00    0.74106   0.79981    7.286
 5921.00    0.74054   0.80215    7.440
 5922.00    0.74987   0.80403    7.502
 5923.00    0.77416   0.80542    7.468
 5924.00    0.80955   0.80642    7.432
 5925.00    0.83977   0.80703    7.453
 5926.00    0.84519   0.80715    7.534
 5927.00    0.82211   0.80663    7.646
 5928.00    0.77876   0.80553    7.729
 5929.00    0.72275   0.80409    7.692
 5930.00    0.66715   0.80271    7.517
 5931.00    0.63962   0.80174    7.348
 5932.00    0.65569   0.80141    7.283
 5933.00    0.69036   0.80168    7.212
 5934.00    0.70572   0.80236    7.053
 5935.00    0.68138   0.80330    6.927
 5936.00    0.63040   0.80443    6.940
 5937.00    0.60162   0.80562    7.055
 5938.00    0.62910   0.80664    7.177
 5939.00    0.70455   0.80727    7.217
 5940.00    0.79978   0.80736    7.127
 5941.00    0.88248   0.80697    6.942
 5942.00    0.92998   0.80643    6.826
 5943.00    0.93720   0.80615    6.966
 5944.00    0.92402   0.80629    7.243
 5945.00    0.92013   0.80663    7.283
 5946.00    0.91849   0.80676    7.188
 5947.00    0.88810   0.80630    7.380
 5948.00    0.83151   0.80505    7.721
 5949.00    0.77773   0.80314    7.672
 5950.00    0.74424   0.80099    7.292
 5951.00    0.73133   0.79909    7.005
 5952.00    0.72538   0.79771    6.936
 5953.00    0.71681   0.79685    7.036
 5954.00    0.71955   0.79641    7.221
 5955.00    0.74812   0.79629    7.403
 5956.00    0.79309   0.79647    7.551
 5957.00    0.83388   0.79708    7.667
 5958.00    0.85196   0.79831    7.755
 5959.00    0.83302   0.80029    7.798
 5960.00    0.77119   0.80294    7.730
 5961.00    0.68790   0.80594    7.416
 5962.00    0.63252   0.80876    6.768
 5963.00    0.63533   0.81091    6.010
 5964.00    0.68980   0.81219    5.444
 5965.00    0.77081   0.81268    5.117
 5966.00    0.84836   0.81276    4.966
 5967.00    0.90618   0.81290    4.981
 5968.00    0.94192   0.81345    5.204
 5969.00    0.95294   0.81445    5.602
 5970.00    0.93781   0.81568    6.022
 5971.00    0.90674   0.81669    6.266
 5972.00    0.87481   0.81693    6.265
 5973.00    0.84715   0.81602    6.261
 5974.00    0.82332   0.81384    6.521
 5975.00    0.80646   0.81063    6.957
 5976.00    0.79707   0.80695    7.277
 5977.00    0.78525   0.80354    7.375
 5978.00    0.75772   0.80102    7.390
 5979.00    0.70620   0.79964    7.560
 5980.00    0.63411   0.79910    7.969
 5981.00    0.55964   0.79877    8.332
 5982.00    0.50471   0.79809    8.220
 5983.00    0.48731   0.79677    7.537
 5984.00    0.51953   0.79498    6.694
 5985.00    0.60322   0.79329    6.115
 5986.00    0.71586   0.79243    5.763
 5987.00    0.81381   0.79277    5.418
 5988.00    0.86423   0.79423    5.200
 5989.00    0.85860   0.79646    5.398
 5990.00    0.81786   0.79905    5.974
 5991.00    0.78007   0.80164    6.458
 5992.00    0.76921   0.80401    6.549
 5993.00    0.79055   0.80602    6.435
 5994.00    0.83593   0.80749    6.318
 5995.00    0.88398   0.80821    6.297
 5996.00    0.90054   0.80807    6.429
 5997.00    0.86686   0.80710    6.737
 5998.00    0.81299   0.80555    7.163
 5999.00    0.78800   0.80370    7.529
 6000.00    0.82075   0.80186    7.551
 6001.00    0.88749   0.80026    7.252
 6002.00    0.90170   0.79887    7.098
 6003.00    0.82237   0.79751    7.263
 6004.00    0.71540   0.79598    7.375
 6005.00    0.65275   0.79411    7.261
 6006.00    0.65225   0.79207    7.304
 6007.00    0.68929   0.79018    7.624
 6008.00    0.71689   0.78880    7.846
 6009.00    0.71525   0.78818    7.871
 6010.00    0.70024   0.78838    8.029
 6011.00    0.68793   0.78923    8.107
 6012.00    0.68292   0.79033    7.498
 6013.00    0.67945   0.79117    6.571
 6014.00    0.67658   0.79148    5.956
 6015.00    0.70724   0.79128    5.696
 6016.00    0.79877   0.79067    5.669
 6017.00    0.89748   0.78973    5.869
 6018.00    0.92402   0.78860    6.324
 6019.00    0.86956   0.78742    6.880
 6020.00    0.77627   0.78630    7.254
 6021.00    0.69476   0.78546    7.377
 6022.00    0.64567   0.78527   -2.000
 6023.00    0.59615   0.78593   -2.000
 6024.00    0.53708   0.78750   -2.000
 6025.00    0.53135   0.78994   -2.000
 6026.00    0.61286   0.79305   -2.000
 6027.00    0.73174   0.79652   -2.000
 6028.00    0.83223   0.80002   -2.000
 6029.00    0.89066   0.80337   -2.000
 6030.00    0.88781   0.80641   -2.000
 6031.00    0.81211   0.80906   -2.000
 6032.00    0.71617   0.81128   -2.000
 6033.00    0.69664   0.81305   -2.000
 6034.00    0.77808   0.81436    5.537
 6035.00    0.90582   0.81520    5.565
 6036.00    1.01293   0.81553    5.901
 6037.00    1.05434   0.81537    6.575
 6038.00    1.03894   0.81477    7.370
 6039.00    1.00507   0.81389    7.798
 6040.00    0.97214   0.81298    7.799
 6041.00    0.94564   0.81234    7.716
 6042.00    0.93367   0.81220    7.678
 6043.00    0.94521   0.81268    7.643
 6044.00    0.98498   0.81375    7.551
 6045.00    1.04442   0.81522    7.344
 6046.00    1.09674   0.81678    6.992
 6047.00    1.11636   0.81818    6.577
 6048.00    1.09305   0.81921    6.270
 6049.00    1.02755   0.81970    6.224
 6050.00    0.93082   0.81956    6.551
 6051.00    0.83497   0.81876    7.092
 6052.00    0.78464   0.81727    7.200
 6053.00    0.78187   0.81516    6.682
 6054.00    0.78110   0.81264    6.101
 6055.00    0.74600   0.81008    5.781
 6056.00    0.67417   0.80792    5.770
 6057.00    0.60931   0.80651    6.021
 6058.00    0.60715   0.80598    6.443
 6059.00    0.65690   0.80613    6.993
 6060.00    0.70533   0.80647    7.630
 6061.00    0.73001   0.80636    8.157
 6062.00    0.73506   0.80522    8.330
 6063.00    0.72608   0.80302    8.274
 6064.00    0.71976   0.80037    8.235
 6065.00    0.75594   0.79818    8.177
 6066.00    0.85567   0.79732    7.949
 6067.00    0.98161   0.79839    7.525
 6068.00    1.06887   0.80140    7.139
 6069.00    1.06214   0.80578    7.182
 6070.00    0.97450   0.81066    7.591
 6071.00    0.90217   0.81512    7.512
 6072.00    0.89584   0.81849    6.818
 6073.00    0.90902   0.82044    6.446
 6074.00    0.89202   0.82087    6.657
 6075.00    0.83435   0.81979    7.078
 6076.00    0.75576   0.81735    7.330
 6077.00    0.69107   0.81391    7.316
 6078.00    0.65745   0.80982    7.109
 6079.00    0.64989   0.80547    6.836
 6080.00    0.65490   0.80133    6.595
 6081.00    0.66110   0.79781    6.455
 6082.00    0.67256   0.79513    6.486
 6083.00    0.69993   0.79333    6.712
 6084.00    0.74144   0.79241    6.986
 6085.00    0.77877   0.79224    7.076
 6086.00    0.77894   0.79256    6.942
 6087.00    0.73389   0.79298    6.693
 6088.00    0.69772   0.79320    6.442
 6089.00    0.72390   0.79313    6.328
 6090.00    0.80671   0.79279    6.553
 6091.00    0.90112   0.79244    7.134
 6092.00    0.94935   0.79250    7.576
 6093.00    0.92854   0.79325    7.515
 6094.00    0.87129   0.79472    7.410
 6095.00    0.82411   0.79669    7.550
 6096.00    0.81897   0.79879    7.721
 6097.00    0.84822   0.80049    7.773
 6098.00    0.86874   0.80113    7.812
 6099.00    0.84910   0.79999    7.823
 6100.00    0.78959   0.79672    7.675
 6101.00    0.73056   0.79190    7.484
 6102.00    0.72340   0.78667    7.477
 6103.00    0.76308   0.78219    7.577
 6104.00    0.80210   0.77947    7.557
 6105.00    0.80495   0.77908    7.483
 6106.00    0.76531   0.78098    7.533
 6107.00    0.71433   0.78453    7.616
 6108.00    0.69008   0.78869    7.549
 6109.00    0.69951   0.79251    7.350
 6110.00    0.72915   0.79559    7.169
 6111.00    0.76151   0.79792    7.141
 6112.00    0.78157   0.79959    7.329
 6113.00    0.78183   0.80074    7.686
 6114.00    0.76861   0.80142    8.053
 6115.00    0.76216   0.80165    8.198
 6116.00    0.77507   0.80122    8.114
 6117.00    0.80020   0.79974    8.095
 6118.00    0.81371   0.79692    8.194
 6119.00    0.78724   0.79266    8.138
 6120.00    0.72665   0.78733    7.931
 6121.00    0.67381   0.78194    7.857
 6122.00    0.66672   0.77749    7.898
 6123.00    0.71638   0.77466    7.800
 6124.00    0.78293   0.77384    7.629
 6125.00    0.80492   0.77492    7.635
 6126.00    0.77027   0.77730    7.800
 6127.00    0.71066   0.78039    7.945
 6128.00    0.66588   0.78362    8.048
 6129.00    0.66149   0.78655    8.173
 6130.00    0.68779   0.78891    8.262
 6131.00    0.71628   0.79037    8.256
 6132.00    0.72305   0.79036    8.263
 6133.00    0.70359   0.78815    8.359
 6134.00    0.68186   0.78319    8.410
 6135.00    0.69083   0.77587    8.322
 6136.00    0.75166   0.76774    8.228
 6137.00    0.84149   0.76058    8.202
 6138.00    0.89165   0.75568    8.137
 6139.00    0.87929   0.75378    8.004
 6140.00    0.85333   0.75515    7.910
 6141.00    0.84035   0.75940    7.823
 6142.00    0.81908   0.76543    7.599
 6143.00    0.77523   0.77204    7.413
 6144.00    0.72025   0.77826    7.581
 6145.00    0.68725   0.78334    7.906
 6146.00    0.70881   0.78669    7.824
 6147.00    0.77098   0.78812    7.541
 6148.00    0.83081   0.78787    7.628
 6149.00    0.86887   0.78652    7.951
 6150.00    0.88586   0.78474    8.021
 6151.00    0.88211   0.78303    7.942
 6152.00    0.86065   0.78167    8.044
 6153.00    0.83410   0.78075    8.186
 6154.00    0.81128   0.78006    8.125
 6155.00    0.78498   0.77906    8.011
 6156.00    0.75585   0.77721    8.059
 6157.00    0.74898   0.77398    8.264
 6158.00    0.77566   0.76871    8.444
 6159.00    0.81030   0.76092    8.344
 6160.00    0.82049   0.75101    8.114
 6161.00    0.79042   0.74022    8.283
 6162.00    0.74293   0.73015    8.789
 6163.00    0.72976   0.72230    8.713
 6164.00    0.75711   0.71768    8.054
 6165.00    0.78063   0.71659    7.755
 6166.00    0.78205   0.71817    7.949
 6167.00    0.77554   0.72088    8.151
 6168.00    0.76019   0.72374    8.079
 6169.00    0.72365   0.72643    7.858
 6170.00    0.67616   0.72881    7.720
 6171.00    0.64524   0.73108    7.760
 6172.00    0.65300   0.73376    7.694
 6173.00    0.69820   0.73712    7.327
 6174.00    0.73999   0.74095    7.124
 6175.00    0.74341   0.74488    7.458
 6176.00    0.73098   0.74863    7.981
 6177.00    0.73915   0.75198    8.100
 6178.00    0.77132   0.75484    7.909
 6179.00    0.80283   0.75739    7.728
 6180.00    0.79550   0.75979    7.561
 6181.00    0.74499   0.76201    7.357
 6182.00    0.69854   0.76377    7.138
 6183.00    0.68774   0.76471    6.858
 6184.00    0.69893   0.76446    6.447
 6185.00    0.70580   0.76284    6.104
 6186.00    0.68980   0.75985    6.140
 6187.00    0.65767   0.75569    6.479
 6188.00    0.63556   0.75049    6.658
 6189.00    0.63484   0.74458    6.585
 6190.00    0.64865   0.73901    6.611
 6191.00    0.66777   0.73494    6.801
 6192.00    0.68847   0.73294    6.990
 6193.00    0.71901   0.73327    7.230
 6194.00    0.76513   0.73583    7.668
 6195.00    0.80663   0.73994    8.073
 6196.00    0.81882   0.74444    8.076
 6197.00    0.80407   0.74816    7.912
 6198.00    0.77734   0.75058    7.914
 6199.00    0.74691   0.75183    7.956
 6200.00    0.71953   0.75232    7.882
 6201.00    0.70609   0.75265    7.877
 6202.00    0.71704   0.75346    8.056
 6203.00    0.75645   0.75504    8.210
 6204.00    0.80890   0.75729    8.194
 6205.00    0.84081   0.75980    8.164
 6206.00    0.84349   0.76209    8.266
 6207.00    0.84380   0.76367    8.482
 6208.00    0.86151   0.76411    8.616
 6209.00    0.88949   0.76316    8.420
 6210.00    0.88791   0.76069    8.078
 6211.00    0.81469   0.75658    7.969
 6212.00    0.70742   0.75103    7.999
 6213.00    0.65932   0.74463    7.717
 6214.00    0.71956   0.73816    6.928
 6215.00    0.86855   0.73254    5.942
 6216.00    1.01768   0.72824    5.245
 6217.00    1.07646   0.72532    4.998
 6218.00    1.04607   0.72380    5.051
 6219.00    0.97157   0.72355    5.248
 6220.00    0.87154   0.72426    5.631
 6221.00    0.76856   0.72554    6.239
 6222.00    0.71967   0.72702    6.725
 6223.00    0.75164   0.72861    6.732
 6224.00    0.81609   0.73014    6.597
 6225.00    0.85895   0.73135    6.737
 6226.00    0.86712   0.73191    7.272
 6227.00    0.85467   0.73123    8.044
 6228.00    0.84621   0.72888    8.459
 6229.00    0.84471   0.72526    8.247
 6230.00    0.82760   0.72134    7.921
 6231.00    0.78452   0.71811    7.819
 6232.00    0.72628   0.71659    7.933
 6233.00    0.66879   0.71724    8.147
 6234.00    0.62537   0.71980    8.303
 6235.00    0.60074   0.72345    8.303
 6236.00    0.59442   0.72705    8.125
 6237.00    0.61020   0.72957    7.748
 6238.00    0.65005   0.73029    7.246
 6239.00    0.70196   0.72919    6.863
 6240.00    0.74735   0.72658    6.773
 6241.00    0.77415   0.72298    6.945
 6242.00    0.78257   0.71928    7.218
 6243.00    0.78685   0.71615    7.336
 6244.00    0.78812   0.71390    7.284
 6245.00    0.75848   0.71296    7.506
 6246.00    0.71070   0.71355    7.989
 6247.00    0.73117   0.71544    7.600
 6248.00    0.85542   0.71804    6.367
 6249.00    1.00864   0.72049    5.572
 6250.00    1.10193   0.72192    5.436
 6251.00    1.08773   0.72181    5.672
 6252.00    0.97674   0.72004    6.095
 6253.00    0.82643   0.71694    6.665
 6254.00    0.68353   0.71288    7.349
 6255.00    0.57369   0.70848    8.008
 6256.00    0.52681   0.70451    8.330
 6257.00    0.56511   0.70184    8.058
 6258.00    0.66243   0.70108    7.456
 6259.00    0.76388   0.70229    6.959
 6260.00    0.83813   0.70544    6.738
 6261.00    0.88000   0.71017    6.767
 6262.00    0.89828   0.71563    6.841
 6263.00    0.89207   0.72101    6.842
 6264.00    0.82999   0.72589    7.080
 6265.00    0.71700   0.72991    7.635
 6266.00    0.65083   0.73268    7.486
 6267.00    0.70056   0.73419    6.359
 6268.00    0.81440   0.73494    5.551
 6269.00    0.91724   0.73546    5.381
 6270.00    0.97820   0.73603    5.438
 6271.00    0.98373   0.73688    5.508
 6272.00    0.92650   0.73799    5.830
 6273.00    0.83419   0.73918    6.547
 6274.00    0.76576   0.74022    7.336
 6275.00    0.74826   0.74096    7.607
 6276.00    0.76345   0.74123    7.173
 6277.00    0.78184   0.74075    6.568
 6278.00    0.78411   0.73938    6.310
 6279.00    0.78536   0.73753    6.367
 6280.00    0.80932   0.73575    0.000
 6281.00    0.82620   0.73455    0.000
 6282.00    0.78602   0.73428    0.000
 6283.00    0.69391   0.73499    0.000
 6284.00    0.59063   0.73679    0.000
 6285.00    0.50777   0.73955    0.000
 6286.00    0.45816   0.74288    0.000
 6287.00    0.43395   0.74625    0.000
 6288.00    0.42880   0.74899    0.000
 6289.00    0.45616   0.75064    0.000
 6290.00    0.52837   0.75116    0.000
 6291.00    0.63897   0.75061    0.000
 6292.00    0.76097   0.74930    0.000
 6293.00    0.85226   0.74730    0.000
 6294.00    0.88497   0.74458    0.000
 6295.00    0.85946   0.74140    0.000
 6296.00    0.79855   0.73822    0.000
 6297.00    0.73856   0.73535    0.000
 6298.00    0.70855   0.73273    0.000
 6299.00    0.72029   0.73024    0.000
 6300.00    0.76127   0.72813    0.000
 6301.00    0.80497   0.72689    0.000
 6302.00    0.83778   0.72678    0.000
 6303.00    0.85334   0.72784    0.000
 6304.00    0.83142   0.73002    0.000
 6305.00    0.76112   0.73323    0.000
 6306.00    0.67991   0.73708    0.000
 6307.00    0.63860   0.74100    0.000
 6308.00    0.65027   0.74440    0.000
 6309.00    0.69408   0.74670    0.000
 6310.00    0.72919   0.74761    0.000
 6311.00    0.72680   0.74722    0.000
 6312.00    0.69366   0.74557    0.000
 6313.00    0.65104   0.74285    0.000
 6314.00    0.61813   0.73963    0.000
 6315.00    0.60969   0.73627    0.000
 6316.00    0.63359   0.73292    0.000
 6317.00    0.68360   0.73019    0.000
 6318.00    0.73909   0.72861    0.000
 6319.00    0.77741   0.72821    0.000
 6320.00    0.78366   0.72894    0.000
 6321.00    0.76537   0.73092    7.764
 6322.00    0.74530   0.73401    8.149
 6323.00    0.73185   0.73763    8.237
 6324.00    0.71651   0.74139    8.259
 6325.00    0.68595   0.74493    8.302
 6326.00    0.64058   0.74789    8.315
 6327.00    0.61916   0.75013    8.321
 6328.00    0.65600   0.75161    8.348
 6329.00    0.71868   0.75252    8.295
 6330.00    0.75346   0.75301    8.120
 6331.00    0.74739   0.75303    8.037
 6332.00    0.72314   0.75229    8.159
 6333.00    0.72141   0.75040    8.231
 6334.00    0.75135   0.74753    8.089
 6335.00    0.76466   0.74426    8.002
 6336.00    0.73444   0.74122    8.120
 6337.00    0.69411   0.73889    8.232
 6338.00    0.66595   0.73774    8.177
 6339.00    0.63262   0.73789    8.057
 6340.00    0.58553   0.73902    7.992
 6341.00    0.54357   0.74054    8.017
 6342.00    0.54166   0.74182    8.081
 6343.00    0.61207   0.74246    8.079
 6344.00    0.74524   0.74237    7.954
 6345.00    0.89073   0.74189    7.734
 6346.00    0.98721   0.74162    7.511
 6347.00    0.99274   0.74199    7.382
 6348.00    0.92621   0.74310    7.401
 6349.00    0.83751   0.74483    7.569
 6350.00    0.74905   0.74676    7.802
 6351.00    0.66738   0.74815    7.989
 6352.00    0.60955   0.74830    8.096
 6353.00    0.59752   0.74709    8.123
 6354.00    0.64588   0.74481    8.037
 6355.00    0.73603   0.74163    7.886
 6356.00    0.80362   0.73760    7.858
 6357.00    0.80522   0.73313    8.023
 6358.00    0.76013   0.72879    8.206
 6359.00    0.70583   0.72480    8.269
 6360.00    0.66898   0.72132    8.294
 6361.00    0.66231   0.71869    8.346
 6362.00    0.68463   0.71715    8.374
 6363.00    0.72426   0.71687    8.333
 6364.00    0.76053   0.71805    8.254
 6365.00    0.76415   0.72069    8.275
 6366.00    0.71374   0.72441    8.534
 6367.00    0.63651   0.72864    8.847
 6368.00    0.58844   0.73295    8.817
 6369.00    0.58930   0.73704    8.517
 6370.00    0.62571   0.74078    8.298
 6371.00    0.68162   0.74410    8.201
 6372.00    0.74051   0.74694    8.112
 6373.00    0.78144   0.74925    7.999
 6374.00    0.79184   0.75102    7.898
 6375.00    0.78178   0.75216    7.844
 6376.00    0.76876   0.75249    7.793
 6377.00    0.76113   0.75192    7.591
 6378.00    0.75671   0.75051    7.309
 6379.00    0.74646   0.74855    7.327
 6380.00    0.73715   0.74658    7.728
 6381.00    0.75659   0.74500    7.992
 6382.00    0.80005   0.74389    7.847
 6383.00    0.81861   0.74330    7.773
 6384.00    0.79706   0.74339    8.001
 6385.00    0.77124   0.74401    8.278
 6386.00    0.76283   0.74478    8.426
 6387.00    0.76510   0.74542    8.525
 6388.00    0.77313   0.74567    8.573
 6389.00    0.78577   0.74529    8.480
 6390.00    0.78856   0.74406    8.354
 6391.00    0.76160   0.74179    8.357
 6392.00    0.70321   0.73897    8.359
 6393.00    0.63013   0.73646    8.199
 6394.00    0.56952   0.73483    8.174
 6395.00    0.54822   0.73420    8.518
 6396.00    0.57987   0.73429    8.664
 6397.00    0.65982   0.73443    8.135
 6398.00    0.76294   0.73425    7.669
 6399.00    0.85893   0.73436    7.767
 6400.00    0.92549   0.73510    8.073
 6401.00    0.94203   0.73615    8.132
 6402.00    0.89108   0.73759    8.029
 6403.00    0.80014   0.73962    8.000
 6404.00    0.74826   0.74197    8.129
 6405.00    0.77315   0.74419    8.310
 6406.00    0.83805   0.74585    8.303
 6407.00    0.88935   0.74649    8.122
 6408.00    0.89112   0.74584    8.032
 6409.00    0.85526   0.74410    8.056
 6410.00    0.82628   0.74194    8.005
 6411.00    0.81518   0.74016    7.903
 6412.00    0.79979   0.73905    7.917
 6413.00    0.76603   0.73870    7.973
 6414.00    0.71269   0.73901    7.887
 6415.00    0.64312   0.73946    7.755
 6416.00    0.56521   0.73967    7.768
 6417.00    0.49368   0.73962    7.893
 6418.00    0.44984   0.73896    7.976
 6419.00    0.45930   0.73754    7.914
 6420.00    0.53426   0.73614    7.749
 6421.00    0.65644   0.73562    7.676
 6422.00    0.78267   0.73615    7.773
 6423.00    0.85763   0.73770    7.848
 6424.00    0.86130   0.74019    7.793
 6425.00    0.83113   0.74332    7.795
 6426.00    0.80810   0.74649    7.975
 6427.00    0.80619   0.74878    8.232
 6428.00    0.81686   0.74911    8.424
 6429.00    0.81973   0.74734    8.468
 6430.00    0.81114   0.74460    8.353
 6431.00    0.80501   0.74201    8.153
 6432.00    0.80332   0.74010    8.043
 6433.00    0.79782   0.73911    8.181
 6434.00    0.79631   0.73910    8.433
 6435.00    0.81238   0.73980    8.448
 6436.00    0.83228   0.74056    8.124
 6437.00    0.82809   0.74088    7.679
 6438.00    0.79054   0.74088    7.432
 6439.00    0.72940   0.74111    7.557
 6440.00    0.66595   0.74194    7.939
 6441.00    0.62714   0.74361    8.286
 6442.00    0.63804   0.74617    8.351
 6443.00    0.70088   0.74933    8.122
 6444.00    0.77978   0.75272    7.864
 6445.00    0.82774   0.75544    7.770
 6446.00    0.81302   0.75598    7.820
 6447.00    0.74859   0.75340    7.937
 6448.00    0.69471   0.74829    8.053
 6449.00    0.68387   0.74237    8.111
 6450.00    0.69472   0.73712    8.079
 6451.00    0.70641   0.73324    7.994
 6452.00    0.71573   0.73098    7.950
 6453.00    0.71509   0.73021    8.028
 6454.00    0.69623   0.73076    8.237
 6455.00    0.68102   0.73289    8.361
 6456.00    0.70222   0.73617    8.138
 6457.00    0.74207   0.73927    7.819
 6458.00    0.74947   0.74140    7.798
 6459.00    0.69868   0.74227    8.029
 6460.00    0.60774   0.74157    8.237
 6461.00    0.54557   0.73983    8.346
 6462.00    0.57671   0.73808    8.392
 6463.00    0.69259   0.73666    8.287
 6464.00    0.82669   0.73574    8.043
 6465.00    0.88776   0.73581    7.942
 6466.00    0.83874   0.73705    8.150
 6467.00    0.74735   0.73920    8.478
 6468.00    0.68578   0.74200    8.628
 6469.00    0.66301   0.74439    8.486
 6470.00    0.65781   0.74531    8.253
 6471.00    0.64665   0.74501    8.276
 6472.00    0.63222   0.74398    8.548
 6473.00    0.64292   0.74247    8.632
 6474.00    0.68250   0.74099    8.420
 6475.00    0.72458   0.74010    8.266
 6476.00    0.75631   0.73975    8.268
 6477.00    0.78490   0.73966    8.257
 6478.00    0.81799   0.73938    8.175
 6479.00    0.85443   0.73825    8.077
 6480.00    0.87683   0.73615    7.954
 6481.00    0.86767   0.73362    7.802
 6482.00    0.83819   0.73113    7.771
 6483.00    0.81657   0.72894    7.964
 6484.00    0.82314   0.72745    8.149
 6485.00    0.85112   0.72688    8.066
 6486.00    0.85468   0.72714    7.911
 6487.00    0.81218   0.72791    7.935
 6488.00    0.77666   0.72847    8.098
 6489.00    0.78841   0.72775    8.212
 6490.00    0.81408   0.72496    8.108
 6491.00    0.81921   0.71964    7.908
 6492.00    0.81188   0.71162    7.999
 6493.00    0.81124   0.70161    8.393
 6494.00    0.82563   0.69103    8.520
 6495.00    0.83730   0.68144    8.205
 6496.00    0.81132   0.67420    7.965
 6497.00    0.74706   0.67006    8.038
 6498.00    0.67863   0.66944    8.287
 6499.00    0.62440   0.67268    8.418
 6500.00    0.58121   0.67941    8.213
 6501.00    0.54565   0.68819    7.964
 6502.00    0.52266   0.69752    8.064
 6503.00    0.53065   0.70635    8.335
 6504.00    0.58096   0.71403    8.337
 6505.00    0.64655   0.72031    8.145
 6506.00    0.69160   0.72489    8.039
 6507.00    0.71436   0.72779    7.945
 6508.00    0.73139   0.72954    7.800
 6509.00    0.75420   0.73055    7.887
 6510.00    0.77909   0.73099    8.341
 6511.00    0.78497   0.73092    8.687
 6512.00    0.76780   0.73037    8.530
 6513.00    0.75750   0.72930    8.270
 6514.00    0.76983   0.72773    8.228
 6515.00    0.78708   0.72571    8.284
 6516.00    0.80490   0.72337    8.265
 6517.00    0.84294   0.72112    8.132
 6518.00    0.89570   0.71961    7.977
 6519.00    0.92727   0.71917    7.927
 6520.00    0.91759   0.71978    7.955
 6521.00    0.87875   0.72129    7.922
 6522.00    0.85602   0.72336    7.859
 6523.00    0.89068   0.72554    7.885
 6524.00    0.94435   0.72734    7.910
 6525.00    0.94558   0.72832    7.790
 6526.00    0.89658   0.72848    7.691
 6527.00    0.83962   0.72823    7.756
 6528.00    0.78416   0.72788    0.000
 6529.00    0.73014   0.72741    0.000
 6530.00    0.70491   0.72675    0.000
 6531.00    0.73231   0.72606    0.000
 6532.00    0.80023   0.72571    0.000
 6533.00    0.87473   0.72582    0.000
 6534.00    0.91689   0.72617    0.000
 6535.00    0.90518   0.72654    0.000
 6536.00    0.84860   0.72705    0.000
 6537.00    0.78203   0.72791    0.000
 6538.00    0.75122   0.72904    0.000
 6539.00    0.76177   0.72995    0.000
 6540.00    0.77101   0.73006    0.000
 6541.00    0.74000   0.72909    0.000
 6542.00    0.66216   0.72712    0.000
 6543.00    0.58805   0.72421    0.000
 6544.00    0.59492   0.72033    0.000
 6545.00    0.69913   0.71587    0.000
 6546.00    0.85822   0.71167    0.000
 6547.00    1.01797   0.70821    0.000
 6548.00    1.13365   0.70548    0.000
 6549.00    1.18834   0.70327    0.000
 6550.00    1.18584   0.70136    0.000
 6551.00    1.13734   0.69964    0.000
 6552.00    1.05690   0.69759    0.000
 6553.00    0.95923   0.69448    0.000
 6554.00    0.86790   0.69014    0.000
 6555.00    0.81999   0.68488    0.000
 6556.00    0.84519   0.67874    0.000
 6557.00    0.95789   0.67124    0.000
 6558.00    1.20513   0.66164    0.000
 6559.00    1.67406   0.64912    0.000
 6560.00    2.38489   0.63285    0.000
 6561.00    3.23984   0.61393    0.000
 6562.00    4.03745   0.59646    0.000
 6563.00    4.53312   0.58435    0.000
 6564.00    4.60904   0.57889    0.000
 6565.00    4.30441   0.58023    0.000
 6566.00    3.74115   0.58819    0.000
 6567.00    3.05704   0.60228    0.000
 6568.00    2.31061   0.62082    0.000
 6569.00    1.54286   0.63952    0.000
 6570.00    0.91759   0.65425    0.000
 6571.00    0.60753   0.66415    0.000
 6572.00    0.59543   0.67039    0.000
 6573.00    0.73562   0.67440    0.000
 6574.00    0.87017   0.67762    0.000
 6575.00    0.90210   0.68096    0.000
 6576.00    0.84933   0.68451    0.000
 6577.00    0.79478   0.68824    0.000
 6578.00    0.83247   0.69214    0.000
 6579.00    1.00826   0.69596    0.000
 6580.00    1.29220   0.69946    0.000
 6581.00    1.63450   0.70241    0.000
 6582.00    1.98920   0.70453    0.000
 6583.00    2.27615   0.70588    0.000
 6584.00    2.38768   0.70677    0.000
 6585.00    2.27701   0.70760    0.000
 6586.00    1.98389   0.70869    0.000
 6587.00    1.60923   0.70979    0.000
 6588.00    1.27345   0.71034    0.000
 6589.00    1.03653   0.70999    0.000
 6590.00    0.88865   0.70840    0.000
 6591.00    0.77421   0.70550    0.000
 6592.00    0.64339   0.70194    0.000
 6593.00    0.52438   0.69864    0.000
 6594.00    0.47209   0.69615    0.000
 6595.00    0.48459   0.69454    0.000
 6596.00    0.51999   0.69392    0.000
 6597.00    0.53195   0.69475    0.000
 6598.00    0.51369   0.69740    0.000
 6599.00    0.52392   0.70122    0.000
 6600.00    0.60015   0.70481    0.000
 6601.00    0.70259   0.70742    0.000
 6602.00    0.78542   0.70907    0.000
 6603.00    0.83606   0.70991    0.000
 6604.00    0.83691   0.71000    0.000
 6605.00    0.76433   0.70921    0.000
 6606.00    0.66767   0.70745    0.000
 6607.00    0.65370   0.70509    0.000
 6608.00    0.72586   0.70296    0.000
 6609.00    0.78704   0.70189    6.597
 6610.00    0.79776   0.70204    6.110
 6611.00    0.78682   0.70293    5.554
 6612.00    0.77436   0.70427    5.176
 6613.00    0.76365   0.70623    5.181
 6614.00    0.75825   0.70882    5.489
 6615.00    0.75030   0.71138    5.906
 6616.00    0.70165   0.71322    6.446
 6617.00    0.59504   0.71436    7.178
 6618.00    0.49543   0.71524    7.638
 6619.00    0.48906   0.71598    7.167
 6620.00    0.61044   0.71618    6.065
 6621.00    0.81460   0.71558    5.045
 6622.00    0.97710   0.71422    4.433
 6623.00    1.01763   0.71231    4.206
 6624.00    0.96855   0.71021    4.239
 6625.00    0.87258   0.70820    4.487
 6626.00    0.73713   0.70633    5.012
 6627.00    0.60575   0.70467    5.853
 6628.00    0.56088   0.70331    6.824
 6629.00    0.60616   0.70233    7.537
 6630.00    0.66075   0.70155    7.731
 6631.00    0.68120   0.70045    7.531
 6632.00    0.67748   0.69884    7.295
 6633.00    0.65586   0.69724    7.316
 6634.00    0.61691   0.69619    7.652
 6635.00    0.58145   0.69585    7.695
 6636.00    0.57236   0.69611    6.879
 6637.00    0.57730   0.69683    6.006
 6638.00    0.58401   0.69803    5.649
 6639.00    0.63203   0.69962    5.560
 6640.00    0.73851   0.70102    5.487
 6641.00    0.81689   0.70143    5.658
 6642.00    0.78983   0.70077    6.249
 6643.00    0.69649   0.69980    6.686
 6644.00    0.63133   0.69913    6.248
 6645.00    0.67714   0.69873    5.379
 6646.00    0.82771   0.69834    4.647
 6647.00    0.96586   0.69809    4.187
 6648.00    0.99142   0.69843    4.008
 6649.00    0.89232   0.69916    4.128
 6650.00    0.75218   0.69957    4.548
 6651.00    0.70107   0.69944    5.200
 6652.00    0.74422   0.69909    6.014
 6653.00    0.77416   0.69869    6.926
 6654.00    0.77141   0.69816    7.585
 6655.00    0.79171   0.69752    7.518
 6656.00    0.80553   0.69698    7.163
 6657.00    0.74221   0.69653    7.205
 6658.00    0.64005   0.69591    7.489
 6659.00    0.58484   0.69494    7.483
 6660.00    0.57423   0.69348    7.299
 6661.00    0.56430   0.69146    7.311
 6662.00    0.55391   0.68914    7.452
 6663.00    0.56777   0.68706    7.406
 6664.00    0.62471   0.68551    6.947
 6665.00    0.70884   0.68455    6.315
 6666.00    0.75788   0.68425    6.017
 6667.00    0.73885   0.68486    6.127
 6668.00    0.68981   0.68667    6.199
 6669.00    0.64283   0.68921    6.090
 6670.00    0.59066   0.69161    6.286
 6671.00    0.55151   0.69356    6.839
 6672.00    0.57664   0.69506    6.912
 6673.00    0.65671   0.69591    6.326
 6674.00    0.72126   0.69574    5.853
 6675.00    0.75318   0.69409    5.593
 6676.00    0.78841   0.69094    5.280
 6677.00    0.82014   0.68723    5.077
 6678.00    0.80640   0.68402    5.317
 6679.00    0.73954   0.68155    6.013
 6680.00    0.65412   0.67969    6.817
 6681.00    0.61149   0.67869    7.315
 6682.00    0.65141   0.67917    7.391
 6683.00    0.73176   0.68118    7.309
 6684.00    0.78218   0.68364    7.348
 6685.00    0.77619   0.68558    7.483
 6686.00    0.72584   0.68706    7.601
 6687.00    0.66478   0.68827    7.727
 6688.00    0.61564   0.68917    7.928
 6689.00    0.57042   0.68967    8.188
 6690.00    0.52594   0.68981    8.358
 6691.00    0.50130   0.68968    8.192
 6692.00    0.50225   0.68935    7.810
 6693.00    0.50881   0.68876    7.639
 6694.00    0.50789   0.68773    7.768
 6695.00    0.50335   0.68638    7.897
 6696.00    0.49939   0.68511    0.000
 6697.00    0.49650   0.68417    0.000
 6698.00    0.49747   0.68366    0.000
 6699.00    0.50746   0.68357    0.000
 6700.00    0.52960   0.68382    0.000
 6701.00    0.56025   0.68436    0.000
 6702.00    0.58295   0.68484    0.000
 6703.00    0.58667   0.68508    0.000
 6704.00    0.59435   0.68520    0.000
 6705.00    0.63018   0.68513    0.000
 6706.00    0.67393   0.68483    0.000
 6707.00    0.69144   0.68447    0.000
 6708.00    0.67438   0.68421    0.000
 6709.00    0.64597   0.68402    0.000
 6710.00    0.65371   0.68367    0.000
 6711.00    0.70458   0.68278    0.000
 6712.00    0.73886   0.68113    0.000
 6713.00    0.75592   0.67878    0.000
 6714.00    0.85469   0.67579    0.000
 6715.00    1.05641   0.67234    0.000
 6716.00    1.24834   0.66872    0.000
 6717.00    1.31577   0.66561    0.000
 6718.00    1.20930   0.66365    0.000
 6719.00    0.98041   0.66281    0.000
 6720.00    0.75183   0.66285    0.000
 6721.00    0.61064   0.66384    0.000
 6722.00    0.57783   0.66594    0.000
 6723.00    0.60868   0.66856    0.000
 6724.00    0.64141   0.67061    0.000
 6725.00    0.68020   0.67191    0.000
 6726.00    0.76571   0.67300    0.000
 6727.00    0.91054   0.67410    0.000
 6728.00    1.09590   0.67501    0.000
 6729.00    1.28015   0.67565    0.000
 6730.00    1.41372   0.67623    0.000
 6731.00    1.45427   0.67688    0.000
 6732.00    1.37862   0.67743    0.000
 6733.00    1.19428   0.67774    0.000
 6734.00    0.95831   0.67780    0.000
 6735.00    0.77106   0.67756    0.000
 6736.00    0.67663   0.67691    0.000
 6737.00    0.63182   0.67591    0.000
 6738.00    0.61347   0.67485    0.000
 6739.00    0.64769   0.67387    0.000
 6740.00    0.73527   0.67287    0.000
 6741.00    0.83595   0.67162    0.000
 6742.00    0.90632   0.67037    0.000
 6743.00    0.91855   0.66960    0.000
 6744.00    0.87567   0.66924    0.000
 6745.00    0.80109   0.66879    0.000
 6746.00    0.71102   0.66795    0.000
 6747.00    0.62346   0.66694    0.000
 6748.00    0.57965   0.66599    0.000
 6749.00    0.60944   0.66504    0.000
 6750.00    0.68327   0.66412    0.000
 6751.00    0.74645   0.66337    0.000
 6752.00    0.76444   0.66302    0.000
 6753.00    0.72869   0.66341    7.458
 6754.00    0.65670   0.66455    7.309
 6755.00    0.58447   0.66638    7.232
 6756.00    0.55506   0.66851    7.170
 6757.00    0.58354   0.67074    7.065
 6758.00    0.64369   0.67316    6.913
 6759.00    0.70808   0.67534    6.802
 6760.00    0.76436   0.67699    6.855
 6761.00    0.79640   0.67812    7.027
 6762.00    0.78421   0.67875    7.085
 6763.00    0.73033   0.67879    6.984
 6764.00    0.66527   0.67814    6.902
 6765.00    0.63628   0.67675    6.950
 6766.00    0.67571   0.67490    7.110
 6767.00    0.74113   0.67320    7.246
 6768.00    0.76252   0.67177    7.220
 6769.00    0.75001   0.67045    7.144
 6770.00    0.76216   0.66944    7.192
 6771.00    0.82796   0.66927    7.273
 6772.00    0.92696   0.67030    7.216
 6773.00    0.98613   0.67217    7.066
 6774.00    0.95756   0.67420    6.981
 6775.00    0.88798   0.67626    7.076
 6776.00    0.83329   0.67841    7.283
 6777.00    0.78851   0.68036    7.248
 6778.00    0.73822   0.68167    6.916
 6779.00    0.69185   0.68197    6.741
 6780.00    0.66488   0.68112    6.830
 6781.00    0.66457   0.67920    6.790
 6782.00    0.67961   0.67652    6.574
 6783.00    0.68581   0.67347    6.609
 6784.00    0.68327   0.67035    6.958
 6785.00    0.69313   0.66752    7.236
 6786.00    0.70540   0.66541    7.342
 6787.00    0.68912   0.66424    7.582
 6788.00    0.65695   0.66396    7.932
 6789.00    0.64991   0.66437    8.041
 6790.00    0.67333   0.66519    7.929
 6791.00    0.69692   0.66604    7.879
 6792.00    0.67974   0.66657    7.908
 6793.00    0.61261   0.66673    7.886
 6794.00    0.56404   0.66681    7.778
 6795.00    0.60210   0.66698    7.630
 6796.00    0.70376   0.66719    7.504
 6797.00    0.80210   0.66745    7.424
 6798.00    0.84393   0.66801    7.355
 6799.00    0.82358   0.66893    7.274
 6800.00    0.79560   0.66991    7.202
 6801.00    0.81263   0.67077    7.128
 6802.00    0.88082   0.67131    6.994
 6803.00    0.93820   0.67157    6.910
 6804.00    0.88256   0.67164    7.131
 6805.00    0.72601   0.67140    7.631
 6806.00    0.60456   0.67090    7.952
 6807.00    0.58715   0.67034    7.864
 6808.00    0.63691   0.66976    7.656
 6809.00    0.69358   0.66927    7.542
 6810.00    0.71392   0.66893    7.533
 6811.00    0.70600   0.66875    7.519
 6812.00    0.70001   0.66865    7.414
 6813.00    0.68162   0.66828    7.379
 6814.00    0.62893   0.66785    7.576
 6815.00    0.58464   0.66785    7.766
 6816.00    0.60781   0.66806    7.586
 6817.00    0.69929   0.66814    7.153
 6818.00    0.80331   0.66807    6.796
 6819.00    0.83025   0.66826    6.714
 6820.00    0.76214   0.66902    6.907
 6821.00    0.71659   0.66999    7.108
 6822.00    0.76687   0.67072    7.105
 6823.00    0.83882   0.67129    7.038
 6824.00    0.87439   0.67190    7.070
 6825.00    0.90398   0.67247    7.204
 6826.00    0.91958   0.67254    7.364
 6827.00    0.85262   0.67199    7.455
 6828.00    0.72746   0.67136    7.449
 6829.00    0.65791   0.67095    7.405
 6830.00    0.64977   0.67064    7.363
 6831.00    0.60874   0.67027    7.314
 6832.00    0.52179   0.67022    7.201
 6833.00    0.45597   0.67075    6.975
 6834.00    0.45501   0.67139    6.678
 6835.00    0.51477   0.67148    6.423
 6836.00    0.58281   0.67080    6.347
 6837.00    0.60829   0.66954    6.514
 6838.00    0.60811   0.66775    6.771
 6839.00    0.61718   0.66537    6.909
 6840.00    0.62432   0.66258    6.982
 6841.00    0.61548   0.66000    7.119
 6842.00    0.61661   0.65822    7.277
 6843.00    0.64964   0.65750    7.357
 6844.00    0.69790   0.65781    7.345
 6845.00    0.72699   0.65895    7.290
 6846.00    0.70641   0.66081    7.264
 6847.00    0.64211   0.66309    7.291
 6848.00    0.58078   0.66513    7.321
 6849.00    0.55600   0.66644    7.259
 6850.00    0.56730   0.66694    7.044
 6851.00    0.59145   0.66683    6.807
 6852.00    0.59757   0.66612    6.752
 6853.00    0.57694   0.66461   -2.000
 6854.00    0.54566   0.66259   -2.000
 6855.00    0.52982   0.66070   -2.000
 6856.00    0.54578   0.65907   -2.000
 6857.00    0.57185   0.65757   -2.000
 6858.00    0.58231   0.65631   -2.000
 6859.00    0.60597   0.65550   -2.000
 6860.00    0.67821   0.65523   -2.000
 6861.00    0.77005   0.65551   -2.000
 6862.00    0.82154   0.65636   -2.000
 6863.00    0.79164   0.65750   -2.000
 6864.00    0.70097   0.65837   -2.000
 6865.00    0.64966   0.65894   -2.000
 6866.00    0.70345   0.65950   -2.000
 6867.00    0.81858   0.65994   -2.000
 6868.00    0.89650   0.65999   -2.000
 6869.00    0.84690   0.65954   -2.000
 6870.00    0.71515   0.65874   -2.000
 6871.00    0.67694   0.65802   -2.000
 6872.00    0.78002   0.65790   -2.000
 6873.00    0.90247   0.65840   -2.000
 6874.00    0.95496   0.65907   -2.000
 6875.00    0.93115   0.65983   -2.000
 6876.00    0.85997   0.66097   -2.000
 6877.00    0.78699   0.66243   -2.000
 6878.00    0.76212   0.66368   -2.000
 6879.00    0.80143   0.66439   -2.000
 6880.00    0.83060   0.66452   -2.000
 6881.00    0.77259   0.66415   -2.000
 6882.00    0.68185   0.66349   -2.000
 6883.00    0.65886   0.66279   -2.000
 6884.00    0.72562   0.66212   -2.000
 6885.00    0.82518   0.66165   -2.000
 6886.00    0.85043   0.66192   -2.000
 6887.00    0.77323   0.66309   -2.000
 6888.00    0.71749   0.66469   -2.000
 6889.00    0.75922   0.66629   -2.000
 6890.00    0.81932   0.66784   -2.000
 6891.00    0.82913   0.66931   -2.000
 6892.00    0.80457   0.67044   -2.000
 6893.00    0.75481   0.67103   -2.000
 6894.00    0.66563   0.67114   -2.000
 6895.00    0.59215   0.67093   -2.000
 6896.00    0.62686   0.67055   -2.000
 6897.00    0.70955   0.67014   -2.000
 6898.00    0.68732   0.66968   -2.000
 6899.00    0.59014   0.66920   -2.000
 6900.00    0.56153   0.66904   -2.000
 6901.00    0.59391   0.66933   -2.000
 6902.00    0.59557   0.66982   -2.000
 6903.00    0.57999   0.67028   -2.000
 6904.00    0.60099   0.67091   -2.000
 6905.00    0.63222   0.67196   -2.000
 6906.00    0.64059   0.67319   -2.000
 6907.00    0.67360   0.67413   -2.000
 6908.00    0.75943   0.67465   -2.000
 6909.00    0.82411   0.67483   -2.000
 6910.00    0.81039   0.67462   -2.000
 6911.00    0.75694   0.67388   -2.000
 6912.00    0.70830   0.67245   -2.000
 6913.00    0.66403   0.67051   -2.000
 6914.00    0.61807   0.66860   -2.000
 6915.00    0.57971   0.66700   -2.000
 6916.00    0.57133   0.66575   -2.000
 6917.00    0.61151   0.66497   -2.000
 6918.00    0.66551   0.66483   -2.000
 6919.00    0.65675   0.66538   -2.000
 6920.00    0.54295   0.66620   -2.000
 6921.00    0.36661   0.66692   -2.000
 6922.00    0.31052   0.66726   -2.000
 6923.00    0.53376   0.66704   -2.000
 6924.00    0.86791   0.66654   -2.000
 6925.00    1.00527   0.66608   -2.000
 6926.00    0.85879   0.66573   -2.000
 6927.00    0.56978   0.66546   -2.000
 6928.00    0.42500   0.66544   -2.000
 6929.00    0.55364   0.66594   -2.000
 6930.00    0.68644   0.66679   -2.000
 6931.00    0.63174   0.66748   -2.000
 6932.00    0.61788   0.66771   -2.000
 6933.00    0.78914   0.66785   -2.000
 6934.00    0.92357   0.66806   -2.000
 6935.00    0.88806   0.66818   -2.000
 6936.00    0.83497   0.66825   -2.000
 6937.00    0.88182   0.66859   -2.000
 6938.00    0.98547   0.66932   -2.000
 6939.00    1.04794   0.67003   -2.000
 6940.00    0.99045   0.67040   -2.000
 6941.00    0.84480   0.67040   -2.000
 6942.00    0.72224   0.67003   -2.000
 6943.00    0.67001   0.66920   -2.000
 6944.00    0.65635   0.66805   -2.000
 6945.00    0.61772   0.66712   -2.000
 6946.00    0.52364   0.66655   -2.000
 6947.00    0.45967   0.66616   -2.000
 6948.00    0.51145   0.66603   -2.000
 6949.00    0.59959   0.66634   -2.000
 6950.00    0.61675   0.66686   -2.000
 6951.00    0.59602   0.66720   -2.000
 6952.00    0.61038   0.66716   -2.000
 6953.00    0.66682   0.66688   -2.000
 6954.00    0.73758   0.66664   -2.000
 6955.00    0.79629   0.66675   -2.000
 6956.00    0.85099   0.66728   -2.000
 6957.00    0.94483   0.66806   -2.000
 6958.00    1.06256   0.66913   -2.000
 6959.00    1.12482   0.67042   -2.000
 6960.00    1.16335   0.67175   -2.000
 6961.00    1.28956   0.67284   -2.000
 6962.00    1.34479   0.67373   -2.000
 6963.00    1.03017   0.67446   -2.000
 6964.00    0.58187   0.67491   -2.000
 6965.00    0.53615   0.67516   -2.000
 6966.00    0.78646   0.67547   -2.000
 6967.00    0.82319   0.67585   -2.000
 6968.00    0.57215   0.67597   -2.000
 6969.00    0.30347   0.67578   -2.000
 6970.00    0.24375   0.67553   -2.000
 6971.00    0.44313   0.67533   -2.000
 6972.00    0.70566   0.67474   -2.000
 6973.00    0.84185   0.67325   -2.000
 6974.00    0.91150   0.67099   -2.000
 6975.00    0.98275   0.66832   -2.000
 6976.00    0.94390   0.66522   -2.000
 6977.00    0.77058   0.66151   -2.000
 6978.00    0.66731   0.65808   -2.000
 6979.00    0.74286   0.65613   -2.000
 6980.00    0.86459   0.65564   -2.000
 6981.00    0.88337   0.65624   -2.000
 6982.00    0.75330   0.65819   -2.000
 6983.00    0.55937   0.66162   -2.000
 6984.00    0.46173   0.66559   -2.000
 6985.00    0.49967   0.66897   -2.000
 6986.00    0.57857   0.67135   -2.000
 6987.00    0.59704   0.67271   -2.000
 6988.00    0.51397   0.67316   -2.000
 6989.00    0.41138   0.67311   -2.000
 6990.00    0.40300   0.67288   -2.000
 6991.00    0.46242   0.67257   -2.000
 6992.00    0.49633   0.67217   -2.000
 6993.00    0.48781   0.67190   -2.000
 6994.00    0.50197   0.67192   -2.000
 6995.00    0.65600   0.67205   -2.000
 6996.00    0.97844   0.67191   -2.000
 6997.00    1.30391   0.67122   -2.000
 6998.00    1.47862   0.67004   -2.000
 6999.00    1.50820   0.66881   -2.000
 7000.00    1.42096   0.66786   -2.000
 7001.00    1.20400   0.66698   -2.000
 7002.00    0.96583   0.66581   -2.000
 7003.00    0.93439   0.66461   -2.000
 7004.00    1.07932   0.66402   -2.000
 7005.00    1.09568   0.66404   -2.000
 7006.00    0.91543   0.66415   -2.000
 7007.00    0.75373   0.66421   -2.000
 7008.00    0.71884   0.66459   -2.000
 7009.00    0.76213   0.66527   -2.000
 7010.00    0.83122   0.66583   -2.000
 7011.00    0.88362   0.66616   -2.000
 7012.00    0.84690   0.66627   -2.000
 7013.00    0.71414   0.66576   -2.000
 7014.00    0.68515   0.66419   -2.000
 7015.00    0.88657   0.66204   -2.000
 7016.00    1.02559   0.66061   -2.000
 7017.00    0.86890   0.66017   -2.000
 7018.00    0.72766   0.65993   -2.000
 7019.00    0.83021   0.65987   -2.000
 7020.00    0.82332   0.66086   -2.000
 7021.00    0.45175   0.66268   -2.000
 7022.00   -0.00511   0.66400   -2.000
 7023.00   -0.22496   0.66442   -2.000
 7024.00   -0.12700   0.66461   -2.000
 7025.00    0.25199   0.66485   -2.000
 7026.00    0.81079   0.66489   -2.000
 7027.00    1.32945   0.66505   -2.000
 7028.00    1.54429   0.66596   -2.000
 7029.00    1.44855   0.66748   -2.000
 7030.00    1.25537   0.66896   -2.000
 7031.00    1.05081   0.67001   -2.000
 7032.00    0.80158   0.67078   -2.000
 7033.00    0.56783   0.67127   -2.000
 7034.00    0.46829   0.67150   -2.000
 7035.00    0.53938   0.67144   -2.000
 7036.00    0.73934   0.67090   -2.000
 7037.00    0.99040   0.67008   -2.000
 7038.00    1.18287   0.67004   -2.000
 7039.00    1.18476   0.67126   -2.000
 7040.00    0.96747   0.67294   -2.000
 7041.00    0.70346   0.67467   -2.000
 7042.00    0.56645   0.67707   -2.000
 7043.00    0.57501   0.68015   -2.000
 7044.00    0.67093   0.68295   -2.000
 7045.00    0.78086   0.68502   -2.000
 7046.00    0.82723   0.68642   -2.000
 7047.00    0.74621   0.68710   -2.000
 7048.00    0.54604   0.68692   -2.000
 7049.00    0.32040   0.68600   -2.000
 7050.00    0.20261   0.68424   -2.000
 7051.00    0.29867   0.68120   -2.000
 7052.00    0.54862   0.67683   -2.000
 7053.00    0.77932   0.67164   -2.000
 7054.00    0.92442   0.66614   -2.000
 7055.00    1.00587   0.66081   -2.000
 7056.00    0.99602   0.65603   -2.000
 7057.00    0.87980   0.65199   -2.000
 7058.00    0.78696   0.64868   -2.000
 7059.00    0.82541   0.64627   -2.000
 7060.00    0.85474   0.64478   -2.000
 7061.00    0.73101   0.64370   -2.000
 7062.00    0.57928   0.64261   -2.000
 7063.00    0.55494   0.64178   -2.000
 7064.00    0.62048   0.64139   -2.000
 7065.00    0.66690   0.64109   -2.000
 7066.00    0.63035   0.64064   -2.000
 7067.00    0.56966   0.64014   -2.000
 7068.00    0.64826   0.63998   -2.000
 7069.00    0.83824   0.64028   -2.000
 7070.00    0.87505   0.64098   -2.000
 7071.00    0.66603   0.64204   -2.000
 7072.00    0.39342   0.64379   -2.000
 7073.00    0.29237   0.64612   -2.000
 7074.00    0.49155   0.64834   -2.000
 7075.00    0.80641   0.65005   -2.000
 7076.00    0.91340   0.65140   -2.000
 7077.00    0.83909   0.65241   -2.000
 7078.00    0.81640   0.65285   -2.000
 7079.00    0.83901   0.65272   -2.000
 7080.00    0.74536   0.65206   -2.000
 7081.00    0.46614   0.65063   -2.000
 7082.00    0.10307   0.64811   -2.000
 7083.00   -0.04836   0.64449   -2.000
 7084.00    0.18842   0.64033   -2.000
 7085.00    0.59234   0.63590   -2.000
 7086.00    0.85966   0.63090   -2.000
 7087.00    0.88350   0.62557   -2.000
 7088.00    0.73704   0.62094   -2.000
 7089.00    0.60854   0.61739   -2.000
 7090.00    0.58453   0.61448   -2.000
 7091.00    0.57902   0.61207   -2.000
 7092.00    0.55388   0.61033   -2.000
 7093.00    0.57695   0.60947   -2.000
 7094.00    0.65656   0.60935   -2.000
 7095.00    0.72163   0.60974   -2.000
 7096.00    0.75092   0.61039   -2.000
 7097.00    0.77311   0.61148   -2.000
 7098.00    0.77017   0.61313   -2.000
 7099.00    0.70283   0.61491   -2.000
 7100.00    0.60736   0.61659   -2.000
 7101.00    0.54759   0.61816   -2.000
 7102.00    0.50875   0.61978   -2.000
 7103.00    0.46961   0.62123   -2.000
 7104.00    0.51112   0.62235   -2.000
 7105.00    0.66189   0.62294   -2.000
 7106.00    0.73848   0.62323   -2.000
 7107.00    0.62453   0.62365   -2.000
 7108.00    0.50351   0.62398   -2.000
 7109.00    0.54927   0.62363   -2.000
 7110.00    0.70225   0.62277   -2.000
 7111.00    0.83507   0.62227   -2.000
 7112.00    0.86939   0.62230   -2.000
 7113.00    0.79265   0.62230   -2.000
 7114.00    0.65319   0.62234   -2.000
 7115.00    0.51759   0.62309   -2.000
 7116.00    0.44570   0.62440   -2.000
 7117.00    0.46912   0.62560   -2.000
 7118.00    0.57843   0.62645   -2.000
 7119.00    0.70995   0.62708   -2.000
 7120.00    0.78211   0.62723   -2.000
 7121.00    0.78298   0.62665   -2.000
 7122.00    0.75866   0.62579   -2.000
 7123.00    0.75356   0.62467   -2.000
 7124.00    0.77859   0.62265   -2.000
 7125.00    0.78435   0.61987   -2.000
 7126.00    0.71745   0.61732   -2.000
 7127.00    0.59217   0.61506   -2.000
 7128.00    0.45606   0.61221   -2.000
 7129.00    0.34913   0.60897   -2.000
 7130.00    0.33400   0.60652   -2.000
 7131.00    0.50021   0.60541   -2.000
 7132.00    0.79337   0.60498   -2.000
 7133.00    0.95613   0.60491   -2.000
 7134.00    0.87171   0.60559   -2.000
 7135.00    0.70149   0.60728   -2.000
 7136.00    0.59595   0.60948   -2.000
 7137.00    0.57550   0.61139   -2.000
 7138.00    0.61368   0.61278   -2.000
 7139.00    0.66666   0.61404   -2.000
 7140.00    0.65961   0.61532   -2.000
 7141.00    0.52885   0.61607   -2.000
 7142.00    0.33410   0.61627   -2.000
 7143.00    0.20166   0.61639   -2.000
 7144.00    0.15260   0.61653   -2.000
 7145.00    0.15530   0.61630   -2.000
 7146.00    0.26710   0.61538   -2.000
 7147.00    0.51530   0.61408   -2.000
 7148.00    0.71714   0.61343   -2.000
 7149.00    0.70846   0.61357   -2.000
 7150.00    0.61121   0.61386   -2.000
 7151.00    0.61457   0.61470   -2.000
 7152.00    0.74396   0.61704   -2.000
 7153.00    0.88495   0.62012   -2.000
 7154.00    0.85558   0.62282   -2.000
 7155.00    0.65029   0.62548   -2.000
 7156.00    0.51917   0.62825   -2.000
 7157.00    0.58385   0.63004   -2.000
 7158.00    0.69932   0.63042   -2.000
 7159.00    0.74090   0.63014   -2.000
 7160.00    0.71048   0.62958   -2.000
 7161.00    0.65924   0.62809   -2.000
 7162.00    0.63743   0.62493   -2.000
 7163.00    0.63731   0.62106   -2.000
 7164.00    0.62239   0.61761   -2.000
 7165.00    0.62868   0.61509   -2.000
 7166.00    0.71299   0.61278   -2.000
 7167.00    0.81614   0.61107   -2.000
 7168.00    0.84401   0.61066   -2.000
 7169.00    0.82616   0.61190   -2.000
 7170.00    0.81588   0.61400   -2.000
 7171.00    0.74901   0.61605   -2.000
 7172.00    0.64571   0.61773   -2.000
 7173.00    0.77943   0.61911   -2.000
 7174.00    1.11492   0.61999   -2.000
 7175.00    0.97425   0.62012   -2.000
 7176.00    0.26173   0.61973   -2.000
 7177.00    0.00000   0.61907   -2.000
 7178.00    0.00000   0.61787   -2.000
 7179.00    0.00000   0.61611   -2.000
 7180.00    0.00000   0.61454   -2.000
 7181.00    0.00000   0.61371   -2.000
 7182.00    0.00000   0.61315   -2.000
 7183.00    0.00000   0.61234   -2.000
 7184.00    0.00000   0.61158   -2.000
 7185.00    0.00000   0.61117   -2.000
 7186.00    0.00000   0.61066   -2.000
 7187.00    0.00000   0.60973   -2.000
 7188.00    0.00000   0.60862   -2.000
 7189.00    0.00000   0.60770   -2.000
 7190.00    0.00000   0.60711   -2.000
 7191.00    0.00000   0.60696   -2.000
 7192.00    0.00000   0.60742   -2.000
 7193.00    0.00000   0.60861   -2.000
 7194.00    0.00000   0.61024   -2.000
 7195.00    0.00000   0.61130   -2.000
 7196.00    0.00000   0.61169   -2.000
 7197.00    0.00000   0.61226   -2.000
 7198.00    0.00000   0.61303   -2.000
 7199.00    0.00000   0.61314   -2.000
 7200.00    0.00000   0.61244   -2.000
 7201.00    0.00000   0.61179   -2.000
 7202.00    0.00000   0.61168   -2.000
 7203.00    0.00000   0.61159   -2.000
 7204.00    0.00000   0.61084   -2.000
 7205.00    0.00000   0.60943   -2.000
 7206.00    0.00000   0.60807   -2.000
 7207.00    0.00000   0.60731   -2.000
 7208.00    0.00000   0.60675   -2.000
 7209.00    0.00000   0.60612   -2.000
 7210.00    0.00000   0.60604   -2.000
 7211.00    0.00000   0.60697   -2.000
 7212.00    0.00000   0.60852   -2.000
 7213.00    0.00000   0.61027   -2.000
 7214.00    0.00000   0.61207   -2.000
 7215.00    0.00000   0.61351   -2.000
 7216.00    0.00000   0.61473   -2.000
 7217.00    0.00000   0.61597   -2.000
 7218.00    0.00000   0.61697   -2.000
