###################################################################
## OUTPUT of StarlightChains_v04.for    [Cid@UFSC - 01/Apr/2007] ##
###################################################################

## Some input info
SNF20080514-002.txt                      [arq_obs]
Base.CB07.vall.4m                        [arq_base]
Masks.EmLines.NEW.gm                     [arq_masks]
StCv04.C11.config                        [arq_config]
   66                                    [N_base]
    0                                    [N_YAV_components = # of components with extra extinction!]
    0                                    [i_FitPowerLaw (1/0 = Yes/No)]
-9.99                                    [alpha_PowerLaw]
CCM                                      [red_law_option]
 1.458241                                [q_norm = A(l_norm)/A(V)]

## (Re)Sampling Parameters
 3741.00                                 [l_ini (A)]
 7218.00                                 [l_fin (A)]
    1.00                                 [dl    (A)]     (OBS: dl_cushion =    50.00 A)

## Normalization info
 4020.00                                 [l_norm (A) - for base]
 4010.00                                 [llow_norm (A) - window for f_obs]
 4060.00                                 [lupp_norm (A) - window for f_obs]
2.754242E-17                             [fobs_norm (in input units)]

## S/N
 3691.00                                 [llow_SN (A) - window for S/N]
 7268.00                                 [lupp_SN (A) - window for S/N]
   6.738                                 [S/N in S/N window]
   5.901                                 [S/N in norm. window]
  11.948                                 [S/N_err in S/N window]
  10.464                                 [S/N_err in norm. window]
  1.0000                                 [fscale_chi2]

## etc...
    -2007468                             [idum_orig]
  2384                                   [NOl_eff]
  2345                                   [Nl_eff]
    39    NSIGMA                         [Ntot_cliped & clip_method]
  1768130                                [Nglobal_steps]
   7                                     [N_chains]
  29                                     [NEX0s_base = N_base in EX0s-fits]
 0   0   1       38   2.0   1.888E+01    [Clip-Bug, RC-Crash & Burn-In warning-flags, n_censored_weights, wei_nsig_threshold & wei_limit]
    14     14.155     13.663      0.492  [idt_all, wdt_TotTime, wdt_UsrTime & wdt_SysTime (sec)]

## Synthesis Results - Best model ##

 4.81939E-01                             [chi2/Nl_eff]
     4.66153                             [adev (%)]

   106.73710                             [sum-of-x (%)]
 3.07184E-17                             [Flux_tot (units of input spectrum!)]
 1.13657E-12                             [Mini_tot (???)]
 5.87764E-13                             [Mcor_tot (???)]

  49.72                                  [v0_min  (km/s)]
 120.56                                  [vd_min  (km/s)]
 0.0327                                  [AV_min  (mag)]
 0.0000                                  [YAV_min (mag)]

# j     x_j(%)      Mini_j(%)     Mcor_j(%)     age_j(yr)     Z_j      (L/M)_j    YAV?  Mstars   component_j        a/Fe...       SSP_chi2r SSP_adev(%)   SSP_AV   SSP_x(%)
  1      0.0000     0.0000E+00    0.0000E+00    1.000000E+06  0.00400  1.094E-02    0   1.0000   age020_m42            0.0000     1.4697E+00     7.6019   3.5373    86.7172
  2      0.0000     0.0000E+00    0.0000E+00    3.160000E+06  0.00400  4.007E-02    0   0.9999   age045_m42            0.0000     1.2463E+00     6.9667   2.7621    95.0882
  3      0.0000     0.0000E+00    0.0000E+00    5.010000E+06  0.00400  2.539E-02    0   0.9488   age055_m42            0.0000     1.3402E+00     7.1941   3.1036    91.7014
  4      0.0119     1.1512E-05    2.0525E-05    6.610000E+06  0.00400  2.620E-02    0   0.9220   age061_m42            0.0000     1.2519E+00     6.9076   2.6830    95.5393
  5      0.0297     5.6809E-05    9.7351E-05    1.000000E+07  0.00400  1.322E-02    0   0.8862   age070_m42            0.0000     1.3672E+00     7.0877   2.3739    98.7047
  6      0.0000     0.0000E+00    0.0000E+00    1.445000E+07  0.00400  7.883E-03    0   0.8571   age078_m42            0.0000     1.4272E+00     7.2531   2.7192    95.3223
  7      0.0000     0.0000E+00    0.0000E+00    2.512000E+07  0.00400  5.251E-03    0   0.8174   age090_m42            0.0000     1.3990E+00     7.1683   2.2350    99.6808
  8      0.8797     6.1045E-03    9.2676E-03    4.000000E+07  0.00400  3.649E-03    0   0.7851   age104_m42            0.0000     1.2938E+00     6.9477   1.9984   101.0262
  9      0.0000     0.0000E+00    0.0000E+00    5.500000E+07  0.00400  3.098E-03    0   0.7629   age110_m42            0.0000     1.2412E+00     6.7963   2.1582   100.8252
 10      0.0000     0.0000E+00    0.0000E+00    1.015200E+08  0.00400  2.228E-03    0   0.7207   age116_m42            0.0000     1.2321E+00     6.7469   2.1811   100.9583
 11      0.0000     0.0000E+00    0.0000E+00    2.861200E+08  0.00400  1.093E-03    0   0.6648   age125_m42            0.0000     1.2265E+00     6.8798   1.5772   105.7987
 12      0.0000     0.0000E+00    0.0000E+00    5.088000E+08  0.00400  6.597E-04    0   0.6365   age130_m42            0.0000     1.1170E+00     6.5786   1.5685   106.7451
 13      3.1431     3.7330E-01    4.1853E-01    1.434000E+09  0.00400  2.132E-04    0   0.5798   age139_m42            0.0000     6.9115E-01     5.4864   0.5691   110.5381
 14     13.2403     5.6872E+00    5.9134E+00    4.250000E+09  0.00400  5.895E-05    0   0.5377   age158_m42            0.0000     5.3290E-01     4.9054   0.1555   105.0255
 15     10.9286     7.8840E+00    7.9459E+00    7.500000E+09  0.00400  3.510E-05    0   0.5212   age171_m42            0.0000     5.5108E-01     4.9123  -0.0255   104.0791
 16      4.3189     5.4544E+00    5.3095E+00    1.300000E+10  0.00400  2.005E-05    0   0.5034   age193_m42            0.0000     5.9824E-01     5.0239  -0.1834   103.2410
 17      6.5054     1.0802E+01    1.0375E+01    1.800000E+10  0.00400  1.525E-05    0   0.4967   age213_m42            0.0000     5.8559E-01     4.9883  -0.2079   102.8356
 18      0.0000     0.0000E+00    0.0000E+00    1.000000E+06  0.00800  1.238E-02    0   1.0000   age020_m52            0.0000     1.4640E+00     7.5954   3.5336    86.8837
 19      0.0000     0.0000E+00    0.0000E+00    3.160000E+06  0.00800  3.074E-02    0   0.9966   age045_m52            0.0000     1.4348E+00     7.5251   3.4560    87.7071
 20      1.7362     1.6478E-03    3.0089E-03    5.010000E+06  0.00800  2.668E-02    0   0.9443   age055_m52            0.0000     1.3424E+00     7.2320   3.1929    90.5601
 21      0.0000     0.0000E+00    0.0000E+00    6.610000E+06  0.00800  2.136E-02    0   0.9177   age061_m52            0.0000     1.0854E+00     6.4453   1.8691   100.1267
 22      2.0617     4.2967E-03    7.3341E-03    1.000000E+07  0.00800  1.215E-02    0   0.8827   age070_m52            0.0000     1.4602E+00     7.3207   2.5529    98.4267
 23      0.0000     0.0000E+00    0.0000E+00    1.445000E+07  0.00800  8.717E-03    0   0.8552   age078_m52            0.0000     1.3784E+00     7.1326   2.6785    96.9400
 24      1.9040     8.6218E-03    1.3608E-02    2.512000E+07  0.00800  5.592E-03    0   0.8162   age090_m52            0.0000     1.3773E+00     7.1292   2.2926   101.1722
 25      0.0000     0.0000E+00    0.0000E+00    4.000000E+07  0.00800  3.896E-03    0   0.7841   age104_m52            0.0000     1.2897E+00     6.9654   2.1980   102.3888
 26      0.0000     0.0000E+00    0.0000E+00    1.015200E+08  0.00800  2.148E-03    0   0.7226   age116_m52            0.0000     1.1683E+00     6.6848   2.1382   102.2638
 27      0.0000     0.0000E+00    0.0000E+00    2.861200E+08  0.00800  9.925E-04    0   0.6683   age125_m52            0.0000     1.0878E+00     6.4907   1.6306   107.8706
 28      0.0000     0.0000E+00    0.0000E+00    9.047900E+08  0.00800  3.141E-04    0   0.6138   age135_m52            0.0000     7.2367E-01     5.6766   0.8006   114.4019
 29      0.0000     0.0000E+00    0.0000E+00    1.434000E+09  0.00800  1.719E-04    0   0.5853   age139_m52            0.0000     5.8709E-01     5.1491   0.2341   111.3680
 30      0.0000     0.0000E+00    0.0000E+00    2.500000E+09  0.00800  7.872E-05    0   0.5600   age150_m52            0.0000     5.7413E-01     4.9805  -0.0069   107.1163
 31      0.0000     0.0000E+00    0.0000E+00    4.250000E+09  0.00800  4.336E-05    0   0.5426   age158_m52            0.0000     5.8775E-01     5.0275  -0.0190   105.9598
 32      0.0000     0.0000E+00    0.0000E+00    6.250000E+09  0.00800  3.159E-05    0   0.5319   age166_m52            0.0000     6.7452E-01     5.2629  -0.2140   105.7110
 33      5.3360     9.9275E+00    9.7387E+00    1.300000E+10  0.00800  1.361E-05    0   0.5073   age193_m52            0.0000     8.5476E-01     5.7510  -0.6687   104.4878
 34      0.1512     3.8734E-01    3.7375E-01    1.800000E+10  0.00800  9.886E-06    0   0.4990   age213_m52            0.0000     1.0470E+00     6.2660  -0.7601   103.2654
 35      0.0000     0.0000E+00    0.0000E+00    1.000000E+06  0.02000  1.544E-02    0   1.0000   age020_m62            0.0000     1.4689E+00     7.6214   3.5322    86.9758
 36      3.8535     2.5938E-03    4.9444E-03    3.160000E+06  0.02000  3.762E-02    0   0.9858   age045_m62            0.0000     1.4570E+00     7.6034   3.4715    87.7272
 37      0.0000     0.0000E+00    0.0000E+00    5.010000E+06  0.02000  3.296E-02    0   0.9342   age055_m62            0.0000     1.2835E+00     7.0385   3.0587    93.0984
 38      6.9793     1.5314E-02    2.6240E-02    8.710000E+06  0.02000  1.154E-02    0   0.8861   age067_m62            0.0000     2.4163E+00     9.3686   1.9719   102.3608
 39      2.9447     9.7304E-03    1.5941E-02    1.445000E+07  0.02000  7.663E-03    0   0.8472   age078_m62            0.0000     1.5996E+00     7.6527   2.1788   101.6129
 40      0.0000     0.0000E+00    0.0000E+00    2.512000E+07  0.02000  4.532E-03    0   0.8099   age090_m62            0.0000     1.6974E+00     7.8468   2.1664   101.5512
 41      3.0184     2.7965E-02    4.1071E-02    5.500000E+07  0.02000  2.733E-03    0   0.7595   age110_m62            0.0000     1.2861E+00     6.8798   2.1870   101.3163
 42      0.0000     0.0000E+00    0.0000E+00    1.609000E+08  0.02000  1.369E-03    0   0.6985   age120_m62            0.0000     1.2092E+00     6.6682   2.0148   104.8646
 43      0.0000     0.0000E+00    0.0000E+00    2.861200E+08  0.02000  9.013E-04    0   0.6714   age125_m62            0.0000     1.1526E+00     6.5346   1.7472   108.8995
 44      0.0000     0.0000E+00    0.0000E+00    5.088000E+08  0.02000  5.028E-04    0   0.6449   age130_m62            0.0000     9.4406E-01     6.1734   1.3556   112.8105
 45      0.0000     0.0000E+00    0.0000E+00    9.047900E+08  0.02000  2.428E-04    0   0.6179   age135_m62            0.0000     6.5716E-01     5.3554   0.7673   112.4225
 46      0.0011     2.1613E-04    2.4692E-04    1.434000E+09  0.02000  1.263E-04    0   0.5908   age139_m62            0.0000     5.8564E-01     5.0588   0.3337   110.2695
 47      0.0000     0.0000E+00    0.0000E+00    2.500000E+09  0.02000  5.985E-05    0   0.5673   age150_m62            0.0000     6.6834E-01     5.2517  -0.0094   107.7065
 48     14.1206     1.0931E+01    1.1558E+01    4.250000E+09  0.02000  3.271E-05    0   0.5468   age158_m62            0.0000     8.4904E-01     5.7626  -0.2964   106.0318
 49     12.2835     2.2870E+01    2.2851E+01    1.000000E+10  0.02000  1.360E-05    0   0.5167   age181_m62            0.0000     1.2025E+00     6.7616  -0.6211   104.6178
 50      4.3865     1.5591E+01    1.5114E+01    1.800000E+10  0.02000  7.124E-06    0   0.5013   age213_m62            0.0000     1.5210E+00     7.5927  -0.8027   102.5433
 51      0.0000     0.0000E+00    0.0000E+00    1.000000E+06  0.05000  2.592E-02    0   0.9998   age020_m72            0.0000     1.4930E+00     7.7056   3.5277    86.8158
 52      1.0300     5.3832E-04    9.9693E-04    3.160000E+06  0.05000  4.845E-02    0   0.9577   age045_m72            0.0000     1.3867E+00     7.3968   3.3459    89.3196
 53      0.0000     0.0000E+00    0.0000E+00    5.010000E+06  0.05000  3.072E-02    0   0.9147   age055_m72            0.0000     1.5639E+00     7.6331   2.8064    95.9124
 54      0.0000     0.0000E+00    0.0000E+00    6.610000E+06  0.05000  1.455E-02    0   0.8877   age061_m72            0.0000     3.6697E+00    11.6479   2.0066   103.9051
 55      0.3253     9.0781E-04    1.4963E-03    1.000000E+07  0.05000  9.074E-03    0   0.8524   age070_m72            0.0000     1.8652E+00     8.2659   2.9954    95.5308
 56      0.0000     0.0000E+00    0.0000E+00    2.512000E+07  0.05000  4.250E-03    0   0.7902   age090_m72            0.0000     1.6453E+00     7.7824   2.6666    98.6140
 57      0.0000     0.0000E+00    0.0000E+00    4.000000E+07  0.05000  3.087E-03    0   0.7618   age104_m72            0.0000     1.6753E+00     7.8458   2.4213   101.0973
 58      0.0000     0.0000E+00    0.0000E+00    1.015200E+08  0.05000  1.700E-03    0   0.7096   age116_m72            0.0000     1.3186E+00     6.9740   2.1537   104.5267
 59      0.0000     0.0000E+00    0.0000E+00    2.861200E+08  0.05000  7.384E-04    0   0.6633   age125_m72            0.0000     1.0437E+00     6.3138   1.6091   110.8356
 60      0.0000     0.0000E+00    0.0000E+00    5.088000E+08  0.05000  3.819E-04    0   0.6372   age130_m72            0.0000     7.5913E-01     5.5886   1.1114   113.1308
 61      0.0000     0.0000E+00    0.0000E+00    9.047900E+08  0.05000  1.676E-04    0   0.6110   age135_m72            0.0000     6.9118E-01     5.3635   0.4443   109.8632
 62      0.0013     3.6059E-04    4.0959E-04    1.434000E+09  0.05000  8.837E-05    0   0.5874   age139_m72            0.0000     7.0895E-01     5.3964  -0.0138   109.4972
 63      2.8309     1.6934E+00    1.8331E+00    2.500000E+09  0.05000  4.233E-05    0   0.5598   age150_m72            0.0000     9.4320E-01     6.0610  -0.2902   106.6346
 64      4.7154     8.3205E+00    8.4454E+00    6.250000E+09  0.05000  1.435E-05    0   0.5249   age166_m72            0.0000     1.2857E+00     7.0526  -0.7067   103.6603
 65      0.0000     0.0000E+00    0.0000E+00    1.300000E+10  0.05000  6.513E-06    0   0.5036   age193_m72            0.0000     1.7145E+00     8.1705  -0.9478   102.9033
 66      0.0000     0.0000E+00    0.0000E+00    1.800000E+10  0.05000  4.527E-06    0   0.4945   age213_m72            0.0000     2.0239E+00     8.7837  -1.0000    97.8910


## Synthesis Results - Average & Chains ##

# j      x_j: min, <> & last-chain-values for 1 ...  7 chains
  1      0.0000      0.1591      0.0000      0.0000      0.0000      0.0000      0.0000      0.0000      0.0000
  2      0.0000      0.1741      0.0000      0.0000      0.0000      0.0000      0.1989      0.5141      0.0000
  3      0.0000      0.9458      0.8431      0.0000      1.5288      3.6374      0.2226      2.0794      0.3227
  4      0.0119      0.3107      0.0000      0.0000      0.0000      0.0000      0.0000      0.0000      0.7021
  5      0.0297      0.4716      0.0000      0.0000      0.0000      0.6766      2.2659      0.0000      0.7035
  6      0.0000      0.5353      1.1270      1.5475      1.1130      0.0000      2.4255      1.7776      0.0000
  7      0.0000      0.2510      0.3498      0.0000      0.3850      0.6055      0.0000      0.0000      0.2262
  8      0.8797      0.3661      0.0000      0.0000      0.0000      0.0000      0.0000      0.6418      0.6939
  9      0.0000      0.2383      0.0000      0.0000      1.4469      0.0000      0.0000      0.0000      0.0000
 10      0.0000      0.6753      1.0241      1.0945      0.0000      0.0000      0.0000      0.0000      0.0000
 11      0.0000      0.3062      0.0000      0.0000      0.0000      0.0613      0.2054      0.0000      0.0000
 12      0.0000      0.3419      0.0000      0.0000      0.1112      0.0000      0.0000      0.0000      0.0000
 13      3.1431      1.6115      1.5956      1.2853      1.3586      0.0000      2.1147      3.7187      1.3087
 14     13.2403      7.8490      9.9151      9.3745      0.9491     11.8208      4.5564     13.3014      7.4144
 15     10.9286      7.0162     11.0586      9.4455     14.7139     11.2057      8.0512      4.1805      7.5396
 16      4.3189      9.5788      8.5715      7.8765      9.3947      6.1254      9.4277      4.2850     10.6639
 17      6.5054      2.8179      2.8341      2.9094      9.6034      0.5639      4.3885      0.1001      2.0012
 18      0.0000      0.4400      0.7847      0.3808      0.0000      1.0850      0.0000      0.0000      1.0449
 19      0.0000      0.3299      0.0000      0.0000      1.0595      0.4121      0.0000      0.0000      0.4425
 20      1.7362      0.7884      0.0000      0.3596      0.0000      0.8043      1.8510      0.3941      3.1174
 21      0.0000      0.4720      1.0972      0.5302      1.0433      0.0000      0.3416      0.0000      0.2464
 22      2.0617      1.4117      0.4724      0.7724      1.5829      1.6210      3.3665      3.6983      1.8692
 23      0.0000      0.2815      2.0402      0.1568      0.0000      1.2351      0.3293      0.0000      0.0000
 24      1.9040      1.0639      1.5334      1.6337      2.1102      1.2527      0.0799      1.0072      0.7393
 25      0.0000      0.3858      0.0000      0.0000      1.8284      2.3485      0.0000      0.0000      0.3318
 26      0.0000      1.4290      2.3208      3.0510      2.6004      0.1137      1.5198      1.6957      0.0000
 27      0.0000      0.3473      0.0000      0.2154      0.1265      1.4979      0.0000      0.0000      0.0000
 28      0.0000      0.3858      1.0805      1.5189      0.0000      0.0000      0.0000      0.1349      0.0000
 29      0.0000      1.2846      0.4931      0.0000      0.0000      0.4361      0.0000      0.0000      0.0000
 30      0.0000      1.6654      0.1663      0.0000      0.0000      0.3294      0.0000      0.5808      0.0000
 31      0.0000      1.8500      0.0000      0.0000      0.0000      0.5078      0.0000      0.0000      0.0000
 32      0.0000      1.0357      2.4512      0.0000      1.2429      0.0000      0.0000      2.8963      0.0000
 33      5.3360      4.0676      4.2915      4.3117      4.2331      3.6908      6.2253      3.3301      1.8540
 34      0.1512      0.3694      0.0000      0.0000      0.0000      0.0000      0.0000      0.5897      2.5053
 35      0.0000      0.3281      0.2208      0.0000      1.1198      0.0000      0.0000      0.0000      0.0000
 36      3.8535      2.4081      2.5843      3.6674      4.0959      2.3699      3.3047      4.0813      2.6248
 37      0.0000      0.2006      1.2280      0.0689      0.0000      0.0000      0.0000      0.0000      0.2272
 38      6.9793      2.6268      3.7586      2.4805      2.2600      2.0468      1.0499      2.9778      3.0647
 39      2.9447      0.8477      0.4554      0.7727      0.0000      0.1217      1.1605      0.9840      3.7795
 40      0.0000      0.2112      0.0000      1.0843      0.0000      0.0000      0.0000      0.0000      0.0000
 41      3.0184      1.0236      0.0000      5.1191      1.6408      1.8706      0.9099      0.0000      1.5573
 42      0.0000      0.2365      0.7549      0.0000      0.0000      0.3024      0.0000      0.5479      0.0000
 43      0.0000      0.2398      0.0000      0.0000      0.0000      0.0000      0.6835      0.0000      0.0000
 44      0.0000      0.2744      0.0000      0.0000      0.6778      0.0000      0.7589      0.0000      0.0000
 45      0.0000      0.5060      0.6698      0.0000      0.7691      0.0000      0.0000      0.0000      0.0000
 46      0.0011      1.7168      1.0540      1.6971      0.0780      0.0000      4.4393      1.1194      1.2515
 47      0.0000      1.6846      0.0000      0.0000      0.0000      0.0000      1.3977      0.0000      1.6820
 48     14.1206     12.0242     12.4890     11.9998     12.4458     11.3587     14.0764     14.9070     11.1366
 49     12.2835      3.3987      1.3048      4.2708      2.7972      4.4166      4.5994      6.7755      5.9620
 50      4.3865      3.6788      4.0215      5.2061      2.0139      5.9963      4.5820      3.7665      4.4008
 51      0.0000      0.2025      0.2666      0.0000      0.0000      0.1699      1.3993      0.0278      0.0000
 52      1.0300      0.6045      0.2998      0.0000      0.9281      1.8387      0.6148      0.0000      0.6436
 53      0.0000      0.1993      0.0000      0.0000      0.1372      0.0000      0.0000      0.0000      0.1029
 54      0.0000      0.4851      0.4315      1.5780      0.3868      0.0000      0.5283      0.4885      0.0000
 55      0.3253      2.2064      2.0257      1.2752      0.7416      1.3944      2.5188      3.4055      3.1706
 56      0.0000      0.4236      1.3508      0.0000      0.0000      0.6557      0.0000      0.5043      0.0000
 57      0.0000      0.4806      0.0000      0.2946      0.0000      0.0000      0.0000      0.8783      0.0000
 58      0.0000      0.1985      0.0000      0.9751      0.0000      1.0620      0.0000      0.0735      0.0000
 59      0.0000      0.3227      0.0000      0.0000      0.0000      0.0000      0.0000      0.0000      0.0000
 60      0.0000      0.3403      0.0000      0.0000      0.0000      0.0000      1.4865      0.0000      2.4489
 61      0.0000      1.3826      0.0000      0.0000      1.5074      0.0000      1.0019      0.8890      0.0000
 62      0.0013      2.8124      0.1186      7.3258      0.8013      6.3462      1.5197      1.9402      4.6082
 63      2.8309     13.8159     17.1212     11.8572     16.2148     17.0410     13.0742     18.7114     15.6930
 64      4.7154      0.9409      2.3081      1.4938      1.8364      0.0000      0.0000      0.3784      1.2449
 65      0.0000      0.2052      0.0000      0.0000      0.0226      0.0000      0.0000      0.0000      0.0000
 66      0.0000      0.1368      0.4914      0.0000      0.0000      0.1313      0.5935      0.0000      0.0000

# j      m_j: min, <> & last-chain-values for 1 ...  7 chains
  1  0.0000E+00  8.9127E-04  0.0000E+00  0.0000E+00  0.0000E+00  0.0000E+00  0.0000E+00  0.0000E+00  0.0000E+00
  2  0.0000E+00  2.6627E-04  0.0000E+00  0.0000E+00  0.0000E+00  0.0000E+00  2.7537E-04  8.1779E-04  0.0000E+00
  3  0.0000E+00  2.1667E-03  1.8652E-03  0.0000E+00  3.3310E-03  8.1900E-03  4.6146E-04  4.9539E-03  6.9067E-04
  4  2.0525E-05  6.7021E-04  0.0000E+00  0.0000E+00  0.0000E+00  0.0000E+00  0.0000E+00  0.0000E+00  1.4153E-03
  5  9.7351E-05  1.9381E-03  0.0000E+00  0.0000E+00  0.0000E+00  2.7328E-03  8.4256E-03  0.0000E+00  2.7011E-03
  6  0.0000E+00  3.5678E-03  7.2542E-03  9.9706E-03  7.0558E-03  0.0000E+00  1.4629E-02  1.2322E-02  0.0000E+00
  7  0.0000E+00  2.3950E-03  3.2236E-03  0.0000E+00  3.4940E-03  5.6788E-03  0.0000E+00  0.0000E+00  2.0171E-03
  8  9.2676E-03  4.8282E-03  0.0000E+00  0.0000E+00  0.0000E+00  0.0000E+00  0.0000E+00  8.8029E-03  8.5516E-03
  9  0.0000E+00  3.5971E-03  0.0000E+00  0.0000E+00  2.0774E-02  0.0000E+00  0.0000E+00  0.0000E+00  0.0000E+00
 10  0.0000E+00  1.3392E-02  1.9611E-02  2.0981E-02  0.0000E+00  0.0000E+00  0.0000E+00  0.0000E+00  0.0000E+00
 11  0.0000E+00  1.1418E-02  0.0000E+00  0.0000E+00  0.0000E+00  2.2479E-03  6.9304E-03  0.0000E+00  0.0000E+00
 12  0.0000E+00  2.0225E-02  0.0000E+00  0.0000E+00  6.2531E-03  0.0000E+00  0.0000E+00  0.0000E+00  0.0000E+00
 13  4.1853E-01  2.6867E-01  2.5687E-01  2.0713E-01  2.1543E-01  0.0000E+00  3.1900E-01  6.4473E-01  2.0386E-01
 14  5.9134E+00  4.3889E+00  5.3539E+00  5.0671E+00  5.0474E-01  6.4965E+00  2.3053E+00  7.7348E+00  3.8737E+00
 15  7.9459E+00  6.3868E+00  9.7212E+00  8.3115E+00  1.2739E+01  1.0026E+01  6.6315E+00  3.9575E+00  6.4127E+00
 16  5.3095E+00  1.4743E+01  1.2740E+01  1.1719E+01  1.3753E+01  9.2664E+00  1.3130E+01  6.8588E+00  1.5336E+01
 17  1.0375E+01  5.6264E+00  5.4647E+00  5.6154E+00  1.8237E+01  1.1066E+00  7.9285E+00  2.0788E-01  3.7335E+00
 18  0.0000E+00  2.1789E-03  3.7525E-03  1.8226E-03  0.0000E+00  5.2805E-03  0.0000E+00  0.0000E+00  4.8345E-03
 19  0.0000E+00  6.5558E-04  0.0000E+00  0.0000E+00  2.0027E-03  8.0504E-04  0.0000E+00  0.0000E+00  8.2176E-04
 20  3.0089E-03  1.7107E-03  0.0000E+00  7.5429E-04  0.0000E+00  1.7151E-03  3.6340E-03  8.8926E-04  6.3198E-03
 21  0.0000E+00  1.2432E-03  2.7907E-03  1.3500E-03  2.6136E-03  0.0000E+00  8.1409E-04  0.0000E+00  6.0642E-04
 22  7.3341E-03  6.2875E-03  2.0319E-03  3.3252E-03  6.7049E-03  7.0958E-03  1.3567E-02  1.7129E-02  7.7783E-03
 23  0.0000E+00  1.6933E-03  1.1849E-02  9.1172E-04  0.0000E+00  7.3009E-03  1.7919E-03  0.0000E+00  0.0000E+00
 24  1.3608E-02  9.5196E-03  1.3250E-02  1.4131E-02  1.7959E-02  1.1017E-02  6.4671E-04  9.3726E-03  6.1811E-03
 25  0.0000E+00  4.7600E-03  0.0000E+00  0.0000E+00  2.1455E-02  2.8479E-02  0.0000E+00  0.0000E+00  3.8246E-03
 26  0.0000E+00  2.9470E-02  4.6219E-02  6.0822E-02  5.1005E-02  2.3054E-03  2.8360E-02  3.6366E-02  0.0000E+00
 27  0.0000E+00  1.4335E-02  0.0000E+00  8.5961E-03  4.9657E-03  6.0771E-02  0.0000E+00  0.0000E+00  0.0000E+00
 28  0.0000E+00  4.6213E-02  1.2500E-01  1.7589E-01  0.0000E+00  0.0000E+00  0.0000E+00  1.6811E-02  0.0000E+00
 29  0.0000E+00  2.6815E-01  9.9389E-02  0.0000E+00  0.0000E+00  8.9466E-02  0.0000E+00  0.0000E+00  0.0000E+00
 30  0.0000E+00  7.2629E-01  7.0021E-02  0.0000E+00  0.0000E+00  1.4118E-01  0.0000E+00  2.6340E-01  0.0000E+00
 31  0.0000E+00  1.4192E+00  0.0000E+00  0.0000E+00  0.0000E+00  3.8291E-01  0.0000E+00  0.0000E+00  0.0000E+00
 32  0.0000E+00  1.0690E+00  2.4433E+00  0.0000E+00  1.2202E+00  0.0000E+00  0.0000E+00  3.1090E+00  0.0000E+00
 33  9.7387E+00  9.2947E+00  9.4696E+00  9.5239E+00  9.1998E+00  8.2892E+00  1.2871E+01  7.9132E+00  3.9583E+00
 34  3.7375E-01  1.1432E+00  0.0000E+00  0.0000E+00  0.0000E+00  0.0000E+00  0.0000E+00  1.8976E+00  7.2434E+00
 35  0.0000E+00  1.3026E-03  8.4652E-04  0.0000E+00  4.2286E-03  0.0000E+00  0.0000E+00  0.0000E+00  0.0000E+00
 36  4.9444E-03  3.8684E-03  4.0090E-03  5.6949E-03  6.2579E-03  3.7417E-03  4.8034E-03  6.8181E-03  3.9397E-03
 37  0.0000E+00  3.4853E-04  2.0605E-03  1.1580E-04  0.0000E+00  0.0000E+00  0.0000E+00  0.0000E+00  3.6890E-04
 38  2.6240E-02  1.2365E-02  1.7085E-02  1.1287E-02  1.0118E-02  9.4698E-03  4.4718E-03  1.4577E-02  1.3479E-02
 39  1.5941E-02  5.7452E-03  2.9803E-03  5.0622E-03  0.0000E+00  8.1075E-04  7.1165E-03  6.9358E-03  2.3934E-02
 40  0.0000E+00  2.3138E-03  0.0000E+00  1.1483E-02  0.0000E+00  0.0000E+00  0.0000E+00  0.0000E+00  0.0000E+00
 41  4.1071E-02  1.7438E-02  0.0000E+00  8.4303E-02  2.6586E-02  3.1322E-02  1.4026E-02  0.0000E+00  2.4788E-02
 42  0.0000E+00  7.3989E-03  2.2802E-02  0.0000E+00  0.0000E+00  9.2981E-03  0.0000E+00  1.7823E-02  0.0000E+00
 43  0.0000E+00  1.0951E-02  0.0000E+00  0.0000E+00  0.0000E+00  0.0000E+00  2.8242E-02  0.0000E+00  0.0000E+00
 44  0.0000E+00  2.1579E-02  0.0000E+00  0.0000E+00  5.0687E-02  0.0000E+00  5.3996E-02  0.0000E+00  0.0000E+00
 45  0.0000E+00  7.8943E-02  1.0091E-01  0.0000E+00  1.1412E-01  0.0000E+00  0.0000E+00  0.0000E+00  0.0000E+00
 46  2.4692E-04  4.9233E-01  2.9187E-01  4.7043E-01  2.1281E-02  0.0000E+00  1.1519E+00  3.3381E-01  3.3533E-01
 47  0.0000E+00  9.7888E-01  0.0000E+00  0.0000E+00  0.0000E+00  0.0000E+00  7.3487E-01  0.0000E+00  9.1320E-01
 48  1.1558E+01  1.2322E+01  1.2359E+01  1.1887E+01  1.2131E+01  1.1441E+01  1.3052E+01  1.5887E+01  1.0663E+01
 49  2.2851E+01  7.9158E+00  2.9348E+00  9.6154E+00  6.1965E+00  1.0110E+01  9.6930E+00  1.6411E+01  1.2974E+01
 50  1.5114E+01  1.5870E+01  1.6753E+01  2.1709E+01  8.2628E+00  2.5423E+01  1.7885E+01  1.6897E+01  1.7738E+01
 51  0.0000E+00  4.7883E-04  6.0883E-04  0.0000E+00  0.0000E+00  3.9486E-04  2.9940E-03  6.8283E-05  0.0000E+00
 52  9.9693E-04  7.3246E-04  3.5082E-04  0.0000E+00  1.0696E-03  2.1899E-03  6.7414E-04  0.0000E+00  7.2875E-04
 53  0.0000E+00  3.6382E-04  0.0000E+00  0.0000E+00  2.3814E-04  0.0000E+00  0.0000E+00  0.0000E+00  1.7542E-04
 54  0.0000E+00  1.8142E-03  1.5585E-03  5.7052E-03  1.3760E-03  0.0000E+00  1.7879E-03  1.9000E-03  0.0000E+00
 55  1.4963E-03  1.2706E-02  1.1265E-02  7.0987E-03  4.0620E-03  7.8924E-03  1.3125E-02  2.0395E-02  1.7060E-02
 56  0.0000E+00  4.8278E-03  1.4868E-02  0.0000E+00  0.0000E+00  7.3456E-03  0.0000E+00  5.9779E-03  0.0000E+00
 57  0.0000E+00  7.2706E-03  0.0000E+00  4.3085E-03  0.0000E+00  0.0000E+00  0.0000E+00  1.3818E-02  0.0000E+00
 58  0.0000E+00  5.0802E-03  0.0000E+00  2.4121E-02  0.0000E+00  2.6709E-02  0.0000E+00  1.9561E-03  0.0000E+00
 59  0.0000E+00  1.7771E-02  0.0000E+00  0.0000E+00  0.0000E+00  0.0000E+00  0.0000E+00  0.0000E+00  0.0000E+00
 60  0.0000E+00  3.4808E-02  0.0000E+00  0.0000E+00  0.0000E+00  0.0000E+00  1.3757E-01  0.0000E+00  2.3404E-01
 61  0.0000E+00  3.0900E-01  0.0000E+00  0.0000E+00  3.2042E-01  0.0000E+00  2.0261E-01  2.0661E-01  0.0000E+00
 62  4.0959E-04  1.1460E+00  4.6652E-02  2.8856E+00  3.1054E-01  2.5417E+00  5.6032E-01  8.2219E-01  1.7545E+00
 63  1.8331E+00  1.1201E+01  1.3404E+01  9.2923E+00  1.2503E+01  1.3579E+01  9.5908E+00  1.5776E+01  1.1887E+01
 64  8.4454E+00  2.1099E+00  4.9980E+00  3.2381E+00  3.9167E+00  0.0000E+00  0.0000E+00  8.8246E-01  2.6084E+00
 65  0.0000E+00  9.7253E-01  0.0000E+00  0.0000E+00  1.0206E-01  0.0000E+00  0.0000E+00  0.0000E+00  0.0000E+00
 66  0.0000E+00  9.1636E-01  3.1775E+00  0.0000E+00  0.0000E+00  8.6402E-01  3.5958E+00  0.0000E+00  0.0000E+00

# AV, chi2 & Mass for <> & i_chain = 1 ...  7 solutions
AV       0.0327      0.1243      0.1086      0.1220      0.1229      0.1296      0.1123      0.1247      0.1093
chi2 4.8194E-01  4.8766E-01  4.8599E-01  4.8632E-01  4.8649E-01  4.8619E-01  4.8614E-01  4.8616E-01  4.8583E-01
Mass 5.8776E-13  5.3090E-13  5.3831E-13  5.4755E-13  5.5715E-13  5.4399E-13  5.7738E-13  5.1082E-13  5.5689E-13
  49.72                                  [v0_min (km/s) before EX0s...]
 120.56                                  [vd_min (km/s) before EX0s...]


## Synthetic spectrum (Best Model) ##l_obs f_obs f_syn wei
 3478    [Nl_obs]
 3741.00    0.93121   0.70865    0.000
 3742.00    0.86854   0.71286    0.000
 3743.00    0.82725   0.69276    0.000
 3744.00    0.82561   0.65943    0.000
 3745.00    0.75730   0.62245   13.205
 3746.00    0.61056   0.58667   16.378
 3747.00    0.45770   0.55235   18.882
 3748.00    0.36119   0.51851   18.882
 3749.00    0.36078   0.49361   18.882
 3750.00    0.47855   0.49328   18.882
 3751.00    0.69491   0.52559   14.390
 3752.00    0.91684   0.58287   -1.000
 3753.00    1.03299   0.64847   -1.000
 3754.00    0.99379   0.70696   -1.000
 3755.00    0.84805   0.74530   11.792
 3756.00    0.76000   0.75387   13.158
 3757.00    0.83763   0.73268   11.938
 3758.00    0.96511   0.69782   10.362
 3759.00    1.00469   0.67299   -1.000
 3760.00    0.99258   0.66984   -1.000
 3761.00    0.97153   0.68248   -1.000
 3762.00    0.85177   0.69717   11.740
 3763.00    0.62165   0.70407   16.086
 3764.00    0.48636   0.70319   -1.000
 3765.00    0.56739   0.69706   17.624
 3766.00    0.70912   0.68430   14.102
 3767.00    0.70932   0.66677   14.098
 3768.00    0.49552   0.65054   18.882
 3769.00    0.20783   0.63869   -1.000
 3770.00    0.16335   0.63324   -1.000
 3771.00    0.42967   0.63994   -1.000
 3772.00    0.69391   0.66202   14.411
 3773.00    0.75923   0.69364   13.171
 3774.00    0.73189   0.72458   13.663
 3775.00    0.74062   0.74839   13.502
 3776.00    0.81306   0.76641   12.299
 3777.00    0.90571   0.78306   11.041
 3778.00    0.94379   0.80111   10.596
 3779.00    0.91139   0.82172   10.972
 3780.00    0.85980   0.84274   11.631
 3781.00    0.82800   0.85979   12.077
 3782.00    0.83014   0.87038   12.046
 3783.00    0.89650   0.87401   11.155
 3784.00    1.04618   0.86855    9.559
 3785.00    1.18648   0.84939    8.428
 3786.00    1.18913   0.81656   -1.000
 3787.00    1.12961   0.77931   -1.000
 3788.00    1.18508   0.74811   -1.000
 3789.00    1.29627   0.72860   -1.000
 3790.00    1.27771   0.72083   -1.000
 3791.00    1.17173   0.71949   -1.000
 3792.00    1.15691   0.71500   -1.000
 3793.00    1.26353   0.69944   -1.000
 3794.00    1.37837   0.67173   -1.000
 3795.00    1.34189   0.63665   -1.000
 3796.00    1.08858   0.59996   -1.000
 3797.00    0.81271   0.56649   -1.000
 3798.00    0.74637   0.54555   13.398
 3799.00    0.84728   0.54955   -1.000
 3800.00    0.94901   0.58301   -1.000
 3801.00    0.98727   0.63695   -1.000
 3802.00    0.98392   0.69576   -1.000
 3803.00    0.99464   0.74626   10.054
 3804.00    1.03565   0.77967    9.656
 3805.00    1.03023   0.79349    9.707
 3806.00    0.94144   0.79223   10.622
 3807.00    0.87468   0.78768   11.433
 3808.00    0.89791   0.79244   11.137
 3809.00    0.91287   0.80853   10.954
 3810.00    0.84346   0.82652   11.856
 3811.00    0.76261   0.83355   13.113
 3812.00    0.75589   0.82182   13.229
 3813.00    0.82907   0.79351   12.062
 3814.00    0.93988   0.75905   10.640
 3815.00    1.02807   0.72976    9.727
 3816.00    1.05524   0.71336   -1.000
 3817.00    1.02098   0.70862   -1.000
 3818.00    0.93591   0.70372   10.685
 3819.00    0.80927   0.68852   12.357
 3820.00    0.65571   0.66778   15.251
 3821.00    0.50128   0.65619   18.882
 3822.00    0.39387   0.65939   -1.000
 3823.00    0.38424   0.66610   -1.000
 3824.00    0.44485   0.66142   -1.000
 3825.00    0.48899   0.64352   18.882
 3826.00    0.52879   0.62234   18.882
 3827.00    0.65038   0.60753   15.376
 3828.00    0.78755   0.60075   12.698
 3829.00    0.76923   0.59743   13.000
 3830.00    0.62475   0.59068   16.006
 3831.00    0.53390   0.57351   18.730
 3832.00    0.50771   0.54422   18.882
 3833.00    0.42339   0.50984   18.882
 3834.00    0.27228   0.48127   -1.000
 3835.00    0.15088   0.46715   -1.000
 3836.00    0.13167   0.46874   -1.000
 3837.00    0.22831   0.47967   -1.000
 3838.00    0.38327   0.49450   18.882
 3839.00    0.51715   0.51366   18.882
 3840.00    0.61046   0.54071   16.381
 3841.00    0.68454   0.57894   14.608
 3842.00    0.75382   0.62639   13.266
 3843.00    0.82395   0.67399   12.137
 3844.00    0.89843   0.71288   11.130
 3845.00    0.97743   0.73901   10.231
 3846.00    1.05541   0.75432    9.475
 3847.00    1.12341   0.76298    0.000
 3848.00    1.17069   0.76536    0.000
 3849.00    1.17273   0.76119    0.000
 3850.00    1.08684   0.75531    0.000
 3851.00    0.92796   0.75505    0.000
 3852.00    0.82056   0.76095    0.000
 3853.00    0.84779   0.76598    0.000
 3854.00    0.93679   0.76350    0.000
 3855.00    0.96555   0.75213    0.000
 3856.00    0.85889   0.73582    0.000
 3857.00    0.65075   0.71902    0.000
 3858.00    0.49342   0.70190    0.000
 3859.00    0.47767   0.68661    0.000
 3860.00    0.54864   0.68149    0.000
 3861.00    0.66142   0.69411    0.000
 3862.00    0.84325   0.72216    0.000
 3863.00    1.05490   0.75259    0.000
 3864.00    1.16325   0.77223    0.000
 3865.00    1.14038   0.77741    0.000
 3866.00    1.10386   0.77368    0.000
 3867.00    1.10518   0.76751    0.000
 3868.00    1.08281   0.76085    0.000
 3869.00    1.01780   0.75107    0.000
 3870.00    0.96547   0.73473    0.000
 3871.00    0.96248   0.71430    0.000
 3872.00    0.99382   0.69848    0.000
 3873.00    0.99305   0.69762    0.000
 3874.00    0.88746   0.71303    0.000
 3875.00    0.71534   0.73320    0.000
 3876.00    0.59230   0.74245    0.000
 3877.00    0.55132   0.73383    0.000
 3878.00    0.54284   0.71453    0.000
 3879.00    0.52492   0.69881    0.000
 3880.00    0.48972   0.69219    0.000
 3881.00    0.47266   0.68948   -1.000
 3882.00    0.50989   0.68605   -1.000
 3883.00    0.56156   0.68134   17.808
 3884.00    0.56980   0.67268   17.550
 3885.00    0.57233   0.65259   17.472
 3886.00    0.62798   0.61929   15.924
 3887.00    0.68325   0.58208   14.636
 3888.00    0.65187   0.55471   15.340
 3889.00    0.54666   0.54917   18.293
 3890.00    0.45391   0.57076   18.882
 3891.00    0.47361   0.61346   18.882
 3892.00    0.63194   0.66322   15.824
 3893.00    0.80447   0.70478   12.430
 3894.00    0.85822   0.73089   11.652
 3895.00    0.79788   0.74488   12.533
 3896.00    0.70645   0.75549   14.155
 3897.00    0.67028   0.76655   14.919
 3898.00    0.71184   0.77527   14.048
 3899.00    0.75339   0.78062   13.273
 3900.00    0.73357   0.78534   13.632
 3901.00    0.68613   0.79194   14.574
 3902.00    0.65465   0.79690   15.275
 3903.00    0.63824   0.79607   15.668
 3904.00    0.64406   0.78957   15.526
 3905.00    0.70710   0.78089   14.142
 3906.00    0.80598   0.77897   12.407
 3907.00    0.84475   0.79096   11.838
 3908.00    0.80482   0.81539   12.425
 3909.00    0.78549   0.84412   12.731
 3910.00    0.82880   0.86793   12.066
 3911.00    0.86839   0.88337   11.516
 3912.00    0.86039   0.89114   11.623
 3913.00    0.82774   0.89207   12.081
 3914.00    0.81352   0.88761   12.292
 3915.00    0.84850   0.87934   11.785
 3916.00    0.90659   0.86773   11.030
 3917.00    0.92128   0.85328   10.854
 3918.00    0.87979   0.83460   11.366
 3919.00    0.82814   0.81137   12.075
 3920.00    0.80385   0.78682   12.440
 3921.00    0.81580   0.76730   12.258
 3922.00    0.84306   0.75802   11.862
 3923.00    0.84757   0.75755   11.798
 3924.00    0.80301   0.75865   12.453
 3925.00    0.71261   0.75148   14.033
 3926.00    0.62942   0.73052   15.888
 3927.00    0.60953   0.69637   16.406
 3928.00    0.62202   0.65332   16.077
 3929.00    0.59631   0.60682   16.770
 3930.00    0.52736   0.55999   18.882
 3931.00    0.45777   0.51449   18.882
 3932.00    0.42308   0.47283   18.882
 3933.00    0.43379   0.44034   18.882
 3934.00    0.46368   0.42506   18.882
 3935.00    0.47331   0.43287   18.882
 3936.00    0.44215   0.46351   18.882
 3937.00    0.38117   0.51054   18.882
 3938.00    0.34006   0.56461   -1.000
 3939.00    0.37692   0.61693   -1.000
 3940.00    0.52252   0.66031   18.882
 3941.00    0.74100   0.69018   13.495
 3942.00    0.91014   0.70693   10.987
 3943.00    0.94432   0.71529   10.590
 3944.00    0.88857   0.72426   11.254
 3945.00    0.82536   0.74217   12.116
 3946.00    0.79830   0.76812   12.527
 3947.00    0.81899   0.79361   12.210
 3948.00    0.87773   0.81284   11.393
 3949.00    0.95890   0.82730   10.429
 3950.00    1.04788   0.84042    9.543
 3951.00    1.11735   0.85126    8.950
 3952.00    1.13090   0.85653    8.843
 3953.00    1.10155   0.85796    9.078
 3954.00    1.09812   0.85871    9.106
 3955.00    1.13417   0.85687    8.817
 3956.00    1.14411   0.84982    8.740
 3957.00    1.10355   0.83936    9.062
 3958.00    1.05694   0.82849    9.461
 3959.00    1.02535   0.81447    9.753
 3960.00    0.98354   0.78837    0.000
 3961.00    0.90594   0.74580    0.000
 3962.00    0.79120   0.69405    0.000
 3963.00    0.68496   0.64349    0.000
 3964.00    0.65020   0.59681    0.000
 3965.00    0.66819   0.54894    0.000
 3966.00    0.66481   0.49454    0.000
 3967.00    0.64500   0.43602    0.000
 3968.00    0.66167   0.38391    0.000
 3969.00    0.66945   0.35152    0.000
 3970.00    0.58087   0.34853    0.000
 3971.00    0.44743   0.37642    0.000
 3972.00    0.39462   0.42805    0.000
 3973.00    0.43307   0.49239    0.000
 3974.00    0.48812   0.56013    0.000
 3975.00    0.51075   0.62543    0.000
 3976.00    0.50398   0.68501    0.000
 3977.00    0.52955   0.73849    0.000
 3978.00    0.63528   0.78648    0.000
 3979.00    0.75885   0.82814    0.000
 3980.00    0.80586   0.86032    0.000
 3981.00    0.76382   0.87929   13.092
 3982.00    0.69278   0.88638   14.434
 3983.00    0.69153   0.88868   14.461
 3984.00    0.81152   0.89349   12.323
 3985.00    0.98066   0.90395   10.197
 3986.00    1.09888   0.91800    9.100
 3987.00    1.13455   0.93283    8.814
 3988.00    1.11801   0.94652    8.945
 3989.00    1.11863   0.95609    8.940
 3990.00    1.16222   0.96241    8.604
 3991.00    1.18330   0.96845    8.451
 3992.00    1.13694   0.97539    8.796
 3993.00    1.06806   0.98101    9.363
 3994.00    1.03171   0.97990    9.693
 3995.00    1.04031   0.97090    9.613
 3996.00    1.07178   0.95756    9.330
 3997.00    1.08332   0.94702    9.231
 3998.00    1.04911   0.94673    9.532
 3999.00    0.97809   0.95992   10.224
 4000.00    0.90434   0.98165   11.058
 4001.00    0.86983   1.00283   11.496
 4002.00    0.87421   1.01545   11.439
 4003.00    0.87441   1.01362   11.436
 4004.00    0.86449   0.99530   11.567
 4005.00    0.88456   0.96695   11.305
 4006.00    0.94362   0.94416   10.598
 4007.00    1.00235   0.93982    9.976
 4008.00    1.00726   0.95368    9.927
 4009.00    0.93386   0.97527   10.711
 4010.00    0.87217   0.99434   11.469
 4011.00    0.95580   1.00788   10.456
 4012.00    1.12552   1.01710    8.879
 4013.00    1.19782   1.02457    8.361
 4014.00    1.16023   1.03092    8.632
 4015.00    1.13587   1.03634    8.762
 4016.00    1.16541   1.03929    8.550
 4017.00    1.20198   1.03929    8.431
 4018.00    1.19152   1.03980    8.463
 4019.00    1.11367   1.04297    8.621
 4020.00    1.02105   1.04641    9.581
 4021.00    0.97651   1.04615   11.899
 4022.00    0.95045   1.03972   11.152
 4023.00    0.89245   1.02842    6.778
 4024.00    0.84890   1.01581    4.662
 4025.00    0.89020   1.00797    4.250
 4026.00    1.00000   1.01007    4.487
 4027.00    1.10927   1.02116    4.635
 4028.00    1.15395   1.03189    4.568
 4029.00    1.10497   1.02897    4.525
 4030.00    0.99045   1.00608    4.569
 4031.00    0.86746   0.97124    4.655
 4032.00    0.79098   0.93933    4.729
 4033.00    0.79579   0.92245    4.745
 4034.00    0.88139   0.92647    4.691
 4035.00    0.99923   0.95003    4.590
 4036.00    1.05739   0.98804    4.494
 4037.00    1.02086   1.03011    4.453
 4038.00    0.96609   1.06309    4.498
 4039.00    0.96780   1.07846    4.583
 4040.00    1.02819   1.07633    4.572
 4041.00    1.10932   1.06396    4.453
 4042.00    1.16348   1.04608    4.398
 4043.00    1.17951   1.01862    4.444
 4044.00    1.19107   0.97776    4.422
 4045.00    1.20184   0.93205    4.300
 4046.00    1.16797   0.90339    4.264
 4047.00    1.07903   0.90962    4.399
 4048.00    0.98087   0.94647    4.624
 4049.00    0.92383   0.99415    4.798
 4050.00    0.93245   1.03277    4.802
 4051.00    0.97517   1.05265    4.703
 4052.00    0.98661   1.05440    4.682
 4053.00    0.96907   1.04334    4.741
 4054.00    0.98307   1.02565    4.730
 4055.00    1.02806   1.00735    4.667
 4056.00    1.04518   0.99221    4.711
 4057.00    1.01460   0.98101    4.865
 4058.00    0.96692   0.97651    4.975
 4059.00    0.94767   0.98072    4.942
 4060.00    0.98555   0.98925    4.801
 4061.00    1.04612   0.99099    4.679
 4062.00    1.07167   0.97583    4.678
 4063.00    1.07359   0.94759    4.748
 4064.00    1.09815   0.92409    4.759
 4065.00    1.13784   0.92047    4.675
 4066.00    1.15181   0.93591    4.570
 4067.00    1.12218   0.96075    4.571
 4068.00    1.05767   0.98461    4.741
 4069.00    0.98493   1.00024    4.930
 4070.00    0.93220   1.00205    4.936
 4071.00    0.91015   0.99042    4.860
 4072.00    0.91650   0.97682    4.862
 4073.00    0.94386   0.97308    4.841
 4074.00    0.97490   0.97666    4.694
 4075.00    0.97985   0.97433    4.585
 4076.00    0.95249   0.95731    4.633
 4077.00    0.93865   0.93389    4.698
 4078.00    0.97341   0.92331    4.646
 4079.00    1.02940   0.93734    4.587
 4080.00    1.06525   0.97175    4.634
 4081.00    1.06583   1.00978    4.718
 4082.00    1.02958   1.03363    4.766
 4083.00    0.95952   1.03751    4.830
 4084.00    0.87764   1.02890    4.953
 4085.00    0.82833   1.02189    5.080
 4086.00    0.84045   1.02718    5.152
 4087.00    0.90798   1.04556    5.171
 4088.00    1.00926   1.06853    5.138
 4089.00    1.11792   1.08509    5.033
 4090.00    1.20185   1.08864    4.885
 4091.00    1.22924   1.08019    4.776
 4092.00    1.19666   1.06499    0.000
 4093.00    1.13391   1.04798    0.000
 4094.00    1.07401   1.02824    0.000
 4095.00    1.03538   1.00175    0.000
 4096.00    1.00369   0.96891    0.000
 4097.00    0.94553   0.93328    0.000
 4098.00    0.87129   0.89763    0.000
 4099.00    0.82819   0.85941    0.000
 4100.00    0.82146   0.81543    0.000
 4101.00    0.81391   0.77200    0.000
 4102.00    0.78639   0.74636    0.000
 4103.00    0.75130   0.75236    0.000
 4104.00    0.74441   0.78953    0.000
 4105.00    0.79333   0.84423    0.000
 4106.00    0.85719   0.89831    0.000
 4107.00    0.86802   0.93934    0.000
 4108.00    0.83389   0.96356    0.000
 4109.00    0.81651   0.97294    0.000
 4110.00    0.85554   0.97462    0.000
 4111.00    0.94383   0.97677    0.000
 4112.00    1.01375   0.98489    0.000
 4113.00    1.00806   1.00029    5.169
 4114.00    0.97855   1.01917    5.274
 4115.00    0.99391   1.03561    5.207
 4116.00    1.00838   1.04440    5.126
 4117.00    0.95751   1.04235    5.233
 4118.00    0.88421   1.03039    5.390
 4119.00    0.85119   1.01501    5.401
 4120.00    0.83834   1.00415    5.410
 4121.00    0.81686   1.00152    5.559
 4122.00    0.82379   1.00642    5.627
 4123.00    0.88184   1.01574    5.453
 4124.00    0.93352   1.02703    5.332
 4125.00    0.93687   1.03686    5.456
 4126.00    0.93547   1.04001    5.610
 4127.00    0.96930   1.03443    5.572
 4128.00    1.01285   1.02212    5.472
 4129.00    1.02559   1.00752    5.464
 4130.00    0.99069   0.99197    5.540
 4131.00    0.92884   0.97497    5.639
 4132.00    0.89331   0.95776    5.722
 4133.00    0.90536   0.94783    5.761
 4134.00    0.93125   0.95177    5.754
 4135.00    0.94402   0.97169    5.740
 4136.00    0.94918   1.00118    5.784
 4137.00    0.95997   1.02953    5.864
 4138.00    0.98337   1.05091    5.862
 4139.00    1.01177   1.06108    5.789
 4140.00    1.02501   1.05742    5.802
 4141.00    1.00870   1.03642    5.930
 4142.00    0.96260   0.99860    6.044
 4143.00    0.90501   0.95611    6.081
 4144.00    0.86413   0.92881    6.090
 4145.00    0.84931   0.92974    6.080
 4146.00    0.85136   0.95401    6.013
 4147.00    0.86585   0.98446    5.925
 4148.00    0.89426   1.00481    5.897
 4149.00    0.93138   1.01029    5.932
 4150.00    0.96615   1.00625    5.962
 4151.00    0.99023   0.99982    5.919
 4152.00    1.00208   0.99370    5.789
 4153.00    1.01057   0.98791    5.662
 4154.00    1.02342   0.98147    5.637
 4155.00    1.02648   0.97704    5.681
 4156.00    1.00291   0.97762    5.707
 4157.00    0.96858   0.98560    5.715
 4158.00    0.95179   1.00078    5.752
 4159.00    0.95629   1.01934    5.806
 4160.00    0.97338   1.03717    5.843
 4161.00    1.00416   1.05109    5.872
 4162.00    1.04828   1.06094    5.889
 4163.00    1.08858   1.06597    5.814
 4164.00    1.11013   1.06440    5.632
 4165.00    1.12127   1.05605    5.506
 4166.00    1.13493   1.04283    5.535
 4167.00    1.14915   1.02925    5.585
 4168.00    1.15775   1.02015    5.531
 4169.00    1.16191   1.01559    5.475
 4170.00    1.17312   1.00957    5.500
 4171.00    1.21018   0.99508    5.498
 4172.00    1.26364   0.97125    5.396
 4173.00    1.27977   0.94772    5.309
 4174.00    1.23059   0.93565    5.330
 4175.00    1.15192   0.93797    5.433
 4176.00    1.08169   0.94887    5.568
 4177.00    1.02673   0.96050    5.716
 4178.00    0.99624   0.97032    5.824
 4179.00    1.01149   0.97985    5.800
 4180.00    1.05731   0.98868    5.698
 4181.00    1.07692   0.99435    5.710
 4182.00    1.05811   0.99667    5.830
 4183.00    1.05001   0.99928    5.806
 4184.00    1.07164   1.00416    5.635
 4185.00    1.09225   1.00875    5.598
 4186.00    1.09875   1.00694    5.762
 4187.00    1.10599   0.99802    5.924
 4188.00    1.10696   0.99011    5.959
 4189.00    1.07637   0.99030    5.930
 4190.00    1.03060   0.99940    5.924
 4191.00    1.01833   1.01284    5.978
 4192.00    1.04726   1.02659    6.061
 4193.00    1.08679   1.03738    6.105
 4194.00    1.12343   1.03927    6.122
 4195.00    1.15942   1.02754    6.170
 4196.00    1.17963   1.00376    6.212
 4197.00    1.15997   0.97595    6.166
 4198.00    1.09894   0.95253    6.088
 4199.00    1.02068   0.93866    6.097
 4200.00    0.96774   0.93432    6.226
 4201.00    0.97206   0.93611    6.421
 4202.00    1.01215   0.94248    6.554
 4203.00    1.04520   0.95408    6.531
 4204.00    1.06360   0.97093    6.460
 4205.00    1.08162   0.99185    6.483
 4206.00    1.10600   1.01416    6.559
 4207.00    1.13109   1.03402    6.600
 4208.00    1.13910   1.04875    6.666
 4209.00    1.12037   1.05612    6.819
 4210.00    1.09288   1.05731    6.923
 4211.00    1.07226   1.05620    6.861
 4212.00    1.04341   1.05376    6.796
 4213.00    0.99818   1.04651    6.873
 4214.00    0.96736   1.03171    6.984
 4215.00    0.97839   1.01282    6.967
 4216.00    1.02115   1.00173    6.815
 4217.00    1.07164   1.00875    6.616
 4218.00    1.11184   1.03188    6.463
 4219.00    1.12967   1.06034    6.414
 4220.00    1.11783   1.08121    6.479
 4221.00    1.07167   1.08570    6.609
 4222.00    0.99027   1.06932    6.697
 4223.00    0.88980   1.03149    6.713
 4224.00    0.80585   0.97535    6.759
 4225.00    0.76820   0.91035    6.852
 4226.00    0.78502   0.85339    6.858
 4227.00    0.83190   0.82574    6.784
 4228.00    0.86317   0.84146    6.811
 4229.00    0.87678   0.89280    6.914
 4230.00    0.91746   0.95606    6.837
 4231.00    0.98979   1.00627    6.624
 4232.00    1.04631   1.02986    6.590
 4233.00    1.05857   1.02953    6.732
 4234.00    1.03147   1.01706    6.746
 4235.00    0.97257   1.00172    6.624
 4236.00    0.89232   0.98929    6.647
 4237.00    0.83036   0.98408    6.831
 4238.00    0.83391   0.98669    6.941
 4239.00    0.88869   0.99671    6.907
 4240.00    0.93832   1.01236    6.858
 4241.00    0.96542   1.03125    6.858
 4242.00    0.98878   1.05047    6.877
 4243.00    1.02037   1.06833    6.850
 4244.00    1.05634   1.08325    6.742
 4245.00    1.07797   1.08977    6.617
 4246.00    1.07022   1.08281    6.564
 4247.00    1.05059   1.06156    6.575
 4248.00    1.04648   1.03187    6.585
 4249.00    1.05492   1.00342    6.540
 4250.00    1.04982   0.98373    6.431
 4251.00    1.00242   0.97718    6.300
 4252.00    0.91463   0.98110    6.219
 4253.00    0.85123   0.98694    6.258
 4254.00    0.87033   0.99008    6.407
 4255.00    0.94524   0.99368    6.477
 4256.00    1.00917   1.00278   -2.000
 4257.00    1.01298   1.01449   -2.000
 4258.00    0.96387   1.01707   -2.000
 4259.00    0.94411   1.00491   -2.000
 4260.00    1.00251   0.98578   -2.000
 4261.00    1.07694   0.97708   -2.000
 4262.00    1.11169   0.99157   -2.000
 4263.00    1.13776   1.02539   -2.000
 4264.00    1.17585   1.06376   -2.000
 4265.00    1.18066   1.09177   -2.000
 4266.00    1.13652   1.10129   -2.000
 4267.00    1.10086   1.09097   -2.000
 4268.00    1.09789   1.06510   -2.000
 4269.00    1.07790   1.02802   -2.000
 4270.00    1.02600   0.98357   -2.000
 4271.00    0.99379   0.93827   -2.000
 4272.00    0.98258   0.90291    6.271
 4273.00    0.92467   0.88693    6.363
 4274.00    0.83416   0.89143    6.528
 4275.00    0.82053   0.91440    6.642
 4276.00    0.90073   0.95118    6.617
 4277.00    0.97409   0.99260    6.501
 4278.00    0.98238   1.02728    6.433
 4279.00    0.94709   1.04445    6.533
 4280.00    0.91023   1.04235    6.702
 4281.00    0.90716   1.03147    6.681
 4282.00    0.94518   1.02185    6.518
 4283.00    1.00296   1.01750    6.499
 4284.00    1.04427   1.01527    6.662
 4285.00    1.03653   1.00875    6.849
 4286.00    0.98310   0.99693    7.004
 4287.00    0.91217   0.98074    7.183
 4288.00    0.83961   0.95995    7.343
 4289.00    0.77712   0.93632    7.385
 4290.00    0.75979   0.91797    7.365
 4291.00    0.80849   0.91501    7.401
 4292.00    0.86274   0.92987    7.441
 4293.00    0.85028   0.95369    7.377
 4294.00    0.80471   0.97164    7.276
 4295.00    0.79972   0.97624    7.243
 4296.00    0.83657   0.96581    7.219
 4297.00    0.87052   0.94096    7.140
 4298.00    0.86496   0.90495    7.130
 4299.00    0.81905   0.86294    7.278
 4300.00    0.78600   0.82616    7.376
 4301.00    0.80951   0.80466    7.245
 4302.00    0.86135   0.79888    7.106
 4303.00    0.89253   0.80378    7.169
 4304.00    0.88642   0.81182    7.312
 4305.00    0.85541   0.81480    7.351
 4306.00    0.82951   0.80896    7.294
 4307.00    0.81819   0.79463    7.242
 4308.00    0.78940   0.77828    7.268
 4309.00    0.72638   0.77165    7.356
 4310.00    0.66218   0.78211    7.380
 4311.00    0.63925   0.80965    7.289
 4312.00    0.67982   0.84896    7.193
 4313.00    0.77284   0.89494    7.151
 4314.00    0.87537   0.94614    7.098
 4315.00    0.95378   1.00417    7.019
 4316.00    1.00095   1.06690    7.004
 4317.00    1.01546   1.12294    7.076
 4318.00    0.99681   1.16050    7.146
 4319.00    0.96859   1.17403    7.144
 4320.00    0.97070   1.16529    7.086
 4321.00    0.99381   1.13919    7.035
 4322.00    0.98200   1.09973    7.057
 4323.00    0.92739   1.04695    7.147
 4324.00    0.87939   0.98794    7.228
 4325.00    0.86997   0.93880    7.269
 4326.00    0.89653   0.91922    7.294
 4327.00    0.94182   0.94011    7.300
 4328.00    0.98684   0.99066    7.263
 4329.00    1.02780   1.04695    7.203
 4330.00    1.06636   1.08834    0.000
 4331.00    1.07872   1.10984    0.000
 4332.00    1.03937   1.11868    0.000
 4333.00    0.98254   1.12199    0.000
 4334.00    0.96354   1.12081    0.000
 4335.00    0.96487   1.10849    0.000
 4336.00    0.93191   1.07535    0.000
 4337.00    0.86238   1.01705    0.000
 4338.00    0.79584   0.94270    0.000
 4339.00    0.77263   0.87020    0.000
 4340.00    0.80634   0.81871    0.000
 4341.00    0.85798   0.80464    0.000
 4342.00    0.88554   0.82978    0.000
 4343.00    0.90736   0.87980    0.000
 4344.00    0.95386   0.93742    0.000
 4345.00    1.00621   0.99049    0.000
 4346.00    1.02998   1.03279    0.000
 4347.00    1.01678   1.06487    0.000
 4348.00    0.98136   1.08803    0.000
 4349.00    0.95206   1.09854    0.000
 4350.00    0.94386   1.09004    0.000
 4351.00    0.94001   1.06301    7.425
 4352.00    0.92534   1.03206    7.384
 4353.00    0.91135   1.01641    7.417
 4354.00    0.92100   1.02383    7.478
 4355.00    0.97254   1.04848    7.419
 4356.00    1.05445   1.07813    7.232
 4357.00    1.11912   1.10099    7.128
 4358.00    1.13748   1.11181    7.247
 4359.00    1.12579   1.11435    7.551
 4360.00    1.11699   1.11800    7.851
 4361.00    1.13883   1.12900    7.846
 4362.00    1.18741   1.14628    7.553
 4363.00    1.22623   1.16450    7.329
 4364.00    1.23415   1.17889    7.306
 4365.00    1.21914   1.18510    7.350
 4366.00    1.19010   1.17919    7.400
 4367.00    1.14892   1.16215    7.531
 4368.00    1.10255   1.14120    7.698
 4369.00    1.06292   1.12471    7.731
 4370.00    1.03315   1.11538    7.686
 4371.00    1.01307   1.11023    7.791
 4372.00    1.02613   1.10249    7.937
 4373.00    1.09874   1.08682    7.771
 4374.00    1.18967   1.06574    7.426
 4375.00    1.22069   1.04971    7.297
 4376.00    1.18784   1.04972    7.361
 4377.00    1.14242   1.06763    7.366
 4378.00    1.09720   1.09308    7.367
 4379.00    1.03919   1.11044    7.579
 4380.00    0.99031   1.10727    7.853
 4381.00    0.97877   1.07871    7.859
 4382.00    0.97307   1.02682    7.763
 4383.00    0.93187   0.96408    7.891
 4384.00    0.89502   0.91490    8.053
 4385.00    0.92044   0.89987    7.898
 4386.00    0.97961   0.92104    7.648
 4387.00    1.01610   0.96107    7.623
 4388.00    1.03608   0.99894    7.685
 4389.00    1.07022   1.02400    7.608
 4390.00    1.11748   1.03757    7.529
 4391.00    1.15677   1.04772    7.610
 4392.00    1.16716   1.05918    7.687
 4393.00    1.14281   1.07010    7.614
 4394.00    1.10333   1.07836    7.602
 4395.00    1.07505   1.08668    7.798
 4396.00    1.07261   1.10036    7.938
 4397.00    1.08912   1.11808    7.814
 4398.00    1.09412   1.13064    7.672
 4399.00    1.06742   1.13068    7.711
 4400.00    1.02042   1.11820    7.813
 4401.00    0.97479   1.10133    7.850
 4402.00    0.94684   1.08603    7.877
 4403.00    0.94234   1.06752    7.965
 4404.00    0.95539   1.04188    8.086
 4405.00    0.97584   1.01715    8.102
 4406.00    0.99274   1.00516    7.847
 4407.00    0.99162   1.00981    7.504
 4408.00    0.96183   1.02901    7.478
 4409.00    0.93273   1.05959    7.759
 4410.00    0.96566   1.09667    7.838
 4411.00    1.06250   1.13240    7.559
 4412.00    1.15377   1.15708    7.330
 4413.00    1.18463   1.16130    7.315
 4414.00    1.14760   1.14223    7.369
 4415.00    1.08426   1.11169    7.365
 4416.00    1.05991   1.08999    7.277
 4417.00    1.09204   1.08919    7.144
 4418.00    1.15004   1.10927    7.023
 4419.00    1.20875   1.13936    6.928
 4420.00    1.25674   1.16272    6.853
 4421.00    1.28176   1.16951    6.830
 4422.00    1.27186   1.16114    6.916
 4423.00    1.22548   1.14745    7.121
 4424.00    1.15857   1.13784    7.400
 4425.00    1.11277   1.13437    7.650
 4426.00    1.12627   1.13515    7.762
 4427.00    1.18238   1.13740    7.746
 4428.00    1.23177   1.13966    7.699
 4429.00    1.24192   1.14041    7.678
 4430.00    1.20486   1.13790    7.713
 4431.00    1.13645   1.13447    7.848
 4432.00    1.06831   1.12963    8.052
 4433.00    1.03569   1.11927    8.093
 4434.00    1.05179   1.10374    7.844
 4435.00    1.08294   1.08985    7.635
 4436.00    1.09279   1.08943    7.718
 4437.00    1.08962   1.10885    7.878
 4438.00    1.09589   1.14084    7.855
 4439.00    1.11480   1.16989    7.812
 4440.00    1.13541   1.18077    7.939
 4441.00    1.14184   1.16949    8.092
 4442.00    1.12954   1.14607    8.126
 4443.00    1.11503   1.12692    8.168
 4444.00    1.11627   1.12506    8.254
 4445.00    1.13820   1.14200    8.110
 4446.00    1.17625   1.16713    7.635
 4447.00    1.21874   1.18795    7.124
 4448.00    1.24445   1.19977    6.861
 4449.00    1.22887   1.20228    6.982
 4450.00    1.18486   1.19720    7.341
 4451.00    1.16867   1.18841    7.405
 4452.00    1.20323   1.17511    7.118
 4453.00    1.25222   1.15406    7.121
 4454.00    1.27409   1.12589    7.645
 4455.00    1.25019   1.09632    8.280
 4456.00    1.19679   1.07465    8.588
 4457.00    1.15604   1.06453    8.624
 4458.00    1.14887   1.06224    8.617
 4459.00    1.16260   1.06240    8.707
 4460.00    1.16737   1.06232    8.853
 4461.00    1.13710   1.06290    0.000
 4462.00    1.09209   1.06957    0.000
 4463.00    1.08030   1.08693    0.000
 4464.00    1.09687   1.10960    0.000
 4465.00    1.09428   1.12947    0.000
 4466.00    1.05747   1.14166    0.000
 4467.00    1.01098   1.14412    0.000
 4468.00    0.99387   1.13930    0.000
 4469.00    1.03372   1.13235    0.000
 4470.00    1.10910   1.13030    0.000
 4471.00    1.17603   1.13796    0.000
 4472.00    1.22621   1.15634    0.000
 4473.00    1.26949   1.18245    0.000
 4474.00    1.29113   1.20919    0.000
 4475.00    1.27632   1.23065    0.000
 4476.00    1.25288   1.24589    0.000
 4477.00    1.25196   1.25424    0.000
 4478.00    1.25191   1.25149    0.000
 4479.00    1.22221   1.23379    0.000
 4480.00    1.18131   1.20363    0.000
 4481.00    1.16063   1.17231    0.000
 4482.00    1.16004   1.15465    9.242
 4483.00    1.16482   1.16018    9.236
 4484.00    1.16735   1.18530    9.196
 4485.00    1.17154   1.21656    9.173
 4486.00    1.19188   1.23958    9.101
 4487.00    1.22580   1.24452    8.970
 4488.00    1.23769   1.23109    8.945
 4489.00    1.20804   1.20876    9.106
 4490.00    1.16444   1.19046    9.308
 4491.00    1.14043   1.18404    9.378
 4492.00    1.14697   1.18691    9.303
 4493.00    1.17494   1.18938    9.182
 4494.00    1.20264   1.18428    9.143
 4495.00    1.22241   1.17507    9.193
 4496.00    1.24739   1.17067    9.189
 4497.00    1.27405   1.17766    9.119
 4498.00    1.27523   1.19540    9.152
 4499.00    1.25253   1.21577    9.305
 4500.00    1.24410   1.23136    9.371
 4501.00    1.26094   1.24126    9.321
 4502.00    1.27539   1.25243    9.360
 4503.00    1.27441   1.27044    9.504
 4504.00    1.27090   1.29125    9.531
 4505.00    1.27522   1.30754    9.379
 4506.00    1.28859   1.31387    9.201
 4507.00    1.31225   1.31028    9.083
 4508.00    1.34526   1.30291    9.023
 4509.00    1.37175   1.29740    9.051
 4510.00    1.37138   1.29447    9.202
 4511.00    1.35196   1.29016    9.359
 4512.00    1.33958   1.28044    9.328
 4513.00    1.34034   1.26600    9.154
 4514.00    1.34052   1.25064    9.040
 4515.00    1.32448   1.23888    9.053
 4516.00    1.28773   1.23315    9.156
 4517.00    1.25261   1.23145    9.304
 4518.00    1.24832   1.23284    9.447
 4519.00    1.27462   1.23860    9.517
 4520.00    1.30667   1.24648    9.481
 4521.00    1.31235   1.25210    9.412
 4522.00    1.28109   1.24965    9.387
 4523.00    1.25470   1.23723    9.349
 4524.00    1.27195   1.21803    9.245
 4525.00    1.30150   1.19318    9.182
 4526.00    1.29758   1.16463    9.266
 4527.00    1.26649   1.13605    9.447
 4528.00    1.23586   1.11141    9.617
 4529.00    1.21736   1.09661    9.737
 4530.00    1.20786   1.09474    9.780
 4531.00    1.19463   1.10248    9.673
 4532.00    1.16468   1.11340    9.486
 4533.00    1.11344   1.11955    9.498
 4534.00    1.05475   1.11990    9.803
 4535.00    1.02242   1.12275   10.064
 4536.00    1.03277   1.13763    9.993
 4537.00    1.06534   1.16682    9.762
 4538.00    1.10072   1.19922    9.578
 4539.00    1.14029   1.22220    9.442
 4540.00    1.18207   1.23077    9.347
 4541.00    1.21020   1.22832    9.348
 4542.00    1.21264   1.22373    9.457
 4543.00    1.19086   1.22100    9.605
 4544.00    1.16141   1.21753    9.714
 4545.00    1.14990   1.21210    9.745
 4546.00    1.16501   1.20574    9.706
 4547.00    1.19274   1.19846    9.649
 4548.00    1.21486   1.19032    9.612
 4549.00    1.21905   1.18201    9.608
 4550.00    1.20854   1.17702    0.000
 4551.00    1.19964   1.17674    0.000
 4552.00    1.20508   1.17686    0.000
 4553.00    1.22662   1.17555    0.000
 4554.00    1.24997   1.17373    0.000
 4555.00    1.25519   1.17536    0.000
 4556.00    1.24489   1.18716    0.000
 4557.00    1.24126   1.20999    0.000
 4558.00    1.26387   1.23702    0.000
 4559.00    1.31548   1.26060    0.000
 4560.00    1.36535   1.27519    0.000
 4561.00    1.37309   1.27894    0.000
 4562.00    1.33684   1.27249    0.000
 4563.00    1.28196   1.25701    0.000
 4564.00    1.22831   1.23835    0.000
 4565.00    1.18914   1.22534    0.000
 4566.00    1.17699   1.22463    0.000
 4567.00    1.19574   1.23679    0.000
 4568.00    1.22988   1.25319    0.000
 4569.00    1.26055   1.26378    0.000
 4570.00    1.28605   1.26362    0.000
 4571.00    1.31153   1.25383    0.000
 4572.00    1.33528   1.24538    0.000
 4573.00    1.35180   1.24719    0.000
 4574.00    1.35648   1.25573    0.000
 4575.00    1.34646   1.26522    0.000
 4576.00    1.32146   1.27100    0.000
 4577.00    1.28833   1.26781    0.000
 4578.00    1.26248   1.25491    0.000
 4579.00    1.25098   1.23521    0.000
 4580.00    1.24198   1.21364    0.000
 4581.00    1.22101   1.19708    0.000
 4582.00    1.18383   1.18979    0.000
 4583.00    1.14334   1.18982    0.000
 4584.00    1.12812   1.19347    0.000
 4585.00    1.15266   1.19883    0.000
 4586.00    1.20273   1.20608    0.000
 4587.00    1.24704   1.21828    0.000
 4588.00    1.25256   1.23462    0.000
 4589.00    1.22452   1.24891    0.000
 4590.00    1.20929   1.25502    0.000
 4591.00    1.23190   1.25013    0.000
 4592.00    1.27642   1.23734    0.000
 4593.00    1.31238   1.22346    0.000
 4594.00    1.31284   1.21284    0.000
 4595.00    1.27916   1.20692    0.000
 4596.00    1.23879   1.20622    0.000
 4597.00    1.21338   1.20878    0.000
 4598.00    1.20845   1.21245    0.000
 4599.00    1.21292   1.21590    0.000
 4600.00    1.20984   1.21627    0.000
 4601.00    1.20192   1.21499    0.000
 4602.00    1.20495   1.21523    0.000
 4603.00    1.21921   1.21672    0.000
 4604.00    1.23372   1.22020    0.000
 4605.00    1.24799   1.22619    0.000
 4606.00    1.26615   1.23612    0.000
 4607.00    1.27869   1.25183    0.000
 4608.00    1.27439   1.27201    0.000
 4609.00    1.26456   1.29112    0.000
 4610.00    1.26840   1.30188    0.000
 4611.00    1.28560   1.30196    0.000
 4612.00    1.30411   1.29485    0.000
 4613.00    1.31659   1.28578    0.000
 4614.00    1.32518   1.28098    0.000
 4615.00    1.34293   1.28209    0.000
 4616.00    1.37432   1.28480    0.000
 4617.00    1.39575   1.28754    0.000
 4618.00    1.38609   1.28851    0.000
 4619.00    1.35767   1.28662    0.000
 4620.00    1.33373   1.28680    0.000
 4621.00    1.32473   1.29058    0.000
 4622.00    1.32788   1.29432    0.000
 4623.00    1.32984   1.29715    0.000
 4624.00    1.31814   1.29809    0.000
 4625.00    1.29007   1.29509    0.000
 4626.00    1.25417   1.29050    0.000
 4627.00    1.22876   1.28720    0.000
 4628.00    1.22796   1.28451    0.000
 4629.00    1.25303   1.28196    0.000
 4630.00    1.29343   1.28153    0.000
 4631.00    1.33004   1.28291    0.000
 4632.00    1.34721   1.28167    0.000
 4633.00    1.33842   1.27610    0.000
 4634.00    1.30380   1.26807    0.000
 4635.00    1.25075   1.25842    0.000
 4636.00    1.20194   1.24783    0.000
 4637.00    1.18906   1.23694    0.000
 4638.00    1.21774   1.22673    0.000
 4639.00    1.26382   1.21944    0.000
 4640.00    1.30657   1.21749    0.000
 4641.00    1.33705   1.22285    0.000
 4642.00    1.34786   1.23142    0.000
 4643.00    1.33259   1.23527    0.000
 4644.00    1.29367   1.23036    0.000
 4645.00    1.24216   1.21552    0.000
 4646.00    1.19159   1.19366    0.000
 4647.00    1.15451   1.17444    0.000
 4648.00    1.13839   1.16643    0.000
 4649.00    1.14561   1.17194    0.000
 4650.00    1.17503   1.18852    0.000
 4651.00    1.21921   1.20890    0.000
 4652.00    1.25914   1.22547    0.000
 4653.00    1.27664   1.23354    0.000
 4654.00    1.27601   1.23147    0.000
 4655.00    1.27313   1.22503    0.000
 4656.00    1.27394   1.22306    0.000
 4657.00    1.27935   1.23148    0.000
 4658.00    1.29610   1.25194    0.000
 4659.00    1.32846   1.27748    0.000
 4660.00    1.36637   1.29682    0.000
 4661.00    1.38854   1.30219    0.000
 4662.00    1.36953   1.29228    0.000
 4663.00    1.29955   1.27145    0.000
 4664.00    1.20235   1.24559    0.000
 4665.00    1.11598   1.21745    0.000
 4666.00    1.07165   1.18654    0.000
 4667.00    1.08057   1.15697    0.000
 4668.00    1.12574   1.13909    0.000
 4669.00    1.17425   1.13988    0.000
 4670.00    1.19182   1.15802    0.000
 4671.00    1.17428   1.18571    0.000
 4672.00    1.16058   1.21154    0.000
 4673.00    1.17827   1.22869    0.000
 4674.00    1.21344   1.23842    0.000
 4675.00    1.24211   1.24495    0.000
 4676.00    1.25078   1.25073    0.000
 4677.00    1.24267   1.25307    0.000
 4678.00    1.23488   1.24810    0.000
 4679.00    1.23293   1.23658    0.000
 4680.00    1.22569   1.22251    0.000
 4681.00    1.21486   1.21131    0.000
 4682.00    1.21844   1.20815    0.000
 4683.00    1.23508   1.21416    0.000
 4684.00    1.24100   1.22467    0.000
 4685.00    1.22717   1.23424    0.000
 4686.00    1.20504   1.24014    0.000
 4687.00    1.18315   1.24102    0.000
 4688.00    1.16184   1.23847    0.000
 4689.00    1.13998   1.23564    0.000
 4690.00    1.12066   1.23309    0.000
 4691.00    1.12003   1.23150    0.000
 4692.00    1.15658   1.23354    0.000
 4693.00    1.22203   1.23996    0.000
 4694.00    1.28615   1.24938    0.000
 4695.00    1.32100   1.25931    0.000
 4696.00    1.31429   1.26466    0.000
 4697.00    1.28359   1.26037    0.000
 4698.00    1.25801   1.24597    0.000
 4699.00    1.24335   1.22703    0.000
 4700.00    1.22935   1.21000    0.000
 4701.00    1.21020   1.19697    0.000
 4702.00    1.18719   1.18823    0.000
 4703.00    1.16773   1.18449    0.000
 4704.00    1.15963   1.18637    0.000
 4705.00    1.16418   1.19161    0.000
 4706.00    1.17691   1.19553    0.000
 4707.00    1.18987   1.19570    0.000
 4708.00    1.19587   1.19361    0.000
 4709.00    1.19281   1.19305    0.000
 4710.00    1.18381   1.19831    0.000
 4711.00    1.17651   1.20958    0.000
 4712.00    1.17776   1.22059    0.000
 4713.00    1.18958   1.22632    0.000
 4714.00    1.21326   1.22728    0.000
 4715.00    1.25148   1.22903    0.000
 4716.00    1.29859   1.23787    0.000
 4717.00    1.33600   1.25389    0.000
 4718.00    1.34779   1.27301    0.000
 4719.00    1.33075   1.29096    0.000
 4720.00    1.29298   1.30339    0.000
 4721.00    1.25148   1.30862    0.000
 4722.00    1.22560   1.30861    0.000
 4723.00    1.22954   1.30686    0.000
 4724.00    1.25351   1.30483    0.000
 4725.00    1.26419   1.29970    0.000
 4726.00    1.24410   1.28666    0.000
 4727.00    1.20451   1.26363    0.000
 4728.00    1.16790   1.23583    0.000
 4729.00    1.15493   1.21250    0.000
 4730.00    1.16470   1.19961    0.000
 4731.00    1.17649   1.19898    0.000
 4732.00    1.17684   1.20863    0.000
 4733.00    1.16693   1.22232    0.000
 4734.00    1.15806   1.23472    0.000
 4735.00    1.16405   1.24380    0.000
 4736.00    1.18571   1.24773    0.000
 4737.00    1.21098   1.24932    0.000
 4738.00    1.22499   1.25365    0.000
 4739.00    1.21889   1.25921    0.000
 4740.00    1.20266   1.26312    0.000
 4741.00    1.19621   1.26594    0.000
 4742.00    1.20746   1.26872    0.000
 4743.00    1.23007   1.27236    0.000
 4744.00    1.24794   1.27680    0.000
 4745.00    1.25192   1.28165    0.000
 4746.00    1.26289   1.28763    0.000
 4747.00    1.30439   1.29359    0.000
 4748.00    1.36045   1.29757    0.000
 4749.00    1.39731   1.29953    0.000
 4750.00    1.39903   1.29897    0.000
 4751.00    1.37142   1.29433    0.000
 4752.00    1.33944   1.28549    0.000
 4753.00    1.32315   1.27439    0.000
 4754.00    1.31419   1.26308    0.000
 4755.00    1.29479   1.25406    0.000
 4756.00    1.25871   1.24922    0.000
 4757.00    1.21522   1.24891    0.000
 4758.00    1.18838   1.25185    0.000
 4759.00    1.19454   1.25545    0.000
 4760.00    1.22544   1.25615    0.000
 4761.00    1.25512   1.24982   10.503
 4762.00    1.25132   1.23584   10.550
 4763.00    1.21204   1.21849   10.836
 4764.00    1.17876   1.20205   10.990
 4765.00    1.17576   1.18974   10.834
 4766.00    1.18342   1.18542   10.681
 4767.00    1.19143   1.19117   10.661
 4768.00    1.21745   1.20482   10.535
 4769.00    1.25596   1.22221   10.310
 4770.00    1.26798   1.23798   10.338
 4771.00    1.24606   1.24754   10.621
 4772.00    1.22738   1.25242   10.693
 4773.00    1.23198   1.25791   10.454
 4774.00    1.24726   1.26683   10.319
 4775.00    1.26210   1.27735   10.371
 4776.00    1.27551   1.28633   10.331
 4777.00    1.28424   1.29247   10.192
 4778.00    1.28178   1.29400   10.226
 4779.00    1.26763   1.29010   10.406
 4780.00    1.24800   1.28279   10.451
 4781.00    1.23059   1.27377   10.360
 4782.00    1.22251   1.26285   10.361
 4783.00    1.22858   1.25115   10.372
 4784.00    1.24588   1.24209   10.173
 4785.00    1.25372   1.23591    9.999
 4786.00    1.23031   1.23003   10.230
 4787.00    1.18778   1.22625   10.721
 4788.00    1.15970   1.22562   10.963
 4789.00    1.16725   1.22652   10.858
 4790.00    1.21236   1.23113   10.690
 4791.00    1.27726   1.24133   10.622
 4792.00    1.33715   1.25616   10.656
 4793.00    1.37822   1.27495   10.682
 4794.00    1.39443   1.29471   10.589
 4795.00    1.38059   1.30925   10.404
 4796.00    1.33873   1.31373   10.260
 4797.00    1.28584   1.30755   10.315
 4798.00    1.24378   1.29375   10.595
 4799.00    1.22739   1.27866   10.803
 4800.00    1.24194   1.26964   10.695
 4801.00    1.28171   1.27022   10.512
 4802.00    1.32878   1.27775   10.511
 4803.00    1.35500   1.28551   10.601
 4804.00    1.34646   1.28729   10.626
 4805.00    1.31920   1.28152   10.594
 4806.00    1.28972   1.27177   10.579
 4807.00    1.25616   1.26181   10.626
 4808.00    1.22283   1.25516   10.684
 4809.00    1.21260   1.25463   10.611
 4810.00    1.23948   1.25903   10.439
 4811.00    1.29355   1.26516   10.430
 4812.00    1.35180   1.27120   10.621
 4813.00    1.38860   1.27653   10.693
 4814.00    1.39545   1.28165   10.521
 4815.00    1.38645   1.28770   10.373
 4816.00    1.38017   1.29540   10.382
 4817.00    1.38937   1.30407   10.432
 4818.00    1.41371   1.31178   10.454
 4819.00    1.43794   1.31648   10.508
 4820.00    1.43626   1.31553   10.613
 4821.00    1.38579   1.30768   10.714
 4822.00    1.30385   1.29342   10.774
 4823.00    1.23917   1.27528   10.805
 4824.00    1.21158   1.26057   10.860
 4825.00    1.20579   1.25527   10.973
 4826.00    1.20299   1.25753   11.037
 4827.00    1.19206   1.26196   10.923
 4828.00    1.17461   1.26422   10.831
 4829.00    1.16159   1.26273   11.056
 4830.00    1.16323   1.25859   11.359
 4831.00    1.18465   1.25294   11.234
 4832.00    1.22189   1.24839   10.923
 4833.00    1.26427   1.24888   10.956
 4834.00    1.29995   1.25433   11.175
 4835.00    1.31856   1.26092   11.116
 4836.00    1.31397   1.26548   10.899
 4837.00    1.28769   1.26607   10.895
 4838.00    1.25277   1.26092   11.090
 4839.00    1.22674   1.25082   11.265
 4840.00    1.22124   1.24014   11.318
 4841.00    1.23693   1.23324   11.281
 4842.00    1.25987   1.23091   11.248
 4843.00    1.27221   1.23234   11.272
 4844.00    1.26477   1.23822   11.288
 4845.00    1.24329   1.24702   11.228
 4846.00    1.23041   1.25388   11.143
 4847.00    1.23828   1.25516   11.103
 4848.00    1.24728   1.25073    0.000
 4849.00    1.23575   1.24448    0.000
 4850.00    1.20488   1.24040    0.000
 4851.00    1.17299   1.23729    0.000
 4852.00    1.16565   1.23209    0.000
 4853.00    1.18631   1.22232    0.000
 4854.00    1.20381   1.20488    0.000
 4855.00    1.19348   1.18078    0.000
 4856.00    1.15981   1.15617    0.000
 4857.00    1.11979   1.13243    0.000
 4858.00    1.09026   1.10315    0.000
 4859.00    1.07470   1.06322    0.000
 4860.00    1.06235   1.01488    0.000
 4861.00    1.05210   0.97050    0.000
 4862.00    1.05667   0.94930    0.000
 4863.00    1.07542   0.96027    0.000
 4864.00    1.09187   0.99563    0.000
 4865.00    1.10514   1.04326    0.000
 4866.00    1.13005   1.09086    0.000
 4867.00    1.15951   1.12752    0.000
 4868.00    1.16783   1.14904    0.000
 4869.00    1.15682   1.15682    0.000
 4870.00    1.15352   1.15215    0.000
 4871.00    1.16663   1.13965    0.000
 4872.00    1.18379   1.13066    0.000
 4873.00    1.19432   1.13363    0.000
 4874.00    1.19630   1.14697    0.000
 4875.00    1.19929   1.16570   10.542
 4876.00    1.21473   1.18666   10.635
 4877.00    1.23656   1.20645   10.759
 4878.00    1.25031   1.22279   10.697
 4879.00    1.25587   1.23655   10.508
 4880.00    1.26192   1.24532   10.399
 4881.00    1.27047   1.24552   10.434
 4882.00    1.27798   1.23992   10.562
 4883.00    1.28089   1.23224   10.702
 4884.00    1.27620   1.22183   10.793
 4885.00    1.26112   1.20888   10.866
 4886.00    1.23242   1.19662   10.973
 4887.00    1.18655   1.18714   11.095
 4888.00    1.13060   1.17955   11.194
 4889.00    1.09170   1.17235   11.278
 4890.00    1.08950   1.16555   11.352
 4891.00    1.11057   1.16374   11.356
 4892.00    1.13600   1.17624   11.267
 4893.00    1.16712   1.20561   11.170
 4894.00    1.21119   1.24473   11.122
 4895.00    1.26689   1.28407   11.057
 4896.00    1.31665   1.31436   10.971
 4897.00    1.32723   1.33008   11.003
 4898.00    1.28775   1.33143   11.154
 4899.00    1.23015   1.32163   11.150
 4900.00    1.19551   1.30651   10.954
 4901.00    1.20878   1.29278   10.950
 4902.00    1.25966   1.28255   11.246
 4903.00    1.30382   1.27595   11.422
 4904.00    1.31815   1.27544   11.243
 4905.00    1.31894   1.28152   11.001
 4906.00    1.31695   1.28896   10.937
 4907.00    1.30396   1.29067   11.048
 4908.00    1.28404   1.28334   11.203
 4909.00    1.27762   1.26818   11.232
 4910.00    1.28781   1.25068   11.166
 4911.00    1.29703   1.23948   11.205
 4912.00    1.29794   1.23981   11.335
 4913.00    1.29748   1.24982   11.331
 4914.00    1.29732   1.26408   11.201
 4915.00    1.29253   1.27575   11.140
 4916.00    1.28455   1.27624   11.077
 4917.00    1.27846   1.25905   10.815
 4918.00    1.26802   1.22471   10.613
 4919.00    1.24144   1.18210   10.873
 4920.00    1.20218   1.14491   11.358
 4921.00    1.16698   1.12543   11.409
 4922.00    1.15222   1.12797   11.156
 4923.00    1.16433   1.14618   11.194
 4924.00    1.18843   1.17083   11.487
 4925.00    1.20405   1.19790   11.632
 4926.00    1.21341   1.22667   11.601
 4927.00    1.22930   1.25452   11.611
 4928.00    1.25071   1.27954   11.674
 4929.00    1.26840   1.30023   11.703
 4930.00    1.27761   1.31244   11.751
 4931.00    1.27967   1.31336   11.856
 4932.00    1.28118   1.30314   11.835
 4933.00    1.28481   1.28396   11.579
 4934.00    1.28051   1.26302   11.358
 4935.00    1.26170   1.24727   11.395
 4936.00    1.24096   1.23502   11.535
 4937.00    1.23478   1.22186   11.545
 4938.00    1.24837   1.20899   11.423
 4939.00    1.27691   1.20278   11.293
 4940.00    1.30856   1.20946    0.000
 4941.00    1.33090   1.22883    0.000
 4942.00    1.33632   1.25429    0.000
 4943.00    1.32580   1.27924    0.000
 4944.00    1.31014   1.29823    0.000
 4945.00    1.30233   1.30788    0.000
 4946.00    1.31134   1.31103    0.000
 4947.00    1.33423   1.31412    0.000
 4948.00    1.35523   1.31940    0.000
 4949.00    1.36209   1.32553    0.000
 4950.00    1.35438   1.33117    0.000
 4951.00    1.34198   1.33437    0.000
 4952.00    1.33868   1.33169    0.000
 4953.00    1.33963   1.32133    0.000
 4954.00    1.32173   1.30349    0.000
 4955.00    1.27938   1.27811    0.000
 4956.00    1.23236   1.24544    0.000
 4957.00    1.20564   1.21125    0.000
 4958.00    1.21519   1.19049    0.000
 4959.00    1.24772   1.19355    0.000
 4960.00    1.27005   1.21490    0.000
 4961.00    1.27148   1.24192    0.000
 4962.00    1.26550   1.26482    0.000
 4963.00    1.26441   1.27734    0.000
 4964.00    1.27240   1.27630    0.000
 4965.00    1.28517   1.26437    0.000
 4966.00    1.29234   1.24921    0.000
 4967.00    1.28295   1.23737    0.000
 4968.00    1.25419   1.23118    0.000
 4969.00    1.22452   1.23160    0.000
 4970.00    1.21784   1.23831    0.000
 4971.00    1.23407   1.24978    0.000
 4972.00    1.25917   1.26372    0.000
 4973.00    1.28732   1.27714    0.000
 4974.00    1.31693   1.28743    0.000
 4975.00    1.34055   1.29194    0.000
 4976.00    1.34398   1.28905    0.000
 4977.00    1.30871   1.27879    0.000
 4978.00    1.23460   1.26208    0.000
 4979.00    1.16147   1.24118    0.000
 4980.00    1.12881   1.21799    0.000
 4981.00    1.13423   1.19230    0.000
 4982.00    1.15422   1.16568    0.000
 4983.00    1.16811   1.14501    0.000
 4984.00    1.16503   1.13734    0.000
 4985.00    1.14812   1.14433    0.000
 4986.00    1.13367   1.16351    0.000
 4987.00    1.14591   1.18922    0.000
 4988.00    1.18671   1.21273    0.000
 4989.00    1.22195   1.22756    0.000
 4990.00    1.22851   1.23326    0.000
 4991.00    1.21968   1.23360    0.000
 4992.00    1.21785   1.23349    0.000
 4993.00    1.23561   1.23456    0.000
 4994.00    1.26508   1.23689    0.000
 4995.00    1.28049   1.24101    0.000
 4996.00    1.27327   1.24442    0.000
 4997.00    1.26105   1.24326    0.000
 4998.00    1.25551   1.23569    0.000
 4999.00    1.25036   1.22161    0.000
 5000.00    1.22893   1.20411    0.000
 5001.00    1.17738   1.18811    0.000
 5002.00    1.11762   1.17626    0.000
 5003.00    1.09761   1.16810    0.000
 5004.00    1.12745   1.16107    0.000
 5005.00    1.17565   1.15314    0.000
 5006.00    1.21475   1.14687    0.000
 5007.00    1.23325   1.14842    0.000
 5008.00    1.23180   1.15925    0.000
 5009.00    1.21890   1.17291    0.000
 5010.00    1.20372   1.18112    0.000
 5011.00    1.19367   1.17863    0.000
 5012.00    1.19301   1.16449    0.000
 5013.00    1.19689   1.14393    0.000
 5014.00    1.18233   1.12559    0.000
 5015.00    1.13130   1.11645    0.000
 5016.00    1.07077   1.11755    0.000
 5017.00    1.04365   1.12447    0.000
 5018.00    1.05549   1.13355    0.000
 5019.00    1.08729   1.14390    0.000
 5020.00    1.12455   1.15405    0.000
 5021.00    1.15715   1.16174    0.000
 5022.00    1.17490   1.16719    0.000
 5023.00    1.17539   1.17341    0.000
 5024.00    1.17237   1.18132    0.000
 5025.00    1.18076   1.18854    0.000
 5026.00    1.20029   1.19323    0.000
 5027.00    1.21748   1.19539    0.000
 5028.00    1.21169   1.19851    0.000
 5029.00    1.18072   1.20663   11.655
 5030.00    1.15735   1.21944   11.713
 5031.00    1.16894   1.23458   12.051
 5032.00    1.20746   1.24919   12.225
 5033.00    1.24723   1.25850   11.971
 5034.00    1.26207   1.25705   11.708
 5035.00    1.24550   1.24296   11.752
 5036.00    1.21775   1.22079   11.965
 5037.00    1.19562   1.19702   12.083
 5038.00    1.17788   1.17275   11.953
 5039.00    1.16291   1.14685   11.687
 5040.00    1.15553   1.12208   11.594
 5041.00    1.15392   1.10615   11.711
 5042.00    1.14803   1.10888   11.750
 5043.00    1.14003   1.13253   11.640
 5044.00    1.14635   1.16899   11.647
 5045.00    1.17206   1.20707   11.856
 5046.00    1.20519   1.23582   12.078
 5047.00    1.23196   1.24666   12.195
 5048.00    1.24345   1.23872   12.260
 5049.00    1.23883   1.22020   12.315
 5050.00    1.22395   1.20188   12.347
 5051.00    1.20478   1.19076   12.350
 5052.00    1.18488   1.19017   12.363
 5053.00    1.16402   1.20039   12.514
 5054.00    1.14312   1.21765   12.915
 5055.00    1.13567   1.23620   13.334
 5056.00    1.15661   1.25192   13.345
 5057.00    1.19446   1.26384   13.024
 5058.00    1.22401   1.27272   12.781
 5059.00    1.24054   1.27904   12.743
 5060.00    1.25472   1.28328   12.801
 5061.00    1.27243   1.28482   12.794
 5062.00    1.29068   1.28070   12.633
 5063.00    1.29734   1.26779   12.443
 5064.00    1.27975   1.24638   12.409
 5065.00    1.23695   1.22297   12.572
 5066.00    1.18133   1.20583   12.825
 5067.00    1.13722   1.19707   12.920
 5068.00    1.12293   1.19491   12.754
 5069.00    1.13172   1.19812   12.676
 5070.00    1.14897   1.20415   12.940
 5071.00    1.17200   1.20815   13.198
 5072.00    1.20584   1.20846   12.986
 5073.00    1.25540   1.20844   12.385
 5074.00    1.30805   1.20949   11.817
 5075.00    1.32487   1.20940   11.683
 5076.00    1.28823   1.20665   12.044
 5077.00    1.23280   1.20003   12.420
 5078.00    1.19370   1.18638   12.414
 5079.00    1.17115   1.16516   12.276
 5080.00    1.15269   1.14396   12.193
 5081.00    1.13030   1.13192   11.903
 5082.00    1.10751   1.13137   11.290
 5083.00    1.09804   1.13991   10.611
 5084.00    1.09961   1.15533   10.065
 5085.00    1.08976   1.17453    9.712
 5086.00    1.07168   1.19285    9.665
 5087.00    1.08272   1.20728   10.116
 5088.00    1.13504   1.21813   10.982
 5089.00    1.19992   1.22683   11.646
 5090.00    1.24882   1.23419   11.718
 5091.00    1.27081   1.24108   11.573
 5092.00    1.27435   1.24825   11.589
 5093.00    1.27946   1.25413   11.831
 5094.00    1.29214   1.25482   12.048
 5095.00    1.30074   1.24721   11.883
 5096.00    1.28972   1.23128   11.616
 5097.00    1.25037   1.20976   11.835
 5098.00    1.19705   1.18738   12.339
 5099.00    1.15910   1.17092   12.322
 5100.00    1.15261   1.16669   11.925
 5101.00    1.17526   1.17433   11.907
 5102.00    1.21038   1.18702   12.238
 5103.00    1.23501   1.19742   12.393
 5104.00    1.23375   1.20153   12.396
 5105.00    1.20765   1.19874   12.567
 5106.00    1.18364   1.19037   12.607
 5107.00    1.18848   1.17907   12.127
 5108.00    1.20739   1.16920   11.674
 5109.00    1.20701   1.16396   11.853
 5110.00    1.17722   1.16422   12.401
 5111.00    1.13278   1.17116   12.694
 5112.00    1.10600   1.18388   12.713
 5113.00    1.12076   1.19897   12.748
 5114.00    1.16511   1.21419   12.722
 5115.00    1.21343   1.22827   12.502
 5116.00    1.25273   1.24052   12.280
 5117.00    1.27747   1.25036   12.260
 5118.00    1.28263   1.25574   12.409
 5119.00    1.26911   1.25411   12.585
 5120.00    1.24797   1.24418   12.670
 5121.00    1.23121   1.22664   12.643
 5122.00    1.22400   1.20387   12.612
 5123.00    1.22335   1.17908   12.624
 5124.00    1.21945   1.15717   12.573
 5125.00    1.20749   1.14258   12.474
 5126.00    1.19362   1.13575   12.563
 5127.00    1.18382   1.13440   12.872
 5128.00    1.17756   1.13643   13.057
 5129.00    1.17021   1.14094   13.007
 5130.00    1.15719   1.14824   13.084
 5131.00    1.14576   1.15872   13.328
 5132.00    1.15399   1.17109   13.257
 5133.00    1.18175   1.18324   12.872
 5134.00    1.20515   1.19360   12.774
 5135.00    1.20553   1.20041   13.020
 5136.00    1.18103   1.20030   13.040
 5137.00    1.14507   1.19222   12.729
 5138.00    1.11959   1.17917   12.578
 5139.00    1.11603   1.16547   12.749
 5140.00    1.13028   1.15594   12.984
 5141.00    1.14637   1.15101   12.984
 5142.00    1.14551   1.14739   12.636
 5143.00    1.12602   1.14550   12.200
 5144.00    1.10239   1.14643   12.048
 5145.00    1.09026   1.14761   12.254
 5146.00    1.09829   1.14717   12.640
 5147.00    1.11913   1.14612   12.889
 5148.00    1.13655   1.14611   12.802
 5149.00    1.14281   1.14718   12.752
 5150.00    1.14154   1.14701   13.169
 5151.00    1.14616   1.14444   13.557
 5152.00    1.16714   1.14128   13.148
 5153.00    1.19328   1.14033   12.588
 5154.00    1.20588   1.14431   12.708
 5155.00    1.20305   1.15526   13.070
 5156.00    1.19619   1.17260   12.845
 5157.00    1.20003   1.19300   12.331
 5158.00    1.22138   1.21155   12.121
 5159.00    1.24828   1.22427   12.106
 5160.00    1.26296   1.22974   12.055
 5161.00    1.25739   1.22676   12.153
 5162.00    1.23730   1.21389   12.484
 5163.00    1.22163   1.19115   12.496
 5164.00    1.21421   1.15776   11.995
 5165.00    1.18394   1.11251   11.851
 5166.00    1.10960   1.05857   12.549
 5167.00    1.01345   1.00548   13.347
 5168.00    0.93246   0.96588   13.371
 5169.00    0.89304   0.94618   13.075
 5170.00    0.89671   0.94109   13.042
 5171.00    0.91674   0.93903   13.156
 5172.00    0.92959   0.93589   13.149
 5173.00    0.93294   0.94116   12.942
 5174.00    0.93846   0.96560   12.673
 5175.00    0.96285   1.00774   12.598
 5176.00    1.00613   1.05652   12.739
 5177.00    1.04802   1.10047   12.838
 5178.00    1.07828   1.13072   12.818
 5179.00    1.10366   1.14108   12.897
 5180.00    1.12102   1.12946   13.092
 5181.00    1.11342   1.09792   13.145
 5182.00    1.07620   1.05258   13.049
 5183.00    1.02329   1.00607   13.086
 5184.00    0.97612   0.97815   13.268
 5185.00    0.95556   0.98316   13.319
 5186.00    0.96993   1.01755   13.185
 5187.00    1.01308   1.06549   13.062
 5188.00    1.06899   1.11055   13.010
 5189.00    1.11755   1.14286   12.967
 5190.00    1.14500   1.15818    0.000
 5191.00    1.14786   1.15560    0.000
 5192.00    1.13552   1.14196    0.000
 5193.00    1.12207   1.12954    0.000
 5194.00    1.10982   1.12541    0.000
 5195.00    1.09387   1.12971    0.000
 5196.00    1.07584   1.14147    0.000
 5197.00    1.06377   1.15877    0.000
 5198.00    1.06764   1.17777    0.000
 5199.00    1.09212   1.19468    0.000
 5200.00    1.12755   1.20601    0.000
 5201.00    1.15766   1.20880    0.000
 5202.00    1.17156   1.20154    0.000
 5203.00    1.16592   1.18436    0.000
 5204.00    1.14519   1.15835    0.000
 5205.00    1.11523   1.12744    0.000
 5206.00    1.07723   1.09897    0.000
 5207.00    1.03858   1.07864    0.000
 5208.00    1.02187   1.06861    0.000
 5209.00    1.04257   1.07162    0.000
 5210.00    1.09010   1.08909    0.000
 5211.00    1.14347   1.11783   12.591
 5212.00    1.18606   1.15129   12.477
 5213.00    1.21013   1.18110   12.467
 5214.00    1.21827   1.20039   12.464
 5215.00    1.21562   1.20733   12.396
 5216.00    1.20525   1.20683   12.304
 5217.00    1.19279   1.20697   12.236
 5218.00    1.18799   1.21299   12.197
 5219.00    1.19690   1.22461   12.164
 5220.00    1.21752   1.23738   12.108
 5221.00    1.24048   1.24566   12.007
 5222.00    1.25223   1.24405   11.869
 5223.00    1.24750   1.22916   11.735
 5224.00    1.23248   1.20178   11.668
 5225.00    1.21496   1.16741   11.675
 5226.00    1.19944   1.13521   11.712
 5227.00    1.18487   1.11618   11.782
 5228.00    1.16758   1.11817   11.902
 5229.00    1.15313   1.13816   11.849
 5230.00    1.15213   1.16506   11.343
 5231.00    1.15681   1.18820   10.735
 5232.00    1.14841   1.20059   10.581
 5233.00    1.13544   1.20272   10.772
 5234.00    1.14548   1.20216   10.763
 5235.00    1.18046   1.20619   10.503
 5236.00    1.22116   1.21790   10.346
 5237.00    1.26074   1.23503   10.337
 5238.00    1.29896   1.25220   10.307
 5239.00    1.31658   1.26526   10.278
 5240.00    1.29384   1.27309   10.385
 5241.00    1.25152   1.27680   10.623
 5242.00    1.22785   1.27765   10.869
 5243.00    1.22970   1.27673   11.017
 5244.00    1.23965   1.27435   11.057
 5245.00    1.23905   1.26813   11.142
 5246.00    1.22244   1.25493   11.401
 5247.00    1.21026   1.23620   11.672
 5248.00    1.22215   1.21781   11.697
 5249.00    1.24443   1.20343   11.500
 5250.00    1.25355   1.19357   11.310
 5251.00    1.24518   1.18974   11.370
 5252.00    1.22564   1.19236   11.740
 5253.00    1.20040   1.19894   12.112
 5254.00    1.17572   1.20691   12.156
 5255.00    1.16078   1.21649   12.000
 5256.00    1.16424   1.23038   11.914
 5257.00    1.19027   1.24810   11.986
 5258.00    1.23092   1.26405   12.127
 5259.00    1.26329   1.27124   12.110
 5260.00    1.26837   1.26424   11.879
 5261.00    1.24377   1.24117   11.689
 5262.00    1.20109   1.20489   11.699
 5263.00    1.16029   1.16228   11.817
 5264.00    1.12988   1.12152   11.935
 5265.00    1.10067   1.08891   12.040
 5266.00    1.06947   1.06767   12.101
 5267.00    1.04691   1.05752   12.039
 5268.00    1.03725   1.05254   11.908
 5269.00    1.03330   1.04747   11.891
 5270.00    1.03451   1.04715   12.034
 5271.00    1.05017   1.05996   12.186
 5272.00    1.08349   1.08523   12.232
 5273.00    1.12770   1.11555   12.177
 5274.00    1.17403   1.14480   12.088
 5275.00    1.21527   1.17031   12.038
 5276.00    1.24803   1.19378   12.014
 5277.00    1.27101   1.21769   11.949
 5278.00    1.27880   1.23945   11.871
 5279.00    1.26446   1.25348   11.885
 5280.00    1.23020   1.25607   12.016
 5281.00    1.18930   1.24808   12.201
 5282.00    1.16422   1.23495   12.309
 5283.00    1.17446   1.22418   12.234
 5284.00    1.21389   1.22298   12.056
 5285.00    1.25904   1.23523   11.956
 5286.00    1.29264   1.25753   12.029
 5287.00    1.30968   1.28179   12.220
 5288.00    1.31969   1.30160   12.249
 5289.00    1.33630   1.31501   11.967
 5290.00    1.36154   1.32273   11.851
 5291.00    1.38805   1.32526   12.299
 5292.00    1.40561   1.32243   12.748
 5293.00    1.40505   1.31413   12.426
 5294.00    1.38218   1.30043   11.865
 5295.00    1.34002   1.28068   11.777
 5296.00    1.29029   1.25495   12.041
 5297.00    1.24737   1.22700   12.290
 5298.00    1.22177   1.20458   12.466
 5299.00    1.21722   1.19481   12.619
 5300.00    1.22892   1.19818   12.647
 5301.00    1.24729   1.21051   12.535
 5302.00    1.26181   1.22854   12.532
 5303.00    1.26584   1.25034   12.727
 5304.00    1.26033   1.27307   12.810
 5305.00    1.25520   1.29279   12.726
 5306.00    1.26709   1.30641   12.945
 5307.00    1.29967   1.31384   13.066
 5308.00    1.33462   1.31794   11.573
 5309.00    1.34994   1.32140    9.429
 5310.00    1.33466   1.32446    8.418
 5311.00    1.30786   1.32583    8.361
 5312.00    1.31359   1.32435    8.172
 5313.00    1.35556   1.31963    7.827
 5314.00    1.38512   1.31243    8.524
 5315.00    1.37757   1.30375   10.911
 5316.00    1.35272   1.29470   13.228
 5317.00    1.32936   1.28734   12.973
 5318.00    1.31046   1.28313   12.405
 5319.00    1.29368   1.28105   12.683
 5320.00    1.27690   1.27888   12.829
 5321.00    1.26328   1.27448   12.462
 5322.00    1.25843   1.26594   12.220
 5323.00    1.25862   1.25209   12.301
 5324.00    1.25156   1.23334   12.443
 5325.00    1.22672   1.21168   12.591
 5326.00    1.18304   1.18734   12.863
 5327.00    1.13944   1.15983   13.020
 5328.00    1.12152   1.13465   12.714
 5329.00    1.13038   1.12367   12.293
 5330.00    1.14861   1.13354   12.301
 5331.00    1.16341   1.15973   12.623
 5332.00    1.17145   1.19229   12.772
 5333.00    1.17923   1.22334   12.618
 5334.00    1.19487   1.24910   12.336
 5335.00    1.21585   1.26734   12.013
 5336.00    1.23183   1.27649   -2.000
 5337.00    1.23169   1.27664   -2.000
 5338.00    1.21358   1.26910   -2.000
 5339.00    1.19473   1.25542   -2.000
 5340.00    1.19107   1.23937   -2.000
 5341.00    1.19507   1.22797   -2.000
 5342.00    1.20050   1.22627   -2.000
 5343.00    1.22654   1.23270   -2.000
 5344.00    1.28047   1.24195   -2.000
 5345.00    1.32581   1.24883   -2.000
 5346.00    1.32766   1.25119   -2.000
 5347.00    1.29183   1.25011   -2.000
 5348.00    1.24985   1.24738   -2.000
 5349.00    1.24071   1.24613   -2.000
 5350.00    1.27824   1.25052   12.090
 5351.00    1.33518   1.26198   12.067
 5352.00    1.38113   1.27819   12.270
 5353.00    1.40528   1.29595   12.472
 5354.00    1.40378   1.31354   12.471
 5355.00    1.37428   1.32959   12.417
 5356.00    1.32886   1.34236   12.494
 5357.00    1.29482   1.35085   12.742
 5358.00    1.28657   1.35462   13.051
 5359.00    1.29513   1.35325   13.193
 5360.00    1.30110   1.34645   13.119
 5361.00    1.28552   1.33450   13.025
 5362.00    1.24903   1.31918   13.024
 5363.00    1.21191   1.30321   13.075
 5364.00    1.18975   1.28830   13.110
 5365.00    1.18507   1.27511   13.085
 5366.00    1.18884   1.26385   12.988
 5367.00    1.18729   1.25302   12.860
 5368.00    1.17902   1.24025   12.847
 5369.00    1.17322   1.22418   13.071
 5370.00    1.17323   1.20662   13.281
 5371.00    1.17563   1.19410   13.077
 5372.00    1.17817   1.19458   12.772
 5373.00    1.18174   1.21062   12.914
 5374.00    1.19037   1.23690   13.173
 5375.00    1.20900   1.26501   12.841
 5376.00    1.23910   1.28767   12.336
 5377.00    1.27654   1.30160   12.379
 5378.00    1.30981   1.30774   12.649
 5379.00    1.32644   1.30806   12.469
 5380.00    1.32339   1.30415   12.197
 5381.00    1.30899   1.29791   12.418
 5382.00    1.30212   1.29136   12.748
 5383.00    1.31267   1.28624   12.545
 5384.00    1.31933   1.28436   12.181
 5385.00    1.29773   1.28578   12.243
 5386.00    1.25457   1.28797   12.660
 5387.00    1.21339   1.28802   13.037
 5388.00    1.19454   1.28396   13.050
 5389.00    1.20164   1.27529   12.691
 5390.00    1.21353   1.26351   12.307
 5391.00    1.21083   1.25123   12.213
 5392.00    1.19742   1.24017   12.484
 5393.00    1.18386   1.23059   12.931
 5394.00    1.17384   1.22178   13.042
 5395.00    1.16905   1.21277   12.695
 5396.00    1.17286   1.20315   12.511
 5397.00    1.18781   1.19548   12.774
 5398.00    1.21308   1.19474   13.016
 5399.00    1.24026   1.20197   12.915
 5400.00    1.25406   1.21283   12.814
 5401.00    1.24814   1.22199   12.955
 5402.00    1.23037   1.22473   13.168
 5403.00    1.20786   1.21725   13.261
 5404.00    1.18095   1.19999   13.223
 5405.00    1.14932   1.17912   13.226
 5406.00    1.11531   1.16314   13.495
 5407.00    1.08599   1.15746   13.918
 5408.00    1.07194   1.16119   14.024
 5409.00    1.08035   1.17002   13.762
 5410.00    1.11102   1.18179   13.566
 5411.00    1.15176   1.19724   13.538
 5412.00    1.18264   1.21600   13.448
 5413.00    1.19189   1.23536   13.319
 5414.00    1.18175   1.25260   13.379
 5415.00    1.17125   1.26677   13.580
 5416.00    1.18427   1.27838   13.645
 5417.00    1.22121   1.28719   13.510
 5418.00    1.26277   1.29198   13.309
 5419.00    1.29184   1.29214   13.084
 5420.00    1.30185   1.28849   12.809
 5421.00    1.30284   1.28304   12.548
 5422.00    1.30679   1.27761   12.394
 5423.00    1.30196   1.27243   12.378
 5424.00    1.27265   1.26823   12.460
 5425.00    1.23536   1.26713   12.531
 5426.00    1.21788   1.26880   12.536
 5427.00    1.22249   1.26917   12.626
 5428.00    1.23228   1.26327   12.895
 5429.00    1.22688   1.24980   13.010
 5430.00    1.19802   1.23398   12.718
 5431.00    1.16359   1.22167   12.477
 5432.00    1.14608   1.21324   12.655
 5433.00    1.14906   1.20708   12.868
 5434.00    1.16450   1.20328   12.684
 5435.00    1.18250   1.20393   12.412
 5436.00    1.19657   1.21193   12.381
 5437.00    1.20697   1.22861   12.412
 5438.00    1.21619   1.25221   12.314
 5439.00    1.22523   1.27804   12.245
 5440.00    1.23351   1.30069   12.307
 5441.00    1.23966   1.31604   12.314
 5442.00    1.24509   1.32180   12.160
 5443.00    1.25387   1.31691   12.016
 5444.00    1.25840   1.30129   12.006
 5445.00    1.23801   1.27718   -2.000
 5446.00    1.19590   1.25041   -2.000
 5447.00    1.16736   1.22994   -2.000
 5448.00    1.16445   1.22308   -2.000
 5449.00    1.16238   1.22961   -2.000
 5450.00    1.15734   1.24291   -2.000
 5451.00    1.16273   1.25484   -2.000
 5452.00    1.09744   1.25927   -2.000
 5453.00    0.84726   1.25393   -2.000
 5454.00    0.62501   1.24082   -2.000
 5455.00    0.86848   1.22585   -2.000
 5456.00    1.52253   1.21739   -2.000
 5457.00    2.04776   1.22052   -2.000
 5458.00    2.11181   1.23277   -2.000
 5459.00    1.79502   1.24691   -2.000
 5460.00    1.57168   1.25609   -2.000
 5461.00    1.91251   1.25727   -2.000
 5462.00    2.40580   1.25179   -2.000
 5463.00    2.22448   1.24425   -2.000
 5464.00    1.52520   1.24024   -2.000
 5465.00    1.08857   1.24202   -2.000
 5466.00    1.06761   1.24774   -2.000
 5467.00    1.13288   1.25465   -2.000
 5468.00    1.14481   1.26033   -2.000
 5469.00    1.14570   1.26252    8.736
 5470.00    1.16075   1.26039    8.617
 5471.00    1.18360   1.25493    8.442
 5472.00    1.20152   1.24695    8.321
 5473.00    1.20652   1.23634    8.302
 5474.00    1.20452   1.22378    8.304
 5475.00    1.20549   1.21039    8.258
 5476.00    1.21087   1.19752    8.258
 5477.00    1.21517   1.18907    8.334
 5478.00    1.21012   1.18887    8.254
 5479.00    1.19296   1.19542    8.083
 5480.00    1.17330   1.20357    8.600
 5481.00    1.16629   1.21031   10.490
 5482.00    1.18443   1.21678   12.726
 5483.00    1.22449   1.22523   12.651
 5484.00    1.26099   1.23600   11.608
 5485.00    1.27116   1.24684   11.438
 5486.00    1.25332   1.25406   11.917
 5487.00    1.22568   1.25583   12.407
 5488.00    1.21916   1.25425   12.572
 5489.00    1.24441   1.25281   12.525
 5490.00    1.27815   1.25315   12.703
 5491.00    1.29524   1.25535   13.161
 5492.00    1.28755   1.25828   13.316
 5493.00    1.26825   1.26007   13.012
 5494.00    1.26453   1.26027   12.860
 5495.00    1.27927   1.25958   13.054
 5496.00    1.28553   1.25809   13.154
 5497.00    1.27138   1.25611   12.986
 5498.00    1.25072   1.25518   12.865
 5499.00    1.23681   1.25569   12.932
 5500.00    1.23286   1.25527   13.030
 5501.00    1.23411   1.25200   13.030
 5502.00    1.23395   1.24667   12.944
 5503.00    1.23889   1.24111   12.928
 5504.00    1.26282   1.23625   13.130
 5505.00    1.30101   1.23205   13.309
 5506.00    1.33304   1.22862   13.133
 5507.00    1.34615   1.22746   13.202
 5508.00    1.33866   1.22928   14.127
 5509.00    1.31490   1.23179   13.768
 5510.00    1.28502   1.23187   10.576
 5511.00    1.26621   1.22779    8.173
 5512.00    1.27016   1.22018    7.585
 5513.00    1.28185   1.21264    7.781
 5514.00    1.27813   1.20942    7.695
 5515.00    1.26212   1.21294    7.825
 5516.00    1.25080   1.22308    9.338
 5517.00    1.24951   1.23787   12.285
 5518.00    1.25757   1.25448   13.839
 5519.00    1.27989   1.26955   13.007
 5520.00    1.31829   1.28040   12.232
 5521.00    1.36005   1.28618   12.014
 5522.00    1.38504   1.28741   11.993
 5523.00    1.37581   1.28479   12.059
 5524.00    1.33005   1.27851   12.218
 5525.00    1.26954   1.26839   12.399
 5526.00    1.21980   1.25497   12.540
 5527.00    1.19174   1.24040   12.667
 5528.00    1.18559   1.22854   12.758
 5529.00    1.19573   1.22387   12.653
 5530.00    1.21296   1.22765   12.381
 5531.00    1.22748   1.23654   12.291
 5532.00    1.23864   1.24569   12.551
 5533.00    1.25763   1.25186   12.926
 5534.00    1.28466   1.25418   13.107
 5535.00    1.29987   1.25405   13.009
 5536.00    1.29006   1.25426   12.843
 5537.00    1.26182   1.25664   12.967
 5538.00    1.23247   1.26135   13.379
 5539.00    1.22172   1.26792   13.579
 5540.00    1.23700   1.27503   13.358
 5541.00    1.26988   1.28048   13.085
 5542.00    1.30766   1.28239   12.972
 5543.00    1.33851   1.28070   12.921
 5544.00    1.35223   1.27742   12.877
 5545.00    1.34287   1.27502   12.892
 5546.00    1.31607   1.27511   12.943
 5547.00    1.28726   1.27866   12.932
 5548.00    1.26958   1.28529   12.860
 5549.00    1.26895   1.29284   12.814
 5550.00    1.28120   1.29864   12.755
 5551.00    1.29645   1.30085   12.574
 5552.00    1.31090   1.29873   12.320
 5553.00    1.32483   1.29294   12.142
 5554.00    1.33189   1.28562   12.090
 5555.00    1.32264   1.27939   12.106
 5556.00    1.29586   1.27565   12.041
 5557.00    1.25810   1.27405   11.793
 5558.00    1.21881   1.27358   11.501
 5559.00    1.18953   1.27325   11.315
 5560.00    1.18352   1.27188   11.075
 5561.00    1.20722   1.26858   10.638
 5562.00    1.24878   1.26320   10.276
 5563.00    1.29106   1.25652   10.236
 5564.00    1.33004   1.24992   10.317
 5565.00    1.36307   1.24409   10.229
 5566.00    1.37362   1.23933   10.067
 5567.00    1.35379   1.23605   10.044
 5568.00    1.32780   1.23424   10.177
 5569.00    1.31941   1.23339   10.401
 5570.00    1.31959   1.23353   10.685
 5571.00    1.31130   1.23462   10.999
 5572.00    1.29350   1.23571   11.279
 5573.00    1.27192   1.23717   11.482
 5574.00    1.25024   1.24064   11.652
 5575.00    1.23288   1.24595   11.825
 5576.00    1.22662   1.25177   11.971
 5577.00    1.23485   1.25756   12.123
 5578.00    1.25368   1.26251   12.431
 5579.00    1.27239   1.26586   12.852
 5580.00    1.27694   1.26743   12.993
 5581.00    1.26577   1.26672   12.805
 5582.00    1.25372   1.26324   12.818
 5583.00    1.24763   1.25685   13.194
 5584.00    1.23810   1.24668   13.442
 5585.00    1.21880   1.23176   13.314
 5586.00    1.19299   1.21264   13.169
 5587.00    1.16371   1.19222   13.274
 5588.00    1.13188   1.17530   13.571
 5589.00    1.10480   1.16602   13.801
 5590.00    1.09503   1.16589   13.668
 5591.00    1.10680   1.17325   13.345
 5592.00    1.13312   1.18434   13.284
 5593.00    1.16158   1.19593   13.418
 5594.00    1.17994   1.20654   13.291
 5595.00    1.18585   1.21621   12.991
 5596.00    1.18446   1.22427   12.969
 5597.00    1.17629   1.22808   13.143
 5598.00    1.15835   1.22573   13.094
 5599.00    1.13343   1.21849   12.954
 5600.00    1.11075   1.20921   13.115
 5601.00    1.10286   1.20093   13.307
 5602.00    1.11884   1.19718   12.993
 5603.00    1.15339   1.20117   12.513
 5604.00    1.19283   1.21410   12.441
 5605.00    1.22792   1.23372   12.595
 5606.00    1.25504   1.25534   12.520
 5607.00    1.27461   1.27438   12.354
 5608.00    1.29021   1.28810   12.414
 5609.00    1.30722   1.29596   12.523
 5610.00    1.32689   1.29877   12.394
 5611.00    1.34016   1.29721   12.189
 5612.00    1.33751   1.29083   12.173
 5613.00    1.32019   1.27840   12.324
 5614.00    1.29482   1.25972   12.506
 5615.00    1.26674   1.23800   12.660
 5616.00    1.23998   1.22018   12.762
 5617.00    1.21787   1.21177   12.773
 5618.00    1.20522   1.21279   12.725
 5619.00    1.20877   1.21968   12.771
 5620.00    1.22786   1.22846   12.956
 5621.00    1.24944   1.23577   13.088
 5622.00    1.26201   1.23903   13.056
 5623.00    1.26461   1.23693   13.038
 5624.00    1.26078   1.23066   13.160
 5625.00    1.25459   1.22448   13.313
 5626.00    1.25075   1.22300   13.355
 5627.00    1.25338   1.22795   13.245
 5628.00    1.25873   1.23816   13.064
 5629.00    1.25592   1.25112   12.959
 5630.00    1.24675   1.26362   12.966
 5631.00    1.24854   1.27279   12.986
 5632.00    1.26838   1.27708   12.966
 5633.00    1.29549   1.27630   12.951
 5634.00    1.31346   1.27121   12.977
 5635.00    1.30873   1.26326   13.046
 5636.00    1.28253   1.25413   13.137
 5637.00    1.25033   1.24553   13.197
 5638.00    1.22854   1.23891   13.062
 5639.00    1.22648   1.23485   12.594
 5640.00    1.23677   1.23261   12.030
 5641.00    1.24204   1.23142   11.698
 5642.00    1.23764   1.23159   11.503
 5643.00    1.23168   1.23357   11.166
 5644.00    1.23216   1.23712   10.810
 5645.00    1.24223   1.24173   10.729
 5646.00    1.25695   1.24667   10.892
 5647.00    1.26709   1.25113   11.092
 5648.00    1.26743   1.25457   11.330
 5649.00    1.26066   1.25695   11.711
 5650.00    1.26051   1.25885   12.068
 5651.00    1.27680   1.26087   12.146
 5652.00    1.29354   1.26247   12.113
 5653.00    1.28731   1.26202   12.266
 5654.00    1.25615   1.25789   12.533
 5655.00    1.21451   1.24977   12.688
 5656.00    1.18144   1.23851   12.739
 5657.00    1.16869   1.22496   12.803
 5658.00    1.17029   1.21088   12.876
 5659.00    1.17587   1.20029   12.919
 5660.00    1.18447   1.19636   12.960
 5661.00    1.19528   1.19835   12.961
 5662.00    1.19925   1.20389   12.734
 5663.00    1.19077   1.21169   12.248
 5664.00    1.17730   1.22087   11.786
 5665.00    1.17232   1.22975   11.583
 5666.00    1.18762   1.23642   11.672
 5667.00    1.22075   1.24002   11.958
 5668.00    1.25078   1.24149   12.240
 5669.00    1.26381   1.24285   12.385
 5670.00    1.26648   1.24593   12.464
 5671.00    1.27000   1.25163   12.574
 5672.00    1.28068   1.25974   12.719
 5673.00    1.30036   1.26888   12.809
 5674.00    1.32677   1.27692   12.696
 5675.00    1.35337   1.28243   12.376
 5676.00    1.37054   1.28536   12.020
 5677.00    1.37049   1.28607   11.795
 5678.00    1.35122   1.28437   11.788
 5679.00    1.32281   1.28019   11.931
 5680.00    1.30314   1.27391   12.031
 5681.00    1.29567   1.26595   12.045
 5682.00    1.28879   1.25694   12.090
 5683.00    1.27718   1.24848   12.146
 5684.00    1.26496   1.24218   12.075
 5685.00    1.25534   1.23815   11.916
 5686.00    1.24716   1.23541   11.838
 5687.00    1.23375   1.23351   11.845
 5688.00    1.20880   1.23340   11.842
 5689.00    1.17985   1.23654   11.910
 5690.00    1.16281   1.24353   12.201
 5691.00    1.16470   1.25331   12.546
 5692.00    1.18154   1.26372   12.588
 5693.00    1.20156   1.27237   12.326
 5694.00    1.21294   1.27746   12.049
 5695.00    1.21532   1.27854   11.967
 5696.00    1.21547   1.27603   12.131
 5697.00    1.21775   1.27032   12.365
 5698.00    1.22541   1.26186   12.433
 5699.00    1.24365   1.25191   12.345
 5700.00    1.27127   1.24199   12.266
 5701.00    1.29078   1.23332   12.325
 5702.00    1.28413   1.22714   12.575
 5703.00    1.25140   1.22394   12.966
 5704.00    1.20539   1.22241   13.310
 5705.00    1.16324   1.21982   13.289
 5706.00    1.13802   1.21398   12.864
 5707.00    1.13207   1.20471   12.504
 5708.00    1.14058   1.19360   12.506
 5709.00    1.15553   1.18353   12.659
 5710.00    1.16903   1.17783   12.686
 5711.00    1.17590   1.17857   12.591
 5712.00    1.17552   1.18616   12.468
 5713.00    1.17248   1.19984   12.354
 5714.00    1.17317   1.21708   12.264
 5715.00    1.18237   1.23447   12.215
 5716.00    1.19641   1.24967   12.143
 5717.00    1.20358   1.26169   11.914
 5718.00    1.20568   1.27081   11.639
 5719.00    1.22261   1.27827   11.650
 5720.00    1.26112   1.28501   11.920
 5721.00    1.30413   1.29128   11.957
 5722.00    1.32884   1.29666   11.623
 5723.00    1.31998   1.30014   11.337
 5724.00    1.28850   1.30065   11.327
 5725.00    1.26620   1.29782   11.513
 5726.00    1.26374   1.29224   11.729
 5727.00    1.26525   1.28548   11.829
 5728.00    1.25763   1.27980   11.850
 5729.00    1.24016   1.27644   11.966
 5730.00    1.22431   1.27486   12.181
 5731.00    1.22556   1.27424   12.337
 5732.00    1.24347   1.27486   12.402
 5733.00    1.26512   1.27742   12.450
 5734.00    1.28442   1.28151   12.393
 5735.00    1.30167   1.28576   12.104
 5736.00    1.31336   1.28874   11.767
 5737.00    1.31558   1.28974   11.631
 5738.00    1.31389   1.28907   11.584
 5739.00    1.31586   1.28750   11.385
 5740.00    1.31554   1.28580    0.000
 5741.00    1.30108   1.28447    0.000
 5742.00    1.27048   1.28378    0.000
 5743.00    1.23376   1.28394    0.000
 5744.00    1.21157   1.28507    0.000
 5745.00    1.22031   1.28659    0.000
 5746.00    1.25414   1.28720    0.000
 5747.00    1.29163   1.28583    0.000
 5748.00    1.30780   1.28275    0.000
 5749.00    1.29471   1.27937    0.000
 5750.00    1.27801   1.27630    0.000
 5751.00    1.28012   1.27251    0.000
 5752.00    1.28708   1.26684    0.000
 5753.00    1.27938   1.26003    0.000
 5754.00    1.25966   1.25497    0.000
 5755.00    1.24299   1.25479    0.000
 5756.00    1.24536   1.26023   -2.000
 5757.00    1.26859   1.26867   -2.000
 5758.00    1.29276   1.27587   -2.000
 5759.00    1.29365   1.27827   -2.000
 5760.00    1.25646   1.27469   -2.000
 5761.00    1.18764   1.26699   -2.000
 5762.00    1.11583   1.25914   -2.000
 5763.00    1.06312   1.25540   -2.000
 5764.00    1.03282   1.25833   -2.000
 5765.00    1.02516   1.26711   -2.000
 5766.00    1.04323   1.27839   -2.000
 5767.00    1.08520   1.28864   -2.000
 5768.00    1.14260   1.29556   -2.000
 5769.00    1.20720   1.29836   -2.000
 5770.00    1.27130   1.29755   -2.000
 5771.00    1.31970   1.29428   -2.000
 5772.00    1.33405   1.28977   -2.000
 5773.00    1.31531   1.28529   -2.000
 5774.00    1.28302   1.28171   -2.000
 5775.00    1.25267   1.27934   -2.000
 5776.00    1.23065   1.27783    0.000
 5777.00    1.21842   1.27573    0.000
 5778.00    1.21528   1.27093    0.000
 5779.00    1.22177   1.26173    0.000
 5780.00    1.23598   1.24794    0.000
 5781.00    1.24455   1.23150    0.000
 5782.00    1.23474   1.21610    0.000
 5783.00    1.21972   1.20503    0.000
 5784.00    1.22125   1.19967    0.000
 5785.00    1.23272   1.20004    0.000
 5786.00    1.23506   1.20582    0.000
 5787.00    1.23071   1.21590    0.000
 5788.00    1.23070   1.22784    0.000
 5789.00    1.23019   1.23900    0.000
 5790.00    1.22190   1.24767    0.000
 5791.00    1.21654   1.25380    0.000
 5792.00    1.22661   1.25899    0.000
 5793.00    1.24595   1.26461    0.000
 5794.00    1.26503   1.27059    0.000
 5795.00    1.28817   1.27579    0.000
 5796.00    1.31778   1.27896    0.000
 5797.00    1.33991   1.27999    0.000
 5798.00    1.34444   1.28066    0.000
 5799.00    1.34185   1.28342    0.000
 5800.00    1.34670   1.28895    0.000
 5801.00    1.36242   1.29550    0.000
 5802.00    1.37401   1.30031    0.000
 5803.00    1.35005   1.30123    0.000
 5804.00    1.28487   1.29787    0.000
 5805.00    1.21780   1.29205    0.000
 5806.00    1.18381   1.28658    0.000
 5807.00    1.18631   1.28349    0.000
 5808.00    1.21331   1.28337    0.000
 5809.00    1.24905   1.28560    0.000
 5810.00    1.28385   1.28893    0.000
 5811.00    1.31644   1.29196    0.000
 5812.00    1.34400   1.29336    0.000
 5813.00    1.35978   1.29237    0.000
 5814.00    1.36087   1.28905    0.000
 5815.00    1.35090   1.28448    0.000
 5816.00    1.33838   1.28073    0.000
 5817.00    1.33193   1.28011    0.000
 5818.00    1.32797   1.28366    0.000
 5819.00    1.31357   1.29027    0.000
 5820.00    1.28590   1.29760    0.000
 5821.00    1.25509   1.30353    0.000
 5822.00    1.23642   1.30698    0.000
 5823.00    1.24213   1.30815    0.000
 5824.00    1.26772   1.30807    0.000
 5825.00    1.29740   1.30786    0.000
 5826.00    1.32247   1.30802    0.000
 5827.00    1.34020   1.30855    0.000
 5828.00    1.34422   1.30930    0.000
 5829.00    1.32880   1.31003    0.000
 5830.00    1.29926   1.31035    0.000
 5831.00    1.26943   1.30983    0.000
 5832.00    1.25438   1.30830    0.000
 5833.00    1.26261   1.30592    0.000
 5834.00    1.28724   1.30306    0.000
 5835.00    1.31301   1.30032    0.000
 5836.00    1.32731   1.29842    0.000
 5837.00    1.32525   1.29765    0.000
 5838.00    1.31310   1.29796    0.000
 5839.00    1.30002   1.29954    0.000
 5840.00    1.28895   1.30255    0.000
 5841.00    1.27973   1.30643    0.000
 5842.00    1.27312   1.30990    0.000
 5843.00    1.27121   1.31158    0.000
 5844.00    1.27688   1.31051    0.000
 5845.00    1.28927   1.30654    0.000
 5846.00    1.30117   1.30041    0.000
 5847.00    1.30751   1.29341    0.000
 5848.00    1.31091   1.28685    0.000
 5849.00    1.31644   1.28133    0.000
 5850.00    1.32733   1.27638    0.000
 5851.00    1.34151   1.27089    0.000
 5852.00    1.35109   1.26405    0.000
 5853.00    1.35072   1.25594    0.000
 5854.00    1.34128   1.24750    0.000
 5855.00    1.32608   1.23957    0.000
 5856.00    1.30799   1.23227    0.000
 5857.00    1.28591   1.22586    0.000
 5858.00    1.25685   1.22171    0.000
 5859.00    1.23008   1.22156    0.000
 5860.00    1.22417   1.22572    0.000
 5861.00    1.23720   1.23277    0.000
 5862.00    1.24764   1.24043    0.000
 5863.00    1.25193   1.24692    0.000
 5864.00    1.26476   1.25158    0.000
 5865.00    1.28380   1.25448    0.000
 5866.00    1.29018   1.25615    0.000
 5867.00    1.27723   1.25779    0.000
 5868.00    1.25401   1.26080    0.000
 5869.00    1.23446   1.26550    0.000
 5870.00    1.23052   1.27090    0.000
 5871.00    1.24346   1.27542    0.000
 5872.00    1.26635   1.27787    0.000
 5873.00    1.29267   1.27792    0.000
 5874.00    1.31721   1.27613    0.000
 5875.00    1.33470   1.27317    0.000
 5876.00    1.34052   1.26931    0.000
 5877.00    1.33230   1.26462    0.000
 5878.00    1.31325   1.25922    0.000
 5879.00    1.29580   1.25342    0.000
 5880.00    1.29128   1.24779    0.000
 5881.00    1.29637   1.24307    0.000
 5882.00    1.30011   1.23948    0.000
 5883.00    1.29475   1.23606    0.000
 5884.00    1.27974   1.23088    0.000
 5885.00    1.26358   1.22137    0.000
 5886.00    1.25140   1.20428    0.000
 5887.00    1.23404   1.17661    0.000
 5888.00    1.20189   1.13804    0.000
 5889.00    1.15754   1.09319    0.000
 5890.00    1.11064   1.05175    0.000
 5891.00    1.07214   1.02434    0.000
 5892.00    1.05005   1.01513    0.000
 5893.00    1.04618   1.01906    0.000
 5894.00    1.05407   1.02719    0.000
 5895.00    1.05986   1.03346    0.000
 5896.00    1.05495   1.03849    0.000
 5897.00    1.04294   1.04852    0.000
 5898.00    1.03542   1.06862    0.000
 5899.00    1.04648   1.09786    0.000
 5900.00    1.07853   1.13131    0.000
 5901.00    1.11880   1.16346   12.850
 5902.00    1.15478   1.19011   12.826
 5903.00    1.18124   1.20946   12.835
 5904.00    1.19982   1.22210   12.981
 5905.00    1.21618   1.22972   13.196
 5906.00    1.23093   1.23433   13.352
 5907.00    1.23821   1.23773   13.353
 5908.00    1.23209   1.24095   13.300
 5909.00    1.21214   1.24394   13.398
 5910.00    1.19303   1.24601   13.538
 5911.00    1.19666   1.24634   13.405
 5912.00    1.22457   1.24417   13.132
 5913.00    1.25945   1.23921   13.112
 5914.00    1.28705   1.23243   13.286
 5915.00    1.30157   1.22608   13.273
 5916.00    1.30508   1.22254   13.044
 5917.00    1.30466   1.22296   12.844
 5918.00    1.30684   1.22694   12.730
 5919.00    1.31401   1.23281   12.621
 5920.00    1.32021   1.23869   12.496
 5921.00    1.31577   1.24329   12.388
 5922.00    1.29617   1.24628   12.324
 5923.00    1.26406   1.24823   12.323
 5924.00    1.22974   1.24988   12.419
 5925.00    1.20519   1.25131   12.613
 5926.00    1.19599   1.25197   12.818
 5927.00    1.19964   1.25113   12.911
 5928.00    1.20562   1.24853   12.842
 5929.00    1.20457   1.24485   12.691
 5930.00    1.19752   1.24149   12.664
 5931.00    1.18708   1.23977   12.842
 5932.00    1.16889   1.23996   12.979
 5933.00    1.14382   1.24112   12.936
 5934.00    1.12807   1.24217   13.054
 5935.00    1.13833   1.24310   13.476
 5936.00    1.17815   1.24466   13.624
 5937.00    1.23262   1.24712   13.237
 5938.00    1.27010   1.24971   13.068
 5939.00    1.27663   1.25123   13.504
 5940.00    1.27335   1.25086   13.931
 5941.00    1.27941   1.24878   13.793
 5942.00    1.29166   1.24644   13.415
 5943.00    1.30207   1.24552   13.188
 5944.00    1.30778   1.24665   13.150
 5945.00    1.30869   1.24898   13.198
 5946.00    1.30530   1.25087   13.205
 5947.00    1.29533   1.25075   13.152
 5948.00    1.27523   1.24815   13.135
 5949.00    1.25197   1.24398   13.143
 5950.00    1.24185   1.23992   13.040
 5951.00    1.24883   1.23706   12.846
 5952.00    1.26097   1.23534   12.741
 5953.00    1.26592   1.23425   12.802
 5954.00    1.25794   1.23374   12.945
 5955.00    1.24278   1.23380   12.963
 5956.00    1.23371   1.23416   12.683
 5957.00    1.23734   1.23499   12.329
 5958.00    1.25142   1.23712   12.292
 5959.00    1.26952   1.24124   12.601
 5960.00    1.28511   1.24720   12.960
 5961.00    1.29778   1.25394   13.026
 5962.00    1.31016   1.25992   12.666
 5963.00    1.31925   1.26384   12.216
 5964.00    1.31965   1.26530   12.111
 5965.00    1.31242   1.26489   12.456
 5966.00    1.30342   1.26390   13.089
 5967.00    1.29786   1.26376   13.589
 5968.00    1.29839   1.26528   13.537
 5969.00    1.30378   1.26821   13.151
 5970.00    1.30858   1.27162   12.874
 5971.00    1.30360   1.27435   12.789
 5972.00    1.28298   1.27524   12.827
 5973.00    1.25210   1.27344   13.025
 5974.00    1.22056   1.26869   13.350
 5975.00    1.19332   1.26147   13.472
 5976.00    1.17258   1.25314   13.179
 5977.00    1.16044   1.24573   12.815
 5978.00    1.15880   1.24106   12.640
 5979.00    1.16832   1.23972   12.425
 5980.00    1.18368   1.24076   12.078
 5981.00    1.19195   1.24204   11.981
 5982.00    1.19034   1.24142   12.235
 5983.00    1.19572   1.23812   12.242
 5984.00    1.21609   1.23323   11.767
 5985.00    1.23472   1.22914   11.485
 5986.00    1.23630   1.22807   11.713
 5987.00    1.22293   1.23054   12.010
 5988.00    1.20804   1.23545   12.087
 5989.00    1.20879   1.24125   12.282
 5990.00    1.22754   1.24671   12.676
 5991.00    1.24808   1.25123   12.749
 5992.00    1.26066   1.25492   12.461
 5993.00    1.26924   1.25814   12.485
 5994.00    1.27278   1.26063   12.970
 5995.00    1.26180   1.26147   13.334
 5996.00    1.23538   1.25994   13.393
 5997.00    1.20493   1.25631   13.643
 5998.00    1.18493   1.25181   14.048
 5999.00    1.18581   1.24791   13.953
 6000.00    1.20283   1.24538   13.487
 6001.00    1.21937   1.24392   13.405
 6002.00    1.22505   1.24270   13.678
 6003.00    1.22033   1.24100   13.667
 6004.00    1.21472   1.23866   13.346
 6005.00    1.21947   1.23571   13.196
 6006.00    1.23266   1.23203   13.223
 6007.00    1.24267   1.22802   13.126
 6008.00    1.24205   1.22489   12.933
 6009.00    1.23137   1.22402   12.837
 6010.00    1.22051   1.22592   12.701
 6011.00    1.22174   1.22942   12.344
 6012.00    1.23800   1.23239   12.056
 6013.00    1.26445   1.23347   12.142
 6014.00    1.29371   1.23275   12.327
 6015.00    1.31529   1.23116   12.217
 6016.00    1.31457   1.22934   12.087
 6017.00    1.28415   1.22742   12.336
 6018.00    1.23715   1.22546   12.773
 6019.00    1.19414   1.22349   12.947
 6020.00    1.16673   1.22153   12.761
 6021.00    1.15602   1.22017   12.469
 6022.00    1.15397   1.22034   12.429
 6023.00    1.15312   1.22258   12.725
 6024.00    1.15492   1.22680   12.901
 6025.00    1.16324   1.23251   12.675
 6026.00    1.17836   1.23913   12.551
 6027.00    1.19705   1.24593   12.856
 6028.00    1.21369   1.25241   13.168
 6029.00    1.22610   1.25845   13.131
 6030.00    1.23851   1.26388   13.091
 6031.00    1.25636   1.26849   13.322
 6032.00    1.28169   1.27228   13.604
 6033.00    1.30770   1.27538   13.612
 6034.00    1.31891   1.27775   13.258
 6035.00    1.30790   1.27926   12.779
 6036.00    1.28197   1.27984   12.558
 6037.00    1.25359   1.27945   12.678
 6038.00    1.23396   1.27813   12.883
 6039.00    1.22600   1.27615   12.973
 6040.00    1.22417   1.27399   12.957
 6041.00    1.22440   1.27246   12.873
 6042.00    1.22684   1.27226   12.733
 6043.00    1.23203   1.27369   12.579
 6044.00    1.24015   1.27652   12.488
 6045.00    1.25279   1.28004   12.511
 6046.00    1.27139   1.28335   12.632
 6047.00    1.29121   1.28587   12.690
 6048.00    1.30333   1.28738   12.511
 6049.00    1.30376   1.28785   12.282
 6050.00    1.29358   1.28734   12.342
 6051.00    1.27415   1.28581   12.638
 6052.00    1.24727   1.28300   12.879
 6053.00    1.21795   1.27882   13.142
 6054.00    1.19481   1.27361   13.664
 6055.00    1.18944   1.26826   14.030
 6056.00    1.20656   1.26386   13.666
 6057.00    1.22883   1.26136   13.187
 6058.00    1.23624   1.26116   13.379
 6059.00    1.23785   1.26272   13.874
 6060.00    1.25021   1.26465   13.870
 6061.00    1.26248   1.26519   13.618
 6062.00    1.25744   1.26309   13.707
 6063.00    1.24247   1.25828   13.952
 6064.00    1.23429   1.25215   13.879
 6065.00    1.23738   1.24722   13.483
 6066.00    1.24685   1.24602   13.067
 6067.00    1.25474   1.25001   12.903
 6068.00    1.26026   1.25861   13.026
 6069.00    1.27648   1.26938   13.105
 6070.00    1.30892   1.27964   12.911
 6071.00    1.33977   1.28761   12.698
 6072.00    1.35170   1.29264   12.677
 6073.00    1.34589   1.29483   12.702
 6074.00    1.33110   1.29442   12.670
 6075.00    1.31518   1.29153   12.738
 6076.00    1.30540   1.28625   12.864
 6077.00    1.30713   1.27893   12.640
 6078.00    1.31292   1.27038   12.133
 6079.00    1.30198   1.26171   12.024
 6080.00    1.26972   1.25405   12.548
 6081.00    1.23722   1.24811   13.217
 6082.00    1.22210   1.24397   13.545
 6083.00    1.22607   1.24153   13.570
 6084.00    1.24207   1.24071   13.477
 6085.00    1.25881   1.24125   13.364
 6086.00    1.26502   1.24256   13.339
 6087.00    1.25386   1.24392   13.502
 6088.00    1.23232   1.24460   13.729
 6089.00    1.21811   1.24408   13.738
 6090.00    1.22053   1.24241   13.621
 6091.00    1.23783   1.24049   13.747
 6092.00    1.26723   1.23970   14.020
 6093.00    1.30563   1.24102   13.975
 6094.00    1.34396   1.24451   13.674
 6095.00    1.37109   1.24936   13.479
 6096.00    1.38566   1.25426   13.064
 6097.00    1.39149   1.25780   12.003
 6098.00    1.38270   1.25887   10.913
 6099.00    1.34877   1.25665   10.435
 6100.00    1.28999   1.25066   10.427
 6101.00    1.21967   1.24117   10.486
 6102.00    1.16215   1.22993   10.531
 6103.00    1.13906   1.22014   10.695
 6104.00    1.14949   1.21528   10.986
 6105.00    1.17903   1.21705   11.320
 6106.00    1.21656   1.22421   11.643
 6107.00    1.25463   1.23353   11.887
 6108.00    1.28660   1.24216   11.892
 6109.00    1.30426   1.24874   11.801
 6110.00    1.29650   1.25336   12.383
 6111.00    1.26305   1.25668   13.722
 6112.00    1.22706   1.25930   13.036
 6113.00    1.21440   1.26151    9.976
 6114.00    1.23357   1.26326    8.025
 6115.00    1.28275   1.26401    7.510
 6116.00    1.35558   1.26300    7.411
 6117.00    1.42566   1.25963    7.106
 6118.00    1.44231   1.25359    6.915
 6119.00    1.39035   1.24490    7.133
 6120.00    1.32159   1.23416    7.594
 6121.00    1.27984   1.22290    7.926
 6122.00    1.25774   1.21369    7.874
 6123.00    1.23775   1.20896    7.783
 6124.00    1.21723   1.20968    8.546
 6125.00    1.20618   1.21481   10.695
 6126.00    1.22001   1.22183   12.727
 6127.00    1.25491   1.22843   12.406
 6128.00    1.28359   1.23386   11.608
 6129.00    1.28727   1.23856   11.654
 6130.00    1.26802   1.24298   12.076
 6131.00    1.24095   1.24663   12.294
 6132.00    1.22496   1.24782   12.194
 6133.00    1.22285   1.24424   12.046
 6134.00    1.22175   1.23435   12.229
 6135.00    1.21658   1.21865   12.727
 6136.00    1.21238   1.20027   13.112
 6137.00    1.20917   1.18423   13.130
 6138.00    1.20198   1.17538   12.934
 6139.00    1.19212   1.17599   12.831
 6140.00    1.18653   1.18480   13.046
 6141.00    1.18933   1.19807   13.451
 6142.00    1.19991   1.21203   13.695
 6143.00    1.21325   1.22460   13.789
 6144.00    1.22162   1.23530   13.998
 6145.00    1.21794   1.24383   14.260
 6146.00    1.20367   1.24942   14.250
 6147.00    1.20014   1.25130   13.806
 6148.00    1.22713   1.24961   13.069
 6149.00    1.26789   1.24562   12.392
 6150.00    1.29057   1.24119   11.995
 6151.00    1.28580   1.23787   11.763
 6152.00    1.26372   1.23621   11.607
 6153.00    1.24240   1.23569   11.804
 6154.00    1.23602   1.23520   12.513
 6155.00    1.24350   1.23373   13.044
 6156.00    1.25634   1.23053   12.777
 6157.00    1.26883   1.22491   12.601
 6158.00    1.28266   1.21582   -2.000
 6159.00    1.30889   1.20214   -2.000
 6160.00    1.35372   1.18358   -2.000
 6161.00    1.40597   1.16198   -2.000
 6162.00    1.43831   1.14138   -2.000
 6163.00    1.41434   1.12663   -2.000
 6164.00    1.32768   1.12097   -2.000
 6165.00    1.22311   1.12428   -2.000
 6166.00    1.15062   1.13315   -2.000
 6167.00    1.13245   1.14274   -2.000
 6168.00    1.15305   1.14948   -2.000
 6169.00    1.16484   1.15268   -2.000
 6170.00    1.14483   1.15429   11.322
 6171.00    1.11633   1.15714   11.338
 6172.00    1.10644   1.16291   11.599
 6173.00    1.12417   1.17125   12.151
 6174.00    1.15914   1.18045   12.916
 6175.00    1.18871   1.18874   13.829
 6176.00    1.20590   1.19530   14.445
 6177.00    1.22297   1.20041   14.140
 6178.00    1.24487   1.20480   13.738
 6179.00    1.26311   1.20903   14.613
 6180.00    1.26730   1.21325   15.106
 6181.00    1.25202   1.21722   11.927
 6182.00    1.22477   1.22045    8.837
 6183.00    1.20183   1.22223    7.893
 6184.00    1.19172   1.22179    8.222
 6185.00    1.19412   1.21854    8.547
 6186.00    1.20788   1.21235    8.339
 6187.00    1.23104   1.20359    8.043
 6188.00    1.25677   1.19311    7.922
 6189.00    1.27756   1.18204    7.918
 6190.00    1.29451   1.17187    7.775
 6191.00    1.31032   1.16445    7.430
 6192.00    1.31443   1.16172    7.496
 6193.00    1.29306   1.16479    8.717
 6194.00    1.24883   1.17310   11.095
 6195.00    1.19867   1.18420   12.876
 6196.00    1.16527   1.19475   13.228
 6197.00    1.16210   1.20197   13.669
 6198.00    1.17679   1.20473   14.501
 6199.00    1.18769   1.20388   15.002
 6200.00    1.18606   1.20171   14.914
 6201.00    1.17641   1.20072   14.559
 6202.00    1.17291   1.20244   14.371
 6203.00    1.18545   1.20683   14.455
 6204.00    1.20755   1.21266   14.354
 6205.00    1.22712   1.21835   13.834
 6206.00    1.23735   1.22274   13.427
 6207.00    1.23913   1.22525   13.409
 6208.00    1.24125   1.22555   13.327
 6209.00    1.25213   1.22331   12.898
 6210.00    1.27338   1.21812   12.534
 6211.00    1.29727   1.20970   12.526
 6212.00    1.30756   1.19830   12.714
 6213.00    1.29235   1.18504   12.788
 6214.00    1.25214   1.17184   12.537
 6215.00    1.20098   1.16091   12.129
 6216.00    1.16295   1.15383   12.005
 6217.00    1.15383   1.15086   12.131
 6218.00    1.17291   1.15096   11.947
 6219.00    1.20794   1.15262   11.523
 6220.00    1.23998   1.15484   11.585
 6221.00    1.25298   1.15743   12.134
 6222.00    1.24079   1.16066   12.214
 6223.00    1.21750   1.16460   11.434
 6224.00    1.20946   1.16871   10.463
 6225.00    1.21816   1.17206    9.792
 6226.00    1.21985   1.17351    9.570
 6227.00    1.20014   1.17204    9.819
 6228.00    1.16220   1.16707   10.524
 6229.00    1.11988   1.15903   11.589
 6230.00    1.09033   1.14973   12.754
 6231.00    1.08102   1.14215   13.763
 6232.00    1.08981   1.13928   14.474
 6233.00    1.11205   1.14265   14.692
 6234.00    1.14259   1.15137   14.360
 6235.00    1.17664   1.16238   13.925
 6236.00    1.20809   1.17192   13.820
 6237.00    1.22657   1.17705   13.791
 6238.00    1.22372   1.17671   13.409
 6239.00    1.20356   1.17177   12.942
 6240.00    1.17725   1.16413   12.834
 6241.00    1.15304   1.15580   13.047
 6242.00    1.13611   1.14825   13.297
 6243.00    1.12991   1.14241   13.407
 6244.00    1.13198   1.13893   13.315
 6245.00    1.12975   1.13844   13.028
 6246.00    1.11556   1.14127   12.691
 6247.00    1.10178   1.14700   12.611
 6248.00    1.10363   1.15415   12.912
 6249.00    1.12121   1.16039   13.262
 6250.00    1.14514   1.16328   13.395
 6251.00    1.16356   1.16134   13.670
 6252.00    1.16750   1.15472   14.319
 6253.00    1.15493   1.14503   14.755
 6254.00    1.13170   1.13448   14.560
 6255.00    1.11031   1.12494   14.389
 6256.00    1.09753   1.11744   14.646
 6257.00    1.08823   1.11264   14.832
 6258.00    1.07812   1.11125   14.622
 6259.00    1.07064   1.11408   14.458
 6260.00    1.07098   1.12145   14.611
 6261.00    1.08202   1.13255   14.807
 6262.00    1.10184   1.14542   14.777
 6263.00    1.12360   1.15757   14.530
 6264.00    1.14068   1.16704   14.161
 6265.00    1.14903   1.17307   13.758
 6266.00    1.14741   1.17619   13.504
 6267.00    1.13852   1.17756   13.603
 6268.00    1.13268   1.17830   13.952
 6269.00    1.14397   1.17909   14.121
 6270.00    1.17344   1.18030   13.890
 6271.00    1.20772   1.18208   13.440
 6272.00    1.23169   1.18445   13.078
 6273.00    1.23543   1.18715   13.038
 6274.00    1.22222   1.18964   13.295
 6275.00    1.20682   1.19131   13.625
 6276.00    1.20597   1.19162   13.856
 6277.00    1.22791   1.19026   13.941
 6278.00    1.25538   1.18726   13.923
 6279.00    1.25961   1.18311   13.891
 6280.00    1.23466   1.17885    0.000
 6281.00    1.19577   1.17584    0.000
 6282.00    1.16335   1.17526    0.000
 6283.00    1.15227   1.17762    0.000
 6284.00    1.15976   1.18258    0.000
 6285.00    1.17401   1.18918    0.000
 6286.00    1.18938   1.19630    0.000
 6287.00    1.20283   1.20287    0.000
 6288.00    1.20685   1.20795    0.000
 6289.00    1.19782   1.21077    0.000
 6290.00    1.18625   1.21091    0.000
 6291.00    1.18261   1.20858    0.000
 6292.00    1.18160   1.20452    0.000
 6293.00    1.17469   1.19963    0.000
 6294.00    1.16364   1.19445    0.000
 6295.00    1.15569   1.18912    0.000
 6296.00    1.15733   1.18361    0.000
 6297.00    1.17009   1.17810    0.000
 6298.00    1.18802   1.17301    0.000
 6299.00    1.20318   1.16877    0.000
 6300.00    1.21007   1.16566    0.000
 6301.00    1.20667   1.16390    0.000
 6302.00    1.19489   1.16384    0.000
 6303.00    1.17914   1.16599    0.000
 6304.00    1.16531   1.17068    0.000
 6305.00    1.15919   1.17765    0.000
 6306.00    1.16461   1.18592    0.000
 6307.00    1.17852   1.19405    0.000
 6308.00    1.19105   1.20053    0.000
 6309.00    1.19667   1.20422    0.000
 6310.00    1.19808   1.20462    0.000
 6311.00    1.20037   1.20202    0.000
 6312.00    1.20697   1.19714    0.000
 6313.00    1.21416   1.19090    0.000
 6314.00    1.21311   1.18407    0.000
 6315.00    1.20336   1.17720    0.000
 6316.00    1.19265   1.17079    0.000
 6317.00    1.18297   1.16562    0.000
 6318.00    1.17021   1.16259    0.000
 6319.00    1.15503   1.16242    0.000
 6320.00    1.14336   1.16535    0.000
 6321.00    1.14008   1.17105   12.853
 6322.00    1.14629   1.17861   12.586
 6323.00    1.15717   1.18689   12.210
 6324.00    1.16506   1.19483   11.871
 6325.00    1.16675   1.20168   11.711
 6326.00    1.16442   1.20699   11.778
 6327.00    1.16429   1.21065   11.902
 6328.00    1.17142   1.21283   11.889
 6329.00    1.18194   1.21392   11.921
 6330.00    1.18853   1.21432   12.278
 6331.00    1.19048   1.21410   12.830
 6332.00    1.19070   1.21277   13.244
 6333.00    1.18960   1.20950   13.550
 6334.00    1.18434   1.20382   13.946
 6335.00    1.16935   1.19632   14.334
 6336.00    1.14403   1.18872   14.458
 6337.00    1.11990   1.18321   14.239
 6338.00    1.10697   1.18139   13.906
 6339.00    1.10050   1.18334   13.925
 6340.00    1.09522   1.18757   14.414
 6341.00    1.09802   1.19177   14.673
 6342.00    1.11564   1.19411   14.212
 6343.00    1.14371   1.19407   13.724
 6344.00    1.17038   1.19258   13.706
 6345.00    1.18141   1.19133   13.814
 6346.00    1.17327   1.19186   13.740
 6347.00    1.15946   1.19480   13.716
 6348.00    1.15572   1.19966   13.872
 6349.00    1.16958   1.20520   13.914
 6350.00    1.19601   1.20997   13.745
 6351.00    1.21874   1.21268   13.705
 6352.00    1.22817   1.21251   13.933
 6353.00    1.22813   1.20931   14.120
 6354.00    1.22436   1.20354   13.900
 6355.00    1.21746   1.19609   13.195
 6356.00    1.19679   1.18775   12.414
 6357.00    1.14752   1.17907   12.087
 6358.00    1.08499   1.17043   12.229
 6359.00    1.05183   1.16218   12.441
 6360.00    1.06491   1.15480   12.557
 6361.00    1.10502   1.14907   12.766
 6362.00    1.14218   1.14589   13.120
 6363.00    1.15272   1.14601   13.441
 6364.00    1.14306   1.14973   13.558
 6365.00    1.14116   1.15678   13.448
 6366.00    1.15955   1.16630   13.294
 6367.00    1.19167   1.17694   13.311
 6368.00    1.22506   1.18728   13.423
 6369.00    1.24767   1.19631   13.388
 6370.00    1.25395   1.20371   13.208
 6371.00    1.24514   1.20971   13.063
 6372.00    1.22709   1.21470   13.020
 6373.00    1.20686   1.21882   13.108
 6374.00    1.18766   1.22191   13.497
 6375.00    1.17206   1.22353   14.249
 6376.00    1.16750   1.22327   14.741
 6377.00    1.17894   1.22107   14.319
 6378.00    1.19826   1.21738   13.682
 6379.00    1.21306   1.21308   13.616
 6380.00    1.21923   1.20920   13.856
 6381.00    1.21942   1.20660   13.860
 6382.00    1.21916   1.20559   13.738
 6383.00    1.22154   1.20599   13.813
 6384.00    1.22314   1.20739   14.077
 6385.00    1.22348   1.20936   14.352
 6386.00    1.23255   1.21145   14.456
 6387.00    1.25701   1.21321   14.179
 6388.00    1.28866   1.21409   13.363
 6389.00    1.31077   1.21339   12.335
 6390.00    1.30610   1.21049   11.750
 6391.00    1.27328   1.20520   11.739
 6392.00    1.23450   1.19829   11.797
 6393.00    1.21258   1.19163   11.691
 6394.00    1.21559   1.18730   11.878
 6395.00    1.23428   1.18634   12.556
 6396.00    1.24580   1.18813   13.151
 6397.00    1.23748   1.19060   13.180
 6398.00    1.21597   1.19149   12.949
 6399.00    1.19183   1.19019   12.823
 6400.00    1.17250   1.18838   12.864
 6401.00    1.16460   1.18847   12.964
 6402.00    1.17335   1.19191   12.948
 6403.00    1.19664   1.19834   12.832
 6404.00    1.22479   1.20560   12.838
 6405.00    1.24740   1.21102   13.145
 6406.00    1.25619   1.21288   13.776
 6407.00    1.24595   1.21123   14.341
 6408.00    1.21720   1.20751   14.156
 6409.00    1.18251   1.20323   13.342
 6410.00    1.16119   1.19940   12.587
 6411.00    1.16203   1.19671   12.076
 6412.00    1.18053   1.19551   11.736
 6413.00    1.20333   1.19577   11.794
 6414.00    1.21642   1.19733   12.553
 6415.00    1.21946   1.19966   13.580
 6416.00    1.21894   1.20174   13.739
 6417.00    1.21033   1.20241   12.990
 6418.00    1.18525   1.20090   12.255
 6419.00    1.14905   1.19742   12.036
 6420.00    1.11864   1.19347   12.397
 6421.00    1.11388   1.19127   12.945
 6422.00    1.14376   1.19253   13.101
 6423.00    1.19052   1.19749   12.892
 6424.00    1.22867   1.20500   12.705
 6425.00    1.25099   1.21307   12.705
 6426.00    1.26037   1.21960   12.865
 6427.00    1.25742   1.22288   13.049
 6428.00    1.24524   1.22208   13.180
 6429.00    1.23510   1.21742   13.404
 6430.00    1.23828   1.21048   13.753
 6431.00    1.25757   1.20380   13.806
 6432.00    1.28355   1.19965   13.337
 6433.00    1.29498   1.19915   12.822
 6434.00    1.28168   1.20177   12.612
 6435.00    1.25892   1.20556   12.568
 6436.00    1.24196   1.20816   12.566
 6437.00    1.22936   1.20812   12.765
 6438.00    1.21594   1.20595   13.235
 6439.00    1.20161   1.20392   13.728
 6440.00    1.19009   1.20442   13.982
 6441.00    1.18731   1.20856   13.983
 6442.00    1.19830   1.21589   13.792
 6443.00    1.22450   1.22450   13.445
 6444.00    1.25880   1.23197   13.103
 6445.00    1.28651   1.23612   12.994
 6446.00    1.29883   1.23536   13.057
 6447.00    1.29545   1.22898   12.977
 6448.00    1.27194   1.21754   12.867
 6449.00    1.22150   1.20351   13.235
 6450.00    1.15789   1.19079   14.046
 6451.00    1.11228   1.18279   14.527
 6452.00    1.09882   1.18096   14.352
 6453.00    1.11018   1.18440   14.042
 6454.00    1.13635   1.19066   13.996
 6455.00    1.16814   1.19743   14.271
 6456.00    1.19205   1.20366   14.651
 6457.00    1.19621   1.20914   14.753
 6458.00    1.18676   1.21365   14.450
 6459.00    1.18125   1.21634   13.930
 6460.00    1.18727   1.21586   13.437
 6461.00    1.20171   1.21152   13.156
 6462.00    1.21833   1.20467   13.170
 6463.00    1.23143   1.19826   13.449
 6464.00    1.23985   1.19510   13.751
 6465.00    1.24727   1.19648   13.791
 6466.00    1.26132   1.20173   13.641
 6467.00    1.28484   1.20854   13.549
 6468.00    1.30471   1.21430   13.602
 6469.00    1.30515   1.21731   13.732
 6470.00    1.28618   1.21735   13.772
 6471.00    1.26008   1.21542   13.668
 6472.00    1.24374   1.21298   13.677
 6473.00    1.24773   1.21102   13.929
 6474.00    1.26638   1.20993   14.007
 6475.00    1.28475   1.20984   13.683
 6476.00    1.28755   1.21058   13.576
 6477.00    1.27160   1.21158   14.101
 6478.00    1.25355   1.21199   14.724
 6479.00    1.25012   1.21088   14.799
 6480.00    1.26229   1.20754   14.577
 6481.00    1.27832   1.20217   14.498
 6482.00    1.27943   1.19626   14.605
 6483.00    1.25751   1.19178   14.716
 6484.00    1.22403   1.19017   14.587
 6485.00    1.19514   1.19167   14.256
 6486.00    1.18196   1.19528   14.078
 6487.00    1.18770   1.19917   14.125
 6488.00    1.20681   1.20126   14.027
 6489.00    1.22695   1.19980   13.527
 6490.00    1.23252   1.19366   12.784
 6491.00    1.21488   1.18231   12.261
 6492.00    1.17719   1.16578   12.426
 6493.00    1.13541   1.14513   13.155
 6494.00    1.11080   1.12303   13.627
 6495.00    1.10319   1.10330   13.616
 6496.00    1.09390   1.08959   13.840
 6497.00    1.08460   1.08420   14.450
 6498.00    1.09645   1.08744   14.801
 6499.00    1.13222   1.09795   14.618
 6500.00    1.17368   1.11337   14.295
 6501.00    1.20443   1.13107   14.226
 6502.00    1.21830   1.14876   14.571
 6503.00    1.22428   1.16483   15.090
 6504.00    1.23680   1.17830   15.291
 6505.00    1.25350   1.18869   15.118
 6506.00    1.26236   1.19590   14.879
 6507.00    1.26419   1.20022   14.672
 6508.00    1.26790   1.20240   14.440
 6509.00    1.27491   1.20338   14.239
 6510.00    1.28023   1.20392   14.156
 6511.00    1.27861   1.20424   14.160
 6512.00    1.26723   1.20413   14.177
 6513.00    1.24813   1.20305   14.210
 6514.00    1.22633   1.20051   14.231
 6515.00    1.20680   1.19647   14.023
 6516.00    1.19138   1.19158   13.531
 6517.00    1.17601   1.18690   13.145
 6518.00    1.15538   1.18371   13.191
 6519.00    1.12860   1.18310   13.569
 6520.00    1.10375   1.18529   13.948
 6521.00    1.09973   1.18955   13.983
 6522.00    1.12737   1.19463   13.682
 6523.00    1.17463   1.19919   13.544
 6524.00    1.22297   1.20222   13.801
 6525.00    1.26113   1.20321   14.002
 6526.00    1.28305   1.20241   13.895
 6527.00    1.28666   1.20073   14.012
 6528.00    1.28017   1.19913    0.000
 6529.00    1.28202   1.19805    0.000
 6530.00    1.29585   1.19737    0.000
 6531.00    1.30113   1.19674    0.000
 6532.00    1.28287   1.19610    0.000
 6533.00    1.24612   1.19582    0.000
 6534.00    1.20627   1.19640    0.000
 6535.00    1.18104   1.19805    0.000
 6536.00    1.17851   1.20055    0.000
 6537.00    1.19438   1.20346    0.000
 6538.00    1.22165   1.20630    0.000
 6539.00    1.25362   1.20847    0.000
 6540.00    1.28011   1.20926    0.000
 6541.00    1.28900   1.20805    0.000
 6542.00    1.27529   1.20449    0.000
 6543.00    1.24407   1.19868    0.000
 6544.00    1.21007   1.19107    0.000
 6545.00    1.19158   1.18268    0.000
 6546.00    1.19520   1.17502    0.000
 6547.00    1.21338   1.16950    0.000
 6548.00    1.22861   1.16650    0.000
 6549.00    1.22465   1.16532    0.000
 6550.00    1.20743   1.16462    0.000
 6551.00    1.19571   1.16303    0.000
 6552.00    1.19447   1.15956    0.000
 6553.00    1.19651   1.15389    0.000
 6554.00    1.19461   1.14637    0.000
 6555.00    1.18487   1.13780    0.000
 6556.00    1.16847   1.12861    0.000
 6557.00    1.15181   1.11815    0.000
 6558.00    1.14562   1.10445    0.000
 6559.00    1.15679   1.08504    0.000
 6560.00    1.17841   1.05822    0.000
 6561.00    1.19663   1.02503    0.000
 6562.00    1.20105   0.99139    0.000
 6563.00    1.19285   0.96711    0.000
 6564.00    1.19007   0.96001    0.000
 6565.00    1.20390   0.97187    0.000
 6566.00    1.21732   0.99870    0.000
 6567.00    1.20907   1.03280    0.000
 6568.00    1.17610   1.06605    0.000
 6569.00    1.12988   1.09280    0.000
 6570.00    1.09001   1.11104    0.000
 6571.00    1.07053   1.12142    0.000
 6572.00    1.07127   1.12607    0.000
 6573.00    1.08655   1.12781    0.000
 6574.00    1.11193   1.12935    0.000
 6575.00    1.14756   1.13273    0.000
 6576.00    1.19704   1.13875    0.000
 6577.00    1.25109   1.14676    0.000
 6578.00    1.28479   1.15519    0.000
 6579.00    1.28803   1.16236    0.000
 6580.00    1.27611   1.16733    0.000
 6581.00    1.26971   1.17028    0.000
 6582.00    1.28226   1.17209    0.000
 6583.00    1.30783   1.17355    0.000
 6584.00    1.32459   1.17511    0.000
 6585.00    1.32381   1.17688    0.000
 6586.00    1.31476   1.17886    0.000
 6587.00    1.30551   1.18086    0.000
 6588.00    1.29673   1.18223    0.000
 6589.00    1.28313   1.18195    0.000
 6590.00    1.25908   1.17898    0.000
 6591.00    1.23195   1.17272    0.000
 6592.00    1.21703   1.16391    0.000
 6593.00    1.21707   1.15498    0.000
 6594.00    1.22193   1.14875    0.000
 6595.00    1.21910   1.14673    0.000
 6596.00    1.20133   1.14876    0.000
 6597.00    1.17662   1.15363    0.000
 6598.00    1.16078   1.15999    0.000
 6599.00    1.16101   1.16680    0.000
 6600.00    1.17482   1.17332    0.000
 6601.00    1.19332   1.17879    0.000
 6602.00    1.20593   1.18245    0.000
 6603.00    1.20642   1.18371    0.000
 6604.00    1.19588   1.18235    0.000
 6605.00    1.18471   1.17873    0.000
 6606.00    1.18490   1.17365    0.000
 6607.00    1.20024   1.16816    0.000
 6608.00    1.22352   1.16348    0.000
 6609.00    1.23631   1.16096   13.464
 6610.00    1.22477   1.16149   13.551
 6611.00    1.19450   1.16483   13.801
 6612.00    1.16214   1.16986   14.058
 6613.00    1.14521   1.17546   14.113
 6614.00    1.15132   1.18088   13.985
 6615.00    1.17162   1.18568   14.052
 6616.00    1.19392   1.18952   14.426
 6617.00    1.21217   1.19241   14.583
 6618.00    1.22209   1.19452   14.248
 6619.00    1.21881   1.19589   13.965
 6620.00    1.20360   1.19631   14.125
 6621.00    1.18642   1.19540   14.590
 6622.00    1.17703   1.19284   15.020
 6623.00    1.17898   1.18868   15.096
 6624.00    1.18508   1.18361   14.820
 6625.00    1.18051   1.17883   14.535
 6626.00    1.16635   1.17529   14.399
 6627.00    1.16199   1.17317   14.295
 6628.00    1.17260   1.17198   14.145
 6629.00    1.18296   1.17092   14.004
 6630.00    1.18418   1.16910   13.954
 6631.00    1.18021   1.16603   14.022
 6632.00    1.17571   1.16188   14.030
 6633.00    1.17317   1.15760   13.729
 6634.00    1.17693   1.15468   13.327
 6635.00    1.19016   1.15423   13.279
 6636.00    1.20409   1.15632   13.618
 6637.00    1.20454   1.16009   14.004
 6638.00    1.19442   1.16422   14.196
 6639.00    1.18907   1.16754   14.186
 6640.00    1.19373   1.16943   14.115
 6641.00    1.20338   1.16964   14.137
 6642.00    1.21262   1.16817   14.245
 6643.00    1.21732   1.16569   14.330
 6644.00    1.21429   1.16353   14.358
 6645.00    1.20369   1.16261   14.380
 6646.00    1.19287   1.16302   14.493
 6647.00    1.19304   1.16451   14.689
 6648.00    1.21273   1.16664   14.647
 6649.00    1.24910   1.16882   14.175
 6650.00    1.27909   1.17046   13.748
 6651.00    1.28021   1.17129   13.798
 6652.00    1.25637   1.17143   14.102
 6653.00    1.22604   1.17115   14.209
 6654.00    1.20529   1.17074   14.018
 6655.00    1.20001   1.17034   13.746
 6656.00    1.20127   1.16990   13.711
 6657.00    1.19897   1.16926   13.973
 6658.00    1.19381   1.16812   14.092
 6659.00    1.18992   1.16603   13.820
 6660.00    1.18841   1.16270   13.648
 6661.00    1.19073   1.15810   13.929
 6662.00    1.20092   1.15259   14.379
 6663.00    1.22091   1.14714   14.575
 6664.00    1.24656   1.14308   14.415
 6665.00    1.26439   1.14117   14.085
 6666.00    1.25487   1.14152   13.888
 6667.00    1.22146   1.14395   13.981
 6668.00    1.19780   1.14810   14.293
 6669.00    1.20266   1.15337   14.510
 6670.00    1.22247   1.15891   14.207
 6671.00    1.23796   1.16383   13.586
 6672.00    1.23827   1.16733   13.343
 6673.00    1.22639   1.16879   13.609
 6674.00    1.21488   1.16774   13.878
 6675.00    1.20309   1.16389   13.771
 6676.00    1.17737   1.15733   13.300
 6677.00    1.14017   1.14909   12.407
 6678.00    1.11098   1.14144   11.119
 6679.00    1.09960   1.13664    9.980
 6680.00    1.10035   1.13559    9.449
 6681.00    1.09971   1.13788    9.418
 6682.00    1.08638   1.14257    9.516
 6683.00    1.06984   1.14831    9.558
 6684.00    1.07151   1.15377    9.580
 6685.00    1.09507   1.15808    9.670
 6686.00    1.12896   1.16098    9.909
 6687.00    1.16472   1.16261   10.319
 6688.00    1.19661   1.16343   10.861
 6689.00    1.21421   1.16387   11.461
 6690.00    1.20759   1.16407   12.012
 6691.00    1.17800   1.16393   12.422
 6692.00    1.13859   1.16319   12.651
 6693.00    1.11219   1.16155   12.740
 6694.00    1.11806   1.15881   12.789
 6695.00    1.15481   1.15512   12.916
 6696.00    1.20241   1.15124    0.000
 6697.00    1.22949   1.14828    0.000
 6698.00    1.21767   1.14698    0.000
 6699.00    1.18514   1.14751    0.000
 6700.00    1.15695   1.14933    0.000
 6701.00    1.13416   1.15137    0.000
 6702.00    1.11281   1.15266    0.000
 6703.00    1.10244   1.15281    0.000
 6704.00    1.11155   1.15217    0.000
 6705.00    1.13498   1.15144    0.000
 6706.00    1.16220   1.15113    0.000
 6707.00    1.18457   1.15126    0.000
 6708.00    1.19694   1.15153    0.000
 6709.00    1.19756   1.15142    0.000
 6710.00    1.18226   1.15049    0.000
 6711.00    1.14459   1.14852    0.000
 6712.00    1.09664   1.14528    0.000
 6713.00    1.07434   1.14063    0.000
 6714.00    1.10325   1.13476    0.000
 6715.00    1.18004   1.12811    0.000
 6716.00    1.26960   1.12146    0.000
 6717.00    1.31674   1.11613    0.000
 6718.00    1.29694   1.11355    0.000
 6719.00    1.23217   1.11430    0.000
 6720.00    1.16899   1.11772    0.000
 6721.00    1.15429   1.12268    0.000
 6722.00    1.18501   1.12817    0.000
 6723.00    1.21315   1.13325    0.000
 6724.00    1.21321   1.13714    0.000
 6725.00    1.19575   1.13958    0.000
 6726.00    1.18518   1.14100    0.000
 6727.00    1.20319   1.14214    0.000
 6728.00    1.24434   1.14342    0.000
 6729.00    1.28204   1.14495    0.000
 6730.00    1.29571   1.14655    0.000
 6731.00    1.27901   1.14786    0.000
 6732.00    1.24275   1.14855    0.000
 6733.00    1.20228   1.14857    0.000
 6734.00    1.15418   1.14804    0.000
 6735.00    1.09423   1.14705    0.000
 6736.00    1.05280   1.14555    0.000
 6737.00    1.06608   1.14339    0.000
 6738.00    1.12478   1.14071    0.000
 6739.00    1.18981   1.13796    0.000
 6740.00    1.22562   1.13560    0.000
 6741.00    1.21835   1.13373    0.000
 6742.00    1.19056   1.13221    0.000
 6743.00    1.17001   1.13115    0.000
 6744.00    1.15417   1.13059    0.000
 6745.00    1.13019   1.13021    0.000
 6746.00    1.09910   1.12958    0.000
 6747.00    1.07340   1.12849    0.000
 6748.00    1.07051   1.12691    0.000
 6749.00    1.09325   1.12499    0.000
 6750.00    1.11829   1.12325    0.000
 6751.00    1.13146   1.12227    0.000
 6752.00    1.14995   1.12229    0.000
 6753.00    1.18050   1.12361   10.906
 6754.00    1.19669   1.12647   11.122
 6755.00    1.18830   1.13063   11.717
 6756.00    1.18463   1.13567   12.307
 6757.00    1.20248   1.14108   12.520
 6758.00    1.22258   1.14625   12.491
 6759.00    1.22698   1.15063   12.284
 6760.00    1.21670   1.15378   11.699
 6761.00    1.19911   1.15548   10.973
 6762.00    1.18214   1.15573   10.639
 6763.00    1.17643   1.15470   10.727
 6764.00    1.18972   1.15246   10.820
 6765.00    1.20265   1.14900   10.883
 6766.00    1.17725   1.14458   11.365
 6767.00    1.11663   1.13987   12.285
 6768.00    1.06556   1.13582   12.865
 6769.00    1.04807   1.13305   12.406
 6770.00    1.05816   1.13172   11.177
 6771.00    1.08980   1.13203    9.996
 6772.00    1.13965   1.13419    9.369
 6773.00    1.19212   1.13805    9.211
 6774.00    1.22422   1.14303    9.279
 6775.00    1.22522   1.14836    9.648
 6776.00    1.19969   1.15327   10.588
 6777.00    1.16357   1.15713   11.886
 6778.00    1.13586   1.15954   12.673
 6779.00    1.12500   1.16012   12.775
 6780.00    1.12793   1.15851   12.872
 6781.00    1.13345   1.15462   13.194
 6782.00    1.13112   1.14875   13.544
 6783.00    1.12333   1.14179   13.728
 6784.00    1.11823   1.13513   13.565
 6785.00    1.11734   1.13009   12.855
 6786.00    1.11784   1.12747   11.778
 6787.00    1.11734   1.12739   10.967
 6788.00    1.11253   1.12925   10.690
 6789.00    1.09776   1.13197   10.572
 6790.00    1.07389   1.13460   10.366
 6791.00    1.05615   1.13651   10.541
 6792.00    1.05803   1.13728   11.457
 6793.00    1.07655   1.13697   12.419
 6794.00    1.10426   1.13616   12.265
 6795.00    1.13911   1.13546   11.175
 6796.00    1.17208   1.13528   10.013
 6797.00    1.18108   1.13585    9.221
 6798.00    1.16156   1.13714    8.842
 6799.00    1.14327   1.13894    8.713
 6800.00    1.15638   1.14097    8.603
 6801.00    1.20892   1.14283    8.282
 6802.00    1.28664   1.14411    7.780
 6803.00    1.35807   1.14454    7.363
 6804.00    1.39702   1.14421    7.165
 6805.00    1.39472   1.14341    7.160
 6806.00    1.36045   1.14232    7.321
 6807.00    1.31589   1.14120    7.638
 6808.00    1.27129   1.14034    7.962
 6809.00    1.22292   1.13965    8.039
 6810.00    1.18307   1.13912    8.154
 6811.00    1.17768   1.13888    9.114
 6812.00    1.19839   1.13877   11.092
 6813.00    1.20404   1.13856   12.264
 6814.00    1.17819   1.13824   11.690
 6815.00    1.13681   1.13817   11.381
 6816.00    1.09687   1.13872   11.801
 6817.00    1.06936   1.13973   11.933
 6818.00    1.06506   1.14080   11.524
 6819.00    1.08864   1.14172   11.257
 6820.00    1.12220   1.14267   11.400
 6821.00    1.13664   1.14401   11.799
 6822.00    1.12310   1.14576   12.156
 6823.00    1.09408   1.14758   12.150
 6824.00    1.07221   1.14904   11.708
 6825.00    1.07651   1.14969   11.040
 6826.00    1.10342   1.14921   10.446
 6827.00    1.13645   1.14755   10.127
 6828.00    1.16603   1.14532   10.112
 6829.00    1.18660   1.14354   10.374
 6830.00    1.18866   1.14282   10.927
 6831.00    1.16893   1.14312   11.706
 6832.00    1.14312   1.14405   12.324
 6833.00    1.12586   1.14526   12.388
 6834.00    1.10782   1.14635   12.185
 6835.00    1.08106   1.14662   12.180
 6836.00    1.06574   1.14539   12.452
 6837.00    1.08061   1.14231   12.803
 6838.00    1.11411   1.13739   12.890
 6839.00    1.14103   1.13107   12.615
 6840.00    1.14084   1.12431   12.382
 6841.00    1.11105   1.11836   12.478
 6842.00    1.07332   1.11464   12.746
 6843.00    1.04882   1.11405   12.983
 6844.00    1.04189   1.11657   13.216
 6845.00    1.05169   1.12128   13.428
 6846.00    1.07868   1.12686   13.390
 6847.00    1.11395   1.13218   13.058
 6848.00    1.13737   1.13644   12.706
 6849.00    1.14180   1.13915   12.448
 6850.00    1.14069   1.14025   12.132
 6851.00    1.14200   1.13987   11.747
 6852.00    1.13963   1.13816   11.488
 6853.00    1.13259   1.13513   11.461
 6854.00    1.12783   1.13087   11.620
 6855.00    1.11833   1.12613   11.855
 6856.00    1.08564   1.12197   11.999
 6857.00    1.03902   1.11890   11.846
 6858.00    1.01371   1.11699   11.319
 6859.00    1.02135   1.11611   10.783
 6860.00    1.04351   1.11588   10.720
 6861.00    1.05992   1.11626   11.199
 6862.00    1.05977   1.11773   11.941
 6863.00    1.04835   1.12038   12.632
 6864.00    1.04152   1.12343   13.053
 6865.00    1.04897   1.12579   13.173
 6866.00    1.06949   1.12676   13.143
 6867.00    1.09025   1.12620   13.142
 6868.00    1.09727   1.12469   13.270
 6869.00    1.09525   1.12311   13.414
 6870.00    1.09802   1.12187   13.373
 6871.00    1.10595   1.12094   13.144
 6872.00    1.11089   1.12053   12.885
 6873.00    1.11028   1.12101   12.759
 6874.00    1.10885   1.12234   12.794
 6875.00    1.11703   1.12434   12.737
 6876.00    1.13821   1.12696   12.396
 6877.00    1.15425   1.12993   12.069
 6878.00    1.14831   1.13258   12.033
 6879.00    1.13183   1.13413   12.093
 6880.00    1.12260   1.13414   12.018
 6881.00    1.11918   1.13261   12.015
 6882.00    1.11430   1.13023   12.271
 6883.00    1.10971   1.12819   12.520
 6884.00    1.11169   1.12739   12.486
 6885.00    1.12517   1.12799   12.360
 6886.00    1.14742   1.12995   12.352
 6887.00    1.16540   1.13328   12.343
 6888.00    1.17055   1.13753   12.197
 6889.00    1.16826   1.14193   11.974
 6890.00    1.16818   1.14589   11.756
 6891.00    1.17597   1.14897   11.552
 6892.00    1.18505   1.15078   11.352
 6893.00    1.17717   1.15128   11.157
 6894.00    1.15060   1.15076   10.945
 6895.00    1.12917   1.14954   10.676
 6896.00    1.13196   1.14814   10.399
 6897.00    1.15877   1.14705   10.240
 6898.00    1.19411   1.14640   10.296
 6899.00    1.21426   1.14606   10.591
 6900.00    1.20660   1.14608   11.020
 6901.00    1.17671   1.14671   11.339
 6902.00    1.14524   1.14792   11.474
 6903.00    1.13818   1.14933   11.586
 6904.00    1.16057   1.15076   11.689
 6905.00    1.19520   1.15228   11.642
 6906.00    1.22401   1.15395   11.545
 6907.00    1.23543   1.15558   11.655
 6908.00    1.22648   1.15671   11.915
 6909.00    1.20161   1.15698   12.024
 6910.00    1.16878   1.15606   11.999
 6911.00    1.13810   1.15378   12.071
 6912.00    1.12082   1.15029   12.088
 6913.00    1.12152   1.14595   11.773
 6914.00    1.12446   1.14159   11.419
 6915.00    1.11181   1.13826   11.430
 6916.00    1.09891   1.13645   11.546
 6917.00    1.11112   1.13624   11.303
 6918.00    1.13841   1.13762   10.948
 6919.00    1.15699   1.14007   10.903
 6920.00    1.16964   1.14279   11.013
 6921.00    1.18651   1.14489   10.969
 6922.00    1.19386   1.14560   10.940
 6923.00    1.17464   1.14452   11.178
 6924.00    1.13655   1.14198   11.468
 6925.00    1.09987   1.13915   11.504
 6926.00    1.08006   1.13728   11.435
 6927.00    1.08140   1.13700   11.493
 6928.00    1.09386   1.13809   11.574
 6929.00    1.10689   1.13990   11.524
 6930.00    1.12053   1.14175   11.408
 6931.00    1.13269   1.14302   11.325
 6932.00    1.13076   1.14344   11.258
 6933.00    1.11177   1.14332   11.214
 6934.00    1.09427   1.14345   11.284
 6935.00    1.09510   1.14415   11.433
 6936.00    1.11406   1.14525   11.402
 6937.00    1.13920   1.14665   11.153
 6938.00    1.15378   1.14821   11.020
 6939.00    1.15292   1.14968   11.121
 6940.00    1.14756   1.15062   11.201
 6941.00    1.13960   1.15050   11.173
 6942.00    1.11604   1.14901   11.298
 6943.00    1.07801   1.14623   11.628
 6944.00    1.04699   1.14273   11.854
 6945.00    1.03639   1.13960   11.870
 6946.00    1.04336   1.13803   11.934
 6947.00    1.06195   1.13819   12.103
 6948.00    1.08659   1.13944   12.152
 6949.00    1.10716   1.14093   12.086
 6950.00    1.11389   1.14182   12.129
 6951.00    1.11612   1.14168   12.201
 6952.00    1.13221   1.14089   12.010
 6953.00    1.14927   1.13997   11.751
 6954.00    1.13730   1.13951   11.829
 6955.00    1.10856   1.14010   11.979
 6956.00    1.10439   1.14191   11.608
 6957.00    1.13532   1.14453   11.049
 6958.00    1.17790   1.14743   10.962
 6959.00    1.19588   1.15027   11.200
 6960.00    1.16520   1.15280   11.224
 6961.00    1.10880   1.15492   11.094
 6962.00    1.06850   1.15658   11.190
 6963.00    1.05072   1.15779   11.446
 6964.00    1.04276   1.15855   11.542
 6965.00    1.04850   1.15890   11.393
 6966.00    1.07372   1.15919   11.169
 6967.00    1.10127   1.15979   11.120
 6968.00    1.11202   1.16056   11.338
 6969.00    1.11233   1.16100   11.533
 6970.00    1.11493   1.16076   11.428
 6971.00    1.11596   1.15981   11.274
 6972.00    1.11032   1.15821   11.334
 6973.00    1.10748   1.15560   11.398
 6974.00    1.11387   1.15124   11.267
 6975.00    1.11772   1.14490   11.179
 6976.00    1.10652   1.13696   11.283
 6977.00    1.08188   1.12822   11.291
 6978.00    1.05538   1.12024   11.054
 6979.00    1.04253   1.11543   10.918
 6980.00    1.04918   1.11546   11.062
 6981.00    1.06484   1.12003   11.198
 6982.00    1.07775   1.12774   11.131
 6983.00    1.08390   1.13690   11.068
 6984.00    1.08414   1.14568   11.087
 6985.00    1.08195   1.15269   10.941
 6986.00    1.08123   1.15725   10.563
 6987.00    1.08410   1.15926   10.199
 6988.00    1.08638   1.15919   10.023
 6989.00    1.07970   1.15803   10.042
 6990.00    1.06814   1.15696   10.175
 6991.00    1.06807   1.15666   10.296
 6992.00    1.08274   1.15705   10.364
 6993.00    1.09811   1.15764   10.433
 6994.00    1.10085   1.15800   10.495
 6995.00    1.08638   1.15800   10.494
 6996.00    1.06385   1.15745   10.535
 6997.00    1.05192   1.15605   10.778
 6998.00    1.06356   1.15357   10.964
 6999.00    1.09590   1.15023   10.652
 7000.00    1.11714   1.14688   10.272
 7001.00    1.09032   1.14439   -2.000
 7002.00    1.03104   1.14277   -2.000
 7003.00    0.98984   1.14143   -2.000
 7004.00    0.99171   1.14017   -2.000
 7005.00    1.03047   1.13934   -2.000
 7006.00    1.08173   1.13926   -2.000
 7007.00    1.11672   1.14001   -2.000
 7008.00    1.12107   1.14149   -2.000
 7009.00    1.10197   1.14332   -2.000
 7010.00    1.09200   1.14479   -2.000
 7011.00    1.11673   1.14534   -2.000
 7012.00    1.15308   1.14481   -2.000
 7013.00    1.16678   1.14301   -2.000
 7014.00    1.16254   1.13962   -2.000
 7015.00    1.15687   1.13484   -2.000
 7016.00    1.14385   1.13022   -2.000
 7017.00    1.12263   1.12808   -2.000
 7018.00    1.12393   1.12932   -2.000
 7019.00    1.16293   1.13294   -2.000
 7020.00    1.20032   1.13744   -2.000
 7021.00    1.19923   1.14135   -2.000
 7022.00    1.17096   1.14337   -2.000
 7023.00    1.14112   1.14321   -2.000
 7024.00    1.12193   1.14187   -2.000
 7025.00    1.11586   1.14079   -2.000
 7026.00    1.12117   1.14078   -2.000
 7027.00    1.14294   1.14190   -2.000
 7028.00    1.19361   1.14405   -2.000
 7029.00    1.25839   1.14694   -2.000
 7030.00    1.28887   1.14998   -2.000
 7031.00    1.26901   1.15254   -2.000
 7032.00    1.23706   1.15419   -2.000
 7033.00    1.23009   1.15490   -2.000
 7034.00    1.25490   1.15486   -2.000
 7035.00    1.27794   1.15440   -2.000
 7036.00    1.24867   1.15369   -2.000
 7037.00    1.19683   1.15271   -2.000
 7038.00    1.21031   1.15222   -2.000
 7039.00    1.24232   1.15395   -2.000
 7040.00    1.15201   1.15862   -2.000
 7041.00    1.01988   1.16523   -2.000
 7042.00    1.08396   1.17238   -2.000
 7043.00    1.30607   1.17881   -2.000
 7044.00    1.42434   1.18367   -2.000
 7045.00    1.37872   1.18697   -2.000
 7046.00    1.30327   1.18928   -2.000
 7047.00    1.26796   1.19081   -2.000
 7048.00    1.25836   1.19122   -2.000
 7049.00    1.25584   1.18992   -2.000
 7050.00    1.25495   1.18637   -2.000
 7051.00    1.26354   1.18019   -2.000
 7052.00    1.28370   1.17139   -2.000
 7053.00    1.28255   1.16104   -2.000
 7054.00    1.22781   1.15085   -2.000
 7055.00    1.14606   1.14217   -2.000
 7056.00    1.08522   1.13570   -2.000
 7057.00    1.05324   1.13121   -2.000
 7058.00    1.03802   1.12779   -2.000
 7059.00    1.04116   1.12465   -2.000
 7060.00    1.06651   1.12176   -2.000
 7061.00    1.10367   1.11953   -2.000
 7062.00    1.13704   1.11804   -2.000
 7063.00    1.15628   1.11705   -2.000
 7064.00    1.14993   1.11633   -2.000
 7065.00    1.10273   1.11533   -2.000
 7066.00    1.03203   1.11362   -2.000
 7067.00    1.00705   1.11150   -2.000
 7068.00    1.05723   1.10980   -2.000
 7069.00    1.11559   1.10976   -2.000
 7070.00    1.12338   1.11203   -2.000
 7071.00    1.09696   1.11608   -2.000
 7072.00    1.07314   1.12107   -2.000
 7073.00    1.07150   1.12631   -2.000
 7074.00    1.09197   1.13111   -2.000
 7075.00    1.12031   1.13489   -2.000
 7076.00    1.15791   1.13752   -2.000
 7077.00    1.22657   1.13917   -2.000
 7078.00    1.32040   1.13995   -2.000
 7079.00    1.39404   1.13969   -2.000
 7080.00    1.40851   1.13814   -2.000
 7081.00    1.35252   1.13480   -2.000
 7082.00    1.24717   1.12904   -2.000
 7083.00    1.13586   1.12073   -2.000
 7084.00    1.04560   1.11067   -2.000
 7085.00    0.97793   1.10050   -2.000
 7086.00    0.92261   1.09140   -2.000
 7087.00    0.86601   1.08344   -2.000
 7088.00    0.80202   1.07672   -2.000
 7089.00    0.74315   1.07138   -2.000
 7090.00    0.73888   1.06736   -2.000
 7091.00    0.83065   1.06468   -2.000
 7092.00    0.94421   1.06319   -2.000
 7093.00    0.96235   1.06255   -2.000
 7094.00    0.91881   1.06277   -2.000
 7095.00    0.92902   1.06380   -2.000
 7096.00    0.99057   1.06571   -2.000
 7097.00    1.02767   1.06858   -2.000
 7098.00    1.02708   1.07245   -2.000
 7099.00    1.01978   1.07711   -2.000
 7100.00    1.01852   1.08154   -2.000
 7101.00    1.02332   1.08517   -2.000
 7102.00    1.04135   1.08789   -2.000
 7103.00    1.07480   1.09001   -2.000
 7104.00    1.10431   1.09186   -2.000
 7105.00    1.11331   1.09325   -2.000
 7106.00    1.11514   1.09375   -2.000
 7107.00    1.12054   1.09341   -2.000
 7108.00    1.10759   1.09259   -2.000
 7109.00    1.08769   1.09134   -2.000
 7110.00    1.14714   1.08955   -2.000
 7111.00    1.23897   1.08776   -2.000
 7112.00    1.07038   1.08695   -2.000
 7113.00    0.64706   1.08756   -2.000
 7114.00    0.56847   1.08930   -2.000
 7115.00    1.07181   1.09173   -2.000
 7116.00    1.50834   1.09444   -2.000
 7117.00    1.39893   1.09680   -2.000
 7118.00    1.01882   1.09831   -2.000
 7119.00    0.75035   1.09880   -2.000
 7120.00    0.70251   1.09822   -2.000
 7121.00    0.79061   1.09667   -2.000
 7122.00    0.83624   1.09447   -2.000
 7123.00    0.78997   1.09221   -2.000
 7124.00    0.77786   1.08969   -2.000
 7125.00    0.85763   1.08625   -2.000
 7126.00    0.94928   1.08203   -2.000
 7127.00    0.97704   1.07757   -2.000
 7128.00    0.92660   1.07312   -2.000
 7129.00    0.84417   1.06862   -2.000
 7130.00    0.80761   1.06447   -2.000
 7131.00    0.84224   1.06183   -2.000
 7132.00    0.91217   1.06164   -2.000
 7133.00    0.97186   1.06380   -2.000
 7134.00    0.98579   1.06766   -2.000
 7135.00    0.93967   1.07230   -2.000
 7136.00    0.84996   1.07695   -2.000
 7137.00    0.77773   1.08104   -2.000
 7138.00    0.79325   1.08392   -2.000
 7139.00    0.89805   1.08562   -2.000
 7140.00    1.03399   1.08681   -2.000
 7141.00    1.13253   1.08782   -2.000
 7142.00    1.14940   1.08839   -2.000
 7143.00    1.10527   1.08840   -2.000
 7144.00    1.05652   1.08780   -2.000
 7145.00    1.03971   1.08637   -2.000
 7146.00    1.06422   1.08401   -2.000
 7147.00    1.11449   1.08074   -2.000
 7148.00    1.15748   1.07748   -2.000
 7149.00    1.15470   1.07597   -2.000
 7150.00    1.10451   1.07684   -2.000
 7151.00    1.08161   1.07978   -2.000
 7152.00    1.15193   1.08447   -2.000
 7153.00    1.28350   1.09012   -2.000
 7154.00    1.39288   1.09550   -2.000
 7155.00    1.40132   1.10004   -2.000
 7156.00    1.26929   1.10386   -2.000
 7157.00    1.02293   1.10669   -2.000
 7158.00    0.75961   1.10773   -2.000
 7159.00    0.63047   1.10685   -2.000
 7160.00    0.69512   1.10454   -2.000
 7161.00    0.84430   1.10125   -2.000
 7162.00    0.96733   1.09695   -2.000
 7163.00    1.05368   1.09130   -2.000
 7164.00    1.13257   1.08509   -2.000
 7165.00    1.22675   1.08021   -2.000
 7166.00    1.31452   1.07830   -2.000
 7167.00    1.33023   1.07946   -2.000
 7168.00    1.25579   1.08271   -2.000
 7169.00    1.14370   1.08710   -2.000
 7170.00    1.02616   1.09202   -2.000
 7171.00    0.89189   1.09697   -2.000
 7172.00    0.75184   1.10127   -2.000
 7173.00    0.65801   1.10413   -2.000
 7174.00    0.67611   1.10504   -2.000
 7175.00    0.84371   1.10406   -2.000
 7176.00    1.07481   1.10185   -2.000
 7177.00    1.20737   1.09933   -2.000
 7178.00    1.21993   1.09656   -2.000
 7179.00    1.20700   1.09304   -2.000
 7180.00    1.15702   1.08898   -2.000
 7181.00    0.97961   1.08560   -2.000
 7182.00    0.70293   1.08401   -2.000
 7183.00    0.46851   1.08411   -2.000
 7184.00    0.41848   1.08453   -2.000
 7185.00    0.60512   1.08407   -2.000
 7186.00    0.87428   1.08211   -2.000
 7187.00    1.00926   1.07874   -2.000
 7188.00    1.00948   1.07515   -2.000
 7189.00    0.99810   1.07253   -2.000
 7190.00    1.00566   1.07149   -2.000
 7191.00    1.00684   1.07203   -2.000
 7192.00    1.01758   1.07352   -2.000
 7193.00    1.06037   1.07575   -2.000
 7194.00    1.10514   1.07869   -2.000
 7195.00    1.10583   1.08178   -2.000
 7196.00    1.05140   1.08408   -2.000
 7197.00    0.96175   1.08548   -2.000
 7198.00    0.87496   1.08674   -2.000
 7199.00    0.82022   1.08798   -2.000
 7200.00    0.79595   1.08882   -2.000
 7201.00    0.79769   1.08903   -2.000
 7202.00    0.84088   1.08884   -2.000
 7203.00    0.93429   1.08875   -2.000
 7204.00    1.05851   1.08839   -2.000
 7205.00    1.17469   1.08674   -2.000
 7206.00    1.23552   1.08325   -2.000
 7207.00    1.20916   1.07890   -2.000
 7208.00    1.09539   1.07578   -2.000
 7209.00    0.92922   1.07503   -2.000
 7210.00    0.77291   1.07667   -2.000
 7211.00    0.66514   1.08001   -2.000
 7212.00    0.60523   1.08374   -2.000
 7213.00    0.60790   1.08718   -2.000
 7214.00    0.70862   1.09027   -2.000
 7215.00    0.87068   1.09305   -2.000
 7216.00    0.98064   1.09558   -2.000
 7217.00    0.98985   1.09811   -2.000
 7218.00    0.94472   1.10050   -2.000
