###################################################################
## OUTPUT of StarlightChains_v04.for    [Cid@UFSC - 01/Apr/2007] ##
###################################################################

## Some input info
KUG0210-078._26_30.txt                   [arq_obs]
Base.CB07.vall.4m                        [arq_base]
Masks.EmLines.NEW.gm                     [arq_masks]
StCv04.C11.config                        [arq_config]
   66                                    [N_base]
    0                                    [N_YAV_components = # of components with extra extinction!]
    0                                    [i_FitPowerLaw (1/0 = Yes/No)]
-9.99                                    [alpha_PowerLaw]
CCM                                      [red_law_option]
 1.458241                                [q_norm = A(l_norm)/A(V)]

## (Re)Sampling Parameters
 3741.00                                 [l_ini (A)]
 7218.00                                 [l_fin (A)]
    1.00                                 [dl    (A)]     (OBS: dl_cushion =    50.00 A)

## Normalization info
 4020.00                                 [l_norm (A) - for base]
 4010.00                                 [llow_norm (A) - window for f_obs]
 4060.00                                 [lupp_norm (A) - window for f_obs]
2.098645E-17                             [fobs_norm (in input units)]

## S/N
 3691.00                                 [llow_SN (A) - window for S/N]
 7268.00                                 [lupp_SN (A) - window for S/N]
   6.689                                 [S/N in S/N window]
   7.480                                 [S/N in norm. window]
   0.028                                 [S/N_err in S/N window]
   0.031                                 [S/N_err in norm. window]
  1.0000                                 [fscale_chi2]

## etc...
    -2007326                             [idum_orig]
  2429                                   [NOl_eff]
  2174                                   [Nl_eff]
   255    NSIGMA                         [Ntot_cliped & clip_method]
 11521860                                [Nglobal_steps]
   7                                     [N_chains]
  44                                     [NEX0s_base = N_base in EX0s-fits]
 0   0   1      255   2.0   1.484E+04    [Clip-Bug, RC-Crash & Burn-In warning-flags, n_censored_weights, wei_nsig_threshold & wei_limit]
    73     73.000     72.583      0.418  [idt_all, wdt_TotTime, wdt_UsrTime & wdt_SysTime (sec)]

## Synthesis Results - Best model ##

 1.10655E-05                             [chi2/Nl_eff]
    13.09670                             [adev (%)]

   112.60220                             [sum-of-x (%)]
 2.93342E-17                             [Flux_tot (units of input spectrum!)]
 8.53783E-13                             [Mini_tot (???)]
 4.32375E-13                             [Mcor_tot (???)]

-105.89                                  [v0_min  (km/s)]
 157.50                                  [vd_min  (km/s)]
 0.1610                                  [AV_min  (mag)]
 0.0000                                  [YAV_min (mag)]

# j     x_j(%)      Mini_j(%)     Mcor_j(%)     age_j(yr)     Z_j      (L/M)_j    YAV?  Mstars   component_j        a/Fe...       SSP_chi2r SSP_adev(%)   SSP_AV   SSP_x(%)
  1      0.0000     0.0000E+00    0.0000E+00    1.000000E+06  0.00400  1.094E-02    0   1.0000   age020_m42            0.0000     1.9031E-05    17.3241   2.5565   100.9598
  2      0.0000     0.0000E+00    0.0000E+00    3.160000E+06  0.00400  4.007E-02    0   0.9999   age045_m42            0.0000     1.7393E-05    16.5239   1.9157   104.0221
  3      0.0000     0.0000E+00    0.0000E+00    5.010000E+06  0.00400  2.539E-02    0   0.9488   age055_m42            0.0000     1.7717E-05    16.7859   2.1980   103.1751
  4      0.0000     0.0000E+00    0.0000E+00    6.610000E+06  0.00400  2.620E-02    0   0.9220   age061_m42            0.0000     1.6767E-05    16.2668   1.8463   104.1013
  5      0.0000     0.0000E+00    0.0000E+00    1.000000E+07  0.00400  1.322E-02    0   0.8862   age070_m42            0.0000     1.4220E-05    14.9401   1.5735   106.2549
  6      0.0000     0.0000E+00    0.0000E+00    1.445000E+07  0.00400  7.883E-03    0   0.8571   age078_m42            0.0000     1.4961E-05    15.3338   1.8736   104.7234
  7      0.0000     0.0000E+00    0.0000E+00    2.512000E+07  0.00400  5.251E-03    0   0.8174   age090_m42            0.0000     1.3725E-05    14.6580   1.4530   106.4968
  8      0.0000     0.0000E+00    0.0000E+00    4.000000E+07  0.00400  3.649E-03    0   0.7851   age104_m42            0.0000     1.3633E-05    14.6196   1.2410   106.6541
  9      0.0000     0.0000E+00    0.0000E+00    5.500000E+07  0.00400  3.098E-03    0   0.7629   age110_m42            0.0000     1.4543E-05    15.0665   1.4013   106.1543
 10      0.0000     0.0000E+00    0.0000E+00    1.015200E+08  0.00400  2.228E-03    0   0.7207   age116_m42            0.0000     1.5056E-05    15.2970   1.4287   105.9227
 11      7.4952     2.0924E-01    2.7468E-01    2.861200E+08  0.00400  1.093E-03    0   0.6648   age125_m42            0.0000     1.3732E-05    14.3292   0.8816   107.8989
 12      0.0000     0.0000E+00    0.0000E+00    5.088000E+08  0.00400  6.597E-04    0   0.6365   age130_m42            0.0000     1.4303E-05    14.6753   0.8852   108.0610
 13      0.4021     5.7552E-02    6.5890E-02    1.434000E+09  0.00400  2.132E-04    0   0.5798   age139_m42            0.0000     1.3121E-05    14.2932  -0.0524   108.6979
 14      0.0000     0.0000E+00    0.0000E+00    4.250000E+09  0.00400  5.895E-05    0   0.5377   age158_m42            0.0000     1.4754E-05    15.3124  -0.5217   105.6011
 15      1.1538     1.0030E+00    1.0323E+00    7.500000E+09  0.00400  3.510E-05    0   0.5212   age171_m42            0.0000     1.5376E-05    15.5334  -0.7109   104.8208
 16      2.6055     3.9652E+00    3.9415E+00    1.300000E+10  0.00400  2.005E-05    0   0.5034   age193_m42            0.0000     1.6005E-05    15.7328  -0.8785   104.2061
 17      0.0000     0.0000E+00    0.0000E+00    1.800000E+10  0.00400  1.525E-05    0   0.4967   age213_m42            0.0000     1.5885E-05    15.6641  -0.9041   103.8919
 18      0.0000     0.0000E+00    0.0000E+00    1.000000E+06  0.00800  1.238E-02    0   1.0000   age020_m52            0.0000     1.9030E-05    17.3418   2.5515   101.2083
 19      5.0584     5.0210E-03    9.8810E-03    3.160000E+06  0.00800  3.074E-02    0   0.9966   age045_m52            0.0000     1.8943E-05    17.3440   2.4789   101.9483
 20      2.5351     2.8993E-03    5.4062E-03    5.010000E+06  0.00800  2.668E-02    0   0.9443   age055_m52            0.0000     1.7797E-05    16.8505   2.2660   102.8896
 21      3.4291     4.8984E-03    8.8765E-03    6.610000E+06  0.00800  2.136E-02    0   0.9177   age061_m52            0.0000     1.3845E-05    15.0318   1.0730   107.5460
 22      0.0000     0.0000E+00    0.0000E+00    1.000000E+07  0.00800  1.215E-02    0   0.8827   age070_m52            0.0000     1.3833E-05    14.5911   1.7362   106.7941
 23      0.0000     0.0000E+00    0.0000E+00    1.445000E+07  0.00800  8.717E-03    0   0.8552   age078_m52            0.0000     1.4610E-05    15.1233   1.8463   105.8755
 24     11.3204     6.1770E-02    9.9554E-02    2.512000E+07  0.00800  5.592E-03    0   0.8162   age090_m52            0.0000     1.3395E-05    14.3502   1.5188   107.6353
 25      0.2187     1.7128E-03    2.6519E-03    4.000000E+07  0.00800  3.896E-03    0   0.7841   age104_m52            0.0000     1.3508E-05    14.4093   1.4457   107.6538
 26      0.0000     0.0000E+00    0.0000E+00    1.015200E+08  0.00800  2.148E-03    0   0.7226   age116_m52            0.0000     1.4289E-05    14.8941   1.3963   106.7896
 27      0.0000     0.0000E+00    0.0000E+00    2.861200E+08  0.00800  9.925E-04    0   0.6683   age125_m52            0.0000     1.3999E-05    14.6423   0.9510   109.0274
 28      4.2796     4.1574E-01    5.0389E-01    9.047900E+08  0.00800  3.141E-04    0   0.6138   age135_m52            0.0000     1.3660E-05    14.5613   0.1892   111.5319
 29      0.0000     0.0000E+00    0.0000E+00    1.434000E+09  0.00800  1.719E-04    0   0.5853   age139_m52            0.0000     1.3292E-05    14.4332  -0.4111   110.1081
 30      0.0000     0.0000E+00    0.0000E+00    2.500000E+09  0.00800  7.872E-05    0   0.5600   age150_m52            0.0000     1.5171E-05    15.4885  -0.6896   107.5668
 31      2.3614     1.6617E+00    1.7804E+00    4.250000E+09  0.00800  4.336E-05    0   0.5426   age158_m52            0.0000     1.5448E-05    15.6146  -0.7082   106.6955
 32      0.0000     0.0000E+00    0.0000E+00    6.250000E+09  0.00800  3.159E-05    0   0.5319   age166_m52            0.0000     1.6386E-05    15.9540  -0.9060   106.3467
 33      0.0000     0.0000E+00    0.0000E+00    1.300000E+10  0.00800  1.361E-05    0   0.5073   age193_m52            0.0000     2.2797E-05    16.9987  -1.0000    94.8486
 34      0.0000     0.0000E+00    0.0000E+00    1.800000E+10  0.00800  9.886E-06    0   0.4990   age213_m52            0.0000     2.7456E-05    17.9688  -1.0000    91.1386
 35      0.0708     1.3995E-04    2.7635E-04    1.000000E+06  0.02000  1.544E-02    0   1.0000   age020_m62            0.0000     1.9078E-05    17.3685   2.5456   101.5475
 36     17.4914     1.4187E-02    2.7616E-02    3.160000E+06  0.02000  3.762E-02    0   0.9858   age045_m62            0.0000     1.9063E-05    17.4320   2.4798   102.6298
 37      0.0000     0.0000E+00    0.0000E+00    5.010000E+06  0.02000  3.296E-02    0   0.9342   age055_m62            0.0000     1.7719E-05    16.7948   2.1678   103.9593
 38      0.0000     0.0000E+00    0.0000E+00    8.710000E+06  0.02000  1.154E-02    0   0.8861   age067_m62            0.0000     1.1017E-05    12.5196   1.1656   111.4182
 39      0.0000     0.0000E+00    0.0000E+00    1.445000E+07  0.02000  7.663E-03    0   0.8472   age078_m62            0.0000     1.2480E-05    13.6927   1.3858   109.1349
 40      1.8187     1.2245E-02    1.9583E-02    2.512000E+07  0.02000  4.532E-03    0   0.8099   age090_m62            0.0000     1.2264E-05    13.4660   1.3835   108.5513
 41      0.0000     0.0000E+00    0.0000E+00    5.500000E+07  0.02000  2.733E-03    0   0.7595   age110_m62            0.0000     1.3398E-05    14.4111   1.4197   107.3061
 42      0.0000     0.0000E+00    0.0000E+00    1.609000E+08  0.02000  1.369E-03    0   0.6985   age120_m62            0.0000     1.4043E-05    14.7568   1.2918   108.4710
 43      0.0000     0.0000E+00    0.0000E+00    2.861200E+08  0.02000  9.013E-04    0   0.6714   age125_m62            0.0000     1.4119E-05    14.7578   1.0702   110.1507
 44      0.0000     0.0000E+00    0.0000E+00    5.088000E+08  0.02000  5.028E-04    0   0.6449   age130_m62            0.0000     1.4857E-05    15.1688   0.7190   111.5624
 45      0.0000     0.0000E+00    0.0000E+00    9.047900E+08  0.02000  2.428E-04    0   0.6179   age135_m62            0.0000     1.4351E-05    15.2470   0.1248   111.0852
 46      0.0000     0.0000E+00    0.0000E+00    1.434000E+09  0.02000  1.263E-04    0   0.5908   age139_m62            0.0000     1.4621E-05    15.4489  -0.3329   110.0198
 47      0.0000     0.0000E+00    0.0000E+00    2.500000E+09  0.02000  5.985E-05    0   0.5673   age150_m62            0.0000     1.6278E-05    16.1297  -0.7089   108.7989
 48      1.1479     1.0707E+00    1.1561E+00    4.250000E+09  0.02000  3.271E-05    0   0.5468   age158_m62            0.0000     1.8347E-05    16.7356  -1.0000   107.3187
 49      0.8746     1.9623E+00    2.0021E+00    1.000000E+10  0.02000  1.360E-05    0   0.5167   age181_m62            0.0000     2.5525E-05    17.5927  -1.0000    96.6308
 50      3.7574     1.6093E+01    1.5931E+01    1.800000E+10  0.02000  7.124E-06    0   0.5013   age213_m62            0.0000     3.5051E-05    19.1707  -1.0000    89.5875
 51      0.0815     9.5957E-05    1.8944E-04    1.000000E+06  0.05000  2.592E-02    0   0.9998   age020_m72            0.0000     1.9228E-05    17.4154   2.5278   101.9950
 52      0.0000     0.0000E+00    0.0000E+00    3.160000E+06  0.05000  4.845E-02    0   0.9577   age045_m72            0.0000     1.8745E-05    17.2975   2.3857   102.9384
 53      0.0000     0.0000E+00    0.0000E+00    5.010000E+06  0.05000  3.072E-02    0   0.9147   age055_m72            0.0000     1.4582E-05    14.8973   1.9276   106.5457
 54     28.5462     5.9864E-02    1.0493E-01    6.610000E+06  0.05000  1.455E-02    0   0.8877   age061_m72            0.0000     1.3211E-05    13.2341   1.1729   113.2856
 55      0.0000     0.0000E+00    0.0000E+00    1.000000E+07  0.05000  9.074E-03    0   0.8524   age070_m72            0.0000     1.5761E-05    15.5797   2.0865   106.5749
 56      0.0000     0.0000E+00    0.0000E+00    2.512000E+07  0.05000  4.250E-03    0   0.7902   age090_m72            0.0000     1.4297E-05    14.5918   1.8426   106.5128
 57      0.0000     0.0000E+00    0.0000E+00    4.000000E+07  0.05000  3.087E-03    0   0.7618   age104_m72            0.0000     1.3748E-05    14.1518   1.6334   107.4848
 58      0.0000     0.0000E+00    0.0000E+00    1.015200E+08  0.05000  1.700E-03    0   0.7096   age116_m72            0.0000     1.3796E-05    14.3903   1.4265   108.3696
 59      2.2128     9.1438E-02    1.1976E-01    2.861200E+08  0.05000  7.384E-04    0   0.6633   age125_m72            0.0000     1.4296E-05    14.8568   0.9482   111.0625
 60      0.0000     0.0000E+00    0.0000E+00    5.088000E+08  0.05000  3.819E-04    0   0.6372   age130_m72            0.0000     1.4632E-05    15.4006   0.4630   112.3802
 61      0.0000     0.0000E+00    0.0000E+00    9.047900E+08  0.05000  1.676E-04    0   0.6110   age135_m72            0.0000     1.6264E-05    16.3561  -0.2529   111.0476
 62      0.0000     0.0000E+00    0.0000E+00    1.434000E+09  0.05000  8.837E-05    0   0.5874   age139_m72            0.0000     1.6434E-05    16.1155  -0.7113   110.3892
 63      0.0000     0.0000E+00    0.0000E+00    2.500000E+09  0.05000  4.233E-05    0   0.5598   age150_m72            0.0000     1.9084E-05    16.9221  -1.0000   108.2813
 64      0.1718     3.6530E-01    3.7863E-01    6.250000E+09  0.05000  1.435E-05    0   0.5249   age166_m72            0.0000     2.9674E-05    18.2428  -1.0000    93.4088
 65     15.5695     7.2942E+01    7.2535E+01    1.300000E+10  0.05000  6.513E-06    0   0.5036   age193_m72            0.0000     4.5151E-05    20.8111  -1.0000    85.7378
 66      0.0000     0.0000E+00    0.0000E+00    1.800000E+10  0.05000  4.527E-06    0   0.4945   age213_m72            0.0000     5.6541E-05    22.5720  -1.0000    80.6249


## Synthesis Results - Average & Chains ##

# j      x_j: min, <> & last-chain-values for 1 ...  7 chains
  1      0.0000     15.0599     16.5079     13.1328     15.4643     12.8564     15.4177     14.6823     16.3765
  2      0.0000      0.2590      0.0724      0.0000      0.0000      0.0863      0.2426      0.0000      0.0843
  3      0.0000      0.2252      0.3474      0.7500      0.0000      0.0832      0.0998      0.3034      0.3257
  4      0.0000      0.2518      0.0647      0.1347      0.1301      0.9929      0.0608      0.4451      0.1084
  5      0.0000      0.3148      0.2548      0.0299      0.0909      0.0000      0.0819      0.0000      0.0293
  6      0.0000      1.4518      1.3050      1.9016      1.3647      2.9774      1.3708      1.3972      1.4243
  7      0.0000      0.2625      0.4294      0.0744      0.2362      0.4900      0.0529      0.0000      0.2179
  8      0.0000      0.1780      0.1813      0.0000      0.0000      1.1573      0.0755      0.3654      0.0672
  9      0.0000      0.2661      0.1534      0.2084      0.0000      0.1281      0.0343      0.1719      0.0313
 10      0.0000      0.2329      0.0872      0.5681      0.0000      0.0000      0.0588      0.0000      0.2962
 11      7.4952      0.2187      0.2590      0.2880      0.0347      0.4288      0.0000      0.2896      0.1492
 12      0.0000      0.2643      0.2748      0.0000      0.5162      0.2091      0.1479      0.0392      0.2502
 13      0.4021      0.2464      0.2694      0.3099      0.1403      0.4478      0.2931      0.3475      0.0796
 14      0.0000      0.2639      0.0675      0.5765      0.0284      0.0000      0.0893      1.8280      0.0980
 15      1.1538      0.2079      0.0112      0.3712      0.0000      1.2349      0.1010      0.0000      0.4198
 16      2.6055      0.2684      0.0985      1.8369      0.3025      0.0982      0.0196      1.5022      0.3382
 17      0.0000      0.2475      0.1985      0.2862      0.4135      0.1748      0.1706      0.0587      0.1112
 18      0.0000      0.2379      0.0000      1.4527      0.0083      0.0000      0.0000      0.0000      0.0170
 19      5.0584      0.7441      0.8511      0.8189      0.7670      0.1562      0.7711      0.3380      0.8110
 20      2.5351      3.4963      3.9073      3.3847      3.6957      2.6074      3.7068      2.9063      3.7663
 21      3.4291      0.8101      0.7167      0.2653      0.8342      0.8267      0.3155      1.0195      1.0590
 22      0.0000      0.1992      0.0000      0.0000      0.0324      0.0000      0.0931      0.0514      0.0797
 23      0.0000      0.1769      0.2516      0.0000      0.0465      0.2384      0.2044      0.5890      0.2242
 24     11.3204      0.1916      0.0890      0.2887      0.1824      0.3570      0.0000      0.1754      0.2180
 25      0.2187      0.2357      0.3761      1.0470      0.1569      0.0000      0.0224      0.5653      0.0595
 26      0.0000      0.2268      0.0000      0.0448      0.0000      1.4379      0.0000      0.0000      0.1262
 27      0.0000      0.2099      0.0000      0.1611      0.0970      1.0964      0.1096      0.3181      0.0248
 28      4.2796      0.2361      0.1837      0.2894      0.1424      0.1513      0.0804      0.2545      0.1693
 29      0.0000      0.2207      0.2172      0.2417      0.3462      0.4746      0.0000      0.0753      0.1495
 30      0.0000      0.2322      0.4204      0.0000      0.0993      0.5911      0.0000      0.0631      0.1758
 31      2.3614      0.2070      0.0000      0.4953      0.1058      0.3461      0.0000      0.0197      0.0000
 32      0.0000      0.2050      0.0275      0.2631      0.3261      0.0000      0.1069      0.0000      0.1224
 33      0.0000      0.2562      0.0781      0.5087      0.0603      1.3349      0.0532      0.5310      0.1119
 34      0.0000      0.2454      0.0679      0.4417      0.0241      1.7376      0.2842      0.1882      0.1127
 35      0.0708      0.2550      0.1000      0.3929      0.0393      0.4363      0.0391      0.4680      0.0498
 36     17.4914      3.2725      3.5165      2.7658      4.0836      2.5708      3.2772      3.1541      3.2239
 37      0.0000      0.1591      0.0850      1.3950      0.0000      0.1490      0.0055      0.2117      0.1687
 38      0.0000      4.3168      4.4860      4.3308      4.2405      4.0157      4.1543      4.7383      4.4695
 39      0.0000      0.2377      0.4999      0.0000      0.4263      0.3360      0.1883      0.3180      0.1204
 40      1.8187      0.7250      0.7191      0.3303      0.8354      1.3545      0.5980      0.1252      0.8363
 41      0.0000      0.2453      0.1289      0.0064      0.2116      0.0000      0.1184      0.0022      0.0919
 42      0.0000      0.2118      0.3678      0.0832      0.0000      0.5582      0.2693      0.3380      0.1701
 43      0.0000      0.2462      0.0614      0.7209      0.0000      0.2060      0.3101      0.1363      0.0497
 44      0.0000      0.2545      0.0360      0.4712      0.1318      0.0000      0.1213      0.0000      0.0265
 45      0.0000      0.2153      0.0000      0.2609      0.0000      0.6065      0.0000      0.5183      0.0786
 46      0.0000      0.2234      0.0000      0.2713      0.0755      1.2447      0.2991      0.0000      0.1957
 47      0.0000      0.2415      0.3755      0.1311      0.0000      0.3460      0.0979      0.4399      0.1561
 48      1.1479      0.1597      0.0000      0.6831      0.0733      0.0000      0.1264      0.3811      0.0000
 49      0.8746      0.2437      0.0000      1.1912      0.0000      0.0517      0.4062      0.1972      0.1845
 50      3.7574      6.9123      7.6433      5.7937      7.1161      5.4793      7.4413      6.2520      7.1503
 51      0.0815      0.2362      0.0888      0.9828      0.1836      0.0083      0.2081      0.0465      0.2090
 52      0.0000      0.5942      0.6962      1.6444      0.6386      0.1648      0.7019      0.6481      0.4151
 53      0.0000      0.5275      0.3489      0.1649      0.2955      0.1269      0.5576      0.0000      0.5778
 54     28.5462      2.5374      2.0386      3.3827      3.0704      1.8288      2.9823      2.9109      2.5647
 55      0.0000      6.7833      6.9356      6.4848      6.7478      7.5732      8.5967      6.0473      6.4435
 56      0.0000      0.3804      0.3775      0.1361      0.0914      0.0000      0.3880      0.3229      0.5872
 57      0.0000      0.2321      0.1962      1.4575      0.0571      0.9711      0.2615      0.4351      0.2049
 58      0.0000      0.3063      0.0000      0.0000      0.1257      0.4155      0.1216      0.8418      0.3021
 59      2.2128      0.2335      0.0000      0.6071      0.3085      0.3682      0.1092      0.3939      0.0942
 60      0.0000      0.2283      0.2835      0.8387      0.8097      0.0000      0.1076      0.0244      0.0965
 61      0.0000      0.2393      0.1127      0.5481      0.0706      1.2830      0.0093      0.1361      0.0000
 62      0.0000      0.2478      0.2116      0.4588      0.0000      0.3496      0.0423      0.1520      0.0590
 63      0.0000      0.3146      0.3947      0.3616      0.5342      0.2480      0.2279      0.0000      0.0904
 64      0.1718     27.6366     27.5240     23.6340     29.5752     24.0614     30.2229     28.0364     29.1632
 65     15.5695     18.9406     20.8908     15.6909     20.4843     18.3181     19.7615     19.6029     20.6205
 66      0.0000      0.2039      0.0986      0.3017      0.2324      0.6944      0.1339      0.5213      0.0300

# j      m_j: min, <> & last-chain-values for 1 ...  7 chains
  1  0.0000E+00  4.4927E-02  4.7043E-02  4.4201E-02  4.3618E-02  3.9662E-02  4.3671E-02  4.2580E-02  4.6534E-02
  2  0.0000E+00  2.1093E-04  5.6361E-05  0.0000E+00  0.0000E+00  7.2658E-05  1.8760E-04  0.0000E+00  6.5416E-05
  3  0.0000E+00  2.7465E-04  4.0477E-04  1.0320E-03  0.0000E+00  1.0496E-04  1.1553E-04  3.5971E-04  3.7830E-04
  4  0.0000E+00  2.8919E-04  7.0998E-05  1.7456E-04  1.4129E-04  1.1792E-03  6.6287E-05  4.9697E-04  1.1855E-04
  5  0.0000E+00  6.8863E-04  5.3251E-04  7.3823E-05  1.8807E-04  0.0000E+00  1.7021E-04  0.0000E+00  6.1091E-05
  6  0.0000E+00  5.1515E-03  4.4235E-03  7.6130E-03  4.5787E-03  1.0926E-02  4.6187E-03  4.8197E-03  4.8140E-03
  7  0.0000E+00  1.3337E-03  2.0839E-03  4.2635E-04  1.1343E-03  2.5742E-03  2.5528E-04  0.0000E+00  1.0544E-03
  8  0.0000E+00  1.2500E-03  1.2164E-03  0.0000E+00  0.0000E+00  8.4034E-03  5.0314E-04  2.4940E-03  4.4919E-04
  9  0.0000E+00  2.1387E-03  1.1774E-03  1.8895E-03  0.0000E+00  1.0644E-03  2.6138E-04  1.3428E-03  2.3969E-04
 10  0.0000E+00  2.4587E-03  8.7965E-04  6.7666E-03  0.0000E+00  0.0000E+00  5.8952E-04  0.0000E+00  2.9788E-03
 11  2.7468E-01  4.3413E-03  4.9118E-03  6.4501E-03  6.5201E-04  8.8032E-03  0.0000E+00  5.5876E-03  2.8220E-03
 12  0.0000E+00  8.3225E-03  8.2650E-03  0.0000E+00  1.5367E-02  6.8082E-03  4.4224E-03  1.2013E-03  7.5032E-03
 13  6.5890E-02  2.1870E-02  2.2841E-02  3.1037E-02  1.1777E-02  4.1096E-02  2.4698E-02  2.9981E-02  6.7252E-03
 14  0.0000E+00  7.8561E-02  1.9208E-02  1.9363E-01  7.9822E-03  0.0000E+00  2.5251E-02  5.2900E-01  2.7786E-02
 15  1.0323E+00  1.0074E-01  5.1813E-03  2.0298E-01  0.0000E+00  6.1887E-01  4.6494E-02  0.0000E+00  1.9379E-01
 16  3.9415E+00  2.1990E-01  7.7136E-02  1.6982E+00  2.3438E-01  8.3252E-02  1.5231E-02  1.1966E+00  2.6399E-01
 17  0.0000E+00  2.6313E-01  2.0155E-01  3.4325E-01  4.1555E-01  1.9212E-01  1.7218E-01  6.0610E-02  1.1262E-01
 18  0.0000E+00  6.2706E-04  0.0000E+00  4.3205E-03  2.0650E-05  0.0000E+00  0.0000E+00  0.0000E+00  4.2802E-05
 19  9.8810E-03  7.8731E-04  8.6020E-04  9.7759E-04  7.6727E-04  1.7092E-04  7.7472E-04  3.4770E-04  8.1737E-04
 20  5.4062E-03  4.0387E-03  4.3115E-03  4.4110E-03  4.0362E-03  3.1146E-03  4.0655E-03  3.2635E-03  4.1439E-03
 21  8.8765E-03  1.1359E-03  9.6002E-04  4.1975E-04  1.1059E-03  1.1988E-03  4.2004E-04  1.3897E-03  1.4144E-03
 22  0.0000E+00  4.7219E-04  0.0000E+00  0.0000E+00  7.2686E-05  0.0000E+00  2.0958E-04  1.1851E-04  1.8000E-04
 23  0.0000E+00  5.6650E-04  7.6940E-04  0.0000E+00  1.4063E-04  7.8953E-04  6.2153E-04  1.8335E-03  6.8384E-04
 24  9.9554E-02  9.1265E-04  4.0479E-04  1.5514E-03  8.2158E-04  1.7586E-03  0.0000E+00  8.1211E-04  9.8914E-04
 25  2.6519E-03  1.5481E-03  2.3599E-03  7.7584E-03  9.7439E-04  0.0000E+00  1.3984E-04  3.6095E-03  3.7212E-04
 26  0.0000E+00  2.4898E-03  0.0000E+00  5.5531E-04  0.0000E+00  1.6326E-02  0.0000E+00  0.0000E+00  1.3192E-03
 27  0.0000E+00  4.6133E-03  0.0000E+00  3.9941E-03  2.0156E-03  2.4917E-02  2.2879E-03  6.7947E-03  5.1815E-04
 28  5.0389E-01  1.5057E-02  1.1193E-02  2.0821E-02  8.5869E-03  9.9804E-03  4.8716E-03  1.5778E-02  1.0287E-02
 29  0.0000E+00  2.4529E-02  2.3058E-02  3.0299E-02  3.6368E-02  5.4533E-02  0.0000E+00  8.1326E-03  1.5822E-02
 30  0.0000E+00  5.3910E-02  9.3247E-02  0.0000E+00  2.1805E-02  1.4191E-01  0.0000E+00  1.4231E-02  3.8882E-02
 31  1.7804E+00  8.4540E-02  0.0000E+00  2.2822E-01  4.0855E-02  1.4618E-01  0.0000E+00  7.8335E-03  0.0000E+00
 32  0.0000E+00  1.1266E-01  1.4440E-02  1.6313E-01  1.6943E-01  0.0000E+00  5.5794E-02  0.0000E+00  6.4087E-02
 33  0.0000E+00  3.1171E-01  9.0813E-02  6.9821E-01  6.9344E-02  1.6794E+00  6.1499E-02  6.2799E-01  1.2968E-01
 34  0.0000E+00  4.0420E-01  1.0690E-01  8.2086E-01  3.7474E-02  2.9600E+00  4.4450E-01  3.0132E-01  1.7684E-01
 35  2.7635E-04  5.3899E-04  2.0189E-04  9.3690E-04  7.8508E-05  9.5372E-04  7.8440E-05  9.6177E-04  1.0032E-04
 36  2.7616E-02  2.7987E-03  2.8728E-03  2.6686E-03  3.3019E-03  2.2736E-03  2.6612E-03  2.6223E-03  2.6261E-03
 37  0.0000E+00  1.4719E-04  7.5104E-05  1.4559E-03  0.0000E+00  1.4252E-04  4.8457E-06  1.9037E-04  1.4864E-04
 38  0.0000E+00  1.0818E-02  1.0739E-02  1.2244E-02  1.0047E-02  1.0407E-02  9.8848E-03  1.1543E-02  1.0668E-02
 39  0.0000E+00  8.5765E-04  1.7232E-03  0.0000E+00  1.4544E-03  1.2538E-03  6.4522E-04  1.1154E-03  4.1393E-04
 40  1.9583E-02  4.2285E-03  4.0066E-03  2.1735E-03  4.6067E-03  8.1697E-03  3.3116E-03  7.0994E-04  4.6457E-03
 41  0.0000E+00  2.2246E-03  1.1170E-03  6.5506E-05  1.8142E-03  0.0000E+00  1.0198E-03  1.9550E-05  7.9394E-04
 42  0.0000E+00  3.5268E-03  5.8510E-03  1.5636E-03  0.0000E+00  9.6122E-03  4.2584E-03  5.4712E-03  2.6974E-03
 43  0.0000E+00  5.9866E-03  1.4254E-03  1.9772E-02  0.0000E+00  5.1803E-03  7.1574E-03  3.2222E-03  1.1504E-03
 44  0.0000E+00  1.0654E-02  1.4406E-03  2.2253E-02  5.2169E-03  0.0000E+00  4.8211E-03  0.0000E+00  1.0586E-03
 45  0.0000E+00  1.7884E-02  0.0000E+00  2.4451E-02  0.0000E+00  5.2095E-02  0.0000E+00  4.1849E-02  6.2152E-03
 46  0.0000E+00  3.4108E-02  0.0000E+00  4.6726E-02  1.0900E-02  1.9651E-01  4.3358E-02  0.0000E+00  2.8453E-02
 47  0.0000E+00  7.4715E-02  1.1096E-01  4.5768E-02  0.0000E+00  1.1069E-01  2.8767E-02  1.3228E-01  4.6008E-02
 48  1.1561E+00  8.7128E-02  0.0000E+00  4.2049E-01  3.7802E-02  0.0000E+00  6.5456E-02  2.0212E-01  0.0000E+00
 49  2.0021E+00  3.0215E-01  0.0000E+00  1.6664E+00  0.0000E+00  6.6281E-02  4.7824E-01  2.3768E-01  2.1789E-01
 50  1.5931E+01  1.5874E+01  1.6768E+01  1.5012E+01  1.5451E+01  1.3013E+01  1.6226E+01  1.3958E+01  1.5641E+01
 51  1.8944E-04  2.9734E-04  1.0674E-04  1.3959E-03  2.1849E-04  1.0786E-05  2.4872E-04  5.6888E-05  2.5062E-04
 52  0.0000E+00  3.8333E-04  4.2904E-04  1.1968E-03  3.8951E-04  1.0996E-04  4.2994E-04  4.0642E-04  2.5506E-04
 53  0.0000E+00  5.1258E-04  3.2389E-04  1.8082E-04  2.7150E-04  1.2753E-04  5.1451E-04  0.0000E+00  5.3479E-04
 54  1.0493E-01  5.0523E-03  3.8775E-03  7.5989E-03  5.7803E-03  3.7658E-03  5.6383E-03  5.6345E-03  4.8641E-03
 55  0.0000E+00  2.0796E-02  2.0312E-02  2.2430E-02  1.9560E-02  2.4011E-02  2.5025E-02  1.8023E-02  1.8816E-02
 56  0.0000E+00  2.3086E-03  2.1880E-03  9.3167E-04  5.2446E-04  0.0000E+00  2.2356E-03  1.9048E-03  3.3939E-03
 57  0.0000E+00  1.8696E-03  1.5096E-03  1.3244E-02  4.3473E-04  8.0884E-03  1.9996E-03  3.4063E-03  1.5719E-03
 58  0.0000E+00  4.1726E-03  0.0000E+00  0.0000E+00  1.6189E-03  5.8535E-03  1.5732E-03  1.1148E-02  3.9199E-03
 59  1.1976E-01  6.8468E-03  0.0000E+00  2.0080E-02  8.5525E-03  1.1162E-02  3.0404E-03  1.1227E-02  2.6318E-03
 60  0.0000E+00  1.2432E-02  1.4748E-02  5.1528E-02  4.1689E-02  0.0000E+00  5.5654E-03  1.2938E-03  5.0063E-03
 61  0.0000E+00  2.8467E-02  1.2810E-02  7.3568E-02  7.9428E-03  1.5786E-01  1.0498E-03  1.5741E-02  0.0000E+00
 62  0.0000E+00  5.3764E-02  4.3840E-02  1.1228E-01  0.0000E+00  7.8418E-02  8.7050E-03  3.2059E-02  1.2196E-02
 63  0.0000E+00  1.3576E-01  1.6272E-01  1.7610E-01  2.1800E-01  1.1068E-01  9.3413E-02  0.0000E+00  3.7170E-02
 64  3.7863E-01  3.2992E+01  3.1387E+01  3.1831E+01  3.3382E+01  2.9704E+01  3.4257E+01  3.2537E+01  3.3161E+01
 65  7.2535E+01  4.7797E+01  5.0359E+01  4.4673E+01  4.8874E+01  4.7804E+01  4.7350E+01  4.8090E+01  4.9565E+01
 66  0.0000E+00  7.2698E-01  3.3588E-01  1.2134E+00  7.8347E-01  2.5601E+00  4.5332E-01  1.8067E+00  1.0196E-01

# AV, chi2 & Mass for <> & i_chain = 1 ...  7 solutions
AV       0.1610     -0.6304     -0.5748     -0.4159     -0.6122     -0.5336     -0.6018     -0.5972     -0.5948
chi2 1.1066E-05  1.4886E-05  1.4276E-05  1.3760E-05  1.4403E-05  1.3877E-05  1.4408E-05  1.4355E-05  1.4310E-05
Mass 4.3237E-13  2.7575E-13  3.1105E-13  3.2604E-13  2.9886E-13  3.0368E-13  3.0181E-13  2.9659E-13  3.0369E-13
-105.89                                  [v0_min (km/s) before EX0s...]
 157.50                                  [vd_min (km/s) before EX0s...]


## Synthetic spectrum (Best Model) ##l_obs f_obs f_syn wei
 3478    [Nl_obs]
 3741.00    0.92647   0.94338    0.000
 3742.00    0.99197   0.92695    0.000
 3743.00    1.05005   0.90023    0.000
 3744.00    0.96700   0.86633    0.000
 3745.00    0.80172   0.82782   -1.000
 3746.00    0.68608   0.78819   -1.000
 3747.00    0.59565   0.75537   -1.000
 3748.00    0.53000   0.73967   -1.000
 3749.00    0.47526   0.74692   -1.000
 3750.00    0.74955   0.77588   -1.000
 3751.00    1.14806   0.81960   -1.000
 3752.00    1.20546   0.86745   -1.000
 3753.00    1.15353   0.90848   -1.000
 3754.00    1.15429   0.93605   -1.000
 3755.00    1.16916   0.95004   -1.000
 3756.00    1.17499   0.95516   -1.000
 3757.00    1.17883   0.95724   -1.000
 3758.00    0.92509   0.96004   -1.000
 3759.00    0.62637   0.96396   -1.000
 3760.00    0.64224   0.96651   -1.000
 3761.00    0.69989   0.96463   -1.000
 3762.00    0.86898   0.95634   -1.000
 3763.00    1.04854   0.94013   -1.000
 3764.00    1.07093   0.91567   -1.000
 3765.00    1.08426   0.88495   -1.000
 3766.00    0.79661   0.85105   -1.000
 3767.00    0.50501   0.81811   -1.000
 3768.00    0.59992   0.79379   -1.000
 3769.00    0.68697   0.78636   -1.000
 3770.00    0.58342   0.79852   -1.000
 3771.00    0.48891   0.82678   -1.000
 3772.00    0.51284   0.86491   -1.000
 3773.00    0.57081   0.90573   -1.000
 3774.00    0.92767   0.94317   -1.000
 3775.00    1.21132   0.97490   -1.000
 3776.00    1.02021   1.00180   -1.000
 3777.00    0.83140   1.02528   -1.000
 3778.00    0.65416   1.04530   -1.000
 3779.00    0.55214   1.06097   -1.000
 3780.00    0.75800   1.07168   -1.000
 3781.00    0.94296   1.07654   -1.000
 3782.00    1.05702   1.07434   -1.000
 3783.00    1.16264   1.06498   -1.000
 3784.00    1.24411   1.05025   -1.000
 3785.00    1.32402   1.03275   -1.000
 3786.00    1.40011   1.01463   -1.000
 3787.00    1.37347   0.99729   -1.000
 3788.00    1.13029   0.98090   -1.000
 3789.00    0.93959   0.96346   -1.000
 3790.00    0.84498   0.94150   -1.000
 3791.00    0.87424   0.91197   -1.000
 3792.00    1.10179   0.87397   -1.000
 3793.00    1.09147   0.82930   -1.000
 3794.00    0.74705   0.78269   -1.000
 3795.00    0.50818   0.74275   -1.000
 3796.00    0.39977   0.72031   -1.000
 3797.00    0.35432   0.72268   -1.000
 3798.00    0.37745   0.74943   -1.000
 3799.00    0.45732   0.79382   -1.000
 3800.00    0.59172   0.84586   -1.000
 3801.00    0.76246   0.89499   -1.000
 3802.00    0.96400   0.93360   -1.000
 3803.00    0.97263   0.95974   -1.000
 3804.00    0.83729   0.97717   -1.000
 3805.00    0.79265   0.99156   -1.000
 3806.00    0.80746   1.00639   -1.000
 3807.00    0.87325   1.02206   -1.000
 3808.00    0.96830   1.03635   -1.000
 3809.00    0.95752   1.04543   -1.000
 3810.00    0.89384   1.04642   -1.000
 3811.00    0.70221   1.03980   -1.000
 3812.00    0.45524   1.02811   -1.000
 3813.00    0.35205   1.01395   -1.000
 3814.00    0.30218   0.99867   -1.000
 3815.00    0.40169   0.98121   -1.000
 3816.00    0.54816   0.96028   -1.000
 3817.00    0.45139   0.93954   -1.000
 3818.00    0.29081   0.92610   -1.000
 3819.00    0.33476   0.92343   -1.000
 3820.00    0.42254   0.92951   -1.000
 3821.00    0.66001   0.93904   -1.000
 3822.00    0.92288   0.94590   -1.000
 3823.00    0.77690   0.94590   -1.000
 3824.00    0.57846   0.93873   -1.000
 3825.00    0.50477   0.92651   -1.000
 3826.00    0.44227   0.91093   -1.000
 3827.00    0.50390   0.89157   -1.000
 3828.00    0.57220   0.86611   -1.000
 3829.00    0.55464   0.83247   -1.000
 3830.00    0.53482   0.79115   -1.000
 3831.00    0.46998   0.74593   -1.000
 3832.00    0.41172   0.70400   -1.000
 3833.00    0.49974   0.67469   -1.000
 3834.00    0.58612   0.66471   -1.000
 3835.00    0.65216   0.67522   -1.000
 3836.00    0.69258   0.70324   -1.000
 3837.00    0.51638   0.74299   -1.000
 3838.00    0.38376   0.78782   -1.000
 3839.00    0.52524   0.83285   -1.000
 3840.00    0.67043   0.87496   -1.000
 3841.00    0.83389   0.91190   -1.000
 3842.00    0.90228   0.94219   -1.000
 3843.00    0.59017   0.96548   -1.000
 3844.00    0.36071   0.98223   -1.000
 3845.00    0.40602   0.99329   -1.000
 3846.00    0.47941   0.99956   -1.000
 3847.00    0.63165   1.00256    0.000
 3848.00    0.74534   1.00469    0.000
 3849.00    0.76643   1.00733    0.000
 3850.00    0.82236   1.00989    0.000
 3851.00    0.95055   1.01121    0.000
 3852.00    0.98171   1.01034    0.000
 3853.00    0.83784   1.00690    0.000
 3854.00    0.70052   1.00205    0.000
 3855.00    0.57351   0.99709    0.000
 3856.00    0.56188   0.99265    0.000
 3857.00    0.70998   0.98978    0.000
 3858.00    0.76032   0.98993    0.000
 3859.00    0.69154   0.99324    0.000
 3860.00    0.62906   0.99830    0.000
 3861.00    0.57334   1.00333    0.000
 3862.00    0.54378   1.00674    0.000
 3863.00    0.53901   1.00735    0.000
 3864.00    0.55056   1.00501    0.000
 3865.00    0.57576   1.00140    0.000
 3866.00    0.66559   0.99774    0.000
 3867.00    0.80295   0.99306    0.000
 3868.00    0.86446   0.98638    0.000
 3869.00    0.87697   0.97895    0.000
 3870.00    0.87562   0.97351    0.000
 3871.00    0.86644   0.97144    0.000
 3872.00    0.83815   0.97172    0.000
 3873.00    0.80048   0.97188    0.000
 3874.00    0.73674   0.96957    0.000
 3875.00    0.66193   0.96345    0.000
 3876.00    0.71021   0.95449    0.000
 3877.00    0.80332   0.94445    0.000
 3878.00    0.79910   0.93338    0.000
 3879.00    0.76487   0.92063    0.000
 3880.00    0.66791   0.90591    0.000
 3881.00    0.55485   0.88742   -1.000
 3882.00    0.57829   0.86165   -1.000
 3883.00    0.63027   0.82717   -1.000
 3884.00    0.60221   0.78609   -1.000
 3885.00    0.56096   0.74316   -1.000
 3886.00    0.60188   0.70739   -1.000
 3887.00    0.65299   0.69002   -1.000
 3888.00    0.78612   0.69711   -1.000
 3889.00    0.92627   0.72634   -1.000
 3890.00    0.78561   0.76971   -1.000
 3891.00    0.63096   0.81728   -1.000
 3892.00    0.72459   0.86056   -1.000
 3893.00    0.82081   0.89572   -1.000
 3894.00    0.82140   0.92287   -1.000
 3895.00    0.82048   0.94307   -1.000
 3896.00    0.78876   0.95818   -1.000
 3897.00    0.76096   0.97080   -1.000
 3898.00    0.77939   0.98239   -1.000
 3899.00    0.79189   0.99249   -1.000
 3900.00    0.75593   1.00074   -1.000
 3901.00    0.73145   1.00716   -1.000
 3902.00    0.77703   1.01121   -1.000
 3903.00    0.80105   1.01392   -1.000
 3904.00    0.72128   1.01817   -1.000
 3905.00    0.64011   1.02575   -1.000
 3906.00    0.55346   1.03598   -1.000
 3907.00    0.50337   1.04692   -1.000
 3908.00    0.57246   1.05653   -1.000
 3909.00    0.66414   1.06340   -1.000
 3910.00    0.81807   1.06721   -1.000
 3911.00    0.95067   1.06848   -1.000
 3912.00    1.03292   1.06770   -1.000
 3913.00    1.08796   1.06437   -1.000
 3914.00    1.08748   1.05757   -1.000
 3915.00    1.03426   1.04635   -1.000
 3916.00    0.88734   1.03093   -1.000
 3917.00    0.79385   1.01384   -1.000
 3918.00    0.78336   0.99904   -1.000
 3919.00    0.86779   0.98943   -1.000
 3920.00    1.08174   0.98512   -1.000
 3921.00    1.09796   0.98417   -1.000
 3922.00    0.87669   0.98314   -1.000
 3923.00    0.72471   0.97869   -1.000
 3924.00    0.64613   0.96993   -1.000
 3925.00    0.68122   0.95791   -1.000
 3926.00    0.82249   0.94411   -1.000
 3927.00    0.89643   0.92953   -1.000
 3928.00    0.91490   0.91426   -1.000
 3929.00    0.80761   0.89814   -1.000
 3930.00    0.60916   0.88214   -1.000
 3931.00    0.55464   0.86935   -1.000
 3932.00    0.59172   0.86344   -1.000
 3933.00    0.63408   0.86672   -1.000
 3934.00    0.67938   0.87928   -1.000
 3935.00    0.70272   0.89883   -1.000
 3936.00    0.71545   0.92151   -1.000
 3937.00    0.71799   0.94318   -1.000
 3938.00    0.71629   0.96067   -1.000
 3939.00    0.81169   0.97258   -1.000
 3940.00    0.94182   0.97914   -1.000
 3941.00    0.95411   0.98239   -1.000
 3942.00    0.93078   0.98555   -1.000
 3943.00    0.83176   0.99081   -1.000
 3944.00    0.71373   0.99807   -1.000
 3945.00    0.81415   1.00641   -1.000
 3946.00    0.95910   1.01501   -1.000
 3947.00    0.88416   1.02267   -1.000
 3948.00    0.77402   1.02790   -1.000
 3949.00    0.75468   1.03001   -1.000
 3950.00    0.74619   1.02955   -1.000
 3951.00    0.93906   1.02711   -1.000
 3952.00    1.14832   1.02264   -1.000
 3953.00    0.95210   1.01644   -1.000
 3954.00    0.73725   1.00940   -1.000
 3955.00    0.94349   1.00161   -1.000
 3956.00    1.14987   0.99141   -1.000
 3957.00    1.08354   0.97626   -1.000
 3958.00    1.01046   0.95461   -1.000
 3959.00    0.80941   0.92682   -1.000
 3960.00    0.63154   0.89397    0.000
 3961.00    0.71489   0.85721    0.000
 3962.00    0.78287   0.81777    0.000
 3963.00    0.73001   0.77595    0.000
 3964.00    0.67028   0.73118    0.000
 3965.00    0.56984   0.68424    0.000
 3966.00    0.48272   0.63954    0.000
 3967.00    0.45818   0.60504    0.000
 3968.00    0.47731   0.58895    0.000
 3969.00    0.66376   0.59578    0.000
 3970.00    0.79392   0.62499    0.000
 3971.00    0.74417   0.67142    0.000
 3972.00    0.70121   0.72697    0.000
 3973.00    0.67665   0.78350    0.000
 3974.00    0.60629   0.83555    0.000
 3975.00    0.42963   0.88088    0.000
 3976.00    0.36238   0.91897    0.000
 3977.00    0.51491   0.94971    0.000
 3978.00    0.70404   0.97303    0.000
 3979.00    0.95720   0.98958    0.000
 3980.00    1.04615   1.00113    0.000
 3981.00    0.88371   1.01014   -1.000
 3982.00    0.82692   1.01880   -1.000
 3983.00    0.91221   1.02837   -1.000
 3984.00    0.93691   1.03915   -1.000
 3985.00    0.88985   1.05006   -1.000
 3986.00    0.84834   1.05935   -1.000
 3987.00    0.81262   1.06634   -1.000
 3988.00    0.89435   1.07153   -1.000
 3989.00    1.08426   1.07540   -1.000
 3990.00    1.22241   1.07773   -1.000
 3991.00    1.31855   1.07802   -1.000
 3992.00    1.28197   1.07633   -1.000
 3993.00    1.15055   1.07314   -1.000
 3994.00    1.06625   1.06973   -1.000
 3995.00    1.01148   1.06842   -1.000
 3996.00    0.94986   1.07104   -1.000
 3997.00    0.88450   1.07735   -1.000
 3998.00    0.97115   1.08538   -1.000
 3999.00    1.13021   1.09236   -1.000
 4000.00    1.12564   1.09523   -1.000
 4001.00    1.05383   1.09176   -1.000
 4002.00    0.94072   1.08251   -1.000
 4003.00    0.81310   1.07084   -1.000
 4004.00    0.78547   1.06037   -1.000
 4005.00    0.78746   1.05335   -1.000
 4006.00    0.87329   1.05114   -1.000
 4007.00    0.97973   1.05418   -1.000
 4008.00    1.09565   1.06147   -1.000
 4009.00    1.21345   1.07121   -1.000
 4010.00    1.18361   1.08187   -1.000
 4011.00    1.13083   1.09227   -1.000
 4012.00    1.04183   1.10115   -1.000
 4013.00    0.94866   1.10724   -1.000
 4014.00    0.90639   1.11056   -1.000
 4015.00    0.86805   1.11223   -1.000
 4016.00    0.90305   1.11291   -1.000
 4017.00    0.94114   1.11229   -1.000
 4018.00    0.99510   1.10948   -1.000
 4019.00    1.04502   1.10321   -1.000
 4020.00    0.91147   1.09205   -1.000
 4021.00    0.78929   1.07562   -1.000
 4022.00    0.86747   1.05639   -1.000
 4023.00    0.94287   1.03979   -1.000
 4024.00    0.98831   1.03092   -1.000
 4025.00    1.00000   1.03098   -1.000
 4026.00    0.75551   1.03688   -1.000
 4027.00    0.55034   1.04349   -1.000
 4028.00    0.57199   1.04652   -1.000
 4029.00    0.61142   1.04451   -1.000
 4030.00    0.73234   1.03976   -1.000
 4031.00    0.85749   1.03701   -1.000
 4032.00    0.99846   1.04073   -1.000
 4033.00    1.11256   1.05235   -1.000
 4034.00    1.14244   1.06950   -1.000
 4035.00    1.15418   1.08761    0.344
 4036.00    1.11764   1.10203    0.074
 4037.00    1.13051   1.10977    0.048
 4038.00    1.25617   1.11028    0.048
 4039.00    1.30879   1.10417    0.048
 4040.00    1.21702   1.09212    0.049
 4041.00    1.21570   1.07545    0.050
 4042.00    1.37022   1.05714    0.050
 4043.00    1.33753   1.04205    0.050
 4044.00    1.02241   1.03482    0.049
 4045.00    0.80887   1.03775    0.049
 4046.00    0.72998   1.04998    0.049
 4047.00    0.75503   1.06715    0.049
 4048.00    0.90143   1.08318    0.049
 4049.00    1.00905   1.09327    0.049
 4050.00    1.07675   1.09554    0.049
 4051.00    1.05362   1.09119    0.049
 4052.00    0.94800   1.08309    0.048
 4053.00    0.95481   1.07374    0.049
 4054.00    1.05159   1.06518    0.049
 4055.00    1.08487   1.05906    0.049
 4056.00    1.07343   1.05582    0.048
 4057.00    1.09870   1.05438    0.048
 4058.00    1.14664   1.05234    0.048
 4059.00    1.00549   1.04743    0.048
 4060.00    0.76231   1.03986    0.047
 4061.00    0.83956   1.03211    0.047
 4062.00    1.06699   1.02671    0.047
 4063.00    1.06854   1.02545    0.047
 4064.00    0.97884   1.02869    0.046
 4065.00    0.99734   1.03428    0.046
 4066.00    1.05315   1.03856    0.046
 4067.00    1.11456   1.03860    0.046
 4068.00    1.17761   1.03449    0.046
 4069.00    1.18032   1.02917    0.046
 4070.00    1.16854   1.02488    0.046
 4071.00    1.17967   1.02175    0.046
 4072.00    1.19523   1.01874    0.046
 4073.00    1.11395   1.01474    0.046
 4074.00    1.01807   1.01021    0.046
 4075.00    1.00550   1.00753    0.046
 4076.00    1.00214   1.00971    0.045
 4077.00    1.04400   1.01820    0.045
 4078.00    1.08917   1.03105    0.045
 4079.00    1.06169   1.04366    0.045
 4080.00    1.03142   1.05179    0.046
 4081.00    1.07047   1.05396    0.045
 4082.00    1.11255   1.05197    0.045
 4083.00    1.25448   1.04923    0.045
 4084.00    1.37860   1.04829    0.045
 4085.00    1.20937   1.04965    0.045
 4086.00    1.05073   1.05194    0.045
 4087.00    1.00111   1.05274    0.045
 4088.00    0.97629   1.04996    0.046
 4089.00    1.13348   1.04293    0.047
 4090.00    1.27301   1.03141    0.047
 4091.00    1.31348   1.01481    0.047
 4092.00    1.30588   0.99274    0.000
 4093.00    1.08322   0.96528    0.000
 4094.00    0.92435   0.93296    0.000
 4095.00    0.99977   0.89661    0.000
 4096.00    1.04458   0.85674    0.000
 4097.00    0.99521   0.81480    0.000
 4098.00    0.97879   0.77545    0.000
 4099.00    1.04846   0.74557    0.000
 4100.00    1.05134   0.73190    0.000
 4101.00    0.90422   0.73875    0.000
 4102.00    0.86065   0.76528    0.000
 4103.00    1.01853   0.80512    0.000
 4104.00    1.11977   0.84938    0.000
 4105.00    1.12487   0.88976    0.000
 4106.00    1.08604   0.92133    0.000
 4107.00    0.98190   0.94376    0.000
 4108.00    0.92630   0.95963    0.000
 4109.00    0.93410   0.97218    0.000
 4110.00    0.95247   0.98394    0.000
 4111.00    0.98301   0.99572    0.000
 4112.00    0.93473   1.00685    0.000
 4113.00    0.80644   1.01558    0.046
 4114.00    0.78035   1.01997    0.045
 4115.00    0.84576   1.01917    0.045
 4116.00    0.92836   1.01407    0.046
 4117.00    1.02454   1.00715    0.046
 4118.00    1.00112   1.00183    0.046
 4119.00    0.89470   1.00104    0.046
 4120.00    0.87318   1.00592    0.067
 4121.00    0.90332   1.01542    0.260
 4122.00    0.90878   1.02640   -1.000
 4123.00    0.90113   1.03506   -1.000
 4124.00    0.89010   1.03885   -1.000
 4125.00    0.87751   1.03717   -1.000
 4126.00    0.92819   1.03095   -1.000
 4127.00    1.00400   1.02192   -1.000
 4128.00    0.95354   1.01205    0.115
 4129.00    0.86036   1.00346    0.049
 4130.00    0.88081   0.99826    0.044
 4131.00    0.93360   0.99824    0.044
 4132.00    0.95823   1.00390    0.044
 4133.00    0.97624   1.01414    0.044
 4134.00    1.05162   1.02648    0.044
 4135.00    1.13783   1.03773    0.044
 4136.00    1.19292   1.04474    0.044
 4137.00    1.24347   1.04499    0.044
 4138.00    1.20291   1.03666    0.044
 4139.00    1.15267   1.02009    0.044
 4140.00    1.02904   0.99914    0.044
 4141.00    0.90034   0.97994    0.044
 4142.00    0.93559   0.96864    0.041
 4143.00    0.97649   0.96868    0.039
 4144.00    1.07092   0.97852    0.039
 4145.00    1.16169   0.99279    0.039
 4146.00    1.12827   1.00568    0.039
 4147.00    1.09656   1.01341    0.038
 4148.00    1.09106   1.01522    0.039
 4149.00    1.09437   1.01307    0.039
 4150.00    1.18439   1.00952    0.038
 4151.00    1.26355   1.00624    0.038
 4152.00    1.26562   1.00428    0.038
 4153.00    1.24639   1.00454    0.039
 4154.00    1.11089   1.00754    0.042
 4155.00    0.98932   1.01333    0.044
 4156.00    0.92866   1.02132    0.044
 4157.00    0.86155   1.03024    0.044
 4158.00    0.77125   1.03846    0.043
 4159.00    0.72646   1.04457    0.043
 4160.00    0.81899   1.04775    0.044
 4161.00    0.90589   1.04772    0.044
 4162.00    0.97834   1.04463    0.044
 4163.00    1.07018   1.03923    0.043
 4164.00    1.20486   1.03280    0.044
 4165.00    1.20475   1.02663    0.045
 4166.00    0.94646   1.02130    0.044
 4167.00    0.80961   1.01649    0.044
 4168.00    0.87572   1.01117    0.044
 4169.00    1.01609   1.00460    0.044
 4170.00    1.26525   0.99718    0.045
 4171.00    1.34997   0.99049    0.045
 4172.00    1.22287   0.98625    0.045
 4173.00    1.12025   0.98525    0.045
 4174.00    1.04540   0.98721    0.045
 4175.00    0.86038   0.99107    0.045
 4176.00    0.56512   0.99558    0.044
 4177.00    0.57778   0.99994    0.044
 4178.00    0.86224   1.00393    0.045
 4179.00    0.98315   1.00753    0.045
 4180.00    0.97688   1.01074    0.045
 4181.00    0.99061   1.01332    0.044
 4182.00    1.01804   1.01459    0.044
 4183.00    1.02796   1.01411    0.044
 4184.00    1.02740   1.01193    0.044
 4185.00    1.02286   1.00891    0.044
 4186.00    1.01625   1.00665    0.044
 4187.00    1.03206   1.00685    0.044
 4188.00    1.05803   1.01013    0.044
 4189.00    1.10969   1.01549    0.044
 4190.00    1.17139   1.02085    0.044
 4191.00    1.19881   1.02372    0.044
 4192.00    1.21485   1.02209    0.043
 4193.00    1.07808   1.01532    0.043
 4194.00    0.89874   1.00468    0.043
 4195.00    0.97814   0.99270    0.043
 4196.00    1.11692   0.98194    0.044
 4197.00    1.06734   0.97442    0.044
 4198.00    0.98314   0.97127    0.044
 4199.00    0.92924   0.97240    0.044
 4200.00    0.87962   0.97725    0.043
 4201.00    0.86642   0.98527    0.043
 4202.00    0.85692   0.99561    0.042
 4203.00    0.86710   1.00699    0.042
 4204.00    0.87857   1.01788    0.042
 4205.00    0.95679   1.02684    0.042
 4206.00    1.03675   1.03289    0.042
 4207.00    0.91110   1.03577    0.042
 4208.00    0.79584   1.03584    0.042
 4209.00    0.98605   1.03353    0.042
 4210.00    1.16345   1.02905    0.042
 4211.00    1.15435   1.02292    0.043
 4212.00    1.13065   1.01655    0.043
 4213.00    0.96882   1.01224    0.042
 4214.00    0.83104   1.01246    0.042
 4215.00    0.85855   1.01825    0.042
 4216.00    0.89248   1.02806    0.042
 4217.00    0.96054   1.03793    0.042
 4218.00    1.02700   1.04332    0.042
 4219.00    1.08666   1.04070    0.042
 4220.00    1.10407   1.02836    0.042
 4221.00    0.97267   1.00712    0.041
 4222.00    0.88569   0.98049    0.041
 4223.00    0.93024   0.95413    0.042
 4224.00    0.93441   0.93453    0.042
 4225.00    0.83666   0.92717    0.042
 4226.00    0.79253   0.93398    0.041
 4227.00    0.86490   0.95184    0.041
 4228.00    0.90867   0.97400    0.041
 4229.00    0.89850   0.99332    0.040
 4230.00    0.91035   1.00507    0.040
 4231.00    0.95846   1.00833    0.040
 4232.00    1.00744   1.00559    0.040
 4233.00    1.05768   1.00057    0.040
 4234.00    1.05389   0.99639    0.040
 4235.00    0.98150   0.99500    0.040
 4236.00    0.93783   0.99711    0.039
 4237.00    0.92628   1.00243    0.039
 4238.00    0.93140   1.01027    0.038
 4239.00    0.95298   1.01987    0.039
 4240.00    0.95236   1.03016    0.039
 4241.00    0.93244   1.03953    0.039
 4242.00    0.96178   1.04604    0.039
 4243.00    1.02890   1.04770    0.039
 4244.00    1.08846   1.04317    0.039
 4245.00    1.14292   1.03291    0.041
 4246.00    1.11998   1.01928    0.041
 4247.00    1.05135   1.00529    0.042
 4248.00    1.01584   0.99345    0.042
 4249.00    0.99738   0.98514    0.042
 4250.00    1.06410   0.98052    0.042
 4251.00    1.16882   0.97907    0.042
 4252.00    1.12425   0.98033    0.041
 4253.00    1.02245   0.98397    0.041
 4254.00    0.96277   0.98897    0.040
 4255.00    0.91683   0.99312    0.040
 4256.00    0.93108   0.99450    0.040
 4257.00    0.96177   0.99326    0.040
 4258.00    1.10860   0.99196    0.041
 4259.00    1.28144   0.99411    0.042
 4260.00    1.12237   1.00157    0.041
 4261.00    0.90394   1.01278    0.041
 4262.00    0.88358   1.02353    0.041
 4263.00    0.89032   1.02928    0.041
 4264.00    0.88851   1.02736    0.041
 4265.00    0.88585   1.01787    0.040
 4266.00    0.84931   1.00291    0.040
 4267.00    0.81070   0.98516    0.040
 4268.00    0.95042   0.96689    0.040
 4269.00    1.09414   0.95030    0.039
 4270.00    1.07720   0.93789    0.039
 4271.00    1.05634   0.93193    0.040
 4272.00    0.93191   0.93363    0.039
 4273.00    0.81460   0.94279    0.039
 4274.00    0.79504   0.95753    0.039
 4275.00    0.78148   0.97454    0.039
 4276.00    0.82247   0.98969    0.040
 4277.00    0.86629   0.99968    0.040
 4278.00    0.92901   1.00347    0.040
 4279.00    0.96655   1.00219    0.040
 4280.00    0.87370   0.99816    0.039
 4281.00    0.80530   0.99348    0.038
 4282.00    0.83897   0.98894   -2.000
 4283.00    0.91165   0.98414   -2.000
 4284.00    1.11903   0.97820   -2.000
 4285.00    1.26750   0.97051   -2.000
 4286.00    1.24477   0.96149   -2.000
 4287.00    1.18175   0.95293   -2.000
 4288.00    1.01885   0.94740   -2.000
 4289.00    0.89454   0.94687   -2.000
 4290.00    0.85273   0.95113   -2.000
 4291.00    0.84302   0.95752   -2.000
 4292.00    0.89290   0.96245   -2.000
 4293.00    0.95707   0.96303   -2.000
 4294.00    1.04439   0.95786   -2.000
 4295.00    1.07887   0.94716   -2.000
 4296.00    1.03816   0.93249   -2.000
 4297.00    0.98894   0.91652   -2.000
 4298.00    0.92905   0.90230    0.040
 4299.00    0.96314   0.89198    0.040
 4300.00    1.10089   0.88603    0.040
 4301.00    1.06850   0.88330    0.040
 4302.00    0.87057   0.88164    0.039
 4303.00    0.78518   0.87917    0.039
 4304.00    0.79633   0.87511    0.040
 4305.00    0.84834   0.87037    0.040
 4306.00    0.93123   0.86743    0.039
 4307.00    0.98051   0.86907    0.039
 4308.00    1.00747   0.87692    0.039
 4309.00    0.92574   0.89095    0.039
 4310.00    0.78080   0.90996    0.039
 4311.00    0.78506   0.93242    0.038
 4312.00    0.86495   0.95716    0.038
 4313.00    0.88306   0.98281    0.038
 4314.00    0.87406   1.00718    0.037
 4315.00    0.91689   1.02720    0.037
 4316.00    0.97923   1.03994    0.038
 4317.00    1.02790   1.04364    0.038
 4318.00    1.07219   1.03813    0.039
 4319.00    1.10128   1.02427    0.039
 4320.00    1.12631   1.00354    0.039
 4321.00    1.06664   0.97864    0.039
 4322.00    0.98845   0.95400    0.039
 4323.00    0.93297   0.93546    0.039
 4324.00    0.88144   0.92809    0.039
 4325.00    0.98594   0.93342    0.039
 4326.00    1.11108   0.94808    0.040
 4327.00    1.11732   0.96558    0.040
 4328.00    1.11245   0.97974    0.040
 4329.00    1.06923   0.98711    0.039
 4330.00    1.02381   0.98707    0.000
 4331.00    1.00680   0.97988    0.000
 4332.00    0.99163   0.96483    0.000
 4333.00    1.11241   0.94009    0.000
 4334.00    1.22653   0.90434    0.000
 4335.00    1.18064   0.85922    0.000
 4336.00    1.14057   0.81053    0.000
 4337.00    1.17625   0.76747    0.000
 4338.00    1.18722   0.73955    0.000
 4339.00    0.98226   0.73283    0.000
 4340.00    0.81634   0.74761    0.000
 4341.00    0.90262   0.77871    0.000
 4342.00    0.97540   0.81805    0.000
 4343.00    0.98013   0.85803    0.000
 4344.00    1.01037   0.89350    0.000
 4345.00    1.14478   0.92176    0.000
 4346.00    1.23059   0.94146    0.000
 4347.00    1.15202   0.95221    0.000
 4348.00    1.07369   0.95496    0.000
 4349.00    0.99606   0.95278    0.000
 4350.00    0.97024   0.95053    0.000
 4351.00    1.07071   0.95281    0.038
 4352.00    1.13127   0.96153    0.038
 4353.00    1.10791   0.97515    0.038
 4354.00    1.11751   0.99006    0.046
 4355.00    1.18739   1.00282    0.120
 4356.00    1.18097   1.01199   -1.000
 4357.00    1.05267   1.01842   -1.000
 4358.00    1.01045   1.02425   -1.000
 4359.00    1.08892   1.03114   -1.000
 4360.00    1.15347   1.03917   -1.000
 4361.00    1.20083   1.04683   -1.000
 4362.00    1.21882   1.05199    0.153
 4363.00    1.20486   1.05290    0.050
 4364.00    1.19468   1.04915    0.037
 4365.00    1.18814   1.04190    0.037
 4366.00    1.16889   1.03340    0.037
 4367.00    1.13890   1.02563    0.037
 4368.00    1.06071   1.01918    0.037
 4369.00    0.94661   1.01324    0.037
 4370.00    0.91457   1.00668    0.037
 4371.00    0.93622   0.99948    0.037
 4372.00    0.97810   0.99326    0.037
 4373.00    1.03157   0.99045    0.037
 4374.00    0.98452   0.99251    0.037
 4375.00    0.88731   0.99834    0.037
 4376.00    0.90347   1.00411    0.037
 4377.00    0.96855   1.00489    0.037
 4378.00    0.92359   0.99689    0.037
 4379.00    0.83791   0.97934    0.036
 4380.00    0.78676   0.95525    0.036
 4381.00    0.74644   0.93062    0.036
 4382.00    0.77260   0.91202    0.036
 4383.00    0.81614   0.90366    0.036
 4384.00    0.81655   0.90575    0.036
 4385.00    0.80773   0.91511    0.036
 4386.00    0.87282   0.92780    0.035
 4387.00    0.95040   0.94111    0.035
 4388.00    0.98582   0.95403    0.035
 4389.00    1.01586   0.96629    0.036
 4390.00    1.04356   0.97758    0.036
 4391.00    1.07105   0.98763    0.035
 4392.00    1.07721   0.99665    0.035
 4393.00    1.08223   1.00519    0.035
 4394.00    1.15653   1.01343    0.036
 4395.00    1.23143   1.02042    0.036
 4396.00    1.24411   1.02436    0.036
 4397.00    1.25186   1.02376    0.036
 4398.00    1.15151   1.01838    0.036
 4399.00    1.05208   1.00906    0.036
 4400.00    0.96401   0.99692    0.036
 4401.00    0.87782   0.98317    0.036
 4402.00    0.80745   0.96975    0.036
 4403.00    0.75750   0.95953    0.036
 4404.00    0.83552   0.95550    0.035
 4405.00    0.90280   0.95927    0.035
 4406.00    0.91723   0.97024    0.035
 4407.00    0.93106   0.98587    0.036
 4408.00    0.94249   1.00235    0.036
 4409.00    0.96132   1.01542    0.036
 4410.00    1.00467   1.02151    0.035
 4411.00    1.02070   1.01931    0.035
 4412.00    0.96019   1.01093    0.035
 4413.00    0.91049   1.00136    0.035
 4414.00    0.88669   0.99612    0.035
 4415.00    0.90688   0.99830    0.035
 4416.00    1.01808   1.00706    0.036
 4417.00    1.08354   1.01829    0.036
 4418.00    1.06666   1.02723    0.036
 4419.00    1.04563   1.03113    0.036
 4420.00    1.01807   1.03020    0.036
 4421.00    0.98013   1.02673    0.036
 4422.00    0.92782   1.02325    0.036
 4423.00    0.92270   1.02117    0.036
 4424.00    0.97497   1.02050    0.036
 4425.00    1.03469   1.02043    0.036
 4426.00    1.10239   1.02012    0.036
 4427.00    1.14009   1.01898    0.036
 4428.00    1.14942   1.01665    0.036
 4429.00    1.11749   1.01293    0.036
 4430.00    1.05116   1.00779    0.036
 4431.00    1.05429   1.00173    0.036
 4432.00    1.10841   0.99633    0.036
 4433.00    1.09623   0.99406    0.037
 4434.00    1.04131   0.99705    0.037
 4435.00    1.02367   1.00534    0.037
 4436.00    1.02705   1.01614    0.037
 4437.00    0.98839   1.02501    0.037
 4438.00    0.92910   1.02852    0.037
 4439.00    1.01147   1.02640    0.037
 4440.00    1.15394   1.02168    0.037
 4441.00    1.19238   1.01870    0.037
 4442.00    1.19300   1.02043    0.038
 4443.00    1.18222   1.02685    0.038
 4444.00    1.16793   1.03548    0.037
 4445.00    1.12164   1.04322    0.038
 4446.00    1.06717   1.04799    0.038
 4447.00    1.06170   1.04906    0.038
 4448.00    1.06645   1.04649    0.037
 4449.00    1.12216   1.04045    0.037
 4450.00    1.18624   1.03107    0.038
 4451.00    1.14702   1.01894    0.037
 4452.00    1.09506   1.00547    0.036
 4453.00    1.07041   0.99276    0.036
 4454.00    1.04808   0.98263    0.037
 4455.00    1.02644   0.97586    0.036
 4456.00    1.00484   0.97201    0.036
 4457.00    0.88286   0.97022    0.035
 4458.00    0.76422   0.97021    0.035
 4459.00    0.95504   0.97244    0.036
 4460.00    1.13189   0.97743    0.036
 4461.00    1.02607   0.98470    0.000
 4462.00    0.92790   0.99247    0.000
 4463.00    0.91965   0.99828    0.000
 4464.00    0.92023   1.00015    0.000
 4465.00    0.99243   0.99749    0.000
 4466.00    1.05085   0.99133    0.000
 4467.00    1.02542   0.98420    0.000
 4468.00    1.00480   0.97949    0.000
 4469.00    1.00723   0.98041    0.000
 4470.00    1.03247   0.98864    0.000
 4471.00    1.14678   1.00343    0.000
 4472.00    1.22844   1.02170    0.000
 4473.00    1.20393   1.03927    0.000
 4474.00    1.17786   1.05217    0.000
 4475.00    1.14749   1.05761    0.000
 4476.00    1.11560   1.05459    0.000
 4477.00    1.08009   1.04451    0.000
 4478.00    1.06312   1.03142    0.000
 4479.00    1.08393   1.02091    0.000
 4480.00    1.10642   1.01778    0.000
 4481.00    1.13188   1.02358    0.000
 4482.00    1.15969   1.03562    0.036
 4483.00    1.19111   1.04854    0.036
 4484.00    1.17019   1.05706    0.036
 4485.00    1.07798   1.05847    0.036
 4486.00    1.05348   1.05364    0.036
 4487.00    1.11020   1.04585    0.036
 4488.00    1.12710   1.03868    0.036
 4489.00    1.10191   1.03395    0.036
 4490.00    1.08304   1.03125    0.036
 4491.00    1.07008   1.02911    0.036
 4492.00    1.07707   1.02686    0.036
 4493.00    1.10046   1.02547    0.035
 4494.00    1.12458   1.02670    0.035
 4495.00    1.14924   1.03162    0.036
 4496.00    1.19777   1.03959    0.036
 4497.00    1.26145   1.04893    0.036
 4498.00    1.21704   1.05825    0.036
 4499.00    1.11259   1.06730    0.036
 4500.00    1.07330   1.07652    0.036
 4501.00    1.06548   1.08586    0.036
 4502.00    1.05013   1.09414    0.036
 4503.00    1.03164   1.09966    0.036
 4504.00    1.08978   1.10146    0.036
 4505.00    1.17527   1.09999    0.036
 4506.00    1.26782   1.09659    0.036
 4507.00    1.36250   1.09236    0.036
 4508.00    1.22049   1.08750    0.036
 4509.00    1.01919   1.08155    0.035
 4510.00    1.11218   1.07432    0.035
 4511.00    1.26500   1.06653    0.035
 4512.00    1.26858   1.05958    0.035
 4513.00    1.24836   1.05481    0.036
 4514.00    1.17243   1.05289    0.035
 4515.00    1.08988   1.05370    0.035
 4516.00    1.08191   1.05650    0.035
 4517.00    1.07998   1.06010    0.035
 4518.00    1.18501   1.06287    0.035
 4519.00    1.29490   1.06298    0.036
 4520.00    1.16910   1.05897    0.035
 4521.00    1.04389   1.05034    0.035
 4522.00    1.09635   1.03764    0.035
 4523.00    1.14116   1.02218    0.035
 4524.00    1.04232   1.00577    0.035
 4525.00    0.96327   0.99059    0.035
 4526.00    1.10593   0.97884    0.035
 4527.00    1.21691   0.97212    0.035
 4528.00    1.07996   0.97072    0.035
 4529.00    0.95519   0.97335    0.035
 4530.00    0.90241   0.97794    0.035
 4531.00    0.88469   0.98306    0.035
 4532.00    1.03110   0.98879    0.035
 4533.00    1.13307   0.99636    0.035
 4534.00    1.06522   1.00650    0.035
 4535.00    1.00526   1.01816    0.035
 4536.00    0.97044   1.02871    0.035
 4537.00    0.97165   1.03565    0.035
 4538.00    1.07021   1.03828    0.035
 4539.00    1.12552   1.03781    0.035
 4540.00    1.08061   1.03617    0.035
 4541.00    1.06966   1.03457    0.035
 4542.00    1.12679   1.03311    0.035
 4543.00    1.15165   1.03135    0.035
 4544.00    1.12016   1.02891    0.035
 4545.00    1.07657   1.02580    0.035
 4546.00    1.01448   1.02230    0.035
 4547.00    1.00152   1.01877    0.035
 4548.00    1.05453   1.01552    0.035
 4549.00    1.06783   1.01274    0.035
 4550.00    1.03420   1.01067    0.000
 4551.00    1.01026   1.01000    0.000
 4552.00    0.99640   1.01189    0.000
 4553.00    0.98582   1.01751    0.000
 4554.00    0.97827   1.02707    0.000
 4555.00    1.01055   1.03931    0.000
 4556.00    1.07511   1.05176    0.000
 4557.00    1.09826   1.06171    0.000
 4558.00    1.09187   1.06719    0.000
 4559.00    1.05722   1.06748    0.000
 4560.00    1.00488   1.06329    0.000
 4561.00    0.97592   1.05652    0.000
 4562.00    0.95974   1.04989    0.000
 4563.00    0.99930   1.04598    0.000
 4564.00    1.06535   1.04604    0.000
 4565.00    1.07934   1.04935    0.000
 4566.00    1.07198   1.05363    0.000
 4567.00    1.01897   1.05653    0.000
 4568.00    0.94996   1.05711    0.000
 4569.00    0.94164   1.05618    0.000
 4570.00    0.95127   1.05545    0.000
 4571.00    1.03429   1.05604    0.000
 4572.00    1.13527   1.05765    0.000
 4573.00    1.14433   1.05879    0.000
 4574.00    1.13517   1.05779    0.000
 4575.00    1.12607   1.05363    0.000
 4576.00    1.11698   1.04655    0.000
 4577.00    1.08953   1.03792    0.000
 4578.00    1.05997   1.02976    0.000
 4579.00    0.98657   1.02382    0.000
 4580.00    0.90980   1.02081    0.000
 4581.00    1.00959   1.02040    0.000
 4582.00    1.11672   1.02186    0.000
 4583.00    1.04430   1.02476    0.000
 4584.00    0.97145   1.02901    0.000
 4585.00    0.94702   1.03425    0.000
 4586.00    0.92764   1.03931    0.000
 4587.00    0.99638   1.04243    0.000
 4588.00    1.06464   1.04224    0.000
 4589.00    1.12774   1.03857    0.000
 4590.00    1.18274   1.03256    0.000
 4591.00    1.17662   1.02598    0.000
 4592.00    1.16714   1.02043    0.000
 4593.00    1.13840   1.01685    0.000
 4594.00    1.10053   1.01545    0.000
 4595.00    1.02101   1.01582    0.000
 4596.00    0.96412   1.01713    0.000
 4597.00    0.99190   1.01850    0.000
 4598.00    1.00249   1.01941    0.000
 4599.00    0.95929   1.01995    0.000
 4600.00    0.94369   1.02066    0.000
 4601.00    1.00135   1.02223    0.000
 4602.00    1.05748   1.02533    0.000
 4603.00    1.11011   1.03050    0.000
 4604.00    1.12120   1.03797    0.000
 4605.00    1.05032   1.04725    0.000
 4606.00    1.01871   1.05690    0.000
 4607.00    1.05462   1.06491    0.000
 4608.00    1.08303   1.06964    0.000
 4609.00    1.10013   1.07079    0.000
 4610.00    1.06969   1.06954    0.000
 4611.00    0.97633   1.06773    0.000
 4612.00    1.00013   1.06682    0.000
 4613.00    1.16045   1.06709    0.000
 4614.00    1.21360   1.06786    0.000
 4615.00    1.15659   1.06827    0.000
 4616.00    1.14264   1.06796    0.000
 4617.00    1.16772   1.06737    0.000
 4618.00    1.15322   1.06719    0.000
 4619.00    1.10712   1.06780    0.000
 4620.00    1.08555   1.06885    0.000
 4621.00    1.08124   1.06960    0.000
 4622.00    1.05211   1.06937    0.000
 4623.00    1.00768   1.06795    0.000
 4624.00    0.99137   1.06560    0.000
 4625.00    0.99021   1.06281    0.000
 4626.00    1.03852   1.06009    0.000
 4627.00    1.10998   1.05771    0.000
 4628.00    1.12052   1.05565    0.000
 4629.00    1.10649   1.05353    0.000
 4630.00    1.09603   1.05078    0.000
 4631.00    1.08680   1.04693    0.000
 4632.00    1.07096   1.04178    0.000
 4633.00    1.05320   1.03549    0.000
 4634.00    1.06278   1.02837    0.000
 4635.00    1.07889   1.02097    0.000
 4636.00    1.08862   1.01417    0.000
 4637.00    1.09711   1.00901    0.000
 4638.00    1.09468   1.00614    0.000
 4639.00    1.09062   1.00523    0.000
 4640.00    1.04198   1.00477    0.000
 4641.00    0.98843   1.00275    0.000
 4642.00    1.06470   0.99772    0.000
 4643.00    1.15041   0.98975    0.000
 4644.00    1.09781   0.98067    0.000
 4645.00    1.03998   0.97335    0.000
 4646.00    1.05571   0.97042    0.000
 4647.00    1.07003   0.97301    0.000
 4648.00    1.01830   0.98031    0.000
 4649.00    0.97056   0.98997    0.000
 4650.00    0.98795   0.99928    0.000
 4651.00    1.00541   1.00643    0.000
 4652.00    1.02356   1.01130    0.000
 4653.00    1.03902   1.01544    0.000
 4654.00    1.03480   1.02093    0.000
 4655.00    1.02922   1.02887    0.000
 4656.00    1.01609   1.03836    0.000
 4657.00    1.01675   1.04684    0.000
 4658.00    1.07889   1.05127    0.000
 4659.00    1.11863   1.04972    0.000
 4660.00    1.07628   1.04207    0.000
 4661.00    1.04308   1.02967    0.000
 4662.00    1.03795   1.01447    0.000
 4663.00    1.01862   0.99853    0.000
 4664.00    0.96228   0.98415    0.000
 4665.00    0.93590   0.97384    0.000
 4666.00    0.97668   0.96979    0.000
 4667.00    0.99636   0.97264    0.000
 4668.00    0.97509   0.98089    0.000
 4669.00    0.96490   0.99149    0.000
 4670.00    0.97350   1.00136    0.000
 4671.00    0.98077   1.00875    0.000
 4672.00    0.98606   1.01346    0.000
 4673.00    1.00298   1.01604    0.000
 4674.00    1.03507   1.01686    0.000
 4675.00    1.04682   1.01585    0.000
 4676.00    1.03519   1.01292    0.000
 4677.00    1.05397   1.00863    0.000
 4678.00    1.10355   1.00424    0.000
 4679.00    1.10615   1.00116    0.000
 4680.00    1.06676   1.00020    0.000
 4681.00    1.08364   1.00119    0.000
 4682.00    1.14485   1.00319    0.000
 4683.00    1.11733   1.00513    0.000
 4684.00    1.02836   1.00640    0.000
 4685.00    1.02798   1.00694    0.000
 4686.00    1.08142   1.00709    0.000
 4687.00    1.07277   1.00727    0.000
 4688.00    1.03121   1.00788    0.000
 4689.00    1.05398   1.00930    0.000
 4690.00    1.10637   1.01174    0.000
 4691.00    1.04229   1.01501    0.000
 4692.00    0.93205   1.01821    0.000
 4693.00    0.88708   1.01986    0.000
 4694.00    0.86414   1.01854    0.000
 4695.00    0.92471   1.01368    0.000
 4696.00    1.00898   1.00602    0.000
 4697.00    1.04139   0.99732    0.000
 4698.00    1.06165   0.98952    0.000
 4699.00    0.95723   0.98392    0.000
 4700.00    0.82935   0.98096    0.000
 4701.00    0.84250   0.98029    0.000
 4702.00    0.87615   0.98113    0.000
 4703.00    0.97071   0.98253    0.000
 4704.00    1.07171   0.98374    0.000
 4705.00    1.08648   0.98457    0.000
 4706.00    1.09531   0.98537    0.000
 4707.00    1.06529   0.98657    0.000
 4708.00    1.03394   0.98820    0.000
 4709.00    1.01197   0.98980    0.000
 4710.00    0.99161   0.99101    0.000
 4711.00    1.02315   0.99227    0.000
 4712.00    1.05195   0.99492    0.000
 4713.00    1.03885   1.00039    0.000
 4714.00    1.02442   1.00919    0.000
 4715.00    0.99701   1.02042    0.000
 4716.00    0.97298   1.03216    0.000
 4717.00    0.97280   1.04235    0.000
 4718.00    0.96692   1.04961    0.000
 4719.00    0.92998   1.05358    0.000
 4720.00    0.91755   1.05460    0.000
 4721.00    1.01191   1.05306    0.000
 4722.00    1.09264   1.04885    0.000
 4723.00    1.12451   1.04146    0.000
 4724.00    1.11963   1.03080    0.000
 4725.00    1.00411   1.01792    0.000
 4726.00    0.91816   1.00519    0.000
 4727.00    0.90798   0.99543    0.000
 4728.00    0.90028   0.99059    0.000
 4729.00    0.89803   0.99097    0.000
 4730.00    0.88962   0.99524    0.000
 4731.00    0.86947   1.00132    0.000
 4732.00    0.89710   1.00732    0.000
 4733.00    1.00444   1.01222    0.000
 4734.00    1.06935   1.01594    0.000
 4735.00    1.07224   1.01897    0.000
 4736.00    1.06946   1.02171    0.000
 4737.00    1.05940   1.02424    0.000
 4738.00    1.06889   1.02645    0.000
 4739.00    1.10052   1.02838    0.000
 4740.00    1.11428   1.03029    0.000
 4741.00    1.11019   1.03253    0.000
 4742.00    1.06030   1.03529    0.000
 4743.00    0.97007   1.03846    0.000
 4744.00    0.91224   1.04165    0.000
 4745.00    0.87956   1.04430    0.000
 4746.00    0.94487   1.04583    0.000
 4747.00    1.07705   1.04570    0.000
 4748.00    1.09136   1.04364    0.000
 4749.00    1.03513   1.03975    0.000
 4750.00    1.00132   1.03459    0.000
 4751.00    0.97920   1.02902    0.000
 4752.00    0.98457   1.02402    0.000
 4753.00    1.00238   1.02034    0.000
 4754.00    0.99428   1.01824    0.000
 4755.00    0.97609   1.01733    0.000
 4756.00    0.94185   1.01668    0.000
 4757.00    0.90230   1.01506    0.000
 4758.00    0.97557   1.01139    0.000
 4759.00    1.08020   1.00522    0.000
 4760.00    1.09533   0.99704    0.000
 4761.00    1.08998   0.98817    0.033
 4762.00    1.01358   0.98044    0.033
 4763.00    0.92417   0.97558    0.033
 4764.00    0.97859   0.97472    0.033
 4765.00    1.05326   0.97793    0.032
 4766.00    1.05801   0.98417    0.032
 4767.00    1.05567   0.99172    0.032
 4768.00    1.02337   0.99896    0.032
 4769.00    0.98913   1.00513    0.032
 4770.00    0.95176   1.01044    0.032
 4771.00    0.91454   1.01552    0.032
 4772.00    1.00295   1.02068    0.032
 4773.00    1.08589   1.02555    0.032
 4774.00    1.01049   1.02930    0.032
 4775.00    0.94289   1.03110    0.032
 4776.00    0.98823   1.03051    0.032
 4777.00    1.03618   1.02753    0.032
 4778.00    1.10887   1.02261    0.032
 4779.00    1.16630   1.01645    0.032
 4780.00    1.11936   1.00990    0.032
 4781.00    1.07472   1.00380    0.032
 4782.00    1.04224   0.99877    0.031
 4783.00    1.00977   0.99509    0.031
 4784.00    0.97735   0.99285    0.031
 4785.00    0.95351   0.99204    0.031
 4786.00    0.95979   0.99282    0.031
 4787.00    0.96030   0.99551    0.031
 4788.00    0.94378   1.00044    0.031
 4789.00    0.93965   1.00770    0.031
 4790.00    0.96672   1.01673    0.031
 4791.00    0.99314   1.02618    0.032
 4792.00    1.01816   1.03411    0.032
 4793.00    1.04089   1.03869    0.032
 4794.00    1.05930   1.03896    0.031
 4795.00    1.06992   1.03544    0.032
 4796.00    1.06775   1.02999    0.032
 4797.00    1.04380   1.02496    0.033
 4798.00    0.98847   1.02204    0.032
 4799.00    0.96972   1.02152    0.032
 4800.00    0.99733   1.02221    0.032
 4801.00    0.97489   1.02231    0.032
 4802.00    0.89656   1.02050    0.032
 4803.00    0.88468   1.01668    0.032
 4804.00    0.93827   1.01185    0.032
 4805.00    1.00196   1.00751    0.032
 4806.00    1.07444   1.00487    0.032
 4807.00    1.04397   1.00433    0.032
 4808.00    0.93471   1.00553    0.032
 4809.00    0.93384   1.00773    0.032
 4810.00    1.00588   1.01038    0.032
 4811.00    1.04036   1.01330    0.032
 4812.00    1.05269   1.01670    0.032
 4813.00    1.05094   1.02075    0.032
 4814.00    1.04196   1.02524    0.032
 4815.00    1.07590   1.02949    0.032
 4816.00    1.12896   1.03242    0.032
 4817.00    1.02331   1.03298    0.032
 4818.00    0.85694   1.03054    0.031
 4819.00    0.94113   1.02530    0.031
 4820.00    1.10679   1.01839    0.032
 4821.00    1.15192   1.01152    0.032
 4822.00    1.16423   1.00628    0.032
 4823.00    1.15902   1.00331    0.032
 4824.00    1.14989   1.00214    0.032
 4825.00    1.07728   1.00162    0.032
 4826.00    0.99336   1.00068    0.031
 4827.00    0.93724   0.99897    0.031
 4828.00    0.88491   0.99689    0.031
 4829.00    0.89317   0.99526    0.031
 4830.00    0.90733   0.99484    0.031
 4831.00    0.92061   0.99585    0.031
 4832.00    0.93384   0.99780    0.032
 4833.00    0.91062   0.99959    0.031
 4834.00    0.88666   1.00004    0.031
 4835.00    0.90258   0.99840    0.031
 4836.00    0.91820   0.99475    0.031
 4837.00    0.92606   0.98992    0.031
 4838.00    0.93371   0.98514    0.031
 4839.00    0.93852   0.98154    0.031
 4840.00    0.95250   0.97975    0.031
 4841.00    1.04943   0.97972    0.031
 4842.00    1.12493   0.98073    0.031
 4843.00    1.05817   0.98158    0.031
 4844.00    0.99796   0.98114    0.031
 4845.00    0.97149   0.97877    0.031
 4846.00    0.95566   0.97462    0.030
 4847.00    0.98411   0.96920    0.031
 4848.00    1.01060   0.96277    0.000
 4849.00    1.03036   0.95493    0.000
 4850.00    1.05299   0.94478    0.000
 4851.00    1.08395   0.93153    0.000
 4852.00    1.07289   0.91493    0.000
 4853.00    0.95782   0.89515    0.000
 4854.00    0.87961   0.87239    0.000
 4855.00    0.88002   0.84667    0.000
 4856.00    0.87149   0.81856    0.000
 4857.00    0.84640   0.79024    0.000
 4858.00    0.84600   0.76596    0.000
 4859.00    0.88555   0.75093    0.000
 4860.00    0.88981   0.74904    0.000
 4861.00    0.84394   0.76088    0.000
 4862.00    0.83666   0.78333    0.000
 4863.00    0.87759   0.81097    0.000
 4864.00    0.87324   0.83813    0.000
 4865.00    0.81904   0.86056    0.000
 4866.00    0.82374   0.87623    0.000
 4867.00    0.88565   0.88534    0.000
 4868.00    0.90903   0.88994    0.000
 4869.00    0.89940   0.89302    0.000
 4870.00    0.85603   0.89744    0.000
 4871.00    0.78720   0.90487    0.000
 4872.00    0.74851   0.91545    0.000
 4873.00    0.72980   0.92807    0.000
 4874.00    0.74046   0.94119    0.000
 4875.00    0.76816   0.95331    0.030
 4876.00    0.83867   0.96322    0.030
 4877.00    0.93082   0.97006    0.030
 4878.00    0.96089   0.97341    0.030
 4879.00    0.96377   0.97337    0.030
 4880.00    0.97525   0.97055    0.030
 4881.00    0.98997   0.96577    0.030
 4882.00    1.00171   0.95989    0.030
 4883.00    1.01251   0.95367    0.030
 4884.00    0.95880   0.94772    0.030
 4885.00    0.88789   0.94251    0.029
 4886.00    0.88104   0.93850    0.030
 4887.00    0.88817   0.93655    0.030
 4888.00    0.86813   0.93807    0.030
 4889.00    0.84338   0.94463    0.030
 4890.00    0.81883   0.95695    0.030
 4891.00    0.79429   0.97398    0.029
 4892.00    0.86998   0.99292    0.030
 4893.00    0.95498   1.01010    0.030
 4894.00    0.96990   1.02249    0.030
 4895.00    0.98084   1.02862    0.030
 4896.00    0.99584   1.02883    0.031
 4897.00    1.01044   1.02482    0.031
 4898.00    0.97012   1.01887    0.031
 4899.00    0.93116   1.01311    0.031
 4900.00    0.92444   1.00904    0.031
 4901.00    0.92297   1.00730    0.031
 4902.00    0.98963   1.00750    0.031
 4903.00    1.04612   1.00838    0.031
 4904.00    1.01427   1.00825    0.031
 4905.00    0.99074   1.00584    0.031
 4906.00    1.02080   1.00110    0.031
 4907.00    1.04077   0.99537    0.031
 4908.00    1.00998   0.99072    0.031
 4909.00    0.98552   0.98890    0.031
 4910.00    0.98677   0.99028    0.031
 4911.00    0.97528   0.99347    0.031
 4912.00    0.92083   0.99569    0.031
 4913.00    0.90388   0.99375    0.031
 4914.00    0.99368   0.98536    0.031
 4915.00    1.05100   0.97022    0.031
 4916.00    1.02928   0.95062    0.031
 4917.00    1.01108   0.93081    0.031
 4918.00    1.00026   0.91553    0.031
 4919.00    0.97698   0.90826    0.031
 4920.00    0.93098   0.91013    0.031
 4921.00    0.89425   0.92008    0.031
 4922.00    0.87230   0.93574    0.031
 4923.00    0.88824   0.95448    0.031
 4924.00    0.95718   0.97395    0.032
 4925.00    0.97992   0.99210    0.032
 4926.00    0.94574   1.00708    0.031
 4927.00    0.92438   1.01732    0.031
 4928.00    0.91693   1.02183    0.032
 4929.00    0.94431   1.02063    0.032
 4930.00    1.00503   1.01476    0.032
 4931.00    1.01399   1.00598    0.032
 4932.00    0.97923   0.99602    0.031
 4933.00    0.96645   0.98614    0.031
 4934.00    0.97002   0.97719    0.031
 4935.00    0.99933   0.97013    0.031
 4936.00    1.04545   0.96629    0.031
 4937.00    0.97640   0.96698    0.031
 4938.00    0.84151   0.97266    0.031
 4939.00    0.86162   0.98236    0.031
 4940.00    0.95889   0.99401    0.000
 4941.00    0.96420   1.00529    0.000
 4942.00    0.92992   1.01464    0.000
 4943.00    0.93036   1.02166    0.000
 4944.00    0.94362   1.02687    0.000
 4945.00    0.98439   1.03101    0.000
 4946.00    1.03378   1.03444    0.000
 4947.00    0.99813   1.03685    0.000
 4948.00    0.94029   1.03729    0.000
 4949.00    0.99556   1.03459    0.000
 4950.00    1.07492   1.02774    0.000
 4951.00    1.07141   1.01633    0.000
 4952.00    1.05394   1.00096    0.000
 4953.00    0.99624   0.98357    0.000
 4954.00    0.93341   0.96733    0.000
 4955.00    0.96395   0.95578    0.000
 4956.00    1.00278   0.95143    0.000
 4957.00    0.93545   0.95445    0.000
 4958.00    0.86253   0.96247    0.000
 4959.00    0.87901   0.97170    0.000
 4960.00    0.89797   0.97857    0.000
 4961.00    0.97698   0.98106    0.000
 4962.00    1.05120   0.97919    0.000
 4963.00    1.02121   0.97457    0.000
 4964.00    0.99279   0.96957    0.000
 4965.00    0.98371   0.96626    0.000
 4966.00    0.97516   0.96593    0.000
 4967.00    0.97101   0.96882    0.000
 4968.00    0.96354   0.97430    0.000
 4969.00    0.93532   0.98120    0.000
 4970.00    0.92408   0.98805    0.000
 4971.00    0.99610   0.99340    0.000
 4972.00    1.05700   0.99600    0.000
 4973.00    1.07361   0.99505    0.000
 4974.00    1.07070   0.99029    0.000
 4975.00    1.00324   0.98196    0.000
 4976.00    0.95131   0.97070    0.000
 4977.00    0.94282   0.95749    0.000
 4978.00    0.92651   0.94354    0.000
 4979.00    0.89150   0.93050    0.000
 4980.00    0.85982   0.92036    0.000
 4981.00    0.83501   0.91501    0.000
 4982.00    0.85261   0.91548    0.000
 4983.00    0.94642   0.92139    0.000
 4984.00    0.97664   0.93092    0.000
 4985.00    0.90693   0.94151    0.000
 4986.00    0.84244   0.95081    0.000
 4987.00    0.78516   0.95744    0.000
 4988.00    0.77716   0.96132    0.000
 4989.00    0.82900   0.96328    0.000
 4990.00    0.86674   0.96435    0.000
 4991.00    0.88939   0.96519    0.000
 4992.00    0.89920   0.96582    0.000
 4993.00    0.89690   0.96558    0.000
 4994.00    0.85669   0.96355    0.000
 4995.00    0.78492   0.95898    0.000
 4996.00    0.77363   0.95176    0.000
 4997.00    0.80667   0.94262    0.000
 4998.00    0.87148   0.93276    0.000
 4999.00    0.95673   0.92335    0.000
 5000.00    0.94990   0.91518    0.000
 5001.00    0.89123   0.90865    0.000
 5002.00    0.86440   0.90407    0.000
 5003.00    0.85318   0.90187    0.000
 5004.00    0.87958   0.90239    0.000
 5005.00    0.92190   0.90534    0.000
 5006.00    0.89348   0.90927    0.000
 5007.00    0.83939   0.91198    0.000
 5008.00    0.87922   0.91143    0.000
 5009.00    0.94785   0.90683    0.000
 5010.00    0.97768   0.89916    0.000
 5011.00    0.99760   0.89060    0.000
 5012.00    0.90878   0.88366    0.000
 5013.00    0.79738   0.88023    0.000
 5014.00    0.76773   0.88083    0.000
 5015.00    0.75147   0.88472    0.000
 5016.00    0.75697   0.89046    0.000
 5017.00    0.76514   0.89675    0.000
 5018.00    0.79026   0.90274    0.000
 5019.00    0.81682   0.90812    0.000
 5020.00    0.90142   0.91296    0.000
 5021.00    0.98886   0.91739    0.000
 5022.00    0.94433   0.92143    0.000
 5023.00    0.89781   0.92514    0.000
 5024.00    0.85425   0.92870    0.000
 5025.00    0.81158   0.93265    0.000
 5026.00    0.78695   0.93772    0.000
 5027.00    0.77036   0.94420    0.000
 5028.00    0.84779   0.95153    0.000
 5029.00    0.91060   0.95820    0.030
 5030.00    0.85539   0.96237    0.030
 5031.00    0.82882   0.96259    0.030
 5032.00    0.97593   0.95822    0.030
 5033.00    1.08188   0.94950    0.030
 5034.00    0.99096   0.93737    0.031
 5035.00    0.90272   0.92326    0.031
 5036.00    0.82487   0.90909    0.031
 5037.00    0.78472   0.89725    0.031
 5038.00    0.86689   0.89028    0.031
 5039.00    0.92259   0.89023    0.031
 5040.00    0.90569   0.89766    0.031
 5041.00    0.88987   0.91085    0.031
 5042.00    0.87662   0.92602    0.031
 5043.00    0.89112   0.93891    0.031
 5044.00    0.96205   0.94641    0.030
 5045.00    0.98425   0.94759    0.030
 5046.00    0.92021   0.94382    0.030
 5047.00    0.90681   0.93801    0.030
 5048.00    0.97181   0.93328    0.030
 5049.00    0.99158   0.93178    0.030
 5050.00    0.94988   0.93416    0.030
 5051.00    0.90043   0.93981    0.030
 5052.00    0.84171   0.94748    0.031
 5053.00    0.82459   0.95583    0.031
 5054.00    0.85136   0.96381    0.030
 5055.00    0.88444   0.97090    0.030
 5056.00    0.92338   0.97678    0.030
 5057.00    0.89306   0.98088    0.030
 5058.00    0.80589   0.98231    0.030
 5059.00    0.81037   0.98015    0.030
 5060.00    0.88104   0.97421    0.030
 5061.00    0.85414   0.96535    0.030
 5062.00    0.76537   0.95510    0.029
 5063.00    0.75962   0.94540    0.029
 5064.00    0.79989   0.93808    0.030
 5065.00    0.83122   0.93399    0.030
 5066.00    0.85823   0.93267    0.030
 5067.00    0.88078   0.93306    0.029
 5068.00    0.90147   0.93424    0.030
 5069.00    0.88213   0.93546    0.030
 5070.00    0.84853   0.93619    0.030
 5071.00    0.85242   0.93626    0.030
 5072.00    0.86759   0.93554    0.029
 5073.00    0.85106   0.93335    0.029
 5074.00    0.82662   0.92874    0.029
 5075.00    0.81823   0.92166    0.029
 5076.00    0.81310   0.91311    0.029
 5077.00    0.77762   0.90467    0.029
 5078.00    0.73732   0.89816    0.029
 5079.00    0.71967   0.89530    0.029
 5080.00    0.70470   0.89681    0.029
 5081.00    0.76006   0.90213    0.028
 5082.00    0.82108   0.90994    0.028
 5083.00    0.84057   0.91877    0.028
 5084.00    0.85819   0.92744    0.027
 5085.00    0.83131   0.93518    0.028
 5086.00    0.80584   0.94176    0.028
 5087.00    0.87756   0.94740    0.027
 5088.00    0.94416   0.95227    0.027
 5089.00    0.91549   0.95612    0.027
 5090.00    0.88857   0.95824    0.028
 5091.00    0.88107   0.95781    0.028
 5092.00    0.87091   0.95414    0.028
 5093.00    0.84002   0.94718    0.028
 5094.00    0.81396   0.93782    0.028
 5095.00    0.81635   0.92814    0.028
 5096.00    0.82279   0.92044    0.028
 5097.00    0.84811   0.91621    0.028
 5098.00    0.86505   0.91559    0.028
 5099.00    0.85005   0.91756    0.028
 5100.00    0.83954   0.92039    0.028
 5101.00    0.84329   0.92233    0.028
 5102.00    0.84762   0.92220    0.028
 5103.00    0.85350   0.91986    0.028
 5104.00    0.84421   0.91614    0.029
 5105.00    0.79985   0.91217    0.029
 5106.00    0.76469   0.90932    0.029
 5107.00    0.74794   0.90873    0.029
 5108.00    0.74024   0.91086    0.029
 5109.00    0.74828   0.91555    0.029
 5110.00    0.73412   0.92231    0.029
 5111.00    0.68607   0.93030    0.029
 5112.00    0.71692   0.93862    0.030
 5113.00    0.85350   0.94635    0.030
 5114.00    0.90028   0.95237    0.031
 5115.00    0.84108   0.95554    0.031
 5116.00    0.82323   0.95496    0.031
 5117.00    0.84841   0.95019    0.030
 5118.00    0.85346   0.94145    0.030
 5119.00    0.84003   0.92976    0.030
 5120.00    0.87308   0.91696    0.030
 5121.00    0.94374   0.90506    0.030
 5122.00    0.97353   0.89548    0.030
 5123.00    0.97421   0.88892    0.030
 5124.00    0.89347   0.88557    0.030
 5125.00    0.76187   0.88520    0.029
 5126.00    0.72415   0.88745    0.029
 5127.00    0.73770   0.89189    0.030
 5128.00    0.74109   0.89783    0.030
 5129.00    0.73968   0.90451    0.030
 5130.00    0.80698   0.91125    0.030
 5131.00    0.90241   0.91713    0.030
 5132.00    0.85953   0.92085    0.030
 5133.00    0.76830   0.92159    0.030
 5134.00    0.72709   0.91933    0.030
 5135.00    0.70063   0.91488    0.029
 5136.00    0.72342   0.90966    0.029
 5137.00    0.75825   0.90460    0.029
 5138.00    0.75738   0.89997    0.029
 5139.00    0.74946   0.89634    0.029
 5140.00    0.82188   0.89391    0.030
 5141.00    0.90669   0.89207    0.030
 5142.00    0.89784   0.89044    0.030
 5143.00    0.87833   0.88911    0.029
 5144.00    0.84393   0.88819    0.029
 5145.00    0.80841   0.88772    0.029
 5146.00    0.72927   0.88732    0.029
 5147.00    0.64835   0.88671    0.029
 5148.00    0.69131   0.88610    0.029
 5149.00    0.73532   0.88595    0.029
 5150.00    0.78053   0.88707    0.029
 5151.00    0.82169   0.89041    0.029
 5152.00    0.79263   0.89648    0.029
 5153.00    0.76861   0.90497    0.029
 5154.00    0.79826   0.91464    0.029
 5155.00    0.82747   0.92371    0.029
 5156.00    0.85342   0.93066    0.029
 5157.00    0.87057   0.93395    0.029
 5158.00    0.83727   0.93224    0.028
 5159.00    0.82479   0.92501    0.028
 5160.00    0.90717   0.91194    0.028
 5161.00    0.94756   0.89269    0.029
 5162.00    0.83132   0.86799    0.029
 5163.00    0.73122   0.84024    0.029
 5164.00    0.68147   0.81327    0.028
 5165.00    0.65734   0.79087    0.028
 5166.00    0.70107   0.77473    0.028
 5167.00    0.71217   0.76410    0.028
 5168.00    0.64904   0.75799    0.029
 5169.00    0.62293   0.75710    0.029
 5170.00    0.66971   0.76268    0.028
 5171.00    0.68099   0.77460    0.028
 5172.00    0.63134   0.79133    0.028
 5173.00    0.60752   0.81055    0.028
 5174.00    0.62253   0.82908    0.028
 5175.00    0.64417   0.84315    0.029
 5176.00    0.67455   0.84984    0.029
 5177.00    0.71153   0.84781    0.029
 5178.00    0.75620   0.83754    0.028
 5179.00    0.79363   0.82197    0.028
 5180.00    0.82362   0.80685    0.028
 5181.00    0.81035   0.79834    0.028
 5182.00    0.75793   0.79957    0.027
 5183.00    0.71295   0.81008    0.028
 5184.00    0.67392   0.82672    0.028
 5185.00    0.65731   0.84534    0.028
 5186.00    0.65644   0.86160    0.029
 5187.00    0.67322   0.87181    0.029
 5188.00    0.70088   0.87509    0.029
 5189.00    0.69198   0.87386    0.029
 5190.00    0.66342   0.87130    0.000
 5191.00    0.71053   0.86976    0.000
 5192.00    0.79296   0.87106    0.000
 5193.00    0.77941   0.87590    0.000
 5194.00    0.72727   0.88349    0.000
 5195.00    0.74344   0.89217    0.000
 5196.00    0.78305   0.89997    0.000
 5197.00    0.78870   0.90495    0.000
 5198.00    0.78453   0.90573    0.000
 5199.00    0.77142   0.90162    0.000
 5200.00    0.75616   0.89240    0.000
 5201.00    0.84065   0.87884    0.000
 5202.00    0.94434   0.86327    0.000
 5203.00    0.91200   0.84850    0.000
 5204.00    0.85933   0.83679    0.000
 5205.00    0.74229   0.83027    0.000
 5206.00    0.61819   0.83057    0.000
 5207.00    0.64692   0.83782    0.000
 5208.00    0.68668   0.85058    0.000
 5209.00    0.69027   0.86624    0.000
 5210.00    0.69252   0.88165    0.000
 5211.00    0.75793   0.89423    0.029
 5212.00    0.82321   0.90308    0.029
 5213.00    0.87288   0.90915    0.029
 5214.00    0.91599   0.91410    0.029
 5215.00    0.85286   0.91904    0.029
 5216.00    0.79891   0.92404    0.029
 5217.00    0.83846   0.92822    0.029
 5218.00    0.87248   0.92997    0.028
 5219.00    0.86622   0.92745    0.029
 5220.00    0.85686   0.91969    0.029
 5221.00    0.83021   0.90727    0.029
 5222.00    0.81128   0.89247    0.029
 5223.00    0.82665   0.87894    0.029
 5224.00    0.83550   0.87080    0.028
 5225.00    0.82056   0.87024    0.028
 5226.00    0.80691   0.87628    0.028
 5227.00    0.79724   0.88613    0.028
 5228.00    0.78396   0.89654    0.028
 5229.00    0.76128   0.90489    0.028
 5230.00    0.73523   0.91074    0.028
 5231.00    0.70168   0.91541    0.028
 5232.00    0.72289   0.92046    0.028
 5233.00    0.85025   0.92686    0.028
 5234.00    0.92235   0.93436    0.028
 5235.00    0.90102   0.94187    0.028
 5236.00    0.89146   0.94834    0.028
 5237.00    0.89933   0.95315    0.028
 5238.00    0.87929   0.95603    0.028
 5239.00    0.82292   0.95694    0.028
 5240.00    0.82307   0.95619    0.028
 5241.00    0.88802   0.95379    0.028
 5242.00    0.91384   0.94889    0.028
 5243.00    0.90007   0.94098    0.028
 5244.00    0.88632   0.93135    0.028
 5245.00    0.87259   0.92191    0.029
 5246.00    0.85617   0.91359    0.029
 5247.00    0.83763   0.90713    0.029
 5248.00    0.86824   0.90380    0.029
 5249.00    0.93285   0.90393    0.029
 5250.00    0.90782   0.90666    0.030
 5251.00    0.82844   0.91112    0.030
 5252.00    0.80117   0.91727    0.030
 5253.00    0.80147   0.92522    0.030
 5254.00    0.76586   0.93367    0.030
 5255.00    0.71376   0.94020    0.029
 5256.00    0.77057   0.94236    0.029
 5257.00    0.87045   0.93834    0.029
 5258.00    0.85837   0.92746    0.029
 5259.00    0.80857   0.91051    0.030
 5260.00    0.83145   0.88977    0.030
 5261.00    0.87489   0.86820    0.031
 5262.00    0.86694   0.84865    0.031
 5263.00    0.84700   0.83339    0.030
 5264.00    0.78732   0.82324    0.031
 5265.00    0.72020   0.81676    0.031
 5266.00    0.70254   0.81308    0.031
 5267.00    0.69206   0.81421    0.031
 5268.00    0.73955   0.82173    0.031
 5269.00    0.79313   0.83417    0.031
 5270.00    0.81105   0.84923    0.031
 5271.00    0.82653   0.86534    0.032
 5272.00    0.78751   0.88133    0.031
 5273.00    0.74666   0.89688    0.030
 5274.00    0.70925   0.91156    0.030
 5275.00    0.67843   0.92361    0.030
 5276.00    0.85862   0.93143    0.030
 5277.00    1.02264   0.93459    0.030
 5278.00    0.94044   0.93393    0.030
 5279.00    0.86761   0.93135    0.030
 5280.00    0.88614   0.92927    0.030
 5281.00    0.89359   0.93031    0.030
 5282.00    0.82299   0.93610    0.029
 5283.00    0.76779   0.94570    0.029
 5284.00    0.79603   0.95660    0.029
 5285.00    0.82019   0.96677    0.029
 5286.00    0.82662   0.97516    0.028
 5287.00    0.82800   0.98102    0.028
 5288.00    0.81128   0.98355    0.028
 5289.00    0.80697   0.98228    0.028
 5290.00    0.83996   0.97738    0.028
 5291.00    0.87961   0.96931    0.028
 5292.00    0.93627   0.95824    0.028
 5293.00    0.97158   0.94462    0.028
 5294.00    0.95992   0.93038    0.029
 5295.00    0.91261   0.91889    0.029
 5296.00    0.79729   0.91286    0.028
 5297.00    0.74746   0.91242    0.028
 5298.00    0.80666   0.91652    0.028
 5299.00    0.87669   0.92476    0.029
 5300.00    0.96252   0.93633    0.029
 5301.00    0.98097   0.94931    0.029
 5302.00    0.91296   0.96144    0.029
 5303.00    0.87772   0.97106    0.029
 5304.00    0.87952   0.97783    0.029
 5305.00    0.88064   0.98255    0.029
 5306.00    0.88110   0.98582    0.029
 5307.00    0.88796   0.98755    0.029
 5308.00    0.90047   0.98759    0.029
 5309.00    0.88550   0.98609    0.029
 5310.00    0.84923   0.98328    0.029
 5311.00    0.89463   0.97956    0.029
 5312.00    0.99569   0.97523    0.029
 5313.00    0.98601   0.97054    0.029
 5314.00    0.91021   0.96623    0.029
 5315.00    0.89601   0.96272    0.029
 5316.00    0.91391   0.95946    0.029
 5317.00    0.93269   0.95584    0.029
 5318.00    0.95188   0.95133    0.029
 5319.00    0.92974   0.94512    0.029
 5320.00    0.89155   0.93641    0.030
 5321.00    0.89591   0.92530    0.030
 5322.00    0.91435   0.91308    0.029
 5323.00    0.86511   0.90008    0.029
 5324.00    0.79711   0.88618    0.029
 5325.00    0.72345   0.87405    0.029
 5326.00    0.64850   0.86878    0.029
 5327.00    0.70293   0.87234    0.029
 5328.00    0.78097   0.88260    0.029
 5329.00    0.81994   0.89635    0.030
 5330.00    0.85343   0.91142    0.030
 5331.00    0.81389   0.92615    0.029
 5332.00    0.76698   0.93821    0.028
 5333.00    0.82374   0.94562    0.029
 5334.00    0.88715   0.94810    0.029
 5335.00    0.95556   0.94637    0.029
 5336.00    1.02379   0.94118    0.029
 5337.00    0.95342   0.93412    0.029
 5338.00    0.88607   0.92835    0.028
 5339.00    0.90509   0.92602    0.028
 5340.00    0.92223   0.92648    0.028
 5341.00    0.91256   0.92823    0.028
 5342.00    0.90542   0.92996    0.028
 5343.00    0.92193   0.93135    0.028
 5344.00    0.93653   0.93265    0.028
 5345.00    0.93817   0.93379    0.028
 5346.00    0.93630   0.93550    0.028
 5347.00    0.91590   0.93963    0.028
 5348.00    0.89450   0.94686    0.028
 5349.00    0.86889   0.95623    0.028
 5350.00    0.84221   0.96652    0.028
 5351.00    0.81176   0.97712    0.028
 5352.00    0.80140   0.98709    0.028
 5353.00    0.85024   0.99508    0.028
 5354.00    0.88653   1.00033    0.027
 5355.00    0.89128   1.00259    0.028
 5356.00    0.91962   1.00179    0.028
 5357.00    0.99897   0.99801    0.028
 5358.00    1.05473   0.99155    0.028
 5359.00    1.06616   0.98329    0.028
 5360.00    1.04499   0.97442    0.028
 5361.00    0.97034   0.96542    0.028
 5362.00    0.89879   0.95637    0.028
 5363.00    0.83170   0.94761    0.028
 5364.00    0.80752   0.93904    0.029
 5365.00    0.83762   0.93037    0.029
 5366.00    0.85797   0.92154    0.029
 5367.00    0.86745   0.91332    0.029
 5368.00    0.86254   0.90805   -2.000
 5369.00    0.84347   0.90858   -2.000
 5370.00    0.83848   0.91564   -2.000
 5371.00    0.84570   0.92706   -2.000
 5372.00    0.74153   0.93989   -2.000
 5373.00    0.55227   0.95161   -2.000
 5374.00    0.56064   0.96073   -2.000
 5375.00    0.70172   0.96700   -2.000
 5376.00    0.80977   0.97037   -2.000
 5377.00    0.89839   0.97082   -2.000
 5378.00    0.94714   0.96911   -2.000
 5379.00    0.97543   0.96639   -2.000
 5380.00    0.95757   0.96353   -2.000
 5381.00    0.91921   0.96135   -2.000
 5382.00    0.91072   0.96001   -2.000
 5383.00    0.91363   0.95861    0.029
 5384.00    0.87315   0.95629    0.029
 5385.00    0.81859   0.95257    0.030
 5386.00    0.84853   0.94723    0.029
 5387.00    0.90141   0.94059    0.029
 5388.00    0.89119   0.93352    0.028
 5389.00    0.86690   0.92668    0.028
 5390.00    0.82935   0.92030    0.028
 5391.00    0.78945   0.91444    0.028
 5392.00    0.78111   0.90919    0.028
 5393.00    0.77705   0.90440    0.027
 5394.00    0.76898   0.90069    0.027
 5395.00    0.76052   0.89993    0.027
 5396.00    0.79255   0.90228    0.027
 5397.00    0.82702   0.90547    0.027
 5398.00    0.82169   0.90758    0.027
 5399.00    0.81539   0.90766    0.028
 5400.00    0.81933   0.90447    0.028
 5401.00    0.82348   0.89753    0.028
 5402.00    0.83305   0.88855    0.027
 5403.00    0.84497   0.88076    0.027
 5404.00    0.88887   0.87670    0.027
 5405.00    0.91766   0.87658    0.027
 5406.00    0.81059   0.87924    0.027
 5407.00    0.72804   0.88438    0.027
 5408.00    0.80749   0.89274    0.027
 5409.00    0.87246   0.90394    0.028
 5410.00    0.86294   0.91609    0.028
 5411.00    0.84711   0.92749    0.028
 5412.00    0.80511   0.93759    0.028
 5413.00    0.77325   0.94641    0.028
 5414.00    0.77627   0.95345    0.028
 5415.00    0.79844   0.95781    0.028
 5416.00    0.87603   0.95916    0.028
 5417.00    0.91799   0.95808    0.028
 5418.00    0.87194   0.95580    0.027
 5419.00    0.85202   0.95338    0.028
 5420.00    0.88775   0.95080    0.028
 5421.00    0.90847   0.94793    0.029
 5422.00    0.90144   0.94563    0.029
 5423.00    0.88748   0.94425    0.029
 5424.00    0.86233   0.94239    0.029
 5425.00    0.86251   0.93805    0.029
 5426.00    0.89859   0.93050    0.029
 5427.00    0.92838   0.92185    0.030
 5428.00    0.95031   0.91483    0.030
 5429.00    0.95110   0.90950    0.030
 5430.00    0.92866   0.90512    0.030
 5431.00    0.89535   0.90260    0.029
 5432.00    0.85151   0.90346    0.029
 5433.00    0.80904   0.90854    0.029
 5434.00    0.76774   0.91770    0.029
 5435.00    0.76570   0.92995    0.028
 5436.00    0.79322   0.94339    0.028
 5437.00    0.86508   0.95560    0.029
 5438.00    0.96628   0.96451    0.029
 5439.00    0.96867   0.96878    0.029
 5440.00    0.91383   0.96782    0.028
 5441.00    0.89452   0.96165    0.028
 5442.00    0.89314   0.95108    0.028
 5443.00    0.88856   0.93819    0.028
 5444.00    0.88258   0.92635    0.027
 5445.00    0.88135   0.91885    0.028
 5446.00    0.88191   0.91627    0.028
 5447.00    0.86820   0.91642    0.028
 5448.00    0.84995   0.91691    0.027
 5449.00    0.83552   0.91627    0.027
 5450.00    0.82211   0.91382    0.027
 5451.00    0.85966   0.90965    0.027
 5452.00    0.90831   0.90483    0.027
 5453.00    0.90951   0.90169    0.027
 5454.00    0.90251   0.90231    0.028
 5455.00    0.94404   0.90620    0.027
 5456.00    0.99193   0.91096    0.027
 5457.00    0.91066   0.91453    0.027
 5458.00    0.81745   0.91620    0.027
 5459.00    0.81877   0.91622    0.027
 5460.00    0.82540   0.91532    0.027
 5461.00    0.86127   0.91491    0.027
 5462.00    0.89751   0.91594    0.027
 5463.00    0.90474   0.91781    0.027
 5464.00    0.91305   0.91968    0.028
 5465.00    0.94651   0.92130    0.028
 5466.00    0.97284   0.92187    0.028
 5467.00    0.90748   0.92047    0.028
 5468.00    0.84708   0.91726    0.028
 5469.00    0.82959   0.91284    0.028
 5470.00    0.81090   0.90716    0.028
 5471.00    0.78459   0.90065    0.028
 5472.00    0.76006   0.89443    0.028
 5473.00    0.74453   0.88884    0.028
 5474.00    0.73843   0.88454    0.028
 5475.00    0.77058   0.88342    0.029
 5476.00    0.79494   0.88579    0.030
 5477.00    0.79308   0.88942    0.029
 5478.00    0.80502   0.89273   -2.000
 5479.00    0.85618   0.89635   -2.000
 5480.00    0.87929   0.90135   -2.000
 5481.00    0.83429   0.90732   -2.000
 5482.00    0.79742   0.91311   -2.000
 5483.00    0.77758   0.91745   -2.000
 5484.00    0.72606   0.91951   -2.000
 5485.00    0.61687   0.92007   -2.000
 5486.00    0.43886   0.92067   -2.000
 5487.00    0.15129   0.92160   -2.000
 5488.00    0.09880   0.92239   -2.000
 5489.00    0.37470   0.92307   -2.000
 5490.00    0.61067   0.92340   -2.000
 5491.00    0.79755   0.92312   -2.000
 5492.00    1.17174   0.92275   -2.000
 5493.00    1.74892   0.92234   -2.000
 5494.00    2.04850   0.92127   -2.000
 5495.00    2.08273   0.91996   -2.000
 5496.00    1.68436   0.91936   -2.000
 5497.00    0.92137   0.91874   -2.000
 5498.00    0.65632   0.91661   -2.000
 5499.00    0.76084   0.91327   -2.000
 5500.00    0.78086   0.91004   -2.000
 5501.00    0.74580   0.90741   -2.000
 5502.00    0.73920   0.90509    0.027
 5503.00    0.74884   0.90281    0.027
 5504.00    0.76712   0.90105    0.027
 5505.00    0.78969   0.90063    0.028
 5506.00    0.82864   0.90087    0.028
 5507.00    0.87463   0.90014    0.027
 5508.00    0.85086   0.89804    0.028
 5509.00    0.80139   0.89511    0.028
 5510.00    0.81326   0.89252    0.028
 5511.00    0.84427   0.89188    0.028
 5512.00    0.84582   0.89402    0.028
 5513.00    0.83971   0.89882    0.028
 5514.00    0.85517   0.90578    0.028
 5515.00    0.87522   0.91416    0.028
 5516.00    0.86237   0.92274    0.028
 5517.00    0.84399   0.92976    0.029
 5518.00    0.86530   0.93420    0.029
 5519.00    0.89163   0.93603    0.029
 5520.00    0.94836   0.93548    0.029
 5521.00    1.00776   0.93272    0.029
 5522.00    0.92483   0.92809    0.029
 5523.00    0.83446   0.92222    0.028
 5524.00    0.81644   0.91604    0.029
 5525.00    0.80074   0.91063    0.029
 5526.00    0.85730   0.90752    0.029
 5527.00    0.91005   0.90777    0.028
 5528.00    0.88065   0.91030    0.028
 5529.00    0.85260   0.91310    0.028
 5530.00    0.84106   0.91532    0.027
 5531.00    0.82810   0.91700    0.027
 5532.00    0.80333   0.91822    0.028
 5533.00    0.78728   0.91942    0.028
 5534.00    0.82545   0.92131    0.028
 5535.00    0.85925   0.92375    0.027
 5536.00    0.87173   0.92650    0.027
 5537.00    0.87865   0.92969    0.027
 5538.00    0.86355   0.93275    0.027
 5539.00    0.87182   0.93470    0.027
 5540.00    0.95724   0.93520    0.027
 5541.00    1.00897   0.93499    0.028
 5542.00    0.96675   0.93519    0.027
 5543.00    0.94129   0.93608    0.027
 5544.00    0.95578   0.93766    0.027
 5545.00    0.95488   0.94025    0.027
 5546.00    0.92222   0.94337    0.027
 5547.00    0.87790   0.94575    0.027
 5548.00    0.81269   0.94669    0.027
 5549.00    0.79268   0.94602    0.027
 5550.00    0.84356   0.94378    0.027
 5551.00    0.87536   0.94044    0.027
 5552.00    0.88088   0.93698    0.027
 5553.00    0.88405   0.93415    0.027
 5554.00    0.88438   0.93189    0.027
 5555.00    0.86146   0.92983    0.027
 5556.00    0.81368   0.92798    0.027
 5557.00    0.78732   0.92625    0.027
 5558.00    0.78114   0.92405    0.027
 5559.00    0.80206   0.92114    0.028
 5560.00    0.84550   0.91770    0.028
 5561.00    0.85622   0.91430    0.028
 5562.00    0.84301   0.91139    0.028
 5563.00    0.84510   0.90866    0.028
 5564.00    0.85701   0.90631    0.028
 5565.00    0.87655   0.90500    0.028
 5566.00    0.90037   0.90452    0.029
 5567.00    0.91087   0.90449    0.029
 5568.00    0.91487   0.90536    0.028
 5569.00    0.91778   0.90688    0.028
 5570.00    0.92023   0.90803    0.029
 5571.00    0.90642   0.90967    0.029
 5572.00    0.88674   0.91273    0.029
 5573.00    0.88221   0.91588    0.028
 5574.00    0.88231   0.91837    0.028
 5575.00    0.85963   0.92063    0.027
 5576.00    0.83115   0.92211    0.027
 5577.00    0.88739   0.92238    0.027
 5578.00    0.96118   0.92138    0.027
 5579.00    0.93398   0.91831    0.027
 5580.00    0.89031   0.91305    0.027
 5581.00    0.89624   0.90622    0.027
 5582.00    0.90822   0.89782    0.027
 5583.00    0.94236   0.88811    0.027
 5584.00    0.97836   0.87821    0.027
 5585.00    0.91975   0.86983    0.027
 5586.00    0.85657   0.86466    0.027
 5587.00    0.81010   0.86337    0.027
 5588.00    0.76555   0.86559    0.027
 5589.00    0.82083   0.87008    0.027
 5590.00    0.87256   0.87538    0.026
 5591.00    0.85383   0.88071    0.026
 5592.00    0.83706   0.88559    0.026
 5593.00    0.84299   0.88983    0.027
 5594.00    0.85150   0.89240    0.028
 5595.00    0.88066   0.89161    0.028
 5596.00    0.90466   0.88817    0.028
 5597.00    0.89745   0.88474    0.028
 5598.00    0.88442   0.88257    0.029
 5599.00    0.84361   0.88203    0.029
 5600.00    0.82021   0.88413    0.029
 5601.00    0.86443   0.88963    0.029
 5602.00    0.88969   0.89830    0.029
 5603.00    0.85360   0.90835    0.029
 5604.00    0.83032   0.91782    0.028
 5605.00    0.84211   0.92540    0.028
 5606.00    0.85382   0.93031    0.027
 5607.00    0.86533   0.93229    0.027
 5608.00    0.87086   0.93142    0.027
 5609.00    0.86427   0.92798    0.027
 5610.00    0.87334   0.92216    0.027
 5611.00    0.91009   0.91404    0.028
 5612.00    0.92424   0.90401    0.028
 5613.00    0.90347   0.89433    0.028
 5614.00    0.91493   0.88859    0.028
 5615.00    0.97013   0.88720    0.028
 5616.00    0.99348   0.88751    0.028
 5617.00    0.97876   0.88816    0.028
 5618.00    0.95105   0.88928    0.028
 5619.00    0.90967   0.89064    0.027
 5620.00    0.89811   0.89120    0.027
 5621.00    0.91426   0.89014    0.026
 5622.00    0.92961   0.88825    0.026
 5623.00    0.94431   0.88810    0.026
 5624.00    0.92544   0.89100    0.026
 5625.00    0.88236   0.89565    0.026
 5626.00    0.86819   0.90083    0.026
 5627.00    0.87231   0.90616    0.026
 5628.00    0.89521   0.91066    0.026
 5629.00    0.92850   0.91331    0.026
 5630.00    0.90851   0.91378    0.026
 5631.00    0.86287   0.91213    0.025
 5632.00    0.87810   0.90876    0.025
 5633.00    0.91861   0.90437    0.026
 5634.00    0.93924   0.89966    0.026
 5635.00    0.95280   0.89539    0.026
 5636.00    0.88772   0.89233    0.026
 5637.00    0.79904   0.89054    0.025
 5638.00    0.76621   0.88940    0.025
 5639.00    0.74729   0.88884    0.025
 5640.00    0.77300   0.88963    0.026
 5641.00    0.80773   0.89155    0.026
 5642.00    0.79785   0.89388    0.026
 5643.00    0.78091   0.89652    0.026
 5644.00    0.79589   0.89932    0.026
 5645.00    0.81463   0.90210    0.026
 5646.00    0.78742   0.90452    0.027
 5647.00    0.75654   0.90635    0.027
 5648.00    0.75522   0.90787    0.027
 5649.00    0.75522   0.90904    0.027
 5650.00    0.85308   0.90893    0.027
 5651.00    0.94868   0.90668    0.027
 5652.00    0.87897   0.90224    0.027
 5653.00    0.81421   0.89676    0.027
 5654.00    0.84052   0.89130    0.026
 5655.00    0.87008   0.88511    0.026
 5656.00    0.93562   0.87859    0.026
 5657.00    0.98634   0.87508    0.026
 5658.00    0.92202   0.87550    0.027
 5659.00    0.86591   0.87716    0.027
 5660.00    0.85792   0.87905    0.026
 5661.00    0.85109   0.88228    0.026
 5662.00    0.84962   0.88679    0.026
 5663.00    0.83865   0.89103    0.026
 5664.00    0.79159   0.89397    0.025
 5665.00    0.76202   0.89584    0.025
 5666.00    0.78794   0.89789    0.024
 5667.00    0.81611   0.90083    0.024
 5668.00    0.85037   0.90442    0.025
 5669.00    0.87490   0.90855    0.025
 5670.00    0.87697   0.91333    0.025
 5671.00    0.87790   0.91804    0.025
 5672.00    0.87653   0.92140    0.025
 5673.00    0.87586   0.92306    0.025
 5674.00    0.87644   0.92364    0.025
 5675.00    0.86072   0.92307    0.025
 5676.00    0.82019   0.92079    0.025
 5677.00    0.80600   0.91729    0.026
 5678.00    0.82703   0.91356    0.026
 5679.00    0.84847   0.90962    0.026
 5680.00    0.87040   0.90531    0.027
 5681.00    0.88540   0.90173    0.027
 5682.00    0.89322   0.89982    0.027
 5683.00    0.89348   0.89879    0.027
 5684.00    0.88682   0.89804    0.026
 5685.00    0.88564   0.89807    0.026
 5686.00    0.88889   0.89987    0.026
 5687.00    0.89297   0.90359    0.026
 5688.00    0.89763   0.90841    0.026
 5689.00    0.88313   0.91306    0.026
 5690.00    0.85668   0.91678    0.026
 5691.00    0.83888   0.91887    0.026
 5692.00    0.82578   0.91880    0.026
 5693.00    0.84522   0.91678    0.026
 5694.00    0.88008   0.91339    0.026
 5695.00    0.86449   0.90878    0.026
 5696.00    0.82831   0.90325    0.026
 5697.00    0.84006   0.89802    0.026
 5698.00    0.86853   0.89342    0.026
 5699.00    0.86186   0.88908    0.026
 5700.00    0.84485   0.88545    0.026
 5701.00    0.86221   0.88277    0.026
 5702.00    0.88794   0.88030    0.026
 5703.00    0.90113   0.87687    0.026
 5704.00    0.91184   0.87224    0.025
 5705.00    0.91652   0.86767    0.025
 5706.00    0.92028   0.86425    0.025
 5707.00    0.90177   0.86276    0.025
 5708.00    0.88075   0.86425    0.025
 5709.00    0.85225   0.86826    0.025
 5710.00    0.82319   0.87435    0.025
 5711.00    0.78514   0.88290    0.024
 5712.00    0.74672   0.89229    0.024
 5713.00    0.80337   0.90087    0.025
 5714.00    0.86021   0.90852    0.025
 5715.00    0.89441   0.91494    0.025
 5716.00    0.92421   0.92019    0.025
 5717.00    0.87832   0.92481    0.025
 5718.00    0.83733   0.92852    0.025
 5719.00    0.84817   0.93102    0.025
 5720.00    0.85740   0.93250    0.025
 5721.00    0.85464   0.93276    0.025
 5722.00    0.85347   0.93168    0.025
 5723.00    0.86147   0.92946    0.025
 5724.00    0.86719   0.92617    0.025
 5725.00    0.86253   0.92270    0.025
 5726.00    0.85581   0.92069    0.026
 5727.00    0.84136   0.92031    0.026
 5728.00    0.84466   0.92017    0.026
 5729.00    0.90320   0.91985    0.026
 5730.00    0.94144   0.92054    0.026
 5731.00    0.92603   0.92263    0.026
 5732.00    0.90843   0.92481    0.025
 5733.00    0.88589   0.92607    0.025
 5734.00    0.88208   0.92627    0.026
 5735.00    0.91509   0.92581    0.026
 5736.00    0.92708   0.92523    0.026
 5737.00    0.90309   0.92479    0.026
 5738.00    0.87118   0.92459    0.025
 5739.00    0.82738   0.92467    0.025
 5740.00    0.81157   0.92478    0.000
 5741.00    0.83267   0.92484    0.000
 5742.00    0.85548   0.92540    0.000
 5743.00    0.88029   0.92619    0.000
 5744.00    0.89233   0.92611    0.000
 5745.00    0.89132   0.92431    0.000
 5746.00    0.89849   0.92142    0.000
 5747.00    0.91307   0.91915    0.000
 5748.00    0.92630   0.91776    0.000
 5749.00    0.93846   0.91607    0.000
 5750.00    0.92840   0.91366    0.000
 5751.00    0.90277   0.91152    0.000
 5752.00    0.87060   0.91102    0.000
 5753.00    0.83443   0.91266    0.000
 5754.00    0.84351   0.91511    0.000
 5755.00    0.87686   0.91643    0.000
 5756.00    0.89266   0.91610    0.000
 5757.00    0.90029   0.91431    0.000
 5758.00    0.92727   0.91170    0.000
 5759.00    0.96203   0.90925    0.000
 5760.00    0.96011   0.90807    0.000
 5761.00    0.94564   0.90924    0.000
 5762.00    0.89909   0.91318    0.000
 5763.00    0.84329   0.91828    0.000
 5764.00    0.87900   0.92281    0.000
 5765.00    0.93650   0.92628    0.000
 5766.00    0.95072   0.92850    0.000
 5767.00    0.95664   0.92919    0.000
 5768.00    0.96931   0.92858    0.000
 5769.00    0.98299   0.92703    0.000
 5770.00    1.03752   0.92499    0.000
 5771.00    1.09650   0.92303    0.000
 5772.00    1.03836   0.92097    0.000
 5773.00    0.97181   0.91837    0.000
 5774.00    0.93513   0.91509    0.000
 5775.00    0.89955   0.91068    0.000
 5776.00    0.92823   0.90479    0.000
 5777.00    0.95518   0.89724    0.000
 5778.00    0.91052   0.88826    0.000
 5779.00    0.86719   0.87938    0.000
 5780.00    0.84513   0.87302    0.000
 5781.00    0.82565   0.86998    0.000
 5782.00    0.83244   0.86932    0.000
 5783.00    0.83904   0.87052    0.000
 5784.00    0.84435   0.87444    0.000
 5785.00    0.84994   0.88090    0.000
 5786.00    0.85714   0.88809    0.000
 5787.00    0.86442   0.89474    0.000
 5788.00    0.87208   0.90030    0.000
 5789.00    0.87668   0.90500    0.000
 5790.00    0.87012   0.90969    0.000
 5791.00    0.86590   0.91418   -2.000
 5792.00    0.86880   0.91801   -2.000
 5793.00    0.85704   0.92126   -2.000
 5794.00    0.80717   0.92365   -2.000
 5795.00    0.75975   0.92519   -2.000
 5796.00    0.71782   0.92692   -2.000
 5797.00    0.72548   0.92973   -2.000
 5798.00    0.82907   0.93279   -2.000
 5799.00    0.89696   0.93472   -2.000
 5800.00    0.90462   0.93524   -2.000
 5801.00    0.91125   0.93430   -2.000
 5802.00    0.91636   0.93221   -2.000
 5803.00    0.90850   0.93008   -2.000
 5804.00    0.88379   0.92866   -2.000
 5805.00    0.86521   0.92792   -2.000
 5806.00    0.85367   0.92762   -2.000
 5807.00    0.85282   0.92746   -2.000
 5808.00    0.86275   0.92718   -2.000
 5809.00    0.86288   0.92646   -2.000
 5810.00    0.85430   0.92514   -2.000
 5811.00    0.86739   0.92353    0.000
 5812.00    0.89751   0.92191    0.000
 5813.00    0.89889   0.92053    0.000
 5814.00    0.88043   0.92012    0.000
 5815.00    0.84833   0.92149    0.000
 5816.00    0.80797   0.92446    0.000
 5817.00    0.83944   0.92777    0.000
 5818.00    0.90885   0.93060    0.000
 5819.00    0.94570   0.93276    0.000
 5820.00    0.96763   0.93418    0.000
 5821.00    0.97392   0.93499    0.000
 5822.00    0.97405   0.93557    0.000
 5823.00    0.98616   0.93620    0.000
 5824.00    1.00230   0.93672    0.000
 5825.00    0.98887   0.93707    0.000
 5826.00    0.96708   0.93735    0.000
 5827.00    0.96551   0.93743    0.000
 5828.00    0.96865   0.93707    0.000
 5829.00    0.95817   0.93615    0.000
 5830.00    0.94516   0.93485    0.000
 5831.00    0.93441   0.93320    0.000
 5832.00    0.92399   0.93132    0.000
 5833.00    0.88279   0.92992    0.000
 5834.00    0.83838   0.92970    0.000
 5835.00    0.84556   0.93019    0.000
 5836.00    0.85622   0.93076    0.000
 5837.00    0.87450   0.93178    0.000
 5838.00    0.89303   0.93351    0.000
 5839.00    0.88508   0.93509    0.000
 5840.00    0.87657   0.93548    0.000
 5841.00    0.85051   0.93440    0.000
 5842.00    0.82932   0.93202    0.000
 5843.00    0.88167   0.92855    0.000
 5844.00    0.92827   0.92415    0.000
 5845.00    0.91910   0.91904    0.000
 5846.00    0.91137   0.91378    0.000
 5847.00    0.91385   0.90893    0.000
 5848.00    0.91587   0.90441    0.000
 5849.00    0.91546   0.89960    0.000
 5850.00    0.91851   0.89404    0.000
 5851.00    0.93665   0.88833    0.000
 5852.00    0.94425   0.88384    0.000
 5853.00    0.91426   0.88084    0.000
 5854.00    0.89049   0.87834    0.000
 5855.00    0.88536   0.87591    0.000
 5856.00    0.88791   0.87494    0.000
 5857.00    0.91003   0.87659    0.000
 5858.00    0.91547   0.87986    0.000
 5859.00    0.88429   0.88300    0.000
 5860.00    0.86117   0.88523    0.000
 5861.00    0.85342   0.88724    0.000
 5862.00    0.85492   0.88976    0.000
 5863.00    0.87179   0.89221    0.000
 5864.00    0.87861   0.89379    0.000
 5865.00    0.87077   0.89499    0.000
 5866.00    0.86904   0.89675    0.000
 5867.00    0.87513   0.89863    0.000
 5868.00    0.85385   0.89945    0.000
 5869.00    0.80166   0.89861    0.000
 5870.00    0.79506   0.89637    0.000
 5871.00    0.83385   0.89342    0.000
 5872.00    0.85656   0.88992    0.000
 5873.00    0.86516   0.88600    0.000
 5874.00    0.84978   0.88228    0.000
 5875.00    0.81584   0.87949    0.000
 5876.00    0.80018   0.87760    0.000
 5877.00    0.79693   0.87555    0.000
 5878.00    0.81988   0.87311    0.000
 5879.00    0.85844   0.87071    0.000
 5880.00    0.85815   0.86777    0.000
 5881.00    0.83767   0.86203    0.000
 5882.00    0.82440   0.85157    0.000
 5883.00    0.81440   0.83669    0.000
 5884.00    0.81014   0.81912    0.000
 5885.00    0.80811   0.79977    0.000
 5886.00    0.82828   0.77877    0.000
 5887.00    0.85578   0.75751    0.000
 5888.00    0.83752   0.73987    0.000
 5889.00    0.80661   0.73036    0.000
 5890.00    0.77914   0.72896    0.000
 5891.00    0.75244   0.73190    0.000
 5892.00    0.73614   0.73653    0.000
 5893.00    0.72173   0.74208    0.000
 5894.00    0.70818   0.75058    0.000
 5895.00    0.69475   0.76478    0.000
 5896.00    0.72419   0.78288    0.000
 5897.00    0.75793   0.80072    0.000
 5898.00    0.75955   0.81694    0.000
 5899.00    0.75913   0.83191    0.000
 5900.00    0.76993   0.84506    0.000
 5901.00    0.78102   0.85539    0.024
 5902.00    0.77629   0.86266    0.024
 5903.00    0.77212   0.86739    0.024
 5904.00    0.78360   0.87063    0.024
 5905.00    0.79720   0.87328    0.024
 5906.00    0.84097   0.87525    0.024
 5907.00    0.87912   0.87598    0.024
 5908.00    0.86495   0.87552    0.024
 5909.00    0.85275   0.87447    0.024
 5910.00    0.85389   0.87295    0.023
 5911.00    0.85556   0.87066    0.023
 5912.00    0.86008   0.86805    0.023
 5913.00    0.86261   0.86650    0.023
 5914.00    0.85670   0.86653    0.023
 5915.00    0.85384   0.86776    0.023
 5916.00    0.86163   0.86964    0.023
 5917.00    0.86664   0.87179    0.023
 5918.00    0.86348   0.87412    0.022
 5919.00    0.86660   0.87620    0.022
 5920.00    0.88546   0.87763    0.022
 5921.00    0.89451   0.87861    0.022
 5922.00    0.88240   0.87927    0.022
 5923.00    0.86782   0.87938    0.022
 5924.00    0.84858   0.87906    0.022
 5925.00    0.84266   0.87849    0.022
 5926.00    0.85852   0.87762    0.022
 5927.00    0.86950   0.87639    0.023
 5928.00    0.87347   0.87524    0.023
 5929.00    0.88388   0.87516    0.023
 5930.00    0.90243   0.87617    0.023
 5931.00    0.90563   0.87704    0.024
 5932.00    0.89175   0.87734    0.024
 5933.00    0.89663   0.87780    0.023
 5934.00    0.91995   0.87897    0.023
 5935.00    0.92379   0.88014    0.024
 5936.00    0.91077   0.88071    0.024
 5937.00    0.90808   0.88095    0.024
 5938.00    0.91326   0.88091    0.024
 5939.00    0.89059   0.88054    0.024
 5940.00    0.84926   0.88054    0.024
 5941.00    0.84504   0.88119    0.023
 5942.00    0.86260   0.88187    0.023
 5943.00    0.87813   0.88223    0.024
 5944.00    0.89263   0.88226    0.024
 5945.00    0.88327   0.88149    0.024
 5946.00    0.86335   0.87936    0.023
 5947.00    0.85785   0.87667    0.023
 5948.00    0.85785   0.87492    0.022
 5949.00    0.84912   0.87388    0.022
 5950.00    0.83758   0.87222    0.022
 5951.00    0.83636   0.87026    0.022
 5952.00    0.83794   0.86971    0.022
 5953.00    0.86183   0.87063    0.022
 5954.00    0.89067   0.87167    0.022
 5955.00    0.92554   0.87277    0.022
 5956.00    0.96148   0.87499    0.022
 5957.00    0.94242   0.87848    0.022
 5958.00    0.91593   0.88229    0.023
 5959.00    0.89576   0.88549    0.022
 5960.00    0.87620   0.88795    0.022
 5961.00    0.88124   0.88991    0.022
 5962.00    0.88774   0.89139    0.023
 5963.00    0.89572   0.89237    0.023
 5964.00    0.90363   0.89317    0.024
 5965.00    0.89475   0.89449    0.024
 5966.00    0.88549   0.89614    0.024
 5967.00    0.86674   0.89746    0.023
 5968.00    0.85066   0.89806    0.023
 5969.00    0.87058   0.89769    0.023
 5970.00    0.88990   0.89610    0.023
 5971.00    0.90387   0.89334    0.023
 5972.00    0.91693   0.88977    0.023
 5973.00    0.92392   0.88581    0.023
 5974.00    0.92747   0.88199    0.023
 5975.00    0.91331   0.87892    0.023
 5976.00    0.89966   0.87676    0.023
 5977.00    0.88812   0.87525    0.023
 5978.00    0.87641   0.87418    0.023
 5979.00    0.86414   0.87346    0.022
 5980.00    0.85820   0.87267    0.022
 5981.00    0.87057   0.87144    0.022
 5982.00    0.88259   0.87034    0.022
 5983.00    0.89372   0.87076    0.022
 5984.00    0.89254   0.87297    0.022
 5985.00    0.86520   0.87568    0.022
 5986.00    0.85561   0.87839    0.022
 5987.00    0.87882   0.88163    0.022
 5988.00    0.90057   0.88515    0.022
 5989.00    0.91994   0.88776    0.022
 5990.00    0.92956   0.88916    0.022
 5991.00    0.92540   0.89006    0.022
 5992.00    0.91163   0.89050    0.022
 5993.00    0.88589   0.88988    0.022
 5994.00    0.87148   0.88810    0.022
 5995.00    0.86950   0.88567    0.023
 5996.00    0.87727   0.88319    0.023
 5997.00    0.89445   0.88116    0.023
 5998.00    0.88769   0.87984    0.023
 5999.00    0.86050   0.87868    0.022
 6000.00    0.83511   0.87692    0.022
 6001.00    0.81107   0.87464    0.023
 6002.00    0.80839   0.87278    0.023
 6003.00    0.81982   0.87171    0.023
 6004.00    0.84285   0.87077    0.023
 6005.00    0.87260   0.86949    0.023
 6006.00    0.87589   0.86831    0.022
 6007.00    0.86586   0.86840    0.023
 6008.00    0.86906   0.87000    0.022
 6009.00    0.87802   0.87149    0.022
 6010.00    0.88611   0.87140    0.022
 6011.00    0.89386   0.87035    0.023
 6012.00    0.88858   0.86986    0.023
 6013.00    0.87916   0.86976    0.022
 6014.00    0.87238   0.86882    0.022
 6015.00    0.86631   0.86740    0.022
 6016.00    0.86854   0.86684    0.022
 6017.00    0.87258   0.86708    0.023
 6018.00    0.86079   0.86746    0.023
 6019.00    0.84628   0.86847    0.022
 6020.00    0.82578   0.87068    0.022
 6021.00    0.80450   0.87369    0.022
 6022.00    0.82797   0.87712    0.023
 6023.00    0.85555   0.88111    0.023
 6024.00    0.86864   0.88534    0.023
 6025.00    0.88092   0.88907    0.023
 6026.00    0.84994   0.89256    0.023
 6027.00    0.81848   0.89611    0.023
 6028.00    0.83392   0.89910    0.023
 6029.00    0.84955   0.90117    0.023
 6030.00    0.86963   0.90281    0.023
 6031.00    0.88997   0.90445    0.023
 6032.00    0.91357   0.90567    0.023
 6033.00    0.93113   0.90606    0.023
 6034.00    0.89664   0.90590    0.023
 6035.00    0.86769   0.90566    0.023
 6036.00    0.87408   0.90542    0.023
 6037.00    0.88450   0.90522    0.023
 6038.00    0.91505   0.90528    0.023
 6039.00    0.93858   0.90590    0.023
 6040.00    0.93373   0.90719    0.022
 6041.00    0.93328   0.90902    0.022
 6042.00    0.94760   0.91104    0.022
 6043.00    0.96478   0.91279    0.022
 6044.00    0.99005   0.91422    0.022
 6045.00    1.00823   0.91519    0.022
 6046.00    1.00923   0.91526    0.022
 6047.00    0.99900   0.91432    0.022
 6048.00    0.96531   0.91285    0.022
 6049.00    0.93999   0.91100    0.022
 6050.00    0.92989   0.90833    0.022
 6051.00    0.93333   0.90508    0.022
 6052.00    0.95828   0.90213    0.022
 6053.00    0.96254   0.89995    0.022
 6054.00    0.93795   0.89827    0.023
 6055.00    0.94155   0.89695    0.023
 6056.00    0.97974   0.89617    0.023
 6057.00    0.99808   0.89575    0.031
 6058.00    0.99496   0.89500    0.094
 6059.00    0.96493   0.89338   -1.000
 6060.00    0.90923   0.89162   -1.000
 6061.00    0.85530   0.89071   -1.000
 6062.00    0.80286   0.89063   -1.000
 6063.00    0.76000   0.89136   -1.000
 6064.00    0.72422   0.89380   -1.000
 6065.00    0.69860   0.89869   -1.000
 6066.00    0.67958   0.90464   -1.000
 6067.00    0.71447   0.90981    0.068
 6068.00    0.78005   0.91383    0.026
 6069.00    0.84216   0.91697    0.022
 6070.00    0.90255   0.91882    0.022
 6071.00    0.91122   0.91872    0.023
 6072.00    0.89771   0.91664    0.023
 6073.00    0.87576   0.91331    0.022
 6074.00    0.85071   0.90933    0.021
 6075.00    0.84318   0.90449    0.021
 6076.00    0.84111   0.89894    0.022
 6077.00    0.83317   0.89398    0.021
 6078.00    0.82372   0.89053    0.021
 6079.00    0.85932   0.88779    0.021
 6080.00    0.90445   0.88532    0.022
 6081.00    0.91184   0.88414    0.022
 6082.00    0.91291   0.88455    0.021
 6083.00    0.88810   0.88498    0.022
 6084.00    0.86003   0.88452    0.022
 6085.00    0.85785   0.88424    0.022
 6086.00    0.85794   0.88455    0.022
 6087.00    0.89166   0.88434    0.022
 6088.00    0.92712   0.88360    0.023
 6089.00    0.93580   0.88381    0.023
 6090.00    0.94335   0.88519    0.023
 6091.00    0.90394   0.88677    0.023
 6092.00    0.86674   0.88841    0.023
 6093.00    0.87653   0.89055    0.023
 6094.00    0.88723   0.89242    0.023
 6095.00    0.90901   0.89228    0.023
 6096.00    0.92598   0.88960    0.023
 6097.00    0.90303   0.88601    0.023
 6098.00    0.88265   0.88317    0.022
 6099.00    0.87822   0.88025    0.022
 6100.00    0.87393   0.87641    0.022
 6101.00    0.87035   0.87330    0.022
 6102.00    0.87096   0.87379    0.022
 6103.00    0.88818   0.87770    0.022
 6104.00    0.90611   0.88197    0.022
 6105.00    0.92634   0.88498    0.022
 6106.00    0.93937   0.88795    0.022
 6107.00    0.93232   0.89196    0.022
 6108.00    0.93001   0.89580    0.021
 6109.00    0.93900   0.89781    0.022
 6110.00    0.94825   0.89824    0.022
 6111.00    0.95803   0.89867    0.021
 6112.00    0.95655   0.89920    0.021
 6113.00    0.93492   0.89798    0.022
 6114.00    0.91022   0.89428    0.022
 6115.00    0.88069   0.88925    0.022
 6116.00    0.86341   0.88396    0.022
 6117.00    0.86298   0.87890    0.022
 6118.00    0.86653   0.87433    0.022
 6119.00    0.87492   0.87037    0.022
 6120.00    0.88477   0.86773    0.022
 6121.00    0.89619   0.86761    0.022
 6122.00    0.91194   0.87015    0.022
 6123.00    0.93178   0.87352    0.022
 6124.00    0.95318   0.87645    0.023
 6125.00    0.97587   0.87922    0.023
 6126.00    0.97342   0.88189    0.022
 6127.00    0.95262   0.88380    0.022
 6128.00    0.93546   0.88434    0.022
 6129.00    0.92063   0.88298    0.021
 6130.00    0.90937   0.87882    0.021
 6131.00    0.90012   0.87211    0.022
 6132.00    0.90460   0.86502    0.022
 6133.00    0.91578   0.85905    0.021
 6134.00    0.91903   0.85392    0.021
 6135.00    0.91893   0.84989    0.021
 6136.00    0.89722   0.84958    0.021
 6137.00    0.86772   0.85480    0.022
 6138.00    0.84514   0.86277    0.022
 6139.00    0.82468   0.86958    0.022
 6140.00    0.81019   0.87501    0.022
 6141.00    0.79722   0.88098    0.022
 6142.00    0.81932   0.88659    0.022
 6143.00    0.84866   0.88922    0.022
 6144.00    0.86551   0.88869    0.022
 6145.00    0.88033   0.88693    0.022
 6146.00    0.89003   0.88494    0.022
 6147.00    0.89911   0.88233    0.022
 6148.00    0.88893   0.87901    0.022
 6149.00    0.87714   0.87595    0.022
 6150.00    0.87825   0.87390    0.022
 6151.00    0.87997   0.87189    0.023
 6152.00    0.86288   0.86845    0.023
 6153.00    0.84600   0.86336    0.022
 6154.00    0.85638   0.85711    0.022
 6155.00    0.86528   0.84889    0.022
 6156.00    0.84518   0.83823    0.022
 6157.00    0.82784   0.82686    0.022
 6158.00    0.84238   0.81653    0.022
 6159.00    0.85546   0.80719    0.022
 6160.00    0.85682   0.79934    0.022
 6161.00    0.85244   0.79556    0.022
 6162.00    0.81348   0.79638    0.022
 6163.00    0.78064   0.79880    0.022
 6164.00    0.77684   0.80107    0.021
 6165.00    0.77680   0.80455    0.021
 6166.00    0.79139   0.80922    0.022
 6167.00    0.80114   0.81253    0.022
 6168.00    0.79527   0.81458    0.021
 6169.00    0.80127   0.81830    0.021
 6170.00    0.83973   0.82373    0.022
 6171.00    0.86986   0.82822    0.022
 6172.00    0.88052   0.83162    0.022
 6173.00    0.87842   0.83564    0.022
 6174.00    0.85050   0.83971    0.022
 6175.00    0.82402   0.84280    0.022
 6176.00    0.80006   0.84553    0.022
 6177.00    0.79370   0.84824    0.022
 6178.00    0.81448   0.84996    0.022
 6179.00    0.83725   0.85053    0.022
 6180.00    0.86272   0.85028    0.022
 6181.00    0.87967   0.84853    0.022
 6182.00    0.88646   0.84499    0.022
 6183.00    0.87579   0.84046    0.022
 6184.00    0.84676   0.83505    0.022
 6185.00    0.83185   0.82831    0.022
 6186.00    0.83004   0.82172    0.023
 6187.00    0.82644   0.81756    0.023
 6188.00    0.82140   0.81556    0.022
 6189.00    0.81859   0.81428    0.022
 6190.00    0.81739   0.81463    0.022
 6191.00    0.79132   0.81843    0.022
 6192.00    0.74954   0.82404    0.022
 6193.00    0.64598   0.82824    0.022
 6194.00    0.50830   0.83086    0.024
 6195.00    0.25058   0.83359    0.026
 6196.00   -0.06477   0.83633   -2.000
 6197.00   -0.36717   0.83769   -2.000
 6198.00   -0.66419   0.83815   -2.000
 6199.00   -0.58173   0.83962   -2.000
 6200.00   -0.36475   0.84251   -2.000
 6201.00    0.00470   0.84541   -2.000
 6202.00    0.41979   0.84731   -2.000
 6203.00    0.70314   0.84848   -2.000
 6204.00    0.95377   0.84896   -2.000
 6205.00    1.02125   0.84809   -2.000
 6206.00    1.05186   0.84544   -2.000
 6207.00    1.00597   0.84098   -2.000
 6208.00    0.94803   0.83484    0.024
 6209.00    0.91324   0.82765    0.023
 6210.00    0.88117   0.82031    0.023
 6211.00    0.86140   0.81340    0.022
 6212.00    0.84261   0.80725    0.022
 6213.00    0.80472   0.80240    0.022
 6214.00    0.76598   0.79927    0.021
 6215.00    0.77782   0.79815    0.021
 6216.00    0.79012   0.79868    0.021
 6217.00    0.79804   0.79965    0.021
 6218.00    0.80461   0.80039    0.021
 6219.00    0.78658   0.80163    0.021
 6220.00    0.76890   0.80361    0.021
 6221.00    0.75510   0.80520    0.021
 6222.00    0.74424   0.80553    0.021
 6223.00    0.75611   0.80490    0.021
 6224.00    0.75174   0.80343    0.020
 6225.00    0.65240   0.80096    0.021
 6226.00    0.48589   0.79823    0.021
 6227.00    0.00785   0.79595    0.019
 6228.00   -0.36031   0.79422    0.000
 6229.00   -0.31189   0.79391    0.000
 6230.00   -0.17213   0.79603    0.000
 6231.00    0.25670   0.79976    0.022
 6232.00    0.60962   0.80349    0.022
 6233.00    0.75881   0.80652    0.022
 6234.00    0.85581   0.80805    0.022
 6235.00    0.83263   0.80761    0.022
 6236.00    0.80901   0.80555    0.022
 6237.00    0.78454   0.80196    0.022
 6238.00    0.77236   0.79748    0.022
 6239.00    0.78152   0.79395    0.022
 6240.00    0.78243   0.79205    0.022
 6241.00    0.77080   0.79086    0.021
 6242.00    0.77072   0.79097    0.021
 6243.00    0.78605   0.79328    0.021
 6244.00    0.79592   0.79637    0.021
 6245.00    0.79936   0.79886    0.021
 6246.00    0.79878   0.80072    0.021
 6247.00    0.79402   0.80128    0.021
 6248.00    0.79603   0.79993    0.021
 6249.00    0.80424   0.79701    0.021
 6250.00    0.80587   0.79284    0.021
 6251.00    0.80221   0.78771    0.021
 6252.00    0.80525   0.78290    0.021
 6253.00    0.81303   0.77951    0.021
 6254.00    0.80316   0.77793    0.022
 6255.00    0.78232   0.77793    0.022
 6256.00    0.76852   0.77953    0.022
 6257.00    0.75856   0.78362    0.022
 6258.00    0.77891   0.79011    0.023
 6259.00    0.81360   0.79679    0.024
 6260.00    0.78751   0.80234    0.025
 6261.00    0.73666   0.80793    0.026
 6262.00    0.68658   0.81308    0.027
 6263.00    0.63676   0.81582    0.028
 6264.00    0.70310   0.81683    0.028
 6265.00    0.80351   0.81834    0.028
 6266.00    0.89438   0.82013    0.026
 6267.00    0.98292   0.82103    0.025
 6268.00    0.95377   0.82167    0.023
 6269.00    0.90152   0.82290    0.022
 6270.00    0.88455   0.82440    0.022
 6271.00    0.87299   0.82548    0.021
 6272.00    0.86741   0.82592    0.021
 6273.00    0.86250   0.82583    0.021
 6274.00    0.85072   0.82532    0.021
 6275.00    0.83843   0.82436    0.021
 6276.00    0.88618   0.82339    0.021
 6277.00    0.93633   0.82292    0.021
 6278.00    0.98475   0.82296    0.021
 6279.00    1.03116   0.82359    0.021
 6280.00    0.99642   0.82535    0.000
 6281.00    0.96130   0.82844    0.000
 6282.00    0.91968   0.83220    0.000
 6283.00    0.88072   0.83574    0.000
 6284.00    0.86964   0.83866    0.000
 6285.00    0.85950   0.84103    0.000
 6286.00    0.85633   0.84247    0.000
 6287.00    0.85492   0.84247    0.000
 6288.00    0.86351   0.84109    0.000
 6289.00    0.86980   0.83879    0.000
 6290.00    0.86570   0.83573    0.000
 6291.00    0.86640   0.83188    0.000
 6292.00    0.88494   0.82802    0.000
 6293.00    0.89769   0.82499    0.000
 6294.00    0.89246   0.82230    0.000
 6295.00    0.88385   0.81930    0.000
 6296.00    0.86632   0.81688    0.000
 6297.00    0.84665   0.81621    0.000
 6298.00    0.82212   0.81699    0.000
 6299.00    0.80965   0.81792    0.000
 6300.00    0.82084   0.81902    0.000
 6301.00    0.83914   0.82174    0.000
 6302.00    0.86959   0.82620    0.000
 6303.00    0.88909   0.83046    0.000
 6304.00    0.89220   0.83354    0.000
 6305.00    0.88963   0.83613    0.000
 6306.00    0.87958   0.83827    0.000
 6307.00    0.86669   0.83896    0.000
 6308.00    0.85052   0.83784    0.000
 6309.00    0.85174   0.83504    0.000
 6310.00    0.87075   0.83152    0.000
 6311.00    0.88340   0.82860    0.000
 6312.00    0.89031   0.82567    0.000
 6313.00    0.88401   0.82192    0.000
 6314.00    0.86722   0.81946    0.000
 6315.00    0.84454   0.81966    0.000
 6316.00    0.81775   0.82039    0.000
 6317.00    0.82517   0.82113    0.000
 6318.00    0.85358   0.82409    0.000
 6319.00    0.87447   0.82889    0.000
 6320.00    0.89133   0.83307    0.000
 6321.00    0.89262   0.83655    0.022
 6322.00    0.88666   0.84038    0.022
 6323.00    0.88627   0.84426    0.021
 6324.00    0.88811   0.84704    0.021
 6325.00    0.88952   0.84843    0.021
 6326.00    0.89078   0.84925    0.021
 6327.00    0.87323   0.85005    0.021
 6328.00    0.85027   0.84999    0.021
 6329.00    0.85637   0.84813    0.021
 6330.00    0.86936   0.84518    0.021
 6331.00    0.88829   0.84253    0.021
 6332.00    0.90837   0.84031    0.021
 6333.00    0.92533   0.83752    0.021
 6334.00    0.94182   0.83460    0.021
 6335.00    0.94319   0.83368    0.021
 6336.00    0.94292   0.83477    0.021
 6337.00    0.93371   0.83554    0.021
 6338.00    0.92386   0.83546    0.022
 6339.00    0.92407   0.83588    0.022
 6340.00    0.92464   0.83682    0.022
 6341.00    0.91274   0.83697    0.022
 6342.00    0.90042   0.83662    0.021
 6343.00    0.87498   0.83731    0.021
 6344.00    0.85146   0.83939    0.021
 6345.00    0.85855   0.84144    0.022
 6346.00    0.86655   0.84314    0.022
 6347.00    0.88375   0.84489    0.022
 6348.00    0.90053   0.84580    0.021
 6349.00    0.91440   0.84462    0.021
 6350.00    0.92552   0.84201    0.021
 6351.00    0.92150   0.83892    0.021
 6352.00    0.91947   0.83440    0.021
 6353.00    0.92623   0.82796    0.021
 6354.00    0.92769   0.82166    0.021
 6355.00    0.90986   0.81677    0.021
 6356.00    0.89583   0.81177    0.020
 6357.00    0.89338   0.80654    0.020
 6358.00    0.88473   0.80356    0.021
 6359.00    0.86006   0.80344    0.021
 6360.00    0.84355   0.80463    0.021
 6361.00    0.84522   0.80706    0.021
 6362.00    0.85299   0.81191    0.021
 6363.00    0.87256   0.81864    0.022
 6364.00    0.89127   0.82547    0.022
 6365.00    0.90852   0.83175    0.022
 6366.00    0.92510   0.83818    0.022
 6367.00    0.94070   0.84452    0.022
 6368.00    0.93583   0.84950    0.022
 6369.00    0.90440   0.85285    0.022
 6370.00    0.87388   0.85561    0.022
 6371.00    0.84442   0.85810    0.022
 6372.00    0.83591   0.85926    0.022
 6373.00    0.84851   0.85863    0.022
 6374.00    0.87422   0.85735    0.022
 6375.00    0.91159   0.85617    0.022
 6376.00    0.90511   0.85447    0.022
 6377.00    0.86427   0.85252    0.021
 6378.00    0.83860   0.85124    0.021
 6379.00    0.82339   0.85055    0.020
 6380.00    0.84142   0.85035    0.020
 6381.00    0.87953   0.85103    0.021
 6382.00    0.90005   0.85192    0.021
 6383.00    0.91131   0.85219    0.020
 6384.00    0.91810   0.85231    0.021
 6385.00    0.92283   0.85259    0.021
 6386.00    0.92439   0.85204    0.021
 6387.00    0.92470   0.84996    0.021
 6388.00    0.91936   0.84705    0.022
 6389.00    0.91213   0.84487    0.022
 6390.00    0.91451   0.84331    0.022
 6391.00    0.91961   0.84128    0.022
 6392.00    0.90842   0.83975    0.022
 6393.00    0.89345   0.84018    0.022
 6394.00    0.86846   0.84080    0.023
 6395.00    0.84160   0.84039    0.023
 6396.00    0.85610   0.84128    0.023
 6397.00    0.87656   0.84347    0.023
 6398.00    0.88931   0.84445    0.023
 6399.00    0.90125   0.84544    0.022
 6400.00    0.91882   0.84880    0.022
 6401.00    0.93677   0.85231    0.022
 6402.00    0.90934   0.85333    0.022
 6403.00    0.88043   0.85334    0.022
 6404.00    0.87106   0.85399    0.021
 6405.00    0.86221   0.85359    0.021
 6406.00    0.86972   0.85097    0.021
 6407.00    0.87926   0.84873    0.021
 6408.00    0.91935   0.84848    0.021
 6409.00    0.95737   0.84797    0.021
 6410.00    0.97540   0.84665    0.021
 6411.00    0.98727   0.84659    0.022
 6412.00    0.95611   0.84732    0.021
 6413.00    0.92735   0.84715    0.021
 6414.00    0.91147   0.84644    0.021
 6415.00    0.90437   0.84552    0.022
 6416.00    0.93518   0.84434    0.022
 6417.00    0.96170   0.84395    0.022
 6418.00    0.97293   0.84474    0.022
 6419.00    0.97056   0.84569    0.022
 6420.00    0.92748   0.84740    0.023
 6421.00    0.89976   0.85078    0.023
 6422.00    0.91112   0.85439    0.022
 6423.00    0.92167   0.85642    0.022
 6424.00    0.93046   0.85704    0.022
 6425.00    0.92725   0.85644    0.022
 6426.00    0.90123   0.85478    0.021
 6427.00    0.89066   0.85307    0.021
 6428.00    0.90573   0.85135    0.021
 6429.00    0.91767   0.84934    0.021
 6430.00    0.92504   0.84839    0.021
 6431.00    0.92042   0.84949    0.021
 6432.00    0.90046   0.85105    0.021
 6433.00    0.88989   0.85139    0.021
 6434.00    0.88991   0.85168    0.021
 6435.00    0.89448   0.85362    0.021
 6436.00    0.90359   0.85607    0.021
 6437.00    0.90924   0.85756    0.021
 6438.00    0.91187   0.85975    0.022
 6439.00    0.93200   0.86363    0.022
 6440.00    0.96564   0.86697    0.022
 6441.00    0.97353   0.86827    0.022
 6442.00    0.96393   0.86822    0.022
 6443.00    0.93851   0.86632    0.022
 6444.00    0.90367   0.86140    0.022
 6445.00    0.87740   0.85506    0.022
 6446.00    0.85557   0.84987    0.022
 6447.00    0.85818   0.84533    0.023
 6448.00    0.87179   0.84128    0.023
 6449.00    0.87609   0.83992    0.023
 6450.00    0.87679   0.84165    0.022
 6451.00    0.88835   0.84465    0.022
 6452.00    0.90349   0.84854    0.022
 6453.00    0.92538   0.85269    0.021
 6454.00    0.94913   0.85579    0.021
 6455.00    0.94156   0.85824    0.021
 6456.00    0.92688   0.85993    0.021
 6457.00    0.91165   0.85921    0.020
 6458.00    0.89633   0.85742    0.020
 6459.00    0.89166   0.85689    0.021
 6460.00    0.88846   0.85617    0.021
 6461.00    0.90725   0.85466    0.021
 6462.00    0.92823   0.85506    0.021
 6463.00    0.92194   0.85766    0.021
 6464.00    0.91394   0.85976    0.021
 6465.00    0.91400   0.86111    0.021
 6466.00    0.91429   0.86230    0.022
 6467.00    0.91127   0.86297    0.022
 6468.00    0.90769   0.86303    0.022
 6469.00    0.88827   0.86217    0.022
 6470.00    0.87170   0.86049    0.023
 6471.00    0.89541   0.85960    0.023
 6472.00    0.91532   0.85958    0.023
 6473.00    0.90013   0.85835    0.023
 6474.00    0.88323   0.85641    0.023
 6475.00    0.85481   0.85531    0.022
 6476.00    0.83776   0.85353    0.022
 6477.00    0.88037   0.84999    0.021
 6478.00    0.91693   0.84673    0.021
 6479.00    0.92799   0.84479    0.021
 6480.00    0.93838   0.84274    0.021
 6481.00    0.94638   0.84088    0.021
 6482.00    0.95220   0.84063    0.021
 6483.00    0.95164   0.84144    0.021
 6484.00    0.94888   0.84132    0.021
 6485.00    0.94065   0.83949    0.021
 6486.00    0.94026   0.83629    0.021
 6487.00    0.95677   0.83149    0.021
 6488.00    0.96781   0.82384    0.021
 6489.00    0.96859   0.81325    0.021
 6490.00    0.95832   0.80241    0.022
 6491.00    0.93002   0.79302    0.022
 6492.00    0.90439   0.78468    0.022
 6493.00    0.88260   0.77833    0.022
 6494.00    0.87320   0.77602    0.022
 6495.00    0.87942   0.77826    0.022
 6496.00    0.87319   0.78377    0.022
 6497.00    0.85312   0.79137    0.022
 6498.00    0.83994   0.80027    0.022
 6499.00    0.83349   0.80995    0.022
 6500.00    0.83567   0.81930    0.021
 6501.00    0.84529   0.82731    0.021
 6502.00    0.85494   0.83374    0.021
 6503.00    0.86460   0.83844    0.021
 6504.00    0.86992   0.84178    0.021
 6505.00    0.87232   0.84439    0.021
 6506.00    0.88863   0.84592    0.021
 6507.00    0.91308   0.84621    0.021
 6508.00    0.95230   0.84632    0.021
 6509.00    0.99907   0.84650    0.021
 6510.00    1.01655   0.84567    0.021
 6511.00    1.02107   0.84406    0.021
 6512.00    1.00463   0.84275    0.021
 6513.00    0.98023   0.84130    0.021
 6514.00    0.97062   0.83959    0.021
 6515.00    0.96578   0.83907    0.022
 6516.00    0.94811   0.83977    0.022
 6517.00    0.92699   0.84066    0.022
 6518.00    0.93465   0.84203    0.022
 6519.00    0.94868   0.84447    0.023
 6520.00    0.94594   0.84689    0.022
 6521.00    0.94025   0.84817    0.022
 6522.00    0.96254   0.84867    0.023
 6523.00    0.98859   0.84924    0.023
 6524.00    0.97187   0.84957    0.022
 6525.00    0.95105   0.84900    0.022
 6526.00    0.94451   0.84819    0.021
 6527.00    0.93881   0.84788    0.021
 6528.00    0.95301   0.84783    0.000
 6529.00    0.96770   0.84792    0.000
 6530.00    0.97949   0.84852    0.000
 6531.00    0.99120   0.84946    0.000
 6532.00    1.00098   0.85046    0.000
 6533.00    1.01004   0.85184    0.000
 6534.00    1.00955   0.85361    0.000
 6535.00    1.00783   0.85482    0.000
 6536.00    0.99505   0.85470    0.000
 6537.00    0.98182   0.85365    0.000
 6538.00    0.96565   0.85185    0.000
 6539.00    0.94845   0.84892    0.000
 6540.00    0.92599   0.84463    0.000
 6541.00    0.90861   0.83938    0.000
 6542.00    0.91223   0.83439    0.000
 6543.00    0.91796   0.83028    0.000
 6544.00    0.93085   0.82633    0.000
 6545.00    0.94534   0.82235    0.000
 6546.00    0.96442   0.81920    0.000
 6547.00    0.97583   0.81660    0.000
 6548.00    0.96837   0.81340    0.000
 6549.00    0.97383   0.80912    0.000
 6550.00    1.00670   0.80388    0.000
 6551.00    1.02710   0.79810    0.000
 6552.00    1.02454   0.79168    0.000
 6553.00    1.00353   0.78341    0.000
 6554.00    0.95284   0.77288    0.000
 6555.00    0.91062   0.76151    0.000
 6556.00    0.88036   0.74941    0.000
 6557.00    0.86331   0.73444    0.000
 6558.00    0.86269   0.71908    0.000
 6559.00    0.86332   0.70970    0.000
 6560.00    0.86534   0.70536    0.000
 6561.00    0.87298   0.70275    0.000
 6562.00    0.88606   0.70677    0.000
 6563.00    0.88601   0.71982    0.000
 6564.00    0.87479   0.73446    0.000
 6565.00    0.87277   0.74733    0.000
 6566.00    0.87766   0.76076    0.000
 6567.00    0.87625   0.77232    0.000
 6568.00    0.87071   0.77961    0.000
 6569.00    0.86821   0.78488    0.000
 6570.00    0.86747   0.78944    0.000
 6571.00    0.87157   0.79292    0.000
 6572.00    0.87811   0.79607    0.000
 6573.00    0.87180   0.79971    0.000
 6574.00    0.85990   0.80370    0.000
 6575.00    0.86405   0.80787    0.000
 6576.00    0.87419   0.81155    0.000
 6577.00    0.91273   0.81479    0.000
 6578.00    0.96027   0.81790    0.000
 6579.00    0.96495   0.82052    0.000
 6580.00    0.95830   0.82266    0.000
 6581.00    0.95374   0.82486    0.000
 6582.00    0.94965   0.82730    0.000
 6583.00    0.99971   0.82936    0.000
 6584.00    1.05906   0.83037    0.000
 6585.00    1.06468   0.83020    0.000
 6586.00    1.06332   0.82952    0.000
 6587.00    1.01901   0.82751    0.000
 6588.00    0.97077   0.82351    0.000
 6589.00    0.96965   0.81973    0.000
 6590.00    0.97113   0.81711    0.000
 6591.00    0.94864   0.81447    0.000
 6592.00    0.92561   0.81263    0.000
 6593.00    0.89913   0.81340    0.000
 6594.00    0.87365   0.81586    0.000
 6595.00    0.87104   0.81866    0.000
 6596.00    0.87173   0.82185    0.000
 6597.00    0.91419   0.82488    0.000
 6598.00    0.95312   0.82722    0.000
 6599.00    0.96186   0.82889    0.000
 6600.00    0.96908   0.82922    0.000
 6601.00    0.96665   0.82805    0.000
 6602.00    0.96511   0.82634    0.000
 6603.00    0.96803   0.82424    0.000
 6604.00    0.96299   0.82161    0.000
 6605.00    0.92582   0.81977    0.000
 6606.00    0.89021   0.81969    0.000
 6607.00    0.85983   0.82051    0.000
 6608.00    0.84180   0.82166    0.000
 6609.00    0.85868   0.82414    0.022
 6610.00    0.87952   0.82801    0.022
 6611.00    0.90995   0.83138    0.022
 6612.00    0.93247   0.83363    0.022
 6613.00    0.93849   0.83575    0.023
 6614.00    0.92986   0.83796    0.023
 6615.00    0.89463   0.83894    0.023
 6616.00    0.87980   0.83855    0.023
 6617.00    0.89733   0.83773    0.023
 6618.00    0.91110   0.83645    0.023
 6619.00    0.91962   0.83407    0.023
 6620.00    0.93242   0.83098    0.023
 6621.00    0.95043   0.82823    0.023
 6622.00    0.93801   0.82564    0.022
 6623.00    0.89271   0.82281    0.022
 6624.00    0.88251   0.82045    0.022
 6625.00    0.90576   0.81896    0.022
 6626.00    0.94412   0.81743    0.022
 6627.00    0.99517   0.81570    0.022
 6628.00    1.01343   0.81403    0.022
 6629.00    1.00743   0.81240    0.022
 6630.00    0.99270   0.81139    0.022
 6631.00    0.97228   0.81101    0.022
 6632.00    0.93398   0.81089    0.022
 6633.00    0.88551   0.81170    0.022
 6634.00    0.87397   0.81332    0.022
 6635.00    0.88072   0.81459    0.022
 6636.00    0.88827   0.81579    0.023
 6637.00    0.89617   0.81709    0.023
 6638.00    0.90259   0.81716    0.023
 6639.00    0.90845   0.81645    0.023
 6640.00    0.94005   0.81668    0.023
 6641.00    0.97964   0.81687    0.024
 6642.00    0.97716   0.81588    0.023
 6643.00    0.96380   0.81546    0.022
 6644.00    0.93538   0.81624    0.023
 6645.00    0.90378   0.81649    0.023
 6646.00    0.91274   0.81588    0.022
 6647.00    0.92845   0.81554    0.022
 6648.00    0.92152   0.81542    0.022
 6649.00    0.91174   0.81473    0.022
 6650.00    0.88835   0.81380    0.022
 6651.00    0.86376   0.81306    0.022
 6652.00    0.85303   0.81227    0.022
 6653.00    0.84301   0.81141    0.021
 6654.00    0.87978   0.81050    0.022
 6655.00    0.91710   0.80888    0.022
 6656.00    0.93491   0.80691    0.022
 6657.00    0.95159   0.80514    0.023
 6658.00    0.94436   0.80265    0.023
 6659.00    0.93432   0.79984    0.023
 6660.00    0.89022   0.79818    0.023
 6661.00    0.85275   0.79721    0.023
 6662.00    0.87007   0.79629    0.023
 6663.00    0.88557   0.79686    0.023
 6664.00    0.88975   0.79911    0.024
 6665.00    0.89017   0.80152    0.024
 6666.00    0.87228   0.80402    0.023
 6667.00    0.86730   0.80686    0.023
 6668.00    0.91324   0.80927    0.023
 6669.00    0.94516   0.81029    0.023
 6670.00    0.93104   0.80981    0.023
 6671.00    0.91848   0.80843    0.023
 6672.00    0.91028   0.80568    0.022
 6673.00    0.90654   0.80130    0.022
 6674.00    0.91344   0.79728    0.022
 6675.00    0.92773   0.79459    0.022
 6676.00    0.95722   0.79180    0.023
 6677.00    0.97083   0.78985    0.023
 6678.00    0.95606   0.79079    0.023
 6679.00    0.92211   0.79312    0.023
 6680.00    0.85821   0.79483    0.022
 6681.00    0.81734   0.79704    0.022
 6682.00    0.80805   0.79987    0.023
 6683.00    0.81378   0.80184    0.023
 6684.00    0.83763   0.80302    0.023
 6685.00    0.86752   0.80405    0.023
 6686.00    0.90383   0.80464    0.024
 6687.00    0.91738   0.80451    0.024
 6688.00    0.90956   0.80399    0.024
 6689.00    0.90428   0.80329    0.024
 6690.00    0.90110   0.80211    0.023
 6691.00    0.89247   0.80042    0.023
 6692.00    0.87987   0.79884    0.023
 6693.00    0.88341   0.79777    0.023
 6694.00    0.89728   0.79682    0.023
 6695.00    0.90322   0.79620    0.023
 6696.00    0.90471   0.79655    0.000
 6697.00    0.90711   0.79732    0.000
 6698.00    0.90997   0.79805    0.000
 6699.00    0.89378   0.79880    0.000
 6700.00    0.86959   0.79933    0.000
 6701.00    0.87622   0.79966    0.000
 6702.00    0.89396   0.79961    0.000
 6703.00    0.89316   0.79922    0.000
 6704.00    0.88671   0.79902    0.000
 6705.00    0.85915   0.79849    0.000
 6706.00    0.82623   0.79712    0.000
 6707.00    0.81945   0.79546    0.000
 6708.00    0.81805   0.79325    0.000
 6709.00    0.81638   0.78975    0.000
 6710.00    0.81467   0.78591    0.000
 6711.00    0.81787   0.78236    0.000
 6712.00    0.82167   0.77841    0.000
 6713.00    0.85573   0.77478    0.000
 6714.00    0.89231   0.77271    0.000
 6715.00    0.92126   0.77205    0.000
 6716.00    0.94986   0.77208    0.000
 6717.00    0.96392   0.77323    0.000
 6718.00    0.97687   0.77584    0.000
 6719.00    0.93893   0.77867    0.000
 6720.00    0.90126   0.78097    0.000
 6721.00    0.86885   0.78305    0.000
 6722.00    0.84309   0.78522    0.000
 6723.00    0.89373   0.78715    0.000
 6724.00    0.93045   0.78834    0.000
 6725.00    0.85633   0.78932    0.000
 6726.00    0.79509   0.79064    0.000
 6727.00    0.81107   0.79173    0.000
 6728.00    0.83051   0.79229    0.000
 6729.00    0.86633   0.79269    0.000
 6730.00    0.89862   0.79281    0.000
 6731.00    0.91725   0.79241    0.000
 6732.00    0.93334   0.79164    0.000
 6733.00    0.94130   0.79060    0.000
 6734.00    0.94270   0.78922    0.000
 6735.00    0.92620   0.78782    0.000
 6736.00    0.90229   0.78657    0.000
 6737.00    0.86105   0.78523    0.000
 6738.00    0.82944   0.78379    0.000
 6739.00    0.81729   0.78283    0.000
 6740.00    0.81089   0.78240    0.000
 6741.00    0.81460   0.78144    0.000
 6742.00    0.81512   0.78012    0.000
 6743.00    0.81077   0.77952    0.000
 6744.00    0.79756   0.77886    0.000
 6745.00    0.77239   0.77744    0.000
 6746.00    0.78672   0.77655    0.000
 6747.00    0.84809   0.77645    0.000
 6748.00    0.88022   0.77628    0.000
 6749.00    0.88167   0.77664    0.000
 6750.00    0.85612   0.77853    0.000
 6751.00    0.80557   0.78070    0.000
 6752.00    0.78834   0.78296    0.000
 6753.00    0.79831   0.78643    0.027
 6754.00    0.80579   0.78979    0.028
 6755.00    0.81146   0.79250    0.028
 6756.00    0.79044   0.79524    0.029
 6757.00    0.75258   0.79720    0.028
 6758.00    0.77882   0.79796    0.029
 6759.00    0.84040   0.79817    0.029
 6760.00    0.88452   0.79767    0.029
 6761.00    0.92029   0.79625    0.030
 6762.00    1.00092   0.79448    0.030
 6763.00    1.10012   0.79263    0.030
 6764.00    1.10431   0.79098    0.030
 6765.00    1.07491   0.78974    0.029
 6766.00    1.03126   0.78882    0.029
 6767.00    0.98337   0.78889    0.028
 6768.00    0.96570   0.79033    0.028
 6769.00    0.95551   0.79218    0.028
 6770.00    0.98280   0.79422    0.028
 6771.00    1.01762   0.79705    0.027
 6772.00    0.97942   0.79991    0.027
 6773.00    0.92974   0.80183    0.027
 6774.00    0.94636   0.80300    0.027
 6775.00    0.97070   0.80324    0.027
 6776.00    0.98048   0.80192    0.028
 6777.00    0.98912   0.79940    0.028
 6778.00    0.95990   0.79605    0.028
 6779.00    0.92902   0.79189    0.028
 6780.00    0.91255   0.78774    0.028
 6781.00    0.89691   0.78414    0.028
 6782.00    0.91287   0.78117    0.028
 6783.00    0.93190   0.77957    0.028
 6784.00    1.00644   0.77940    0.028
 6785.00    1.07080   0.77972    0.028
 6786.00    1.02363   0.78063    0.028
 6787.00    0.97161   0.78228    0.027
 6788.00    0.88223   0.78331    0.027
 6789.00    0.81416   0.78372    0.026
 6790.00    0.87037   0.78456    0.028
 6791.00    0.92677   0.78523    0.028
 6792.00    0.98403   0.78532    0.028
 6793.00    1.00635   0.78598    0.028
 6794.00    0.89654   0.78715    0.027
 6795.00    0.82935   0.78812    0.027
 6796.00    0.89674   0.78932    0.028
 6797.00    0.93378   0.79075    0.028
 6798.00    0.88954   0.79184    0.028
 6799.00    0.84947   0.79253    0.028
 6800.00    0.81898   0.79307    0.028
 6801.00    0.81288   0.79357    0.028
 6802.00    0.85530   0.79335    0.029
 6803.00    0.90242   0.79285    0.029
 6804.00    0.95768   0.79301    0.028
 6805.00    0.97441   0.79272    0.028
 6806.00    0.93269   0.79198    0.028
 6807.00    0.90266   0.79201    0.028
 6808.00    0.88821   0.79196    0.027
 6809.00    0.84572   0.79145    0.027
 6810.00    0.77030   0.79133    0.026
 6811.00    0.78200   0.79139    0.027
 6812.00    0.88385   0.79156    0.027
 6813.00    0.95820   0.79191    0.027
 6814.00    1.00744   0.79230    0.028
 6815.00    1.00771   0.79317    0.028
 6816.00    0.96857   0.79430    0.028
 6817.00    0.93051   0.79534    0.028
 6818.00    0.89322   0.79648    0.028
 6819.00    0.88140   0.79752    0.028
 6820.00    0.88542   0.79835    0.028
 6821.00    0.89852   0.79907    0.028
 6822.00    0.91654   0.79942    0.028
 6823.00    0.90767   0.79919    0.028
 6824.00    0.88612   0.79869    0.028
 6825.00    0.86815   0.79829    0.028
 6826.00    0.85163   0.79800    0.028
 6827.00    0.85946   0.79767    0.028
 6828.00    0.87573   0.79759    0.029
 6829.00    0.88110   0.79792    0.029
 6830.00    0.88327   0.79836    0.028
 6831.00    0.87186   0.79817    0.028
 6832.00    0.85715   0.79730    0.028
 6833.00    0.88717   0.79616    0.028
 6834.00    0.92594   0.79431    0.028
 6835.00    0.97714   0.79156    0.028
 6836.00    1.03024   0.78875    0.029
 6837.00    1.00431   0.78634    0.030
 6838.00    0.96951   0.78438    0.030
 6839.00    0.93881   0.78353    0.030
 6840.00    0.90842   0.78389    0.030
 6841.00    0.83111   0.78518    0.030
 6842.00    0.75193   0.78720    0.031
 6843.00    0.74514   0.78963    0.030
 6844.00    0.74114   0.79186    0.029
 6845.00    0.82824   0.79327    0.029
 6846.00    0.90909   0.79395    0.029
 6847.00    0.88458   0.79385    0.029
 6848.00    0.86678   0.79275    0.029
 6849.00    0.91918   0.79111    0.029
 6850.00    0.96703   0.78883    0.030
 6851.00    0.98104   0.78616    0.029
 6852.00    0.98683   0.78412    0.028
 6853.00    0.94607   0.78207    0.028
 6854.00    0.91742   0.77981    0.028
 6855.00    0.94341   0.77902    0.028
 6856.00    0.96270   0.77895    0.027
 6857.00    0.95716   0.77849    0.028
 6858.00    0.93176   0.77913    0.028
 6859.00    0.84482   0.78062    0.028
 6860.00    0.76909   0.78133    0.028
 6861.00    0.72284   0.78196    0.028
 6862.00    0.73242   0.78327    0.029
 6863.00    0.86813   0.78379    0.029
 6864.00    0.92543   0.78313    0.030
 6865.00    0.82921   0.78295    0.030
 6866.00    0.79346   0.78295    0.030
 6867.00    0.86089   0.78208    0.031
 6868.00    0.88187   0.78187    0.031
 6869.00    0.83342   0.78292    0.031
 6870.00    0.79787   0.78374    0.031
 6871.00    0.77925   0.78447    0.030
 6872.00    0.78239   0.78612    0.029
 6873.00    0.81071   0.78809    0.029
 6874.00    0.81443   0.78935    0.028
 6875.00    0.79305   0.79016    0.028
 6876.00    0.78065   0.79102    0.028
 6877.00    0.77633   0.79141    0.027
 6878.00    0.80401   0.79094    0.027
 6879.00    0.85707   0.79062    0.027
 6880.00    0.87110   0.79100    0.027
 6881.00    0.85789   0.79141    0.028
 6882.00    0.85240   0.79212    0.028
 6883.00    0.85164   0.79426    0.028
 6884.00    0.85216   0.79694    0.029
 6885.00    0.85337   0.79887    0.029
 6886.00    0.83105   0.80136    0.029
 6887.00    0.79781   0.80414    0.029
 6888.00    0.81048   0.80547    0.029
 6889.00    0.84149   0.80636    0.029
 6890.00    0.87496   0.80752    0.029
 6891.00    0.90927   0.80762    0.029
 6892.00    0.88566   0.80714    0.030
 6893.00    0.84543   0.80720    0.030
 6894.00    0.86930   0.80730    0.029
 6895.00    0.90834   0.80704    0.028
 6896.00    0.84132   0.80703    0.028
 6897.00    0.75408   0.80775    0.028
 6898.00    0.86909   0.80859    0.029
 6899.00    1.01398   0.80910    0.029
 6900.00    0.93931   0.81004    0.029
 6901.00    0.84096   0.81144    0.028
 6902.00    0.86498   0.81253    0.029
 6903.00    0.89764   0.81337    0.029
 6904.00    0.94693   0.81397    0.029
 6905.00    0.99681   0.81437    0.029
 6906.00    0.93339   0.81432    0.029
 6907.00    0.87253   0.81329    0.029
 6908.00    0.91304   0.81210    0.030
 6909.00    0.94502   0.81072    0.030
 6910.00    0.84215   0.80872    0.030
 6911.00    0.75479   0.80734    0.029
 6912.00    0.82274   0.80644    0.029
 6913.00    0.87676   0.80540    0.030
 6914.00    0.83071   0.80549    0.030
 6915.00    0.79637   0.80608    0.030
 6916.00    0.82659   0.80614    0.030
 6917.00    0.85351   0.80645    0.029
 6918.00    0.86588   0.80654    0.029
 6919.00    0.87548   0.80593    0.029
 6920.00    0.87504   0.80496    0.029
 6921.00    0.86214   0.80386    0.029
 6922.00    0.81140   0.80284    0.029
 6923.00    0.78228   0.80206    0.029
 6924.00    0.80908   0.80173    0.028
 6925.00    0.84389   0.80185    0.028
 6926.00    0.89652   0.80242    0.029
 6927.00    0.93417   0.80329    0.029
 6928.00    0.94297   0.80397    0.030
 6929.00    0.92188   0.80444    0.030
 6930.00    0.85058   0.80534    0.030
 6931.00    0.80990   0.80630    0.030
 6932.00    0.81432   0.80674    0.031
 6933.00    0.82429   0.80770    0.031
 6934.00    0.84144   0.80905    0.031
 6935.00    0.84771   0.80973    0.031
 6936.00    0.84157   0.81026    0.031
 6937.00    0.84696   0.81060    0.031
 6938.00    0.86395   0.81018    0.031
 6939.00    0.85603   0.80959    0.030
 6940.00    0.82600   0.80881    0.029
 6941.00    0.85221   0.80750    0.029
 6942.00    0.92238   0.80688    0.029
 6943.00    0.93472   0.80675    0.029
 6944.00    0.90730   0.80617    0.029
 6945.00    0.85098   0.80650    0.030
 6946.00    0.77723   0.80724    0.033
 6947.00    0.71925   0.80692    0.034
 6948.00    0.66958   0.80699    0.036
 6949.00    0.67958   0.80743    0.036
 6950.00    0.71681   0.80705    0.036
 6951.00    0.66722   0.80735    0.036
 6952.00    0.58353   0.80861    0.036
 6953.00    0.68510   0.80965    0.034
 6954.00    0.84864   0.81122    0.031
 6955.00    0.93355   0.81349    0.031
 6956.00    0.99637   0.81550    0.031
 6957.00    0.90990   0.81744    0.031
 6958.00    0.78889   0.81929    0.031
 6959.00    0.75822   0.82079    0.031
 6960.00    0.74432   0.82227    0.030
 6961.00    0.78592   0.82334    0.030
 6962.00    0.83547   0.82402    0.030
 6963.00    0.76778   0.82496    0.029
 6964.00    0.68795   0.82554    0.028
 6965.00    0.77243   0.82553    0.028
 6966.00    0.86786   0.82560    0.029
 6967.00    0.90320   0.82509    0.029
 6968.00    0.93658   0.82374    0.030
 6969.00    0.88702   0.82205    0.030
 6970.00    0.83975   0.81921    0.030
 6971.00    0.86235   0.81541    0.029
 6972.00    0.88621   0.81190    0.029
 6973.00    0.92871   0.80822    0.030
 6974.00    0.95717   0.80415    0.031
 6975.00    0.85076   0.80175    0.030
 6976.00    0.75108   0.80171    0.030
 6977.00    0.69825   0.80228    0.030
 6978.00    0.67089   0.80438    0.031
 6979.00    0.78022   0.80888    0.031
 6980.00    0.86909   0.81334    0.031
 6981.00    0.86990   0.81712    0.031
 6982.00    0.87533   0.82077    0.030
 6983.00    0.89720   0.82334    0.030
 6984.00    0.89209   0.82462    0.029
 6985.00    0.80657   0.82505    0.029
 6986.00    0.75128   0.82501    0.029
 6987.00    0.77279   0.82479    0.028
 6988.00    0.78530   0.82438    0.028
 6989.00    0.77809   0.82408    0.029
 6990.00    0.78972   0.82394    0.029
 6991.00    0.83708   0.82379    0.029
 6992.00    0.85214   0.82337    0.029
 6993.00    0.81370   0.82250    0.029
 6994.00    0.77277   0.82154    0.030
 6995.00    0.72823   0.82028    0.030
 6996.00    0.73374   0.81865    0.031
 6997.00    0.80313   0.81738    0.030
 6998.00    0.84561   0.81622    0.031
 6999.00    0.85782   0.81502    0.031
 7000.00    0.84289   0.81432    0.031
 7001.00    0.80102   0.81417    0.031
 7002.00    0.77048   0.81428    0.031
 7003.00    0.74986   0.81437    0.031
 7004.00    0.78034   0.81472    0.031
 7005.00    0.85021   0.81555    0.031
 7006.00    0.84302   0.81605    0.031
 7007.00    0.78362   0.81597    0.030
 7008.00    0.75402   0.81583    0.030
 7009.00    0.74213   0.81513    0.030
 7010.00    0.75602   0.81382    0.030
 7011.00    0.78327   0.81257    0.030
 7012.00    0.78633   0.81117    0.030
 7013.00    0.77853   0.81048    0.030
 7014.00    0.71050   0.81097    0.030
 7015.00    0.61922   0.81134    0.030
 7016.00    0.63270   0.81230    0.031
 7017.00    0.68056   0.81441    0.031
 7018.00    0.70390   0.81580    0.031
 7019.00    0.72049   0.81627    0.032
 7020.00    0.80607   0.81682    0.032
 7021.00    0.90725   0.81728    0.033
 7022.00    0.82993   0.81744    0.033
 7023.00    0.72035   0.81766    0.032
 7024.00    0.78366   0.81860    0.032
 7025.00    0.87092   0.82011    0.033
 7026.00    0.86401   0.82153    0.032
 7027.00    0.84775   0.82296    0.032
 7028.00    0.80832   0.82435    0.031
 7029.00    0.76745   0.82553    0.031
 7030.00    0.82680   0.82625    0.031
 7031.00    0.88836   0.82626    0.031
 7032.00    0.78367   0.82671    0.031
 7033.00    0.68353   0.82751    0.030
 7034.00    0.70847   0.82761    0.030
 7035.00    0.73267   0.82907    0.030
 7036.00    0.74645   0.83214    0.031
 7037.00    0.76347   0.83450    0.032
 7038.00    0.81026   0.83753    0.032
 7039.00    0.83975   0.84201    0.032
 7040.00    0.75253   0.84536    0.032
 7041.00    0.69675   0.84767    0.032
 7042.00    0.80524   0.85005    0.033
 7043.00    0.88234   0.85110    0.034
 7044.00    0.82724   0.85048    0.033
 7045.00    0.78502   0.84873    0.032
 7046.00    0.78759   0.84533    0.032
 7047.00    0.79306   0.84036    0.032
 7048.00    0.80699   0.83360    0.032
 7049.00    0.81701   0.82547    0.032
 7050.00    0.81725   0.81717   -2.000
 7051.00    0.82729   0.80844   -2.000
 7052.00    0.85839   0.80005   -2.000
 7053.00    0.87607   0.79307   -2.000
 7054.00    0.86870   0.78709   -2.000
 7055.00    0.86035   0.78211   -2.000
 7056.00    0.85042   0.77821   -2.000
 7057.00    0.85720   0.77548   -2.000
 7058.00    0.88786   0.77329   -2.000
 7059.00    0.89642   0.77117   -2.000
 7060.00    0.87715   0.77011   -2.000
 7061.00    0.83285   0.76938   -2.000
 7062.00    0.76078   0.76824   -2.000
 7063.00    0.75547   0.76821   -2.000
 7064.00    0.81545   0.76862   -2.000
 7065.00    0.81937   0.76904   -2.000
 7066.00    0.77492   0.77095   -2.000
 7067.00    0.76735   0.77352   -2.000
 7068.00    0.78781   0.77607   -2.000
 7069.00    0.83651   0.77955   -2.000
 7070.00    0.90407   0.78317   -2.000
 7071.00    0.88347   0.78600   -2.000
 7072.00    0.81130   0.78849   -2.000
 7073.00    0.82013   0.79060   -2.000
 7074.00    0.87026   0.79175   -2.000
 7075.00    0.87711   0.79175   -2.000
 7076.00    0.86486   0.79096   -2.000
 7077.00    0.86143   0.78901   -2.000
 7078.00    0.86134   0.78543   -2.000
 7079.00    0.92577   0.78099   -2.000
 7080.00    1.01096   0.77525   -2.000
 7081.00    1.01962   0.76844   -2.000
 7082.00    1.00766   0.76216   -2.000
 7083.00    0.91063   0.75534   -2.000
 7084.00    0.79482   0.74855   -2.000
 7085.00    0.78433   0.74378   -2.000
 7086.00    0.79235   0.73925   -2.000
 7087.00    0.88045   0.73536   -2.000
 7088.00    0.97927   0.73355   -2.000
 7089.00    0.82129   0.73207   -2.000
 7090.00    0.63890   0.73138   -2.000
 7091.00    0.64295   0.73200   -2.000
 7092.00    0.65795   0.73286   -2.000
 7093.00    0.72229   0.73422   -2.000
 7094.00    0.78763   0.73603   -2.000
 7095.00    0.82321   0.73805   -2.000
 7096.00    0.85490   0.73994   -2.000
 7097.00    0.78999   0.74165   -2.000
 7098.00    0.73370   0.74344   -2.000
 7099.00    0.79181   0.74466   -2.000
 7100.00    0.83844   0.74555   -2.000
 7101.00    0.78318   0.74660   -2.000
 7102.00    0.73725   0.74705   -2.000
 7103.00    0.75225   0.74704   -2.000
 7104.00    0.77056   0.74720   -2.000
 7105.00    0.80565   0.74720   -2.000
 7106.00    0.82437   0.74681   -2.000
 7107.00    0.77572   0.74657   -2.000
 7108.00    0.74585   0.74682   -2.000
 7109.00    0.78006   0.74737   -2.000
 7110.00    0.80306   0.74808   -2.000
 7111.00    0.79389   0.74919   -2.000
 7112.00    0.79397   0.75072   -2.000
 7113.00    0.81671   0.75203   -2.000
 7114.00    0.81633   0.75297   -2.000
 7115.00    0.76698   0.75352   -2.000
 7116.00    0.75216   0.75350   -2.000
 7117.00    0.80084   0.75286   -2.000
 7118.00    0.82882   0.75103   -2.000
 7119.00    0.82354   0.74858   -2.000
 7120.00    0.83998   0.74591   -2.000
 7121.00    0.88703   0.74202   -2.000
 7122.00    0.91113   0.73769   -2.000
 7123.00    0.90678   0.73368   -2.000
 7124.00    0.84798   0.72955   -2.000
 7125.00    0.72966   0.72575   -2.000
 7126.00    0.69896   0.72271   -2.000
 7127.00    0.75277   0.72081   -2.000
 7128.00    0.74482   0.72017   -2.000
 7129.00    0.68435   0.72010   -2.000
 7130.00    0.69928   0.72136   -2.000
 7131.00    0.77065   0.72365   -2.000
 7132.00    0.65559   0.72552   -2.000
 7133.00    0.41786   0.72802   -2.000
 7134.00    0.47998   0.73075   -2.000
 7135.00    0.71484   0.73214   -2.000
 7136.00    0.82759   0.73375   -2.000
 7137.00    0.87907   0.73554   -2.000
 7138.00    0.84855   0.73586   -2.000
 7139.00    0.78243   0.73624   -2.000
 7140.00    0.78406   0.73691   -2.000
 7141.00    0.81094   0.73622   -2.000
 7142.00    0.77066   0.73571   -2.000
 7143.00    0.70917   0.73565   -2.000
 7144.00    0.74880   0.73466   -2.000
 7145.00    0.81511   0.73470   -2.000
 7146.00    0.85889   0.73589   -2.000
 7147.00    0.89783   0.73673   -2.000
 7148.00    0.79848   0.73870   -2.000
 7149.00    0.67550   0.74182   -2.000
 7150.00    0.68943   0.74452   -2.000
 7151.00    0.72109   0.74690   -2.000
 7152.00    0.74436   0.74935   -2.000
 7153.00    0.76686   0.75130   -2.000
 7154.00    0.81708   0.75176   -2.000
 7155.00    0.86882   0.75159   -2.000
 7156.00    0.81011   0.75118   -2.000
 7157.00    0.75064   0.74950   -2.000
 7158.00    0.83255   0.74750   -2.000
 7159.00    0.90726   0.74576   -2.000
 7160.00    0.81850   0.74378   -2.000
 7161.00    0.54269   0.74241   -2.000
 7162.00   -2.08902   0.74205   -2.000
 7163.00   -4.14390   0.74230   -2.000
 7164.00   -1.27771   0.74346   -2.000
 7165.00    1.20165   0.74560   -2.000
 7166.00    1.22933   0.74795   -2.000
 7167.00    1.23583   0.75044   -2.000
 7168.00    1.13714   0.75294   -2.000
 7169.00    1.04464   0.75460   -2.000
 7170.00    0.97704   0.75571   -2.000
 7171.00    0.94838   0.75649   -2.000
 7172.00    1.04982   0.75605   -2.000
 7173.00    1.10934   0.75515   -2.000
 7174.00    1.05066   0.75441   -2.000
 7175.00    1.00784   0.75297   -2.000
 7176.00    1.00330   0.75155   -2.000
 7177.00    1.00339   0.75068   -2.000
 7178.00    1.01312   0.74976   -2.000
 7179.00    1.01914   0.74923   -2.000
 7180.00    1.01842   0.74864   -2.000
 7181.00    1.02534   0.74792   -2.000
 7182.00    1.04433   0.74750   -2.000
 7183.00    1.04440   0.74628   -2.000
 7184.00    1.01819   0.74498   -2.000
 7185.00    0.98428   0.74427   -2.000
 7186.00    0.94096   0.74319   -2.000
 7187.00    0.94479   0.74280   -2.000
 7188.00    0.99943   0.74325   -2.000
 7189.00    1.01206   0.74360   -2.000
 7190.00    0.98474   0.74454   -2.000
 7191.00    0.98435   0.74589   -2.000
 7192.00    1.00653   0.74681   -2.000
 7193.00    0.99784   0.74756   -2.000
 7194.00    0.96635   0.74853   -2.000
 7195.00    0.94703   0.74920   -2.000
 7196.00    0.93561   0.74943   -2.000
 7197.00    0.92985   0.74982   -2.000
 7198.00    0.92730   0.75007   -2.000
 7199.00    0.93038   0.74993   -2.000
 7200.00    0.93624   0.74944   -2.000
 7201.00    0.97021   0.74877   -2.000
 7202.00    1.01619   0.74796   -2.000
 7203.00    1.01398   0.74666   -2.000
 7204.00    0.99414   0.74598   -2.000
 7205.00    1.05366   0.74590   -2.000
 7206.00    1.13776   0.74569   -2.000
 7207.00    1.05173   0.74694   -2.000
 7208.00    0.92178   0.74884   -2.000
 7209.00    0.91208   0.75032   -2.000
 7210.00    0.92767   0.75276   -2.000
 7211.00    0.48400   0.75533   -2.000
 7212.00   -0.03595   0.75713   -2.000
 7213.00    0.53870   0.75924   -2.000
 7214.00    1.25012   0.76145   -2.000
 7215.00    1.36682   0.76300   -2.000
 7216.00    1.43201   0.76447   -2.000
 7217.00    1.39035   0.76620   -2.000
 7218.00    1.34326   0.76771   -2.000
