###################################################################
## OUTPUT of StarlightChains_v04.for    [Cid@UFSC - 01/Apr/2007] ##
###################################################################

## Some input info
KUG0210-078._34_29.txt                   [arq_obs]
Base.CB07.vall.4m                        [arq_base]
Masks.EmLines.NEW.gm                     [arq_masks]
StCv04.C11.config                        [arq_config]
   66                                    [N_base]
    0                                    [N_YAV_components = # of components with extra extinction!]
    0                                    [i_FitPowerLaw (1/0 = Yes/No)]
-9.99                                    [alpha_PowerLaw]
CCM                                      [red_law_option]
 1.458241                                [q_norm = A(l_norm)/A(V)]

## (Re)Sampling Parameters
 3741.00                                 [l_ini (A)]
 7218.00                                 [l_fin (A)]
    1.00                                 [dl    (A)]     (OBS: dl_cushion =    50.00 A)

## Normalization info
 4020.00                                 [l_norm (A) - for base]
 4010.00                                 [llow_norm (A) - window for f_obs]
 4060.00                                 [lupp_norm (A) - window for f_obs]
3.455608E-17                             [fobs_norm (in input units)]

## S/N
 3691.00                                 [llow_SN (A) - window for S/N]
 7268.00                                 [lupp_SN (A) - window for S/N]
   4.041                                 [S/N in S/N window]
   4.105                                 [S/N in norm. window]
   0.049                                 [S/N_err in S/N window]
   0.049                                 [S/N_err in norm. window]
  1.0000                                 [fscale_chi2]

## etc...
    -2007534                             [idum_orig]
  2427                                   [NOl_eff]
  2228                                   [Nl_eff]
   199    NSIGMA                         [Ntot_cliped & clip_method]
  5618060                                [Nglobal_steps]
   7                                     [N_chains]
  35                                     [NEX0s_base = N_base in EX0s-fits]
 0   0   1      199   2.0   2.146E+04    [Clip-Bug, RC-Crash & Burn-In warning-flags, n_censored_weights, wei_nsig_threshold & wei_limit]
    37     37.239     36.641      0.598  [idt_all, wdt_TotTime, wdt_UsrTime & wdt_SysTime (sec)]

## Synthesis Results - Best model ##

 3.97173E-05                             [chi2/Nl_eff]
     6.99210                             [adev (%)]

   119.79260                             [sum-of-x (%)]
 1.08058E-17                             [Flux_tot (units of input spectrum!)]
 7.80306E-13                             [Mini_tot (???)]
 3.98382E-13                             [Mcor_tot (???)]

-130.95                                  [v0_min  (km/s)]
 177.10                                  [vd_min  (km/s)]
-1.0000                                  [AV_min  (mag)]
 0.0000                                  [YAV_min (mag)]

# j     x_j(%)      Mini_j(%)     Mcor_j(%)     age_j(yr)     Z_j      (L/M)_j    YAV?  Mstars   component_j        a/Fe...       SSP_chi2r SSP_adev(%)   SSP_AV   SSP_x(%)
  1      0.0000     0.0000E+00    0.0000E+00    1.000000E+06  0.00400  1.094E-02    0   1.0000   age020_m42            0.0000     1.4995E-04    10.0891   2.8758   102.8626
  2      0.0000     0.0000E+00    0.0000E+00    3.160000E+06  0.00400  4.007E-02    0   0.9999   age045_m42            0.0000     1.1667E-04     9.9894   2.1464   109.6607
  3      0.0000     0.0000E+00    0.0000E+00    5.010000E+06  0.00400  2.539E-02    0   0.9488   age055_m42            0.0000     1.2504E-04     9.9014   2.4560   107.6235
  4      0.0000     0.0000E+00    0.0000E+00    6.610000E+06  0.00400  2.620E-02    0   0.9220   age061_m42            0.0000     1.1047E-04    10.0332   2.0664   110.1946
  5      0.0000     0.0000E+00    0.0000E+00    1.000000E+07  0.00400  1.322E-02    0   0.8862   age070_m42            0.0000     1.2443E-04    11.5183   1.8107   111.6127
  6      0.0000     0.0000E+00    0.0000E+00    1.445000E+07  0.00400  7.883E-03    0   0.8571   age078_m42            0.0000     1.3076E-04    11.2675   2.1286   109.2395
  7      0.0000     0.0000E+00    0.0000E+00    2.512000E+07  0.00400  5.251E-03    0   0.8174   age090_m42            0.0000     1.2502E-04    11.8781   1.6873   111.9874
  8      0.0000     0.0000E+00    0.0000E+00    4.000000E+07  0.00400  3.649E-03    0   0.7851   age104_m42            0.0000     1.1918E-04    11.7321   1.4606   112.7866
  9      0.0000     0.0000E+00    0.0000E+00    5.500000E+07  0.00400  3.098E-03    0   0.7629   age110_m42            0.0000     1.0860E-04    11.0383   1.6015   113.1809
 10      0.0000     0.0000E+00    0.0000E+00    1.015200E+08  0.00400  2.228E-03    0   0.7207   age116_m42            0.0000     9.9088E-05    10.5742   1.6111   113.7343
 11      0.0000     0.0000E+00    0.0000E+00    2.861200E+08  0.00400  1.093E-03    0   0.6648   age125_m42            0.0000     9.6969E-05    11.3099   1.0524   116.3109
 12      0.0000     0.0000E+00    0.0000E+00    5.088000E+08  0.00400  6.597E-04    0   0.6365   age130_m42            0.0000     8.5550E-05    10.5284   1.0349   117.4991
 13      0.0000     0.0000E+00    0.0000E+00    1.434000E+09  0.00400  2.132E-04    0   0.5798   age139_m42            0.0000     7.4766E-05     9.9862   0.0910   118.5372
 14      0.0000     0.0000E+00    0.0000E+00    4.250000E+09  0.00400  5.895E-05    0   0.5377   age158_m42            0.0000     6.8229E-05     8.5240  -0.3650   114.6030
 15      0.0000     0.0000E+00    0.0000E+00    7.500000E+09  0.00400  3.510E-05    0   0.5212   age171_m42            0.0000     6.3897E-05     8.0101  -0.5587   113.9745
 16      0.3118     1.7980E-01    1.7728E-01    1.300000E+10  0.00400  2.005E-05    0   0.5034   age193_m42            0.0000     6.2027E-05     7.6270  -0.7279   113.3931
 17      0.0000     0.0000E+00    0.0000E+00    1.800000E+10  0.00400  1.525E-05    0   0.4967   age213_m42            0.0000     6.3068E-05     7.6899  -0.7512   112.9404
 18      0.0000     0.0000E+00    0.0000E+00    1.000000E+06  0.00800  1.238E-02    0   1.0000   age020_m52            0.0000     1.5020E-04    10.0752   2.8722   103.0736
 19      0.0000     0.0000E+00    0.0000E+00    3.160000E+06  0.00800  3.074E-02    0   0.9966   age045_m52            0.0000     1.4385E-04     9.9215   2.7886   104.2974
 20      0.0000     0.0000E+00    0.0000E+00    5.010000E+06  0.00800  2.668E-02    0   0.9443   age055_m52            0.0000     1.2928E-04     9.9247   2.5388   106.7428
 21      0.0000     0.0000E+00    0.0000E+00    6.610000E+06  0.00800  2.136E-02    0   0.9177   age061_m52            0.0000     1.2641E-04    11.3013   1.3268   112.2342
 22      0.0000     0.0000E+00    0.0000E+00    1.000000E+07  0.00800  1.215E-02    0   0.8827   age070_m52            0.0000     1.3366E-04    11.9222   1.9897   111.3999
 23      0.0000     0.0000E+00    0.0000E+00    1.445000E+07  0.00800  8.717E-03    0   0.8552   age078_m52            0.0000     1.2830E-04    11.3326   2.0961   110.6539
 24      0.0000     0.0000E+00    0.0000E+00    2.512000E+07  0.00800  5.592E-03    0   0.8162   age090_m52            0.0000     1.2421E-04    11.9641   1.7489   113.3367
 25      0.0000     0.0000E+00    0.0000E+00    4.000000E+07  0.00800  3.896E-03    0   0.7841   age104_m52            0.0000     1.1553E-04    11.6714   1.6571   114.2228
 26      0.0000     0.0000E+00    0.0000E+00    1.015200E+08  0.00800  2.148E-03    0   0.7226   age116_m52            0.0000     1.0041E-04    10.9086   1.5826   114.4547
 27      0.0000     0.0000E+00    0.0000E+00    2.861200E+08  0.00800  9.925E-04    0   0.6683   age125_m52            0.0000     8.5537E-05    10.5974   1.1040   118.4143
 28      0.0000     0.0000E+00    0.0000E+00    9.047900E+08  0.00800  3.141E-04    0   0.6138   age135_m52            0.0000     7.2233E-05     9.7083   0.3215   122.1423
 29      0.0000     0.0000E+00    0.0000E+00    1.434000E+09  0.00800  1.719E-04    0   0.5853   age139_m52            0.0000     6.7691E-05     9.1196  -0.2646   119.9236
 30      0.0000     0.0000E+00    0.0000E+00    2.500000E+09  0.00800  7.872E-05    0   0.5600   age150_m52            0.0000     5.8505E-05     7.7598  -0.5449   117.2992
 31      0.0000     0.0000E+00    0.0000E+00    4.250000E+09  0.00800  4.336E-05    0   0.5426   age158_m52            0.0000     5.9458E-05     7.6970  -0.5604   116.2086
 32      4.6979     1.7192E+00    1.7911E+00    6.250000E+09  0.00800  3.159E-05    0   0.5319   age166_m52            0.0000     5.3222E-05     7.0893  -0.7690   116.3282
 33      0.0000     0.0000E+00    0.0000E+00    1.300000E+10  0.00800  1.361E-05    0   0.5073   age193_m52            0.0000     5.3398E-05    10.1057  -1.0000   108.8437
 34      0.0000     0.0000E+00    0.0000E+00    1.800000E+10  0.00800  9.886E-06    0   0.4990   age213_m52            0.0000     5.9393E-05    11.7657  -1.0000   105.1402
 35      0.0000     0.0000E+00    0.0000E+00    1.000000E+06  0.02000  1.544E-02    0   1.0000   age020_m62            0.0000     1.5081E-04    10.0644   2.8676   103.3606
 36      0.0000     0.0000E+00    0.0000E+00    3.160000E+06  0.02000  3.762E-02    0   0.9858   age045_m62            0.0000     1.4668E-04     9.8845   2.7959   104.7053
 37      0.0000     0.0000E+00    0.0000E+00    5.010000E+06  0.02000  3.296E-02    0   0.9342   age055_m62            0.0000     1.1693E-04     9.6935   2.4109   109.1044
 38      0.0000     0.0000E+00    0.0000E+00    8.710000E+06  0.02000  1.154E-02    0   0.8861   age067_m62            0.0000     1.8431E-04    15.4625   1.4840   112.9150
 39      0.0000     0.0000E+00    0.0000E+00    1.445000E+07  0.02000  7.663E-03    0   0.8472   age078_m62            0.0000     1.4661E-04    13.0408   1.6548   113.0614
 40      0.0000     0.0000E+00    0.0000E+00    2.512000E+07  0.02000  4.532E-03    0   0.8099   age090_m62            0.0000     1.4306E-04    13.1925   1.6393   113.0049
 41      0.0000     0.0000E+00    0.0000E+00    5.500000E+07  0.02000  2.733E-03    0   0.7595   age110_m62            0.0000     1.1404E-04    11.5411   1.6357   113.6414
 42      0.0000     0.0000E+00    0.0000E+00    1.609000E+08  0.02000  1.369E-03    0   0.6985   age120_m62            0.0000     9.2420E-05    10.7805   1.4626   116.9681
 43      0.0000     0.0000E+00    0.0000E+00    2.861200E+08  0.02000  9.013E-04    0   0.6714   age125_m62            0.0000     8.3227E-05    10.5148   1.2173   119.9229
 44      0.0000     0.0000E+00    0.0000E+00    5.088000E+08  0.02000  5.028E-04    0   0.6449   age130_m62            0.0000     7.4886E-05     9.6386   0.8460   122.4460
 45      0.0000     0.0000E+00    0.0000E+00    9.047900E+08  0.02000  2.428E-04    0   0.6179   age135_m62            0.0000     6.4708E-05     8.7297   0.2592   121.5953
 46      0.0000     0.0000E+00    0.0000E+00    1.434000E+09  0.02000  1.263E-04    0   0.5908   age139_m62            0.0000     5.9918E-05     8.0769  -0.1904   120.0464
 47      5.7162     1.1041E+00    1.2268E+00    2.500000E+09  0.02000  5.985E-05    0   0.5673   age150_m62            0.0000     5.3393E-05     7.0872  -0.5693   118.8766
 48      0.0000     0.0000E+00    0.0000E+00    4.250000E+09  0.02000  3.271E-05    0   0.5468   age158_m62            0.0000     4.3012E-05     6.1074  -0.8940   118.5758
 49     37.5397     3.1909E+01    3.2294E+01    1.000000E+10  0.02000  1.360E-05    0   0.5167   age181_m62            0.0000     4.4471E-05     9.2794  -1.0000   111.0789
 50     35.1599     5.7054E+01    5.6021E+01    1.800000E+10  0.02000  7.124E-06    0   0.5013   age213_m62            0.0000     6.4894E-05    13.0392  -1.0000   103.8927
 51      0.0000     0.0000E+00    0.0000E+00    1.000000E+06  0.05000  2.592E-02    0   0.9998   age020_m72            0.0000     1.5453E-04    10.1323   2.8603   103.4036
 52      0.0000     0.0000E+00    0.0000E+00    3.160000E+06  0.05000  4.845E-02    0   0.9577   age045_m72            0.0000     1.3161E-04     9.6385   2.6689   106.3968
 53      0.0000     0.0000E+00    0.0000E+00    5.010000E+06  0.05000  3.072E-02    0   0.9147   age055_m72            0.0000     1.4508E-04    11.7321   2.2107   109.8413
 54      0.0000     0.0000E+00    0.0000E+00    6.610000E+06  0.05000  1.455E-02    0   0.8877   age061_m72            0.0000     2.1878E-04    17.4343   1.5123   113.6358
 55      0.0000     0.0000E+00    0.0000E+00    1.000000E+07  0.05000  9.074E-03    0   0.8524   age070_m72            0.0000     1.5110E-04    12.0207   2.3711   109.7971
 56      0.0000     0.0000E+00    0.0000E+00    2.512000E+07  0.05000  4.250E-03    0   0.7902   age090_m72            0.0000     1.3061E-04    11.9974   2.0820   111.7199
 57      0.0000     0.0000E+00    0.0000E+00    4.000000E+07  0.05000  3.087E-03    0   0.7618   age104_m72            0.0000     1.2602E-04    12.3152   1.8572   113.4087
 58      0.0000     0.0000E+00    0.0000E+00    1.015200E+08  0.05000  1.700E-03    0   0.7096   age116_m72            0.0000     9.8795E-05    11.2876   1.6037   116.5183
 59      5.2440     8.2099E-02    1.0666E-01    2.861200E+08  0.05000  7.384E-04    0   0.6633   age125_m72            0.0000     7.6082E-05     9.9744   1.0829   121.5030
 60      9.5566     2.8928E-01    3.6104E-01    5.088000E+08  0.05000  3.819E-04    0   0.6372   age130_m72            0.0000     6.5238E-05     8.8560   0.5914   123.2956
 61      5.6105     3.8698E-01    4.6313E-01    9.047900E+08  0.05000  1.676E-04    0   0.6110   age135_m72            0.0000     5.4050E-05     7.2372  -0.1149   121.4260
 62      0.0000     0.0000E+00    0.0000E+00    1.434000E+09  0.05000  8.837E-05    0   0.5874   age139_m72            0.0000     5.0634E-05     6.9414  -0.5766   120.8376
 63     14.6764     4.0080E+00    4.3947E+00    2.500000E+09  0.05000  4.233E-05    0   0.5598   age150_m72            0.0000     4.3117E-05     5.8993  -0.8990   119.7243
 64      0.0000     0.0000E+00    0.0000E+00    6.250000E+09  0.05000  1.435E-05    0   0.5249   age166_m72            0.0000     5.4421E-05    11.0436  -1.0000   107.7337
 65      0.0000     0.0000E+00    0.0000E+00    1.300000E+10  0.05000  6.513E-06    0   0.5036   age193_m72            0.0000     9.4421E-05    16.3169  -1.0000   100.0257
 66      1.2795     3.2673E+00    3.1646E+00    1.800000E+10  0.05000  4.527E-06    0   0.4945   age213_m72            0.0000     1.3049E-04    19.3015  -1.0000    94.6477


## Synthesis Results - Average & Chains ##

# j      x_j: min, <> & last-chain-values for 1 ...  7 chains
  1      0.0000      0.2874      0.4871      0.2526      0.0000      0.2439      0.0556      0.2691      0.0000
  2      0.0000      0.2127      0.4135      0.2565      0.0194      0.0990      0.1034      0.0000      0.1714
  3      0.0000      0.2169      0.3970      0.1370      0.0189      0.0156      0.3287      0.0000      0.2085
  4      0.0000      0.1838      0.1357      0.1463      0.2399      0.2874      0.0067      0.6092      0.0138
  5      0.0000      0.2807      0.1379      0.2462      0.2728      0.1154      0.1214      0.1373      0.2640
  6      0.0000      0.2069      0.0622      0.0647      0.0000      0.6355      0.1001      0.0493      0.2006
  7      0.0000      0.2084      0.0000      0.0104      0.1435      0.0000      0.3116      0.1864      0.0085
  8      0.0000      0.2115      0.0000      0.2510      0.1174      0.1047      0.1566      0.0000      0.2241
  9      0.0000      0.2299      0.4200      0.3151      0.1178      0.0000      0.1968      0.4038      0.5349
 10      0.0000      0.2102      0.0000      0.1735      0.2649      0.2579      0.3066      0.0618      0.1131
 11      0.0000      0.1679      0.1193      0.0608      0.1884      0.2288      0.2084      0.2577      0.2469
 12      0.0000      0.3579      0.6804      0.3519      0.3596      0.3820      0.1766      0.2276      0.1681
 13      0.0000      0.2332      0.1965      0.1654      0.3217      0.1756      0.3550      0.3039      0.0492
 14      0.0000      0.1470      0.0000      0.0000      0.2133      0.2297      0.0388      0.2816      0.2493
 15      0.0000      0.2596      0.3407      0.1507      0.0371      0.3155      0.1262      0.2167      0.2226
 16      0.3118      0.2446      0.1437      0.3321      0.0234      0.0000      0.3537      0.2750      0.2676
 17      0.0000      0.2509      0.0122      0.2882      0.1703      0.0000      0.2795      0.0000      0.4919
 18      0.0000      0.2446      0.2268      0.2425      0.3786      0.1900      0.3533      0.0000      0.0000
 19      0.0000      0.1760      0.0000      0.0400      0.0264      0.1220      0.1824      0.1116      0.1008
 20      0.0000      0.2559      0.1292      0.2231      0.2047      0.1521      0.0954      0.2164      0.2821
 21      0.0000      0.2818      0.0000      0.4095      0.0685      0.1829      0.0591      0.0912      0.1171
 22      0.0000      0.1572      0.0000      0.0013      0.0793      0.0000      0.0000      0.0363      0.1022
 23      0.0000      0.1836      0.0000      0.1793      0.2526      0.2821      0.0414      0.1104      0.0773
 24      0.0000      0.1470      0.2672      0.0312      0.0000      0.1371      0.1883      0.0923      0.0508
 25      0.0000      0.2244      0.0000      0.0299      0.0953      0.3672      0.5510      0.0775      0.1104
 26      0.0000      0.2032      0.0000      0.2470      0.2711      0.3522      0.1437      0.3512      0.0000
 27      0.0000      0.1876      0.3184      0.0776      0.2281      0.3826      0.0749      0.2379      0.1966
 28      0.0000      0.1618      0.1537      0.0730      0.1425      0.6088      0.0000      0.0867      0.1780
 29      0.0000      0.2231      0.5733      0.0530      0.0706      0.0786      0.2436      0.3052      0.3475
 30      0.0000      0.2175      0.0000      0.1262      0.1079      0.0000      0.1115      0.4416      0.0001
 31      0.0000      0.1882      0.1225      0.0582      0.0969      0.0000      0.5313      0.0365      0.1099
 32      4.6979      0.1691      0.0193      0.0000      0.1333      0.0000      0.0462      0.0744      0.1624
 33      0.0000      0.2040      0.1029      0.0269      0.0000      0.0000      0.0311      0.0309      0.0859
 34      0.0000      0.2221      0.2746      0.0386      0.1985      0.2518      0.3266      0.1367      0.1255
 35      0.0000      0.2814      0.4797      0.2222      0.2733      0.2720      0.0667      0.1412      0.0887
 36      0.0000      0.2627      0.0904      0.1096      0.0353      0.1771      0.1485      0.5793      0.0317
 37      0.0000      0.1719      0.1311      0.1991      0.0517      0.1906      0.0920      0.3322      0.0118
 38      0.0000      0.2372      0.1720      0.2320      0.0437      0.4565      0.0634      0.2481      0.4075
 39      0.0000      0.1553      0.1401      0.0108      0.1618      0.4078      0.2695      0.1124      0.1121
 40      0.0000      0.1821      0.7300      0.1120      0.1288      0.0000      0.0000      0.0553      0.2430
 41      0.0000      0.1804      0.2083      0.1092      0.0228      0.0317      0.2424      0.1115      0.5330
 42      0.0000      0.2165      0.3717      0.0647      0.0474      0.0000      0.0955      0.0000      0.0812
 43      0.0000      0.2475      0.2372      0.0349      0.2943      0.3666      0.1002      0.0000      0.1167
 44      0.0000     14.9332     14.9040     15.5584     15.5347     14.6858     14.8524     15.6270     15.4389
 45      0.0000      0.1784      0.1572      0.0365      0.2060      0.2017      0.0000      0.0000      0.3668
 46      0.0000      0.2328      0.0475      0.0123      0.0504      0.1732      0.1377      0.0000      0.2252
 47      5.7162      0.2334      0.1009      0.2670      0.2404      0.0000      0.0427      0.2011      0.3817
 48      0.0000      0.2902      0.6375      0.0403      0.2159      0.6254      0.2192      0.1098      0.0434
 49     37.5397      0.2166      0.2607      0.2036      0.1286      0.2321      0.0298      0.2394      0.2166
 50     35.1599      0.2485      0.2060      0.0477      0.0731      0.0000      0.2514      0.2615      0.4215
 51      0.0000      0.2480      0.0000      0.1681      0.1198      0.0000      0.1239      0.1454      0.0000
 52      0.0000      0.1986      0.1917      0.2703      0.0839      0.0000      0.0712      0.0819      0.1000
 53      0.0000      0.2598      0.0000      0.2685      0.0945      0.2755      0.2662      0.2673      0.0010
 54      0.0000      0.1896      0.5919      0.0000      0.2627      0.2561      0.1574      0.3675      0.3102
 55      0.0000      0.1948      0.0000      0.0000      0.0000      0.1369      0.5252      0.0000      0.1304
 56      0.0000      0.1886      0.0268      0.4016      0.1186      0.0972      0.0804      0.3950      0.1058
 57      0.0000      0.1700      0.0157      0.1872      0.1062      0.0000      0.2512      0.1818      0.0228
 58      0.0000      0.1806      0.1559      0.1423      0.1563      0.2055      0.2492      0.0655      0.0819
 59      5.2440      0.1837      0.2991      0.2596      0.0553      0.1419      0.0000      0.0622      0.2913
 60      9.5566      0.2035      0.2260      0.1935      0.1075      0.0060      0.2886      0.0673      0.3004
 61      5.6105      0.1438      0.1890      0.0245      0.0000      0.1753      0.0221      0.0720      0.2176
 62      0.0000      0.2349      0.1896      0.1356      0.0517      0.6667      0.0000      0.3533      0.0844
 63     14.6764      0.2379      0.0264      0.0290      0.0099      0.0000      0.6388      0.0000      0.3243
 64      0.0000      0.1664      0.0230      0.0736      0.3335      0.2302      0.0386      0.3505      0.2902
 65      0.0000      0.6009      0.4712      0.4702      0.5218      0.6704      0.5758      0.2907      0.8229
 66      1.2795     73.8199     76.1267     77.9847     78.6089     75.9559     76.8717     76.1801     75.7140

# j      m_j: min, <> & last-chain-values for 1 ...  7 chains
  1  0.0000E+00  3.1941E-04  5.2725E-04  2.6785E-04  0.0000E+00  2.6460E-04  5.9452E-05  2.9147E-04  0.0000E+00
  2  0.0000E+00  6.4530E-05  1.2220E-04  7.4241E-05  5.5539E-06  2.9318E-05  3.0190E-05  0.0000E+00  5.0565E-05
  3  0.0000E+00  9.8541E-05  1.7566E-04  5.9408E-05  8.0995E-06  6.9111E-06  1.4377E-04  0.0000E+00  9.2092E-05
  4  0.0000E+00  7.8632E-05  5.6552E-05  5.9723E-05  9.7019E-05  1.2003E-04  2.7764E-06  2.5404E-04  5.7455E-06
  5  0.0000E+00  2.2883E-04  1.0943E-04  1.9145E-04  2.1015E-04  9.1846E-05  9.5231E-05  1.0907E-04  2.0918E-04
  6  0.0000E+00  2.7356E-04  8.0075E-05  8.1577E-05  0.0000E+00  8.2013E-04  1.2733E-04  6.3521E-05  2.5782E-04
  7  0.0000E+00  3.9446E-04  0.0000E+00  1.8780E-05  2.5666E-04  0.0000E+00  5.6770E-04  3.4374E-04  1.5636E-05
  8  0.0000E+00  5.5345E-04  0.0000E+00  6.2644E-04  2.9032E-04  2.6731E-04  3.9432E-04  0.0000E+00  5.6997E-04
  9  0.0000E+00  6.8838E-04  1.2246E-03  9.0023E-04  3.3347E-04  0.0000E+00  5.6731E-04  1.1782E-03  1.5571E-03
 10  0.0000E+00  8.2689E-04  0.0000E+00  6.5090E-04  9.8473E-04  9.9027E-04  1.1607E-03  2.3682E-04  4.3228E-04
 11  0.0000E+00  1.2417E-03  8.5912E-04  4.2883E-04  1.3168E-03  1.6515E-03  1.4833E-03  1.8572E-03  1.7752E-03
 12  0.0000E+00  4.1993E-03  7.7738E-03  3.9385E-03  3.9870E-03  4.3750E-03  1.9948E-03  2.6015E-03  1.9170E-03
 13  0.0000E+00  7.7122E-03  6.3276E-03  5.2175E-03  1.0053E-02  5.6693E-03  1.1300E-02  9.7932E-03  1.5828E-03
 14  0.0000E+00  1.6305E-02  0.0000E+00  0.0000E+00  2.2352E-02  2.4870E-02  4.1390E-03  3.0434E-02  2.6875E-02
 15  0.0000E+00  4.6880E-02  5.9909E-02  2.5965E-02  6.3333E-03  5.5603E-02  2.1926E-02  3.8126E-02  3.9074E-02
 16  1.7728E-01  7.4674E-02  4.2737E-02  9.6729E-02  6.7501E-03  0.0000E+00  1.0394E-01  8.1812E-02  7.9410E-02
 17  0.0000E+00  9.9384E-02  4.7157E-03  1.0890E-01  6.3724E-02  0.0000E+00  1.0656E-01  0.0000E+00  1.8937E-01
 18  0.0000E+00  2.4024E-04  2.1689E-04  2.2722E-04  3.5145E-04  1.8213E-04  3.3401E-04  0.0000E+00  0.0000E+00
 19  0.0000E+00  6.9400E-05  0.0000E+00  1.5054E-05  9.8399E-06  4.6950E-05  6.9228E-05  4.2856E-05  3.8623E-05
 20  0.0000E+00  1.1014E-04  5.4130E-05  9.1610E-05  8.3236E-05  6.3881E-05  3.9502E-05  9.0755E-05  1.1804E-04
 21  0.0000E+00  1.4724E-04  0.0000E+00  2.0410E-04  3.3842E-05  9.3252E-05  2.9718E-05  4.6429E-05  5.9446E-05
 22  0.0000E+00  1.3889E-04  0.0000E+00  1.1284E-06  6.6197E-05  0.0000E+00  0.0000E+00  3.1222E-05  8.7739E-05
 23  0.0000E+00  2.1905E-04  0.0000E+00  2.0411E-04  2.8473E-04  3.2850E-04  4.7493E-05  1.2829E-04  8.9693E-05
 24  0.0000E+00  2.6097E-04  4.6188E-04  5.2850E-05  0.0000E+00  2.3756E-04  3.2165E-04  1.5968E-04  8.7645E-05
 25  0.0000E+00  5.4906E-04  0.0000E+00  6.9850E-05  2.2047E-04  8.7723E-04  1.2979E-03  1.8483E-04  2.6259E-04
 26  0.0000E+00  8.3102E-04  0.0000E+00  9.6378E-04  1.0482E-03  1.4062E-03  5.6562E-04  1.4000E-03  0.0000E+00
 27  0.0000E+00  1.5364E-03  2.5385E-03  6.0583E-04  1.7647E-03  3.0578E-03  5.9001E-04  1.8980E-03  1.5651E-03
 28  0.0000E+00  3.8439E-03  3.5576E-03  1.6542E-03  3.2002E-03  1.4121E-02  0.0000E+00  2.0073E-03  4.1122E-03
 29  0.0000E+00  9.2384E-03  2.3113E-02  2.0953E-03  2.7617E-03  3.1745E-03  9.7086E-03  1.2312E-02  1.3986E-02
 30  0.0000E+00  1.8811E-02  0.0000E+00  1.0417E-02  8.8245E-03  0.0000E+00  9.2813E-03  3.7227E-02  5.1679E-06
 31  0.0000E+00  2.8631E-02  1.8158E-02  8.4485E-03  1.3939E-02  0.0000E+00  7.7814E-02  5.4176E-03  1.6250E-02
 32  1.7911E+00  3.4619E-02  3.8536E-03  0.0000E+00  2.5795E-02  0.0000E+00  9.0971E-03  1.4849E-02  3.2328E-02
 33  0.0000E+00  9.2481E-02  4.5417E-02  1.1633E-02  0.0000E+00  0.0000E+00  1.3550E-02  1.3636E-02  3.7860E-02
 34  0.0000E+00  1.3634E-01  1.6410E-01  2.2627E-02  1.1515E-01  1.5083E-01  1.9297E-01  8.1749E-02  7.4855E-02
 35  0.0000E+00  2.2158E-04  3.6787E-04  1.6697E-04  2.0341E-04  2.0907E-04  5.0531E-05  1.0835E-04  6.7905E-05
 36  0.0000E+00  8.3702E-05  2.8044E-05  3.3326E-05  1.0638E-05  5.5072E-05  4.5540E-05  1.7987E-04  9.8299E-06
 37  0.0000E+00  5.9244E-05  4.4001E-05  6.5476E-05  1.6850E-05  6.4111E-05  3.0527E-05  1.1156E-04  3.9654E-06
 38  0.0000E+00  2.2144E-04  1.5642E-04  2.0669E-04  3.8529E-05  4.1602E-04  5.6956E-05  2.2572E-04  3.6985E-04
 39  0.0000E+00  2.0876E-04  1.8345E-04  1.3837E-05  2.0554E-04  5.3511E-04  3.4874E-04  1.4726E-04  1.4649E-04
 40  0.0000E+00  3.9570E-04  1.5449E-03  2.3229E-04  2.6444E-04  0.0000E+00  0.0000E+00  1.1711E-04  5.1330E-04
 41  0.0000E+00  6.0968E-04  6.8532E-04  3.5214E-04  7.2821E-05  1.0469E-04  7.8842E-04  3.6717E-04  1.7509E-03
 42  0.0000E+00  1.3430E-03  2.2458E-03  3.8285E-04  2.7811E-04  0.0000E+00  5.7024E-04  0.0000E+00  4.8968E-04
 43  0.0000E+00  2.2419E-03  2.0927E-03  3.0125E-04  2.5190E-03  3.2411E-03  8.7347E-04  0.0000E+00  1.0277E-03
 44  0.0000E+00  2.3290E-01  2.2636E-01  2.3149E-01  2.2896E-01  2.2357E-01  2.2297E-01  2.3749E-01  2.3407E-01
 45  0.0000E+00  5.5191E-03  4.7367E-03  1.0770E-03  6.0257E-03  6.0931E-03  0.0000E+00  0.0000E+00  1.1035E-02
 46  0.0000E+00  1.3243E-02  2.6333E-03  6.6925E-04  2.7102E-03  9.6166E-03  7.5382E-03  0.0000E+00  1.2454E-02
 47  1.2268E+00  2.6898E-02  1.1329E-02  2.9357E-02  2.6180E-02  0.0000E+00  4.7333E-03  2.2585E-02  4.2766E-02
 48  0.0000E+00  5.8980E-02  1.2620E-01  7.8162E-03  4.1482E-02  1.2409E-01  4.2887E-02  2.1750E-02  8.5812E-03
 49  3.2294E+01  1.0004E-01  1.1728E-01  8.9743E-02  5.6160E-02  1.0465E-01  1.3264E-02  1.0777E-01  9.7253E-02
 50  5.6021E+01  2.1264E-01  1.7163E-01  3.8927E-02  5.9111E-02  0.0000E+00  2.0708E-01  2.1800E-01  3.5062E-01
 51  0.0000E+00  1.1634E-04  0.0000E+00  7.5238E-05  5.3087E-05  0.0000E+00  5.5946E-05  6.6469E-05  0.0000E+00
 52  0.0000E+00  4.7744E-05  4.4867E-05  6.1972E-05  1.9056E-05  0.0000E+00  1.6484E-05  1.9189E-05  2.3364E-05
 53  0.0000E+00  9.4077E-05  0.0000E+00  9.2740E-05  3.2342E-05  9.7357E-05  9.2760E-05  9.4295E-05  3.4664E-07
 54  0.0000E+00  1.4067E-04  4.2763E-04  0.0000E+00  1.8416E-04  1.8546E-04  1.1241E-04  2.6566E-04  2.2371E-04
 55  0.0000E+00  2.2254E-04  0.0000E+00  0.0000E+00  0.0000E+00  1.5260E-04  5.7744E-04  0.0000E+00  1.4482E-04
 56  0.0000E+00  4.2638E-04  5.9060E-05  8.6619E-04  2.5341E-04  2.1453E-04  1.7490E-04  8.7030E-04  2.3254E-04
 57  0.0000E+00  5.1017E-04  4.5851E-05  5.3580E-04  3.0111E-04  0.0000E+00  7.2570E-04  5.3154E-04  6.6567E-05
 58  0.0000E+00  9.1668E-04  7.7074E-04  6.8882E-04  7.4974E-04  1.0181E-03  1.2173E-03  3.2407E-04  4.0419E-04
 59  1.0666E-01  2.0071E-03  3.1819E-03  2.7055E-03  5.7049E-04  1.5134E-03  0.0000E+00  6.6183E-04  3.0936E-03
 60  3.6104E-01  4.1283E-03  4.4651E-03  3.7455E-03  2.0603E-03  1.1818E-04  5.6362E-03  1.3306E-03  5.9245E-03
 61  4.6313E-01  6.3744E-03  8.1577E-03  1.0374E-03  0.0000E+00  7.5862E-03  9.4471E-04  3.1111E-03  9.3752E-03
 62  0.0000E+00  1.8983E-02  1.4926E-02  1.0452E-02  3.9509E-03  5.2596E-02  0.0000E+00  2.7830E-02  6.6301E-03
 63  4.3947E+00  3.8250E-02  4.1328E-03  4.4451E-03  1.5014E-03  0.0000E+00  9.8882E-02  0.0000E+00  5.0690E-02
 64  0.0000E+00  7.4001E-02  9.9569E-03  3.1225E-02  1.4016E-01  9.9961E-02  1.6538E-02  1.5190E-01  1.2545E-01
 65  0.0000E+00  5.6499E-01  4.3148E-01  4.2178E-01  4.6366E-01  6.1526E-01  5.2107E-01  2.6637E-01  7.5210E-01
 66  3.1646E+00  9.8051E+01  9.8469E+01  9.8818E+01  9.8672E+01  9.8479E+01  9.8283E+01  9.8599E+01  9.7760E+01

# AV, chi2 & Mass for <> & i_chain = 1 ...  7 solutions
AV      -1.0000     -0.9730     -1.0000     -1.0000     -1.0000     -1.0000     -1.0000     -1.0000     -1.0000
chi2 3.9717E-05  7.8229E-05  7.6296E-05  7.7080E-05  7.6872E-05  7.7308E-05  7.6634E-05  7.7978E-05  7.6069E-05
Mass 3.9838E-13  7.6920E-13  7.6177E-13  7.7760E-13  7.8499E-13  7.5998E-13  7.7068E-13  7.6129E-13  7.6313E-13
-130.95                                  [v0_min (km/s) before EX0s...]
 177.10                                  [vd_min (km/s) before EX0s...]


## Synthetic spectrum (Best Model) ##l_obs f_obs f_syn wei
 3478    [Nl_obs]
 3741.00    0.29773   0.56712    0.000
 3742.00    0.22233   0.53098    0.000
 3743.00    0.12828   0.49081    0.000
 3744.00    0.07935   0.45449    0.000
 3745.00    0.05670   0.42768    0.517
 3746.00    0.10158   0.41482   -1.000
 3747.00    0.18075   0.42054   -1.000
 3748.00    0.15033   0.44762   -1.000
 3749.00    0.07172   0.49388   -1.000
 3750.00    0.02692   0.55190   -1.000
 3751.00   -0.00512   0.60976    0.000
 3752.00    0.08887   0.65377   -1.000
 3753.00    0.22326   0.67391   -1.000
 3754.00    0.29688   0.66824   -1.000
 3755.00    0.35423   0.64371   -1.000
 3756.00    0.45046   0.61267   -1.000
 3757.00    0.55523   0.58760   -1.000
 3758.00    0.56182   0.57565   -1.000
 3759.00    0.55127   0.57628   -1.000
 3760.00    0.53600   0.58323   -1.000
 3761.00    0.52010   0.58951   -1.000
 3762.00    0.53615   0.59187   -1.000
 3763.00    0.55520   0.59129   -1.000
 3764.00    0.48119   0.59079   -1.000
 3765.00    0.40182   0.59378   -1.000
 3766.00    0.34968   0.60248   -1.000
 3767.00    0.29909   0.61722   -1.000
 3768.00    0.36004   0.63763   -1.000
 3769.00    0.41766   0.66191   -1.000
 3770.00    0.39434   0.68629   -1.000
 3771.00    0.37395   0.70752   -1.000
 3772.00    0.39194   0.72467   -1.000
 3773.00    0.41378   0.73829   -1.000
 3774.00    0.46954   0.75012   -1.000
 3775.00    0.51447   0.76298   -1.000
 3776.00    0.48929   0.77902   -1.000
 3777.00    0.46478   0.79784   -1.000
 3778.00    0.44375   0.81653   -1.000
 3779.00    0.42387   0.83116   -1.000
 3780.00    0.40878   0.83792   -1.000
 3781.00    0.40728   0.83299   -1.000
 3782.00    0.45191   0.81374   -1.000
 3783.00    0.48147   0.78087   -1.000
 3784.00    0.46794   0.73910   -1.000
 3785.00    0.46100   0.69599   -1.000
 3786.00    0.47014   0.65946   -1.000
 3787.00    0.44361   0.63492   -1.000
 3788.00    0.34190   0.62256   -1.000
 3789.00    0.27907   0.61688   -1.000
 3790.00    0.28744   0.61056   -1.000
 3791.00    0.26074   0.59883   -1.000
 3792.00    0.17788   0.58084   -1.000
 3793.00    0.13964   0.55903   -1.000
 3794.00    0.16406   0.53838   -1.000
 3795.00    0.17440   0.52491   -1.000
 3796.00    0.16735   0.52395   -1.000
 3797.00    0.17865   0.53870   -1.000
 3798.00    0.20994   0.56880   -1.000
 3799.00    0.23277   0.60978   -1.000
 3800.00    0.24746   0.65373   -1.000
 3801.00    0.24745   0.69149   -1.000
 3802.00    0.23499   0.71653   -1.000
 3803.00    0.25111   0.72811   -1.000
 3804.00    0.28855   0.73087   -1.000
 3805.00    0.33788   0.73149   -1.000
 3806.00    0.39501   0.73476   -1.000
 3807.00    0.37974   0.74041   -1.000
 3808.00    0.32292   0.74323   -1.000
 3809.00    0.32453   0.73637   -1.000
 3810.00    0.35533   0.71586   -1.000
 3811.00    0.36493   0.68383   -1.000
 3812.00    0.36536   0.64769   -1.000
 3813.00    0.40129   0.61565   -1.000
 3814.00    0.45039   0.59235   -1.000
 3815.00    0.44404   0.57718   -1.000
 3816.00    0.42025   0.56598   -1.000
 3817.00    0.25478   0.55509   -1.000
 3818.00    0.05215   0.54362   -1.000
 3819.00   -0.05661   0.53206    0.000
 3820.00   -0.14525   0.52046    0.000
 3821.00   -0.08005   0.50772    0.000
 3822.00    0.01125   0.49281   -1.000
 3823.00    0.12331   0.47632   -1.000
 3824.00    0.23803   0.46105   -1.000
 3825.00    0.13521   0.45034   -1.000
 3826.00    0.01287   0.44512   -1.000
 3827.00    0.03876   0.44260   -1.000
 3828.00    0.07262   0.43832   -1.000
 3829.00    0.08619   0.42965   -1.000
 3830.00    0.09836   0.41750   -1.000
 3831.00    0.02665   0.40547   -1.000
 3832.00   -0.03428   0.39724    0.000
 3833.00    0.14428   0.39452   -1.000
 3834.00    0.31107   0.39661   -1.000
 3835.00    0.33153   0.40186   -1.000
 3836.00    0.34155   0.41010   -1.000
 3837.00    0.26326   0.42363   -1.000
 3838.00    0.20182   0.44560   -1.000
 3839.00    0.24640   0.47720   -1.000
 3840.00    0.28026   0.51578   -1.000
 3841.00    0.26123   0.55538   -1.000
 3842.00    0.23532   0.58975   -1.000
 3843.00    0.18190   0.61488   -1.000
 3844.00    0.18506   0.62967   -1.000
 3845.00    0.37628   0.63562   -1.000
 3846.00    0.49280   0.63568   -1.000
 3847.00    0.39955   0.63319    0.000
 3848.00    0.31924   0.63101    0.000
 3849.00    0.26998   0.63020    0.000
 3850.00    0.20813   0.62956    0.000
 3851.00    0.12013   0.62660    0.000
 3852.00    0.08699   0.61901    0.000
 3853.00    0.15278   0.60588    0.000
 3854.00    0.21569   0.58859    0.000
 3855.00    0.27409   0.57068    0.000
 3856.00    0.27020   0.55662    0.000
 3857.00    0.18006   0.55094    0.000
 3858.00    0.12194   0.55695    0.000
 3859.00    0.10282   0.57453    0.000
 3860.00    0.16040   0.59927    0.000
 3861.00    0.30034   0.62414    0.000
 3862.00    0.39608   0.64255    0.000
 3863.00    0.44994   0.65096    0.000
 3864.00    0.41862   0.64957    0.000
 3865.00    0.31613   0.64076    0.000
 3866.00    0.30616   0.62710    0.000
 3867.00    0.36423   0.61096    0.000
 3868.00    0.42073   0.59545    0.000
 3869.00    0.47621   0.58483    0.000
 3870.00    0.45108   0.58305    0.000
 3871.00    0.38039   0.59097    0.000
 3872.00    0.35671   0.60466    0.000
 3873.00    0.35614   0.61684    0.000
 3874.00    0.38737   0.62094    0.000
 3875.00    0.43210   0.61496    0.000
 3876.00    0.39592   0.60209    0.000
 3877.00    0.33027   0.58816    0.000
 3878.00    0.30330   0.57799    0.000
 3879.00    0.28827   0.57315    0.000
 3880.00    0.27910   0.57192    0.000
 3881.00    0.27145   0.57060   -1.000
 3882.00    0.28360   0.56554   -1.000
 3883.00    0.29990   0.55591   -1.000
 3884.00    0.29190   0.54497   -1.000
 3885.00    0.27989   0.53876   -1.000
 3886.00    0.22521   0.54351   -1.000
 3887.00    0.16525   0.56273   -1.000
 3888.00    0.20327   0.59495   -1.000
 3889.00    0.24968   0.63349   -1.000
 3890.00    0.30540   0.66979   -1.000
 3891.00    0.36158   0.69772   -1.000
 3892.00    0.39193   0.71537   -1.000
 3893.00    0.42074   0.72461   -1.000
 3894.00    0.37831   0.72914   -1.000
 3895.00    0.34330   0.73220   -1.000
 3896.00    0.46020   0.73542   -1.000
 3897.00    0.57344   0.73910   -1.000
 3898.00    0.64328   0.74253   -1.000
 3899.00    0.69774   0.74416   -1.000
 3900.00    0.62696   0.74262   -1.000
 3901.00    0.55993   0.73821   -1.000
 3902.00    0.51579   0.73347   -1.000
 3903.00    0.48121   0.73292   -1.000
 3904.00    0.49261   0.74119   -1.000
 3905.00    0.51091   0.76045   -1.000
 3906.00    0.55621   0.78842   -1.000
 3907.00    0.59553   0.81937   -1.000
 3908.00    0.61539   0.84725   -1.000
 3909.00    0.64239   0.86756   -1.000
 3910.00    0.68906   0.87809   -1.000
 3911.00    0.74389   0.87899   -1.000
 3912.00    0.81803   0.87161   -1.000
 3913.00    0.87694   0.85739   -1.000
 3914.00    0.90481   0.83741   -1.000
 3915.00    0.86229   0.81268   -1.000
 3916.00    0.69475   0.78474   -1.000
 3917.00    0.59108   0.75596   -1.000
 3918.00    0.58665   0.72961   -1.000
 3919.00    0.59254   0.70884   -1.000
 3920.00    0.61254   0.69449   -1.000
 3921.00    0.59969   0.68391   -1.000
 3922.00    0.54738   0.67163   -1.000
 3923.00    0.50842   0.65157   -1.000
 3924.00    0.48359   0.61970   -1.000
 3925.00    0.51960   0.57573   -1.000
 3926.00    0.61242   0.52286   -1.000
 3927.00    0.55281   0.46606   -1.000
 3928.00    0.36766   0.41073   -1.000
 3929.00    0.23654   0.36181   -1.000
 3930.00    0.14458   0.32383   -1.000
 3931.00    0.08737   0.30113   -1.000
 3932.00    0.05229   0.29705   -1.000
 3933.00    0.03675   0.31291   -1.000
 3934.00    0.03208   0.34693   -1.000
 3935.00    0.19744   0.39414   -1.000
 3936.00    0.44510   0.44739   -1.000
 3937.00    0.46629   0.49908   -1.000
 3938.00    0.39280   0.54333   -1.000
 3939.00    0.40257   0.57773   -1.000
 3940.00    0.44213   0.60395   -1.000
 3941.00    0.48588   0.62661   -1.000
 3942.00    0.53091   0.65060   -1.000
 3943.00    0.46125   0.67849   -1.000
 3944.00    0.36279   0.70951   -1.000
 3945.00    0.41854   0.74062   -1.000
 3946.00    0.50573   0.76894   -1.000
 3947.00    0.59319   0.79298   -1.000
 3948.00    0.68069   0.81212   -1.000
 3949.00    0.72604   0.82624   -1.000
 3950.00    0.76635   0.83566   -1.000
 3951.00    0.71341   0.84055   -1.000
 3952.00    0.65287   0.84058   -1.000
 3953.00    0.65248   0.83530   -1.000
 3954.00    0.65486   0.82446   -1.000
 3955.00    0.62222   0.80770   -1.000
 3956.00    0.58945   0.78361   -1.000
 3957.00    0.57241   0.75002   -1.000
 3958.00    0.55698   0.70605   -1.000
 3959.00    0.57227   0.65345   -1.000
 3960.00    0.57849   0.59602    0.000
 3961.00    0.48265   0.53773    0.000
 3962.00    0.39736   0.48105    0.000
 3963.00    0.39495   0.42707    0.000
 3964.00    0.38634   0.37747    0.000
 3965.00    0.34091   0.33600    0.000
 3966.00    0.30461   0.30833    0.000
 3967.00    0.31110   0.30001    0.000
 3968.00    0.31260   0.31376    0.000
 3969.00    0.29497   0.34827    0.000
 3970.00    0.30797   0.39909    0.000
 3971.00    0.41891   0.46045    0.000
 3972.00    0.49779   0.52707    0.000
 3973.00    0.48982   0.59492    0.000
 3974.00    0.49879   0.66114    0.000
 3975.00    0.54707   0.72339    0.000
 3976.00    0.57273   0.77921    0.000
 3977.00    0.55298   0.82587    0.000
 3978.00    0.58911   0.86124    0.000
 3979.00    0.72302   0.88526    0.000
 3980.00    0.82549   0.90064    0.000
 3981.00    0.87984   0.91194    0.127
 3982.00    0.88099   0.92356    0.090
 3983.00    0.81059   0.93791    0.089
 3984.00    0.76605   0.95479    0.088
 3985.00    0.75214   0.97218    0.088
 3986.00    0.77796   0.98778    0.088
 3987.00    0.84525   1.00042    0.088
 3988.00    0.93713   1.01022    0.087
 3989.00    1.05166   1.01776    0.087
 3990.00    1.11145   1.02279    0.086
 3991.00    1.12680   1.02406    0.085
 3992.00    1.09324   1.02085    0.085
 3993.00    1.02471   1.01455    0.086
 3994.00    1.03038   1.00900    0.087
 3995.00    1.08257   1.00918    0.087
 3996.00    1.02965   1.01838    0.087
 3997.00    0.91914   1.03577    0.086
 3998.00    0.88125   1.05607    0.086
 3999.00    0.87795   1.07160    0.085
 4000.00    0.90390   1.07593    0.087
 4001.00    0.94187   1.06703    0.089
 4002.00    0.90605   1.04879    0.089
 4003.00    0.84431   1.02982    0.089
 4004.00    0.88292   1.01959    0.089
 4005.00    0.95127   1.02331    0.089
 4006.00    0.97487   1.03969    0.088
 4007.00    0.98747   1.06275    0.088
 4008.00    0.93912   1.08587    0.088
 4009.00    0.87865   1.10494    0.088
 4010.00    1.00221   1.11903    0.089
 4011.00    1.15436   1.12920    0.090
 4012.00    1.08788   1.13680    0.090
 4013.00    0.99625   1.14252    0.089
 4014.00    1.01558   1.14678    0.090
 4015.00    1.04350   1.15011    0.091
 4016.00    1.13194   1.15290    0.091
 4017.00    1.22294   1.15477    0.091
 4018.00    1.15301   1.15457    0.091
 4019.00    1.08220   1.15138    0.090
 4020.00    1.03692   1.14584    0.088
 4021.00    0.99476   1.14040    0.087
 4022.00    1.00775   1.13787    0.087
 4023.00    1.01789   1.13931    0.086
 4024.00    0.99747   1.14226    0.086
 4025.00    0.99209   1.14064    0.086
 4026.00    1.10089   1.12750    0.086
 4027.00    1.17556   1.09943    0.087
 4028.00    1.05338   1.05975    0.087
 4029.00    0.96592   1.01810    0.087
 4030.00    1.03753   0.98673    0.087
 4031.00    1.06880   0.97554    0.086
 4032.00    0.94874   0.98833    0.085
 4033.00    0.86313   1.02164    0.096
 4034.00    0.88548   1.06633    0.227
 4035.00    0.92445   1.11056   -1.000
 4036.00    1.00764   1.14376   -1.000
 4037.00    1.06768   1.15967   -1.000
 4038.00    1.07486   1.15656   -1.000
 4039.00    1.07200   1.13569   -1.000
 4040.00    1.04928   1.09996   -1.000
 4041.00    1.00000   1.05448   -1.000
 4042.00    0.90497   1.00832   -1.000
 4043.00    0.84829   0.97393   -1.000
 4044.00    0.84946   0.96261   -1.000
 4045.00    0.87047   0.97836   -1.000
 4046.00    0.91778   1.01486   -1.000
 4047.00    0.95592   1.05863    0.372
 4048.00    0.98333   1.09546    0.117
 4049.00    1.04364   1.11616    0.088
 4050.00    1.13781   1.11856    0.089
 4051.00    1.11443   1.10616    0.089
 4052.00    0.98428   1.08541    0.088
 4053.00    0.94316   1.06297    0.088
 4054.00    0.97330   1.04403    0.088
 4055.00    0.94073   1.03147    0.087
 4056.00    0.86402   1.02524    0.086
 4057.00    0.87586   1.02200    0.087
 4058.00    0.94238   1.01640    0.089
 4059.00    0.92666   1.00427    0.089
 4060.00    0.86656   0.98617    0.089
 4061.00    0.90704   0.96825    0.090
 4062.00    0.99467   0.95886    0.090
 4063.00    1.00883   0.96330    0.089
 4064.00    0.99331   0.98057    0.088
 4065.00    0.99640   1.00418    0.087
 4066.00    1.00591   1.02575    0.087
 4067.00    0.99964   1.03897    0.086
 4068.00    0.98879   1.04216    0.086
 4069.00    0.92047   1.03799    0.086
 4070.00    0.83835   1.03085    0.085
 4071.00    0.86706   1.02311    0.085
 4072.00    0.91725   1.01405    0.085
 4073.00    1.03090   1.00254    0.085
 4074.00    1.15411   0.99106    0.085
 4075.00    1.11357   0.98632    0.084
 4076.00    1.05492   0.99508    0.082
 4077.00    0.92460   1.01888    0.083
 4078.00    0.78904   1.05182    0.083
 4079.00    1.00829   1.08391    0.084
 4080.00    1.24112   1.10702    0.084
 4081.00    1.28773   1.11951    0.084
 4082.00    1.33104   1.12611    0.084
 4083.00    1.28893   1.13397    0.083
 4084.00    1.24983   1.14756    0.083
 4085.00    1.26041   1.16606    0.083
 4086.00    1.26041   1.18422    0.083
 4087.00    1.15166   1.19585    0.083
 4088.00    1.06447   1.19706    0.082
 4089.00    1.13555   1.18743    0.084
 4090.00    1.18092   1.16875    0.085
 4091.00    1.08205   1.14313    0.084
 4092.00    0.99787   1.11210    0.000
 4093.00    0.97947   1.07696    0.000
 4094.00    0.96036   1.03934    0.000
 4095.00    0.93867   1.00107    0.000
 4096.00    0.91721   0.96373    0.000
 4097.00    0.89647   0.92919    0.000
 4098.00    0.90428   0.90081    0.000
 4099.00    0.98673   0.88372    0.000
 4100.00    1.06693   0.88298    0.000
 4101.00    1.14212   0.90037    0.000
 4102.00    1.19285   0.93241    0.000
 4103.00    1.19598   0.97117    0.000
 4104.00    1.13291   1.00753    0.000
 4105.00    0.95750   1.03463    0.000
 4106.00    0.87100   1.05016    0.000
 4107.00    0.91668   1.05656    0.000
 4108.00    0.94750   1.05918    0.000
 4109.00    0.95892   1.06366    0.000
 4110.00    0.94941   1.07328    0.000
 4111.00    0.91580   1.08763    0.000
 4112.00    0.93931   1.10304    0.000
 4113.00    1.02080   1.11455    0.083
 4114.00    1.12264   1.11842    0.083
 4115.00    1.24270   1.11399    0.082
 4116.00    1.27194   1.10400    0.114
 4117.00    1.22951   1.09302    0.391
 4118.00    1.18281   1.08527   -1.000
 4119.00    1.13314   1.08282   -1.000
 4120.00    1.12012   1.08531   -1.000
 4121.00    1.12940   1.09053   -1.000
 4122.00    1.19196   1.09541   -1.000
 4123.00    1.28282   1.09678   -1.000
 4124.00    1.29652   1.09230    0.235
 4125.00    1.27464   1.08115    0.095
 4126.00    1.25059   1.06416    0.081
 4127.00    1.22569   1.04341    0.081
 4128.00    1.09207   1.02193    0.079
 4129.00    0.92166   1.00365    0.077
 4130.00    0.90082   0.99321    0.076
 4131.00    0.92253   0.99465    0.076
 4132.00    0.98843   1.00935    0.076
 4133.00    1.06471   1.03470    0.077
 4134.00    1.06201   1.06455    0.078
 4135.00    1.04440   1.09117    0.079
 4136.00    1.07284   1.10750    0.079
 4137.00    1.10801   1.10874    0.078
 4138.00    1.05479   1.09361    0.077
 4139.00    0.99219   1.06533    0.076
 4140.00    0.95704   1.03187    0.076
 4141.00    0.92380   1.00362    0.076
 4142.00    0.81298   0.98915    0.076
 4143.00    0.69948   0.99076    0.075
 4144.00    0.77280   1.00377    0.076
 4145.00    0.84809   1.01964    0.076
 4146.00    0.97634   1.03092    0.076
 4147.00    1.08993   1.03435    0.077
 4148.00    0.97677   1.03091    0.076
 4149.00    0.88205   1.02358    0.076
 4150.00    0.96915   1.01525    0.077
 4151.00    1.04304   1.00812    0.077
 4152.00    1.02319   1.00405    0.077
 4153.00    1.00744   1.00497    0.077
 4154.00    1.01406   1.01251    0.077
 4155.00    1.03918   1.02710    0.076
 4156.00    1.14518   1.04735    0.077
 4157.00    1.21760   1.07031    0.077
 4158.00    1.16929   1.09239    0.078
 4159.00    1.10377   1.11030    0.077
 4160.00    0.98634   1.12158    0.076
 4161.00    0.92715   1.12489    0.076
 4162.00    1.01751   1.12031    0.077
 4163.00    1.08922   1.10967    0.077
 4164.00    1.11972   1.09594    0.078
 4165.00    1.14096   1.08182    0.078
 4166.00    1.14444   1.06804    0.079
 4167.00    1.12755   1.05303    0.079
 4168.00    1.07661   1.03458    0.079
 4169.00    1.04129   1.01242    0.078
 4170.00    1.02886   0.98953    0.077
 4171.00    1.05660   0.97092    0.077
 4172.00    1.13608   0.96062    0.079
 4173.00    1.18292   0.95947    0.080
 4174.00    1.19271   0.96537    0.080
 4175.00    1.14461   0.97508    0.080
 4176.00    1.03858   0.98597    0.079
 4177.00    0.95291   0.99666    0.078
 4178.00    0.88521   1.00673    0.078
 4179.00    0.87730   1.01635    0.079
 4180.00    0.91588   1.02572    0.079
 4181.00    0.90981   1.03443    0.079
 4182.00    0.87320   1.04116    0.078
 4183.00    0.95547   1.04450    0.078
 4184.00    1.10899   1.04443    0.078
 4185.00    1.10273   1.04322    0.078
 4186.00    1.01291   1.04425    0.078
 4187.00    1.02847   1.04987    0.078
 4188.00    1.09182   1.05971    0.078
 4189.00    1.08737   1.07061    0.077
 4190.00    1.05645   1.07785    0.075
 4191.00    1.03322   1.07690    0.075
 4192.00    1.01253   1.06519    0.076
 4193.00    1.04698   1.04353    0.076
 4194.00    1.09679   1.01615    0.075
 4195.00    1.06563   0.98915    0.077
 4196.00    1.01589   0.96802    0.079
 4197.00    1.00718   0.95581    0.077
 4198.00    1.00602   0.95312    0.075
 4199.00    0.97377   0.95919    0.074
 4200.00    0.93714   0.97302    0.074
 4201.00    0.99316   0.99358    0.073
 4202.00    1.05863   1.01917    0.072
 4203.00    1.06517   1.04707    0.072
 4204.00    1.06787   1.07373    0.071
 4205.00    1.15408   1.09579    0.072
 4206.00    1.24263   1.11105    0.073
 4207.00    1.18397   1.11893    0.074
 4208.00    1.12855   1.11999    0.074
 4209.00    1.16844   1.11510    0.074
 4210.00    1.20722   1.10528    0.075
 4211.00    1.22983   1.09266    0.074
 4212.00    1.24296   1.08151    0.074
 4213.00    1.16649   1.07756    0.073
 4214.00    1.10755   1.08523    0.073
 4215.00    1.16923   1.10438    0.074
 4216.00    1.22546   1.12898    0.074
 4217.00    1.25274   1.14900    0.073
 4218.00    1.27491   1.15417    0.072
 4219.00    1.27531   1.13744    0.073
 4220.00    1.25413   1.09716    0.073
 4221.00    1.15689   1.03816    0.072
 4222.00    1.06755   0.97150    0.071
 4223.00    1.00163   0.91258    0.072
 4224.00    0.93752   0.87673    0.072
 4225.00    0.87795   0.87353    0.071
 4226.00    0.86450   0.90223    0.071
 4227.00    0.95126   0.95151    0.071
 4228.00    1.02880   1.00459    0.072
 4229.00    1.08894   1.04637    0.071
 4230.00    1.12062   1.06915    0.071
 4231.00    1.10546   1.07377    0.071
 4232.00    1.06921   1.06689    0.070
 4233.00    1.00251   1.05679    0.070
 4234.00    0.94061   1.05027    0.069
 4235.00    0.88482   1.05126    0.067
 4236.00    0.86807   1.06102    0.067
 4237.00    0.89502   1.07881    0.067
 4238.00    0.98209   1.10255    0.067
 4239.00    1.12849   1.12920    0.068
 4240.00    1.17562   1.15488    0.069
 4241.00    1.13635   1.17502    0.069
 4242.00    1.06656   1.18498    0.069
 4243.00    0.97338   1.18140    0.069
 4244.00    1.02033   1.16373    0.071
 4245.00    1.16172   1.13521    0.074
 4246.00    1.19552   1.10216    0.076
 4247.00    1.16579   1.07174    0.076
 4248.00    1.20727   1.04933    0.076
 4249.00    1.28541   1.03694    0.077
 4250.00    1.15285   1.03354    0.076
 4251.00    0.92629   1.03671    0.074
 4252.00    0.97525   1.04389    0.074
 4253.00    1.12986   1.05254    0.075
 4254.00    1.15162   1.05956    0.075
 4255.00    1.13007   1.06196    0.074
 4256.00    1.11885   1.05921    0.074
 4257.00    1.11044   1.05522    0.074
 4258.00    1.11511   1.05728    0.074
 4259.00    1.12271   1.07187    0.075
 4260.00    1.11625   1.10004    0.074
 4261.00    1.10729   1.13584    0.074
 4262.00    1.11952   1.16875    0.074
 4263.00    1.13466   1.18807    0.074
 4264.00    1.16363   1.18679    0.074
 4265.00    1.19395   1.16313    0.074
 4266.00    1.24071   1.12042    0.074
 4267.00    1.28848   1.06600    0.074
 4268.00    1.17166   1.00988    0.072
 4269.00    1.05129   0.96271    0.071
 4270.00    1.10566   0.93345    0.072
 4271.00    1.15890   0.92720    0.073
 4272.00    1.18226   0.94377    0.072
 4273.00    1.20005   0.97796    0.071
 4274.00    1.14127   1.02080    0.071
 4275.00    1.08402   1.06196    0.070
 4276.00    1.04078   1.09303    0.071
 4277.00    1.00564   1.11009    0.071
 4278.00    1.02439   1.11440    0.071
 4279.00    1.04125   1.11034    0.070
 4280.00    1.04827   1.10232    0.069
 4281.00    1.07546   1.09248    0.069
 4282.00    1.18684   1.08043   -2.000
 4283.00    1.28272   1.06470   -2.000
 4284.00    1.32505   1.04446   -2.000
 4285.00    1.32085   1.02079   -2.000
 4286.00    1.18140   0.99715   -2.000
 4287.00    1.08409   0.97876   -2.000
 4288.00    1.09133   0.97034   -2.000
 4289.00    1.10228   0.97334   -2.000
 4290.00    1.12116   0.98444   -2.000
 4291.00    1.11663   0.99656   -2.000
 4292.00    1.06862   1.00173   -2.000
 4293.00    1.04648   0.99423   -2.000
 4294.00    1.06628   0.97221   -2.000
 4295.00    1.06874   0.93808   -2.000
 4296.00    1.04651   0.89759   -2.000
 4297.00    1.05055   0.85827   -2.000
 4298.00    1.08746   0.82680    0.073
 4299.00    1.09515   0.80651    0.073
 4300.00    1.07058   0.79639    0.072
 4301.00    1.02260   0.79195    0.072
 4302.00    0.95183   0.78786    0.071
 4303.00    0.91318   0.78078    0.070
 4304.00    0.90209   0.77116    0.071
 4305.00    0.87191   0.76330    0.071
 4306.00    0.82730   0.76359    0.070
 4307.00    0.79660   0.77769    0.070
 4308.00    0.77514   0.80843    0.070
 4309.00    0.80212   0.85526    0.070
 4310.00    0.85728   0.91540    0.070
 4311.00    0.93107   0.98512    0.070
 4312.00    1.01431   1.05998    0.070
 4313.00    1.05418   1.13415    0.070
 4314.00    1.07501   1.20004    0.070
 4315.00    1.14047   1.24962    0.070
 4316.00    1.22274   1.27651    0.072
 4317.00    1.19337   1.27773    0.072
 4318.00    1.12831   1.25414    0.072
 4319.00    1.09896   1.20992    0.072
 4320.00    1.07916   1.15245    0.071
 4321.00    1.11435   1.09250    0.071
 4322.00    1.16157   1.04339    0.072
 4323.00    1.13119   1.01753    0.072
 4324.00    1.08731   1.02164    0.072
 4325.00    1.07386   1.05333    0.073
 4326.00    1.06444   1.10189    0.073
 4327.00    1.09368   1.15368    0.073
 4328.00    1.12652   1.19795    0.073
 4329.00    1.18337   1.22936    0.073
 4330.00    1.24158   1.24667    0.000
 4331.00    1.22979   1.24925    0.000
 4332.00    1.21590   1.23544    0.000
 4333.00    1.14821   1.20342    0.000
 4334.00    1.08433   1.15423    0.000
 4335.00    1.11183   1.09443    0.000
 4336.00    1.13753   1.03561    0.000
 4337.00    1.13976   0.99061    0.000
 4338.00    1.13986   0.96911    0.000
 4339.00    1.12137   0.97433    0.000
 4340.00    1.09982   1.00235    0.000
 4341.00    1.05850   1.04472    0.000
 4342.00    1.02615   1.09213    0.000
 4343.00    1.03906   1.13698    0.000
 4344.00    1.05628   1.17371    0.000
 4345.00    1.09113   1.19805    0.000
 4346.00    1.12131   1.20701    0.000
 4347.00    1.13565   1.20030    0.000
 4348.00    1.16015   1.18175    0.000
 4349.00    1.21365   1.15921    0.000
 4350.00    1.23798   1.14227    0.000
 4351.00    1.19122   1.13812    0.071
 4352.00    1.18126   1.14796    0.085
 4353.00    1.24873   1.16714    0.216
 4354.00    1.30427   1.18880   -1.000
 4355.00    1.33801   1.20812   -1.000
 4356.00    1.37709   1.22403   -1.000
 4357.00    1.42468   1.23844   -1.000
 4358.00    1.43507   1.25419   -1.000
 4359.00    1.39331   1.27259   -1.000
 4360.00    1.35444   1.29197    0.317
 4361.00    1.31915   1.30797    0.098
 4362.00    1.30032   1.31604    0.071
 4363.00    1.29939   1.31367    0.070
 4364.00    1.31309   1.30145    0.069
 4365.00    1.34084   1.28265    0.069
 4366.00    1.32224   1.26175    0.069
 4367.00    1.26445   1.24205    0.069
 4368.00    1.22340   1.22401    0.069
 4369.00    1.19483   1.20598    0.069
 4370.00    1.16233   1.18698    0.068
 4371.00    1.12726   1.16891    0.066
 4372.00    1.13885   1.15615    0.066
 4373.00    1.17716   1.15258    0.067
 4374.00    1.19632   1.15810    0.067
 4375.00    1.20592   1.16734    0.067
 4376.00    1.18503   1.17108    0.067
 4377.00    1.15098   1.15988    0.067
 4378.00    1.14989   1.12857    0.068
 4379.00    1.16099   1.07994    0.069
 4380.00    1.13049   1.02548    0.068
 4381.00    1.08695   0.98050    0.067
 4382.00    1.04547   0.95724    0.066
 4383.00    1.00453   0.95964    0.065
 4384.00    1.05220   0.98296    0.065
 4385.00    1.11879   1.01686    0.066
 4386.00    1.17668   1.05108    0.066
 4387.00    1.23310   1.07976    0.066
 4388.00    1.23375   1.10208    0.065
 4389.00    1.22728   1.11975    0.065
 4390.00    1.21816   1.13517    0.066
 4391.00    1.20880   1.15071    0.068
 4392.00    1.18602   1.16813    0.067
 4393.00    1.16252   1.18696    0.067
 4394.00    1.20896   1.20396    0.066
 4395.00    1.25649   1.21491    0.066
 4396.00    1.28111   1.21634    0.066
 4397.00    1.30135   1.20756    0.066
 4398.00    1.22553   1.19006    0.066
 4399.00    1.15149   1.16517    0.067
 4400.00    1.09939   1.13482    0.066
 4401.00    1.05010   1.10377    0.066
 4402.00    1.02449   1.07848    0.066
 4403.00    1.00238   1.06436    0.067
 4404.00    1.00219   1.06520    0.068
 4405.00    1.01517   1.08253    0.069
 4406.00    1.09294   1.11398    0.068
 4407.00    1.17595   1.15295    0.068
 4408.00    1.27991   1.19073    0.068
 4409.00    1.35916   1.21860    0.068
 4410.00    1.35647   1.23039    0.068
 4411.00    1.36963   1.22611    0.068
 4412.00    1.42715   1.21308    0.069
 4413.00    1.42809   1.20157    0.070
 4414.00    1.29343   1.19955    0.068
 4415.00    1.21451   1.20934    0.067
 4416.00    1.25092   1.22680    0.068
 4417.00    1.25446   1.24380    0.068
 4418.00    1.19881   1.25339    0.067
 4419.00    1.18764   1.25375    0.067
 4420.00    1.24646   1.24794    0.067
 4421.00    1.29376   1.24064    0.068
 4422.00    1.32512   1.23523    0.070
 4423.00    1.30485   1.23314    0.070
 4424.00    1.22180   1.23374    0.068
 4425.00    1.25210   1.23488    0.068
 4426.00    1.40393   1.23403    0.069
 4427.00    1.43725   1.23002    0.070
 4428.00    1.35850   1.22337    0.070
 4429.00    1.30107   1.21415    0.070
 4430.00    1.26142   1.20247    0.070
 4431.00    1.24731   1.19082    0.070
 4432.00    1.25195   1.18423    0.070
 4433.00    1.23683   1.18776    0.069
 4434.00    1.20898   1.20265    0.068
 4435.00    1.24320   1.22454    0.069
 4436.00    1.31242   1.24540    0.071
 4437.00    1.26325   1.25736    0.071
 4438.00    1.15595   1.25745    0.070
 4439.00    1.22843   1.24951    0.071
 4440.00    1.37718   1.24175    0.072
 4441.00    1.45430   1.24195    0.073
 4442.00    1.50538   1.25288    0.074
 4443.00    1.41385   1.27116    0.072
 4444.00    1.27846   1.29067    0.070
 4445.00    1.25259   1.30632    0.071
 4446.00    1.25475   1.31417    0.071
 4447.00    1.28977   1.31219    0.071
 4448.00    1.33163   1.30111    0.070
 4449.00    1.37093   1.28181    0.071
 4450.00    1.40980   1.25479    0.071
 4451.00    1.45019   1.22222    0.071
 4452.00    1.49077   1.18857    0.071
 4453.00    1.31451   1.15911    0.070
 4454.00    1.11979   1.13660    0.068
 4455.00    1.20185   1.12105    0.068
 4456.00    1.29756   1.11197    0.068
 4457.00    1.21618   1.10903    0.068
 4458.00    1.13458   1.11200    0.068
 4459.00    1.21698   1.12207    0.068
 4460.00    1.29096   1.13996    0.067
 4461.00    1.19472   1.16242    0.000
 4462.00    1.11367   1.18448    0.000
 4463.00    1.21121   1.20279    0.000
 4464.00    1.30414   1.21586    0.000
 4465.00    1.35977   1.22416    0.000
 4466.00    1.39887   1.23044    0.000
 4467.00    1.33742   1.23909    0.000
 4468.00    1.29487   1.25342    0.000
 4469.00    1.34302   1.27399    0.000
 4470.00    1.38353   1.29895    0.000
 4471.00    1.39419   1.32461    0.000
 4472.00    1.39680   1.34690    0.000
 4473.00    1.37330   1.36294    0.000
 4474.00    1.37014   1.37038    0.000
 4475.00    1.42294   1.36659    0.000
 4476.00    1.44505   1.35081    0.000
 4477.00    1.39482   1.32671    0.000
 4478.00    1.37412   1.30234    0.000
 4479.00    1.41354   1.28661    0.000
 4480.00    1.42369   1.28530    0.000
 4481.00    1.38195   1.29766    0.000
 4482.00    1.35225   1.31690    0.066
 4483.00    1.34124   1.33401    0.067
 4484.00    1.33131   1.34155    0.067
 4485.00    1.32286   1.33678    0.067
 4486.00    1.32674   1.32270    0.067
 4487.00    1.34540   1.30589    0.066
 4488.00    1.34355   1.29203    0.066
 4489.00    1.32001   1.28278    0.066
 4490.00    1.32929   1.27623    0.066
 4491.00    1.36917   1.27034    0.066
 4492.00    1.39047   1.26636    0.066
 4493.00    1.39650   1.26778    0.066
 4494.00    1.37235   1.27699    0.066
 4495.00    1.32637   1.29370    0.065
 4496.00    1.31217   1.31501    0.064
 4497.00    1.31816   1.33741    0.064
 4498.00    1.33575   1.35900    0.064
 4499.00    1.35978   1.38054    0.065
 4500.00    1.39125   1.40322    0.065
 4501.00    1.42632   1.42522    0.065
 4502.00    1.42634   1.44257    0.064
 4503.00    1.41172   1.45258    0.063
 4504.00    1.42121   1.45512    0.063
 4505.00    1.43931   1.45210    0.064
 4506.00    1.46995   1.44598    0.064
 4507.00    1.50437   1.43808    0.064
 4508.00    1.52799   1.42796    0.065
 4509.00    1.54890   1.41459    0.065
 4510.00    1.49676   1.39834    0.065
 4511.00    1.42977   1.38154    0.064
 4512.00    1.42476   1.36715    0.064
 4513.00    1.42964   1.35748    0.063
 4514.00    1.45748   1.35305    0.064
 4515.00    1.48806   1.35305    0.064
 4516.00    1.47188   1.35652    0.064
 4517.00    1.45193   1.36138    0.065
 4518.00    1.47092   1.36354    0.064
 4519.00    1.49168   1.35861    0.064
 4520.00    1.43629   1.34409    0.063
 4521.00    1.38042   1.32059    0.062
 4522.00    1.34801   1.29026    0.062
 4523.00    1.31548   1.25553    0.062
 4524.00    1.28075   1.22051    0.061
 4525.00    1.24655   1.19034    0.060
 4526.00    1.21837   1.16920    0.060
 4527.00    1.19276   1.15908    0.061
 4528.00    1.18736   1.15904    0.061
 4529.00    1.18395   1.16599    0.061
 4530.00    1.19237   1.17662    0.061
 4531.00    1.20422   1.18875    0.061
 4532.00    1.23217   1.20340    0.061
 4533.00    1.25323   1.22330    0.061
 4534.00    1.24793   1.24897    0.061
 4535.00    1.24821   1.27601    0.061
 4536.00    1.26628   1.29759    0.061
 4537.00    1.28828   1.31026    0.062
 4538.00    1.32089   1.31511    0.062
 4539.00    1.34114   1.31521    0.063
 4540.00    1.33277   1.31322    0.063
 4541.00    1.32807   1.30938    0.062
 4542.00    1.33071   1.30311    0.062
 4543.00    1.33514   1.29549    0.061
 4544.00    1.34270   1.28802    0.061
 4545.00    1.32089   1.28073    0.061
 4546.00    1.25418   1.27348    0.061
 4547.00    1.21269   1.26728    0.061
 4548.00    1.20505   1.26389    0.061
 4549.00    1.21622   1.26308    0.061
 4550.00    1.24962   1.26335    0.000
 4551.00    1.29797   1.26575    0.000
 4552.00    1.36191   1.27275    0.000
 4553.00    1.38086   1.28639    0.000
 4554.00    1.35844   1.30689    0.000
 4555.00    1.34515   1.33099    0.000
 4556.00    1.33926   1.35305    0.000
 4557.00    1.33822   1.36852    0.000
 4558.00    1.34065   1.37505    0.000
 4559.00    1.35651   1.37272    0.000
 4560.00    1.38078   1.36323    0.000
 4561.00    1.38447   1.34981    0.000
 4562.00    1.37690   1.33821    0.000
 4563.00    1.41844   1.33376    0.000
 4564.00    1.48334   1.33794    0.000
 4565.00    1.46640   1.34752    0.000
 4566.00    1.41591   1.35652    0.000
 4567.00    1.38205   1.36128    0.000
 4568.00    1.35403   1.36172    0.000
 4569.00    1.40523   1.35996    0.000
 4570.00    1.47985   1.36033    0.000
 4571.00    1.49398   1.36412    0.000
 4572.00    1.49330   1.36701    0.000
 4573.00    1.45984   1.36552    0.000
 4574.00    1.41989   1.35866    0.000
 4575.00    1.41995   1.34564    0.000
 4576.00    1.42622   1.32708    0.000
 4577.00    1.39150   1.30599    0.000
 4578.00    1.35209   1.28709    0.000
 4579.00    1.33878   1.27464    0.000
 4580.00    1.32748   1.26980    0.000
 4581.00    1.31491   1.27080    0.000
 4582.00    1.30228   1.27626    0.000
 4583.00    1.29228   1.28581    0.000
 4584.00    1.28323   1.29866    0.000
 4585.00    1.31445   1.31344    0.000
 4586.00    1.34501   1.32656    0.000
 4587.00    1.36420   1.33363    0.000
 4588.00    1.38650   1.33220    0.000
 4589.00    1.44206   1.32306    0.000
 4590.00    1.48824   1.30988    0.000
 4591.00    1.46359   1.29680    0.000
 4592.00    1.43650   1.28604    0.000
 4593.00    1.39546   1.27864    0.000
 4594.00    1.35261   1.27538    0.000
 4595.00    1.30152   1.27560    0.000
 4596.00    1.26663   1.27788    0.000
 4597.00    1.29239   1.28091    0.000
 4598.00    1.29671   1.28333    0.000
 4599.00    1.23398   1.28621    0.000
 4600.00    1.20307   1.29112    0.000
 4601.00    1.25662   1.29822    0.000
 4602.00    1.31948   1.30829    0.000
 4603.00    1.40358   1.32231    0.000
 4604.00    1.42860   1.34081    0.000
 4605.00    1.33707   1.36213    0.000
 4606.00    1.29309   1.38218    0.000
 4607.00    1.33087   1.39634    0.000
 4608.00    1.37107   1.40197    0.000
 4609.00    1.41494   1.40064    0.000
 4610.00    1.43609   1.39633    0.000
 4611.00    1.42716   1.39244    0.000
 4612.00    1.41955   1.39118    0.000
 4613.00    1.41346   1.39253    0.000
 4614.00    1.42736   1.39445    0.000
 4615.00    1.46179   1.39624    0.000
 4616.00    1.51294   1.39732    0.000
 4617.00    1.57925   1.39748    0.000
 4618.00    1.56027   1.39825    0.000
 4619.00    1.47316   1.39980    0.000
 4620.00    1.45161   1.40021    0.000
 4621.00    1.47615   1.39907    0.000
 4622.00    1.46832   1.39693    0.000
 4623.00    1.44052   1.39365    0.000
 4624.00    1.40445   1.39012    0.000
 4625.00    1.36393   1.38757    0.000
 4626.00    1.34437   1.38547    0.000
 4627.00    1.33462   1.38271    0.000
 4628.00    1.38833   1.37944    0.000
 4629.00    1.46762   1.37509    0.000
 4630.00    1.46005   1.36726    0.000
 4631.00    1.42260   1.35529    0.000
 4632.00    1.39394   1.34146    0.000
 4633.00    1.36782   1.32771    0.000
 4634.00    1.38101   1.31456    0.000
 4635.00    1.40362   1.30254    0.000
 4636.00    1.38283   1.29310    0.000
 4637.00    1.35366   1.28732    0.000
 4638.00    1.27614   1.28456    0.000
 4639.00    1.19136   1.28315    0.000
 4640.00    1.25521   1.27959    0.000
 4641.00    1.33541   1.27050    0.000
 4642.00    1.40516   1.25616    0.000
 4643.00    1.47414   1.23986    0.000
 4644.00    1.38539   1.22590    0.000
 4645.00    1.29068   1.21941    0.000
 4646.00    1.26298   1.22348    0.000
 4647.00    1.23700   1.23674    0.000
 4648.00    1.26211   1.25469    0.000
 4649.00    1.28431   1.27203    0.000
 4650.00    1.25895   1.28519    0.000
 4651.00    1.23769   1.29322    0.000
 4652.00    1.25853   1.29756    0.000
 4653.00    1.27758   1.30228    0.000
 4654.00    1.28367   1.31152    0.000
 4655.00    1.29511   1.32612    0.000
 4656.00    1.33646   1.34306    0.000
 4657.00    1.35915   1.35632    0.000
 4658.00    1.29861   1.35959    0.000
 4659.00    1.25205   1.34973    0.000
 4660.00    1.25674   1.32769    0.000
 4661.00    1.28079   1.29743    0.000
 4662.00    1.36428   1.26403    0.000
 4663.00    1.41147   1.23189    0.000
 4664.00    1.36401   1.20450    0.000
 4665.00    1.30758   1.18679    0.000
 4666.00    1.23104   1.18396    0.000
 4667.00    1.18817   1.19644    0.000
 4668.00    1.21073   1.21879    0.000
 4669.00    1.22495   1.24380    0.000
 4670.00    1.22506   1.26583    0.000
 4671.00    1.21561   1.28237    0.000
 4672.00    1.19196   1.29357    0.000
 4673.00    1.22283   1.30019    0.000
 4674.00    1.32480   1.30215    0.000
 4675.00    1.34378   1.29855    0.000
 4676.00    1.26740   1.28979    0.000
 4677.00    1.20187   1.27916    0.000
 4678.00    1.14731   1.27068    0.000
 4679.00    1.18247   1.26680    0.000
 4680.00    1.29779   1.26828    0.000
 4681.00    1.33939   1.27404    0.000
 4682.00    1.32293   1.28093    0.000
 4683.00    1.30564   1.28579    0.000
 4684.00    1.28778   1.28754    0.000
 4685.00    1.30086   1.28642    0.000
 4686.00    1.33273   1.28367    0.000
 4687.00    1.33322   1.28126    0.000
 4688.00    1.31708   1.28032    0.000
 4689.00    1.29904   1.28118    0.000
 4690.00    1.28014   1.28431    0.000
 4691.00    1.26239   1.28913    0.000
 4692.00    1.24511   1.29339    0.000
 4693.00    1.29527   1.29449    0.000
 4694.00    1.36820   1.29016    0.000
 4695.00    1.36487   1.27921    0.000
 4696.00    1.33990   1.26311    0.000
 4697.00    1.30433   1.24616    0.000
 4698.00    1.26629   1.23255    0.000
 4699.00    1.27338   1.22333    0.000
 4700.00    1.28897   1.21781    0.000
 4701.00    1.24540   1.21589    0.000
 4702.00    1.19323   1.21756    0.000
 4703.00    1.20472   1.22124    0.000
 4704.00    1.22295   1.22451    0.000
 4705.00    1.22971   1.22680    0.000
 4706.00    1.23569   1.22982    0.000
 4707.00    1.21964   1.23519    0.000
 4708.00    1.20284   1.24319    0.000
 4709.00    1.18834   1.25281    0.000
 4710.00    1.17601   1.26204    0.000
 4711.00    1.23419   1.27004    0.000
 4712.00    1.29062   1.27875    0.000
 4713.00    1.32024   1.29119    0.000
 4714.00    1.34378   1.30876    0.000
 4715.00    1.30775   1.32902    0.000
 4716.00    1.27709   1.34796    0.000
 4717.00    1.28433   1.36331    0.000
 4718.00    1.29977   1.37374    0.000
 4719.00    1.35982   1.37796    0.000
 4720.00    1.39829   1.37572    0.000
 4721.00    1.34277   1.36790    0.000
 4722.00    1.30512   1.35519    0.000
 4723.00    1.33158   1.33706    0.000
 4724.00    1.34213   1.31321    0.000
 4725.00    1.30480   1.28600    0.000
 4726.00    1.28740   1.26107    0.000
 4727.00    1.32109   1.24446    0.000
 4728.00    1.35209   1.23847    0.000
 4729.00    1.37719   1.24160    0.000
 4730.00    1.38021   1.25105    0.000
 4731.00    1.34100   1.26339    0.000
 4732.00    1.30881   1.27546    0.000
 4733.00    1.28832   1.28573    0.000
 4734.00    1.27549   1.29364    0.000
 4735.00    1.27384   1.29992    0.000
 4736.00    1.28488   1.30677    0.000
 4737.00    1.31221   1.31406    0.000
 4738.00    1.31111   1.31958    0.000
 4739.00    1.27780   1.32363    0.000
 4740.00    1.28735   1.32833    0.000
 4741.00    1.33973   1.33428    0.000
 4742.00    1.32693   1.34035    0.000
 4743.00    1.25671   1.34567    0.000
 4744.00    1.28052   1.35051    0.000
 4745.00    1.37733   1.35438    0.000
 4746.00    1.44076   1.35525    0.000
 4747.00    1.48140   1.35221    0.000
 4748.00    1.46283   1.34587    0.000
 4749.00    1.40885   1.33670    0.000
 4750.00    1.38480   1.32538    0.000
 4751.00    1.37639   1.31393    0.000
 4752.00    1.39709   1.30459    0.000
 4753.00    1.43096   1.29849    0.000
 4754.00    1.39488   1.29557    0.000
 4755.00    1.33157   1.29460    0.000
 4756.00    1.33915   1.29357    0.000
 4757.00    1.37022   1.29029    0.000
 4758.00    1.34999   1.28297    0.000
 4759.00    1.31550   1.27078    0.000
 4760.00    1.33453   1.25500    0.000
 4761.00    1.36581   1.23960    0.058
 4762.00    1.30399   1.22844    0.058
 4763.00    1.22511   1.22318    0.058
 4764.00    1.23441   1.22483    0.057
 4765.00    1.25613   1.23396    0.057
 4766.00    1.25323   1.24891    0.056
 4767.00    1.24784   1.26610    0.056
 4768.00    1.27804   1.28238    0.057
 4769.00    1.31054   1.29590    0.058
 4770.00    1.27994   1.30720    0.058
 4771.00    1.24757   1.31857    0.057
 4772.00    1.28067   1.33055    0.058
 4773.00    1.31331   1.34085    0.058
 4774.00    1.33293   1.34700    0.057
 4775.00    1.34941   1.34883    0.056
 4776.00    1.32061   1.34680    0.056
 4777.00    1.29699   1.34024    0.057
 4778.00    1.32204   1.32957    0.057
 4779.00    1.33872   1.31679    0.056
 4780.00    1.29806   1.30325    0.056
 4781.00    1.26802   1.28994    0.055
 4782.00    1.29424   1.27893    0.055
 4783.00    1.31594   1.27178    0.055
 4784.00    1.31837   1.26759    0.055
 4785.00    1.30883   1.26621    0.055
 4786.00    1.25721   1.26956    0.055
 4787.00    1.23213   1.27751    0.055
 4788.00    1.28550   1.28903    0.055
 4789.00    1.31849   1.30425    0.055
 4790.00    1.30022   1.32163    0.055
 4791.00    1.28885   1.33812    0.055
 4792.00    1.29249   1.35090    0.056
 4793.00    1.30025   1.35719    0.056
 4794.00    1.31575   1.35565    0.056
 4795.00    1.33289   1.34816    0.055
 4796.00    1.35275   1.33860    0.056
 4797.00    1.37215   1.33044    0.056
 4798.00    1.39090   1.32601    0.056
 4799.00    1.38460   1.32578    0.056
 4800.00    1.34656   1.32756    0.056
 4801.00    1.30378   1.32758    0.056
 4802.00    1.25571   1.32340    0.056
 4803.00    1.24854   1.31573    0.056
 4804.00    1.28165   1.30760    0.056
 4805.00    1.30746   1.30167    0.056
 4806.00    1.32692   1.29871    0.057
 4807.00    1.31855   1.29956    0.057
 4808.00    1.28886   1.30433    0.055
 4809.00    1.30267   1.31120    0.055
 4810.00    1.34574   1.31863    0.055
 4811.00    1.35428   1.32654    0.055
 4812.00    1.34247   1.33521    0.056
 4813.00    1.34084   1.34440    0.056
 4814.00    1.34444   1.35310    0.056
 4815.00    1.33702   1.35977    0.056
 4816.00    1.32468   1.36261    0.056
 4817.00    1.30758   1.36044    0.056
 4818.00    1.28866   1.35309    0.056
 4819.00    1.28541   1.34125    0.056
 4820.00    1.28725   1.32707    0.056
 4821.00    1.30008   1.31315    0.057
 4822.00    1.31590   1.30228    0.057
 4823.00    1.34113   1.29718    0.057
 4824.00    1.36847   1.29665    0.056
 4825.00    1.32506   1.29636    0.056
 4826.00    1.26903   1.29412    0.056
 4827.00    1.30620   1.29083    0.056
 4828.00    1.35607   1.28816    0.056
 4829.00    1.40079   1.28650    0.057
 4830.00    1.44501   1.28538    0.058
 4831.00    1.36758   1.28590    0.057
 4832.00    1.28277   1.28860    0.056
 4833.00    1.29210   1.29061    0.056
 4834.00    1.30384   1.28923    0.056
 4835.00    1.29901   1.28464    0.056
 4836.00    1.29482   1.27817    0.056
 4837.00    1.30736   1.27069    0.056
 4838.00    1.31792   1.26416    0.056
 4839.00    1.30158   1.26122    0.056
 4840.00    1.28232   1.26229    0.056
 4841.00    1.23684   1.26533    0.056
 4842.00    1.20098   1.26907    0.056
 4843.00    1.22890   1.27360    0.056
 4844.00    1.25570   1.27711    0.055
 4845.00    1.27668   1.27688    0.055
 4846.00    1.30314   1.27266    0.055
 4847.00    1.35242   1.26617    0.055
 4848.00    1.38645   1.25934    0.000
 4849.00    1.36796   1.25117    0.000
 4850.00    1.34762   1.23860    0.000
 4851.00    1.32192   1.22105    0.000
 4852.00    1.28180   1.19901    0.000
 4853.00    1.20600   1.17238    0.000
 4854.00    1.16446   1.14335    0.000
 4855.00    1.19604   1.11514    0.000
 4856.00    1.21108   1.08780    0.000
 4857.00    1.19548   1.06074    0.000
 4858.00    1.17040   1.03753    0.000
 4859.00    1.12997   1.02417    0.000
 4860.00    1.10681   1.02603    0.000
 4861.00    1.10817   1.04407    0.000
 4862.00    1.11217   1.07101    0.000
 4863.00    1.11946   1.09776    0.000
 4864.00    1.11311   1.12035    0.000
 4865.00    1.09174   1.13613    0.000
 4866.00    1.11972   1.14331    0.000
 4867.00    1.19561   1.14357    0.000
 4868.00    1.22417   1.14036    0.000
 4869.00    1.21217   1.13640    0.000
 4870.00    1.18856   1.13644    0.000
 4871.00    1.15619   1.14597    0.000
 4872.00    1.13965   1.16383    0.000
 4873.00    1.13361   1.18399    0.000
 4874.00    1.15988   1.20335    0.000
 4875.00    1.20489   1.22133    0.056
 4876.00    1.21435   1.23584    0.056
 4877.00    1.20583   1.24483    0.056
 4878.00    1.21815   1.24785    0.057
 4879.00    1.23961   1.24321    0.057
 4880.00    1.23692   1.23211    0.057
 4881.00    1.22517   1.21926    0.057
 4882.00    1.21803   1.20596    0.057
 4883.00    1.21236   1.19083    0.058
 4884.00    1.22531   1.17589    0.057
 4885.00    1.24324   1.16530    0.057
 4886.00    1.24710   1.16118    0.056
 4887.00    1.24789   1.16335    0.056
 4888.00    1.23861   1.17181    0.056
 4889.00    1.22759   1.18755    0.057
 4890.00    1.22547   1.21243    0.057
 4891.00    1.22451   1.24634    0.057
 4892.00    1.27409   1.28186    0.058
 4893.00    1.32837   1.31058    0.060
 4894.00    1.31742   1.32907    0.060
 4895.00    1.30277   1.33669    0.059
 4896.00    1.23178   1.33537    0.058
 4897.00    1.16094   1.32815    0.057
 4898.00    1.24876   1.31795    0.058
 4899.00    1.33190   1.30885    0.058
 4900.00    1.30414   1.30344    0.057
 4901.00    1.28066   1.29985    0.056
 4902.00    1.31261   1.29656    0.057
 4903.00    1.33313   1.29425    0.058
 4904.00    1.25437   1.29154    0.058
 4905.00    1.18953   1.28518    0.057
 4906.00    1.21431   1.27442    0.057
 4907.00    1.23446   1.26283    0.057
 4908.00    1.23128   1.25447    0.058
 4909.00    1.23518   1.25139    0.058
 4910.00    1.26790   1.25345    0.058
 4911.00    1.29081   1.25663    0.058
 4912.00    1.28064   1.25531    0.058
 4913.00    1.27074   1.24638    0.057
 4914.00    1.26161   1.22929    0.058
 4915.00    1.25805   1.20437    0.058
 4916.00    1.26802   1.17484    0.057
 4917.00    1.24620   1.14733    0.057
 4918.00    1.15766   1.12975    0.057
 4919.00    1.12642   1.12722    0.057
 4920.00    1.19974   1.13989    0.057
 4921.00    1.24133   1.16304    0.058
 4922.00    1.23231   1.18976    0.058
 4923.00    1.22363   1.21706    0.058
 4924.00    1.21541   1.24520    0.057
 4925.00    1.20866   1.27162    0.057
 4926.00    1.20371   1.29141    0.056
 4927.00    1.22041   1.30294    0.057
 4928.00    1.26062   1.30637    0.057
 4929.00    1.27341   1.30085    0.057
 4930.00    1.25996   1.28776    0.056
 4931.00    1.23031   1.26933    0.056
 4932.00    1.18699   1.24839    0.056
 4933.00    1.20110   1.23086    0.056
 4934.00    1.25793   1.21942    0.055
 4935.00    1.26352   1.21169    0.056
 4936.00    1.23564   1.20811    0.056
 4937.00    1.22024   1.21229    0.056
 4938.00    1.21197   1.22655    0.056
 4939.00    1.26880   1.24871    0.056
 4940.00    1.35803   1.27216    0.000
 4941.00    1.35046   1.29158    0.000
 4942.00    1.30122   1.30690    0.000
 4943.00    1.27809   1.31828    0.000
 4944.00    1.26461   1.32539    0.000
 4945.00    1.30760   1.33058    0.000
 4946.00    1.36826   1.33551    0.000
 4947.00    1.36881   1.33802    0.000
 4948.00    1.35368   1.33573    0.000
 4949.00    1.33509   1.32761    0.000
 4950.00    1.31577   1.31315    0.000
 4951.00    1.34459   1.29257    0.000
 4952.00    1.38152   1.26863    0.000
 4953.00    1.33356   1.24560    0.000
 4954.00    1.27481   1.22631    0.000
 4955.00    1.29038   1.21229    0.000
 4956.00    1.31255   1.20660    0.000
 4957.00    1.27184   1.21446    0.000
 4958.00    1.22783   1.23237    0.000
 4959.00    1.27866   1.24828    0.000
 4960.00    1.33031   1.25612    0.000
 4961.00    1.30372   1.25711    0.000
 4962.00    1.27746   1.25341    0.000
 4963.00    1.25842   1.24575    0.000
 4964.00    1.24295   1.23679    0.000
 4965.00    1.27136   1.23173    0.000
 4966.00    1.29615   1.23272    0.000
 4967.00    1.29066   1.23836    0.000
 4968.00    1.27889   1.24747    0.000
 4969.00    1.22796   1.25817    0.000
 4970.00    1.19134   1.26824    0.000
 4971.00    1.22489   1.27523    0.000
 4972.00    1.25143   1.27661    0.000
 4973.00    1.25000   1.27155    0.000
 4974.00    1.25177   1.25929    0.000
 4975.00    1.26408   1.24032    0.000
 4976.00    1.26503   1.21669    0.000
 4977.00    1.23425   1.19060    0.000
 4978.00    1.20536   1.16595    0.000
 4979.00    1.18100   1.14578    0.000
 4980.00    1.17552   1.13075    0.000
 4981.00    1.20906   1.12265    0.000
 4982.00    1.22143   1.12506    0.000
 4983.00    1.19580   1.13769    0.000
 4984.00    1.17781   1.15556    0.000
 4985.00    1.17183   1.17466    0.000
 4986.00    1.18691   1.19200    0.000
 4987.00    1.23101   1.20416    0.000
 4988.00    1.25431   1.21111    0.000
 4989.00    1.25234   1.21499    0.000
 4990.00    1.22112   1.21753    0.000
 4991.00    1.15857   1.21979    0.000
 4992.00    1.15196   1.21944    0.000
 4993.00    1.19819   1.21578    0.000
 4994.00    1.23400   1.21040    0.000
 4995.00    1.26115   1.20174    0.000
 4996.00    1.25442   1.18910    0.000
 4997.00    1.22287   1.17371    0.000
 4998.00    1.17938   1.15625    0.000
 4999.00    1.12820   1.13956    0.000
 5000.00    1.13706   1.12651    0.000
 5001.00    1.17971   1.11755    0.000
 5002.00    1.18344   1.11227    0.000
 5003.00    1.16811   1.10975    0.000
 5004.00    1.17156   1.10903    0.000
 5005.00    1.18297   1.11082    0.000
 5006.00    1.21559   1.11561    0.000
 5007.00    1.25590   1.11953    0.000
 5008.00    1.26136   1.11756    0.000
 5009.00    1.25612   1.10959    0.000
 5010.00    1.21330   1.09834    0.000
 5011.00    1.16088   1.08654    0.000
 5012.00    1.16560   1.07823    0.000
 5013.00    1.18220   1.07573    0.000
 5014.00    1.19659   1.07884    0.000
 5015.00    1.21063   1.08475    0.000
 5016.00    1.17128   1.09059    0.000
 5017.00    1.12538   1.09731    0.000
 5018.00    1.11434   1.10643    0.000
 5019.00    1.10626   1.11586    0.000
 5020.00    1.12485   1.12312    0.000
 5021.00    1.14475   1.12938    0.000
 5022.00    1.15949   1.13761    0.000
 5023.00    1.17356   1.14710    0.000
 5024.00    1.15199   1.15570    0.000
 5025.00    1.13121   1.16413    0.000
 5026.00    1.12609   1.17337    0.000
 5027.00    1.12628   1.18515    0.000
 5028.00    1.18854   1.19804    0.000
 5029.00    1.24011   1.20695    0.056
 5030.00    1.20533   1.21039    0.056
 5031.00    1.17863   1.20822    0.055
 5032.00    1.20091   1.19845    0.055
 5033.00    1.21661   1.17944    0.054
 5034.00    1.20090   1.15318    0.055
 5035.00    1.17560   1.12726    0.056
 5036.00    1.11299   1.10805    0.056
 5037.00    1.06786   1.09479    0.056
 5038.00    1.07947   1.08777    0.055
 5039.00    1.09407   1.09035    0.055
 5040.00    1.11691   1.10409    0.054
 5041.00    1.13827   1.12782    0.054
 5042.00    1.15614   1.15384    0.055
 5043.00    1.15688   1.17320    0.055
 5044.00    1.12283   1.18360    0.055
 5045.00    1.12389   1.18527    0.054
 5046.00    1.18708   1.17918    0.055
 5047.00    1.20316   1.16981    0.055
 5048.00    1.14633   1.16385    0.054
 5049.00    1.12491   1.16463    0.054
 5050.00    1.15164   1.17129    0.054
 5051.00    1.17117   1.18260    0.054
 5052.00    1.18210   1.19764    0.054
 5053.00    1.16885   1.21385    0.054
 5054.00    1.13008   1.22847    0.055
 5055.00    1.13811   1.23985    0.055
 5056.00    1.18968   1.24762    0.054
 5057.00    1.21462   1.25075    0.054
 5058.00    1.21770   1.24813    0.053
 5059.00    1.22092   1.24089    0.053
 5060.00    1.22424   1.22978    0.053
 5061.00    1.22496   1.21440    0.053
 5062.00    1.22403   1.19629    0.053
 5063.00    1.21170   1.17869    0.053
 5064.00    1.19305   1.16610    0.053
 5065.00    1.18377   1.16037    0.053
 5066.00    1.17902   1.15819    0.053
 5067.00    1.15062   1.15747    0.053
 5068.00    1.11237   1.15888    0.054
 5069.00    1.09551   1.16130    0.053
 5070.00    1.08628   1.16152    0.052
 5071.00    1.10978   1.15882    0.052
 5072.00    1.14312   1.15461    0.052
 5073.00    1.11862   1.14761    0.052
 5074.00    1.07969   1.13647    0.052
 5075.00    1.07090   1.12350    0.052
 5076.00    1.06823   1.11085    0.052
 5077.00    1.09328   1.09823    0.051
 5078.00    1.12274   1.08747    0.050
 5079.00    1.13174   1.08467    0.051
 5080.00    1.13831   1.09180    0.051
 5081.00    1.11760   1.10426    0.051
 5082.00    1.09470   1.11830    0.050
 5083.00    1.08647   1.13388    0.050
 5084.00    1.07890   1.15017    0.050
 5085.00    1.08625   1.16485    0.050
 5086.00    1.09386   1.17712    0.050
 5087.00    1.10538   1.18754    0.050
 5088.00    1.11709   1.19591    0.050
 5089.00    1.13217   1.20074    0.050
 5090.00    1.14596   1.20110    0.050
 5091.00    1.14530   1.19693    0.050
 5092.00    1.14212   1.18760    0.050
 5093.00    1.11925   1.17342    0.051
 5094.00    1.10837   1.15729    0.051
 5095.00    1.16815   1.14253    0.051
 5096.00    1.21399   1.13094    0.051
 5097.00    1.19484   1.12354    0.051
 5098.00    1.17697   1.12180    0.051
 5099.00    1.16404   1.12621    0.050
 5100.00    1.13830   1.13220    0.050
 5101.00    1.07181   1.13452    0.050
 5102.00    1.01535   1.13230    0.050
 5103.00    0.98592   1.12739    0.050
 5104.00    0.98412   1.12211    0.051
 5105.00    1.04619   1.11779    0.051
 5106.00    1.09428   1.11513    0.052
 5107.00    1.11442   1.11642    0.053
 5108.00    1.12571   1.12247    0.053
 5109.00    1.12159   1.13197    0.052
 5110.00    1.11924   1.14534    0.052
 5111.00    1.11959   1.16063    0.053
 5112.00    1.10895   1.17420    0.053
 5113.00    1.08358   1.18495    0.054
 5114.00    1.08989   1.19163    0.055
 5115.00    1.13358   1.19307    0.055
 5116.00    1.16295   1.18887    0.056
 5117.00    1.17741   1.17777    0.056
 5118.00    1.16086   1.16063    0.055
 5119.00    1.11585   1.14038    0.054
 5120.00    1.13062   1.11965    0.054
 5121.00    1.19375   1.10059    0.054
 5122.00    1.18805   1.08451    0.055
 5123.00    1.13336   1.07381    0.054
 5124.00    1.13351   1.07028    0.054
 5125.00    1.16793   1.07211    0.054
 5126.00    1.12996   1.07691    0.053
 5127.00    1.05247   1.08406    0.053
 5128.00    1.06993   1.09354    0.053
 5129.00    1.13244   1.10471    0.053
 5130.00    1.12995   1.11520    0.054
 5131.00    1.10088   1.12197    0.054
 5132.00    1.13927   1.12395    0.054
 5133.00    1.20125   1.12256    0.053
 5134.00    1.18414   1.11923    0.053
 5135.00    1.14373   1.11188    0.053
 5136.00    1.14091   1.10106    0.053
 5137.00    1.14727   1.09118    0.054
 5138.00    1.13570   1.08439    0.054
 5139.00    1.12060   1.08118    0.053
 5140.00    1.12797   1.07865    0.053
 5141.00    1.13880   1.07405    0.054
 5142.00    1.11160   1.07149    0.053
 5143.00    1.08008   1.07241    0.053
 5144.00    1.05700   1.07209    0.052
 5145.00    1.03457   1.06968    0.051
 5146.00    1.04634   1.06784    0.052
 5147.00    1.05952   1.06792    0.052
 5148.00    1.07063   1.06980    0.052
 5149.00    1.08125   1.07239    0.052
 5150.00    1.07221   1.07641    0.052
 5151.00    1.06379   1.08399    0.052
 5152.00    1.06602   1.09486    0.051
 5153.00    1.06557   1.10766    0.050
 5154.00    1.03669   1.12153    0.051
 5155.00    1.01789   1.13354    0.051
 5156.00    1.07491   1.14024    0.052
 5157.00    1.12727   1.13950    0.053
 5158.00    1.15285   1.12989    0.052
 5159.00    1.16736   1.11089    0.051
 5160.00    1.13147   1.08148    0.051
 5161.00    1.10052   1.04263    0.051
 5162.00    1.08805   1.00058    0.050
 5163.00    1.07277   0.96016    0.050
 5164.00    1.04874   0.92189    0.050
 5165.00    1.00818   0.88659    0.050
 5166.00    0.92385   0.85819    0.050
 5167.00    0.87351   0.84396    0.049
 5168.00    0.90045   0.84643    0.049
 5169.00    0.91636   0.85896    0.049
 5170.00    0.91055   0.87393    0.049
 5171.00    0.90438   0.89271    0.050
 5172.00    0.89759   0.92169    0.049
 5173.00    0.89040   0.95831    0.049
 5174.00    0.88261   0.99019    0.049
 5175.00    0.89503   1.00803    0.050
 5176.00    0.93414   1.01071    0.049
 5177.00    0.95446   1.00038    0.049
 5178.00    0.95292   0.98187    0.050
 5179.00    0.96144   0.96213    0.050
 5180.00    0.98029   0.94588    0.051
 5181.00    0.97827   0.93555    0.051
 5182.00    0.95738   0.93511    0.050
 5183.00    0.94375   0.95116    0.050
 5184.00    0.93592   0.98173    0.051
 5185.00    0.94320   1.01242    0.051
 5186.00    0.96108   1.03355    0.051
 5187.00    0.96798   1.04644    0.051
 5188.00    0.96814   1.05479    0.051
 5189.00    0.99641   1.05834    0.051
 5190.00    1.03981   1.05591    0.000
 5191.00    1.03209   1.05347    0.000
 5192.00    1.00052   1.05863    0.000
 5193.00    1.01431   1.06992    0.000
 5194.00    1.04635   1.08175    0.000
 5195.00    1.05667   1.09317    0.000
 5196.00    1.05954   1.10367    0.000
 5197.00    1.02879   1.11012    0.000
 5198.00    0.98834   1.10915    0.000
 5199.00    1.07054   1.09929    0.000
 5200.00    1.18203   1.08263    0.000
 5201.00    1.14078   1.06227    0.000
 5202.00    1.07013   1.03997    0.000
 5203.00    1.05039   1.01849    0.000
 5204.00    1.03825   1.00289    0.000
 5205.00    1.08384   0.99834    0.000
 5206.00    1.13575   1.00493    0.000
 5207.00    1.09091   1.01839    0.000
 5208.00    1.03908   1.03734    0.000
 5209.00    1.02976   1.05961    0.000
 5210.00    1.02203   1.08118    0.000
 5211.00    1.07453   1.09996    0.052
 5212.00    1.12623   1.11463    0.052
 5213.00    1.13893   1.12463    0.053
 5214.00    1.15160   1.13099    0.054
 5215.00    1.16391   1.13677    0.053
 5216.00    1.17430   1.14305    0.053
 5217.00    1.16515   1.14714    0.053
 5218.00    1.15615   1.14538    0.053
 5219.00    1.14820   1.13588    0.052
 5220.00    1.14048   1.11931    0.052
 5221.00    1.13403   1.09860    0.052
 5222.00    1.12948   1.07872    0.052
 5223.00    1.13335   1.06299    0.052
 5224.00    1.12928   1.05309    0.053
 5225.00    1.09624   1.05090    0.052
 5226.00    1.06842   1.05701    0.051
 5227.00    1.05658   1.07075    0.051
 5228.00    1.04739   1.08707    0.051
 5229.00    1.04507   1.10079    0.050
 5230.00    1.05315   1.11249    0.050
 5231.00    1.08451   1.12250    0.050
 5232.00    1.11558   1.13182    0.050
 5233.00    1.14610   1.14321    0.050
 5234.00    1.16826   1.15658    0.051
 5235.00    1.17630   1.17052    0.050
 5236.00    1.18241   1.18236    0.050
 5237.00    1.18567   1.19017    0.050
 5238.00    1.17757   1.19506    0.049
 5239.00    1.15471   1.19748    0.049
 5240.00    1.16011   1.19536    0.049
 5241.00    1.19793   1.18768    0.049
 5242.00    1.21841   1.17756    0.049
 5243.00    1.22132   1.16713    0.050
 5244.00    1.20995   1.15403    0.050
 5245.00    1.18583   1.13802    0.050
 5246.00    1.18738   1.12440    0.050
 5247.00    1.20912   1.11772    0.050
 5248.00    1.21593   1.11517    0.051
 5249.00    1.21244   1.11354    0.052
 5250.00    1.19038   1.11698    0.052
 5251.00    1.15708   1.12743    0.051
 5252.00    1.13829   1.13999    0.051
 5253.00    1.12717   1.15010    0.051
 5254.00    1.16375   1.15699    0.051
 5255.00    1.22222   1.16143    0.052
 5256.00    1.22226   1.15983    0.053
 5257.00    1.19920   1.14746    0.053
 5258.00    1.17435   1.12438    0.052
 5259.00    1.14890   1.09325    0.051
 5260.00    1.13099   1.05805    0.052
 5261.00    1.11522   1.02434    0.052
 5262.00    1.06594   0.99491    0.053
 5263.00    1.00882   0.96900    0.053
 5264.00    1.01906   0.94889    0.053
 5265.00    1.04193   0.94059    0.053
 5266.00    1.02977   0.94538    0.053
 5267.00    1.01254   0.95554    0.054
 5268.00    1.03882   0.96622    0.054
 5269.00    1.06967   0.98317    0.054
 5270.00    1.04623   1.01095    0.054
 5271.00    1.01909   1.04313    0.055
 5272.00    1.05773   1.07169    0.055
 5273.00    1.09858   1.09520    0.055
 5274.00    1.10596   1.11428    0.056
 5275.00    1.11442   1.13024    0.056
 5276.00    1.15865   1.14299    0.055
 5277.00    1.19975   1.14923    0.054
 5278.00    1.19306   1.14903    0.054
 5279.00    1.18617   1.14776    0.054
 5280.00    1.17730   1.15027    0.054
 5281.00    1.17249   1.15712    0.054
 5282.00    1.19618   1.16686    0.053
 5283.00    1.21279   1.18039    0.053
 5284.00    1.19092   1.19886    0.053
 5285.00    1.17484   1.21766    0.053
 5286.00    1.18393   1.23039    0.052
 5287.00    1.19682   1.23579    0.052
 5288.00    1.22328   1.23659    0.051
 5289.00    1.24499   1.23355    0.051
 5290.00    1.25239   1.22384    0.052
 5291.00    1.25296   1.20609    0.053
 5292.00    1.23607   1.18420    0.052
 5293.00    1.22027   1.16438    0.052
 5294.00    1.20687   1.14849    0.052
 5295.00    1.18615   1.13470    0.051
 5296.00    1.15145   1.12492    0.051
 5297.00    1.12187   1.12496    0.050
 5298.00    1.10080   1.13692    0.049
 5299.00    1.09576   1.15470    0.050
 5300.00    1.11412   1.17190    0.051
 5301.00    1.14923   1.18855    0.051
 5302.00    1.20582   1.20614    0.051
 5303.00    1.23528   1.22300    0.051
 5304.00    1.23404   1.23577    0.050
 5305.00    1.22329   1.24297    0.050
 5306.00    1.20304   1.24618    0.050
 5307.00    1.21215   1.24775    0.050
 5308.00    1.24709   1.24810    0.050
 5309.00    1.25955   1.24575    0.050
 5310.00    1.25461   1.23994    0.050
 5311.00    1.24082   1.23200    0.050
 5312.00    1.22099   1.22403    0.051
 5313.00    1.22798   1.21688    0.051
 5314.00    1.25100   1.20971    0.050
 5315.00    1.24404   1.20200    0.050
 5316.00    1.22147   1.19474    0.050
 5317.00    1.22018   1.18707    0.051
 5318.00    1.22850   1.17604    0.051
 5319.00    1.23881   1.16187    0.051
 5320.00    1.24989   1.14620    0.051
 5321.00    1.23955   1.12711    0.050
 5322.00    1.22213   1.10235    0.050
 5323.00    1.18784   1.07739    0.050
 5324.00    1.14887   1.06177    0.050
 5325.00    1.15859   1.05570    0.051
 5326.00    1.17941   1.05304    0.051
 5327.00    1.13852   1.05554    0.051
 5328.00    1.08635   1.07131    0.051
 5329.00    1.10615   1.09838    0.051
 5330.00    1.13604   1.12476    0.051
 5331.00    1.14303   1.14387    0.052
 5332.00    1.14771   1.15787    0.052
 5333.00    1.13904   1.16848    0.052
 5334.00    1.12951   1.17194    0.052
 5335.00    1.15565   1.16719    0.052
 5336.00    1.18266   1.16008    0.052
 5337.00    1.13335   1.15485    0.052
 5338.00    1.08766   1.14996    0.052
 5339.00    1.14547   1.14472    0.052
 5340.00    1.19934   1.14320    0.052
 5341.00    1.19660   1.14716    0.052
 5342.00    1.19496   1.15197    0.052
 5343.00    1.20370   1.15373    0.052
 5344.00    1.20878   1.15414    0.052
 5345.00    1.18882   1.15750    0.051
 5346.00    1.17639   1.16493    0.051
 5347.00    1.20368   1.17329    0.050
 5348.00    1.22692   1.18296    0.050
 5349.00    1.23298   1.19737    0.051
 5350.00    1.23060   1.21528    0.052
 5351.00    1.19861   1.23178    0.051
 5352.00    1.18148   1.24472    0.050
 5353.00    1.20816   1.25541    0.051
 5354.00    1.23394   1.26333    0.051
 5355.00    1.25746   1.26573    0.051
 5356.00    1.26486   1.26206    0.050
 5357.00    1.23738   1.25427    0.050
 5358.00    1.22370   1.24392    0.049
 5359.00    1.23597   1.23061    0.050
 5360.00    1.23782   1.21452    0.049
 5361.00    1.22261   1.19794    0.048
 5362.00    1.20546   1.18259    0.048
 5363.00    1.18553   1.16745    0.048
 5364.00    1.17109   1.15112    0.048
 5365.00    1.16360   1.13500    0.048
 5366.00    1.13729   1.12221    0.048
 5367.00    1.09003   1.11571    0.049
 5368.00    1.07169   1.11523   -2.000
 5369.00    1.08180   1.11899   -2.000
 5370.00    1.11223   1.12840   -2.000
 5371.00    1.16026   1.14453   -2.000
 5372.00    1.18012   1.16424   -2.000
 5373.00    1.17846   1.18192   -2.000
 5374.00    1.15496   1.19445   -2.000
 5375.00    1.11681   1.20147   -2.000
 5376.00    1.16391   1.20438   -2.000
 5377.00    1.26117   1.20485   -2.000
 5378.00    1.28005   1.20298   -2.000
 5379.00    1.25874   1.19972   -2.000
 5380.00    1.24993   1.19645   -2.000
 5381.00    1.24667   1.19315   -2.000
 5382.00    1.22274   1.18946   -2.000
 5383.00    1.19093   1.18567    0.049
 5384.00    1.19515   1.18079    0.050
 5385.00    1.21105   1.17334    0.051
 5386.00    1.19650   1.16377    0.051
 5387.00    1.17367   1.15291    0.052
 5388.00    1.17928   1.14126    0.052
 5389.00    1.19121   1.12992    0.052
 5390.00    1.16593   1.11956    0.051
 5391.00    1.13404   1.10919    0.051
 5392.00    1.10907   1.10000    0.051
 5393.00    1.08503   1.09538    0.051
 5394.00    1.11660   1.09421    0.051
 5395.00    1.15355   1.09234    0.050
 5396.00    1.16397   1.09099    0.050
 5397.00    1.17280   1.09370    0.049
 5398.00    1.17123   1.09574    0.050
 5399.00    1.16945   1.09070    0.051
 5400.00    1.17745   1.08102    0.051
 5401.00    1.18330   1.07245    0.051
 5402.00    1.13397   1.06553    0.050
 5403.00    1.08984   1.05798    0.049
 5404.00    1.11621   1.05182    0.050
 5405.00    1.13672   1.05283    0.050
 5406.00    1.10467   1.06361    0.049
 5407.00    1.07569   1.07912    0.048
 5408.00    1.06700   1.09372    0.048
 5409.00    1.06564   1.10822    0.048
 5410.00    1.10201   1.12589    0.048
 5411.00    1.12915   1.14505    0.048
 5412.00    1.11801   1.16050    0.048
 5413.00    1.12615   1.17024    0.049
 5414.00    1.20048   1.17613    0.049
 5415.00    1.24183   1.18006    0.049
 5416.00    1.18774   1.18206    0.048
 5417.00    1.15382   1.18120    0.048
 5418.00    1.16971   1.17651    0.048
 5419.00    1.18740   1.16968    0.048
 5420.00    1.20889   1.16544    0.048
 5421.00    1.22273   1.16461    0.048
 5422.00    1.22241   1.16239    0.047
 5423.00    1.22554   1.15549    0.047
 5424.00    1.23423   1.14660    0.048
 5425.00    1.23377   1.14033    0.048
 5426.00    1.22034   1.13534    0.048
 5427.00    1.19965   1.12550    0.048
 5428.00    1.16990   1.11167    0.049
 5429.00    1.14936   1.10240    0.049
 5430.00    1.13895   1.10113    0.048
 5431.00    1.12848   1.10316    0.048
 5432.00    1.11794   1.10730    0.048
 5433.00    1.10822   1.11696    0.049
 5434.00    1.09918   1.13248    0.049
 5435.00    1.09432   1.15063    0.050
 5436.00    1.09261   1.16802    0.050
 5437.00    1.11192   1.18289    0.050
 5438.00    1.14514   1.19283    0.050
 5439.00    1.15361   1.19530    0.050
 5440.00    1.14775   1.18944    0.049
 5441.00    1.15355   1.17711    0.050
 5442.00    1.16524   1.16308    0.051
 5443.00    1.15558   1.15157    0.051
 5444.00    1.13659   1.14221    0.050
 5445.00    1.15257   1.13451    0.050
 5446.00    1.18167   1.13109    0.051
 5447.00    1.18057   1.13357    0.050
 5448.00    1.16986   1.13733    0.050
 5449.00    1.17952   1.13675    0.050
 5450.00    1.19461   1.13162    0.050
 5451.00    1.17613   1.12715    0.050
 5452.00    1.15034   1.12619    0.050
 5453.00    1.14798   1.12589    0.050
 5454.00    1.14966   1.12499    0.050
 5455.00    1.16209   1.12684    0.049
 5456.00    1.17593   1.13261    0.049
 5457.00    1.18933   1.13711    0.049
 5458.00    1.20269   1.13745    0.048
 5459.00    1.23117   1.13693    0.048
 5460.00    1.26050   1.13729    0.048
 5461.00    1.21670   1.13640    0.047
 5462.00    1.17134   1.13544    0.047
 5463.00    1.13356   1.13759    0.047
 5464.00    1.09805   1.14044    0.047
 5465.00    1.11559   1.14024    0.047
 5466.00    1.13410   1.13843    0.046
 5467.00    1.16499   1.13573    0.046
 5468.00    1.18584   1.12931    0.046
 5469.00    1.11970   1.12040    0.046
 5470.00    1.06217   1.11135    0.046
 5471.00    1.05984   1.10014    0.046
 5472.00    1.06100   1.08815    0.046
 5473.00    1.07961   1.08174    0.047
 5474.00    1.09682   1.08018    0.047
 5475.00    1.10832   1.07742    0.046
 5476.00    1.11499   1.07548    0.046
 5477.00    1.10544   1.08087    0.047
 5478.00    1.09832   1.09087   -2.000
 5479.00    1.09816   1.09927   -2.000
 5480.00    1.10706   1.10613   -2.000
 5481.00    1.13794   1.11347   -2.000
 5482.00    1.14397   1.12026   -2.000
 5483.00    1.09795   1.12597   -2.000
 5484.00    1.10210   1.13069   -2.000
 5485.00    1.19762   1.13247   -2.000
 5486.00    1.25892   1.13244   -2.000
 5487.00    1.26575   1.13315   -2.000
 5488.00    1.24555   1.13400   -2.000
 5489.00    1.18759   1.13447   -2.000
 5490.00    1.18859   1.13617   -2.000
 5491.00    1.26205   1.13743   -2.000
 5492.00    1.33248   1.13577   -2.000
 5493.00    1.39963   1.13479   -2.000
 5494.00    1.36549   1.13705   -2.000
 5495.00    1.23453   1.13750   -2.000
 5496.00    1.17957   1.13334   -2.000
 5497.00    1.18867   1.12922   -2.000
 5498.00    1.18422   1.12779   -2.000
 5499.00    1.16972   1.12530   -2.000
 5500.00    1.15569   1.11932   -2.000
 5501.00    1.14198   1.11237   -2.000
 5502.00    1.11949   1.10879    0.048
 5503.00    1.09199   1.10823    0.048
 5504.00    1.10124   1.10660    0.048
 5505.00    1.12873   1.10321    0.047
 5506.00    1.12744   1.10069    0.047
 5507.00    1.11379   1.09895    0.046
 5508.00    1.11678   1.09654    0.046
 5509.00    1.12591   1.09424    0.047
 5510.00    1.10032   1.09355    0.047
 5511.00    1.06391   1.09483    0.046
 5512.00    1.07671   1.09936    0.046
 5513.00    1.10230   1.10832    0.046
 5514.00    1.13229   1.11952    0.045
 5515.00    1.16321   1.13003    0.045
 5516.00    1.18614   1.13943    0.045
 5517.00    1.20774   1.14783    0.046
 5518.00    1.18288   1.15313    0.046
 5519.00    1.15213   1.15362    0.045
 5520.00    1.13474   1.15031    0.046
 5521.00    1.11852   1.14482    0.047
 5522.00    1.12626   1.13695    0.046
 5523.00    1.13525   1.12719    0.045
 5524.00    1.08640   1.11924    0.044
 5525.00    1.03772   1.11501    0.044
 5526.00    1.08432   1.11229    0.045
 5527.00    1.12966   1.11055    0.046
 5528.00    1.14799   1.11245    0.047
 5529.00    1.16426   1.11713    0.047
 5530.00    1.15548   1.12077    0.046
 5531.00    1.14765   1.12347    0.046
 5532.00    1.14773   1.12680    0.047
 5533.00    1.15257   1.12983    0.047
 5534.00    1.18709   1.13268    0.047
 5535.00    1.21403   1.13712    0.047
 5536.00    1.20396   1.14238    0.047
 5537.00    1.19149   1.14574    0.048
 5538.00    1.16952   1.14766    0.047
 5539.00    1.15099   1.15023    0.047
 5540.00    1.14380   1.15270    0.048
 5541.00    1.14359   1.15305    0.048
 5542.00    1.16286   1.15314    0.048
 5543.00    1.17047   1.15594    0.048
 5544.00    1.15029   1.16003    0.048
 5545.00    1.14514   1.16305    0.048
 5546.00    1.17098   1.16593    0.047
 5547.00    1.16941   1.16904    0.047
 5548.00    1.11868   1.16975    0.047
 5549.00    1.09336   1.16740    0.046
 5550.00    1.10789   1.16431    0.046
 5551.00    1.11279   1.16114    0.045
 5552.00    1.10442   1.15660    0.045
 5553.00    1.09708   1.15144    0.044
 5554.00    1.09097   1.14784    0.044
 5555.00    1.09997   1.14539    0.044
 5556.00    1.12511   1.14194    0.044
 5557.00    1.12497   1.13706    0.044
 5558.00    1.10099   1.13223    0.044
 5559.00    1.09715   1.12798    0.044
 5560.00    1.11006   1.12278    0.044
 5561.00    1.11208   1.11633    0.043
 5562.00    1.10614   1.11114    0.043
 5563.00    1.11122   1.10800    0.043
 5564.00    1.12339   1.10468    0.043
 5565.00    1.11751   1.10201    0.043
 5566.00    1.10151   1.10248    0.043
 5567.00    1.08919   1.10338    0.043
 5568.00    1.07869   1.10307    0.043
 5569.00    1.09373   1.10559    0.043
 5570.00    1.11956   1.11090    0.042
 5571.00    1.13199   1.11422    0.043
 5572.00    1.13957   1.11675    0.044
 5573.00    1.13357   1.12182    0.044
 5574.00    1.12341   1.12674    0.044
 5575.00    1.13416   1.12915    0.045
 5576.00    1.15023   1.13008    0.045
 5577.00    1.14116   1.12903    0.045
 5578.00    1.12689   1.12525    0.044
 5579.00    1.11614   1.11906    0.045
 5580.00    1.10597   1.10961    0.045
 5581.00    1.12147   1.09639    0.046
 5582.00    1.14010   1.08154    0.046
 5583.00    1.14834   1.06730    0.046
 5584.00    1.15570   1.05453    0.046
 5585.00    1.11318   1.04431    0.046
 5586.00    1.06824   1.03853    0.046
 5587.00    1.04600   1.03809    0.045
 5588.00    1.02520   1.04187    0.045
 5589.00    1.06982   1.04807    0.046
 5590.00    1.11014   1.05650    0.047
 5591.00    1.06492   1.06652    0.047
 5592.00    1.02219   1.07437    0.046
 5593.00    1.00843   1.07748    0.046
 5594.00    0.99971   1.07893    0.046
 5595.00    1.03159   1.08071    0.046
 5596.00    1.06180   1.07956    0.045
 5597.00    1.08195   1.07545    0.045
 5598.00    1.09920   1.07406    0.045
 5599.00    1.10269   1.07840    0.045
 5600.00    1.10928   1.08615    0.045
 5601.00    1.12796   1.09589    0.045
 5602.00    1.13866   1.10831    0.045
 5603.00    1.12355   1.12284    0.045
 5604.00    1.11288   1.13648    0.044
 5605.00    1.11435   1.14629    0.043
 5606.00    1.11588   1.15134    0.043
 5607.00    1.11752   1.15223    0.043
 5608.00    1.12413   1.14938    0.042
 5609.00    1.14081   1.14138    0.042
 5610.00    1.15167   1.12793    0.042
 5611.00    1.15227   1.11382    0.042
 5612.00    1.14439   1.10333    0.043
 5613.00    1.12343   1.09425    0.043
 5614.00    1.10342   1.08483    0.043
 5615.00    1.08470   1.07973    0.042
 5616.00    1.06793   1.08115    0.042
 5617.00    1.05349   1.08433    0.042
 5618.00    1.05388   1.08503    0.042
 5619.00    1.06992   1.08370    0.043
 5620.00    1.06244   1.08315    0.043
 5621.00    1.03312   1.08475    0.042
 5622.00    0.99969   1.08658    0.042
 5623.00    0.96289   1.08777    0.043
 5624.00    0.96836   1.09191    0.044
 5625.00    1.00430   1.10056    0.044
 5626.00    1.02869   1.10965    0.044
 5627.00    1.04577   1.11634    0.044
 5628.00    1.06475   1.12137    0.044
 5629.00    1.08480   1.12430    0.044
 5630.00    1.10410   1.12380    0.044
 5631.00    1.12303   1.11999    0.044
 5632.00    1.11644   1.11381    0.043
 5633.00    1.09923   1.10678    0.043
 5634.00    1.09232   1.10085    0.043
 5635.00    1.08906   1.09579    0.043
 5636.00    1.10318   1.09068    0.043
 5637.00    1.12252   1.08742    0.043
 5638.00    1.10803   1.08749    0.043
 5639.00    1.08511   1.08868    0.043
 5640.00    1.07792   1.08956    0.043
 5641.00    1.07391   1.09189    0.043
 5642.00    1.07540   1.09605    0.043
 5643.00    1.07776   1.10017    0.043
 5644.00    1.06742   1.10331    0.042
 5645.00    1.05559   1.10584    0.041
 5646.00    1.07380   1.10816    0.041
 5647.00    1.09440   1.11007    0.041
 5648.00    1.10115   1.11040    0.041
 5649.00    1.10728   1.10768    0.042
 5650.00    1.10868   1.10271    0.041
 5651.00    1.10964   1.09796    0.041
 5652.00    1.09170   1.09210    0.041
 5653.00    1.07402   1.08153    0.042
 5654.00    1.06100   1.07003    0.041
 5655.00    1.04794   1.06444    0.040
 5656.00    1.03432   1.06183    0.041
 5657.00    1.02462   1.05707    0.041
 5658.00    1.04522   1.05522    0.041
 5659.00    1.06091   1.06079    0.041
 5660.00    1.04776   1.06830    0.042
 5661.00    1.03687   1.07325    0.042
 5662.00    1.03648   1.07807    0.042
 5663.00    1.04088   1.08459    0.042
 5664.00    1.06350   1.09116    0.042
 5665.00    1.08082   1.09627    0.042
 5666.00    1.08131   1.10040    0.043
 5667.00    1.07776   1.10563    0.043
 5668.00    1.06336   1.11292    0.042
 5669.00    1.05480   1.12024    0.042
 5670.00    1.05973   1.12565    0.042
 5671.00    1.08248   1.13056    0.042
 5672.00    1.14081   1.13576    0.042
 5673.00    1.16413   1.13815    0.043
 5674.00    1.12659   1.13614    0.043
 5675.00    1.10481   1.13286    0.043
 5676.00    1.10703   1.12953    0.043
 5677.00    1.10842   1.12329    0.043
 5678.00    1.10872   1.11449    0.043
 5679.00    1.10532   1.10731    0.043
 5680.00    1.09759   1.10220    0.042
 5681.00    1.09534   1.09655    0.042
 5682.00    1.09879   1.09136    0.042
 5683.00    1.10452   1.08941    0.041
 5684.00    1.11234   1.09059    0.041
 5685.00    1.10273   1.09302    0.041
 5686.00    1.07904   1.09645    0.040
 5687.00    1.06553   1.10180    0.040
 5688.00    1.05926   1.10871    0.040
 5689.00    1.06811   1.11473    0.040
 5690.00    1.08638   1.11831    0.040
 5691.00    1.10246   1.12053    0.040
 5692.00    1.11736   1.12085    0.040
 5693.00    1.11276   1.11707    0.040
 5694.00    1.09893   1.11042    0.040
 5695.00    1.09371   1.10394    0.040
 5696.00    1.09201   1.09660    0.041
 5697.00    1.07626   1.08716    0.041
 5698.00    1.05560   1.07885    0.042
 5699.00    1.08142   1.07315    0.042
 5700.00    1.12092   1.06704    0.042
 5701.00    1.13983   1.05949    0.042
 5702.00    1.15372   1.05295    0.043
 5703.00    1.14463   1.04721    0.043
 5704.00    1.13101   1.04034    0.042
 5705.00    1.12405   1.03434    0.042
 5706.00    1.11812   1.03179    0.041
 5707.00    1.07395   1.03175    0.041
 5708.00    1.02544   1.03501    0.041
 5709.00    1.04475   1.04362    0.041
 5710.00    1.06919   1.05495    0.041
 5711.00    1.07758   1.06700    0.042
 5712.00    1.08532   1.08089    0.043
 5713.00    1.06261   1.09498    0.042
 5714.00    1.04047   1.10704    0.042
 5715.00    1.05160   1.11769    0.042
 5716.00    1.06273   1.12696    0.042
 5717.00    1.07355   1.13437    0.041
 5718.00    1.08497   1.14018    0.041
 5719.00    1.10270   1.14382    0.041
 5720.00    1.11945   1.14553    0.041
 5721.00    1.12877   1.14596    0.040
 5722.00    1.14052   1.14393    0.040
 5723.00    1.16605   1.13977    0.040
 5724.00    1.18429   1.13659    0.041
 5725.00    1.16947   1.13425    0.040
 5726.00    1.15633   1.13037    0.039
 5727.00    1.14941   1.12709    0.040
 5728.00    1.14433   1.12739    0.040
 5729.00    1.14495   1.12905    0.040
 5730.00    1.14371   1.12945    0.040
 5731.00    1.13755   1.13034    0.040
 5732.00    1.12295   1.13277    0.040
 5733.00    1.08921   1.13466    0.039
 5734.00    1.06411   1.13492    0.039
 5735.00    1.05600   1.13448    0.040
 5736.00    1.05295   1.13410    0.040
 5737.00    1.05856   1.13366    0.039
 5738.00    1.07334   1.13272    0.039
 5739.00    1.10187   1.13158    0.040
 5740.00    1.12165   1.13115    0.000
 5741.00    1.12992   1.13123    0.000
 5742.00    1.13913   1.13041    0.000
 5743.00    1.14945   1.12818    0.000
 5744.00    1.14835   1.12565    0.000
 5745.00    1.13556   1.12337    0.000
 5746.00    1.12608   1.11994    0.000
 5747.00    1.11960   1.11506    0.000
 5748.00    1.12447   1.11058    0.000
 5749.00    1.13838   1.10716    0.000
 5750.00    1.13363   1.10469    0.000
 5751.00    1.11583   1.10372    0.000
 5752.00    1.11979   1.10410    0.000
 5753.00    1.13713   1.10508    0.000
 5754.00    1.13746   1.10672    0.000
 5755.00    1.12867   1.10809    0.000
 5756.00    1.11341   1.10819    0.000
 5757.00    1.09513   1.10710    0.000
 5758.00    1.09754   1.10568    0.000
 5759.00    1.10825   1.10584    0.000
 5760.00    1.10717   1.10872    0.000
 5761.00    1.10204   1.11282    0.000
 5762.00    1.10085   1.11784    0.000
 5763.00    1.10079   1.12479    0.000
 5764.00    1.11528   1.13143    0.000
 5765.00    1.13324   1.13543    0.000
 5766.00    1.14234   1.13732    0.000
 5767.00    1.14974   1.13754    0.000
 5768.00    1.13771   1.13581    0.000
 5769.00    1.12278   1.13297    0.000
 5770.00    1.13709   1.12928    0.000
 5771.00    1.15459   1.12502    0.000
 5772.00    1.17190   1.12061    0.000
 5773.00    1.18920   1.11485    0.000
 5774.00    1.17785   1.10759    0.000
 5775.00    1.16544   1.09920    0.000
 5776.00    1.16194   1.08828    0.000
 5777.00    1.15789   1.07523    0.000
 5778.00    1.13285   1.06396    0.000
 5779.00    1.10860   1.05501    0.000
 5780.00    1.09699   1.04659    0.000
 5781.00    1.08715   1.04168    0.000
 5782.00    1.09516   1.04312    0.000
 5783.00    1.10305   1.04788    0.000
 5784.00    1.11010   1.05368    0.000
 5785.00    1.11457   1.06209    0.000
 5786.00    1.10466   1.07175    0.000
 5787.00    1.09870   1.08049    0.000
 5788.00    1.11022   1.08905    0.000
 5789.00    1.11906   1.09641    0.000
 5790.00    1.11816   1.10204    0.000
 5791.00    1.11870   1.10806   -2.000
 5792.00    1.12360   1.11351   -2.000
 5793.00    1.12643   1.11636   -2.000
 5794.00    1.12389   1.11931   -2.000
 5795.00    1.11342   1.12395   -2.000
 5796.00    1.08523   1.12703   -2.000
 5797.00    1.07028   1.12834   -2.000
 5798.00    1.08095   1.13066   -2.000
 5799.00    1.09618   1.13208   -2.000
 5800.00    1.11912   1.13036   -2.000
 5801.00    1.13955   1.12799   -2.000
 5802.00    1.15630   1.12637   -2.000
 5803.00    1.16527   1.12424   -2.000
 5804.00    1.16412   1.12222   -2.000
 5805.00    1.15599   1.12180   -2.000
 5806.00    1.13985   1.12260   -2.000
 5807.00    1.13060   1.12325   -2.000
 5808.00    1.12832   1.12327   -2.000
 5809.00    1.12379   1.12344   -2.000
 5810.00    1.11724   1.12353   -2.000
 5811.00    1.11046   1.12245    0.000
 5812.00    1.10352   1.12127    0.000
 5813.00    1.11331   1.12221    0.000
 5814.00    1.13467   1.12471    0.000
 5815.00    1.14168   1.12714    0.000
 5816.00    1.14003   1.13062    0.000
 5817.00    1.13950   1.13549    0.000
 5818.00    1.13956   1.13943    0.000
 5819.00    1.13273   1.14170    0.000
 5820.00    1.12274   1.14366    0.000
 5821.00    1.12406   1.14543    0.000
 5822.00    1.12985   1.14591    0.000
 5823.00    1.13936   1.14557    0.000
 5824.00    1.15014   1.14567    0.000
 5825.00    1.14506   1.14590    0.000
 5826.00    1.13552   1.14505    0.000
 5827.00    1.13801   1.14339    0.000
 5828.00    1.14330   1.14227    0.000
 5829.00    1.13485   1.14089    0.000
 5830.00    1.12383   1.13789    0.000
 5831.00    1.11937   1.13522    0.000
 5832.00    1.11587   1.13457    0.000
 5833.00    1.12186   1.13388    0.000
 5834.00    1.12885   1.13262    0.000
 5835.00    1.11749   1.13358    0.000
 5836.00    1.10490   1.13619    0.000
 5837.00    1.10677   1.13771    0.000
 5838.00    1.10912   1.13860    0.000
 5839.00    1.12659   1.13966    0.000
 5840.00    1.14351   1.13930    0.000
 5841.00    1.14324   1.13681    0.000
 5842.00    1.14325   1.13298    0.000
 5843.00    1.14743   1.12806    0.000
 5844.00    1.15088   1.12233    0.000
 5845.00    1.14738   1.11613    0.000
 5846.00    1.14198   1.10965    0.000
 5847.00    1.12325   1.10322    0.000
 5848.00    1.10579   1.09629    0.000
 5849.00    1.09513   1.08852    0.000
 5850.00    1.08694   1.08145    0.000
 5851.00    1.08941   1.07549    0.000
 5852.00    1.09102   1.06898    0.000
 5853.00    1.08959   1.06284    0.000
 5854.00    1.08424   1.05970    0.000
 5855.00    1.06715   1.05919    0.000
 5856.00    1.05008   1.05973    0.000
 5857.00    1.03303   1.06211    0.000
 5858.00    1.02160   1.06597    0.000
 5859.00    1.02249   1.07047    0.000
 5860.00    1.01809   1.07571    0.000
 5861.00    1.00363   1.08041    0.000
 5862.00    1.00187   1.08368    0.000
 5863.00    1.02124   1.08735    0.000
 5864.00    1.03683   1.09214    0.000
 5865.00    1.04690   1.09575    0.000
 5866.00    1.04957   1.09856    0.000
 5867.00    1.04274   1.10209    0.000
 5868.00    1.04747   1.10488    0.000
 5869.00    1.06523   1.10566    0.000
 5870.00    1.07647   1.10591    0.000
 5871.00    1.08122   1.10538    0.000
 5872.00    1.08509   1.10243    0.000
 5873.00    1.08821   1.09843    0.000
 5874.00    1.08137   1.09453    0.000
 5875.00    1.06681   1.08925    0.000
 5876.00    1.05487   1.08231    0.000
 5877.00    1.04472   1.07619    0.000
 5878.00    1.04620   1.07021    0.000
 5879.00    1.05461   1.06125    0.000
 5880.00    1.04624   1.04982    0.000
 5881.00    1.02915   1.03614    0.000
 5882.00    1.01625   1.01753    0.000
 5883.00    1.00525   0.99457    0.000
 5884.00    0.99559   0.96888    0.000
 5885.00    0.98646   0.93891    0.000
 5886.00    0.96139   0.90989    0.000
 5887.00    0.93107   0.88939    0.000
 5888.00    0.91048   0.87305    0.000
 5889.00    0.89259   0.86073    0.000
 5890.00    0.90409   0.85950    0.000
 5891.00    0.92228   0.86314    0.000
 5892.00    0.90877   0.86827    0.000
 5893.00    0.88950   0.88353    0.000
 5894.00    0.89020   0.90434    0.000
 5895.00    0.89368   0.92293    0.000
 5896.00    0.90821   0.94568    0.000
 5897.00    0.92385   0.97250    0.000
 5898.00    0.93564   0.99446    0.000
 5899.00    0.94719   1.01272    0.000
 5900.00    0.95772   1.03081    0.000
 5901.00    0.96821   1.04452    0.037
 5902.00    0.97785   1.05300    0.038
 5903.00    0.98687   1.06014    0.038
 5904.00    0.97827   1.06577    0.037
 5905.00    0.96978   1.06828    0.037
 5906.00    0.96283   1.06929    0.037
 5907.00    0.95718   1.07014    0.036
 5908.00    0.96368   1.06948    0.036
 5909.00    0.97207   1.06651    0.036
 5910.00    0.99323   1.06310    0.037
 5911.00    1.01362   1.06080    0.037
 5912.00    1.02986   1.05877    0.037
 5913.00    1.04075   1.05772    0.037
 5914.00    1.02893   1.05852    0.036
 5915.00    1.01753   1.06055    0.036
 5916.00    1.00758   1.06390    0.037
 5917.00    1.00673   1.06740    0.037
 5918.00    1.03263   1.07017    0.037
 5919.00    1.05433   1.07312    0.037
 5920.00    1.06548   1.07570    0.037
 5921.00    1.07413   1.07660    0.038
 5922.00    1.07740   1.07668    0.038
 5923.00    1.07231   1.07625    0.038
 5924.00    1.05156   1.07494    0.038
 5925.00    1.03384   1.07293    0.038
 5926.00    1.02112   1.07043    0.038
 5927.00    1.01978   1.06897    0.038
 5928.00    1.03478   1.06864    0.038
 5929.00    1.03984   1.06798    0.038
 5930.00    1.03236   1.06701    0.037
 5931.00    1.02804   1.06769    0.037
 5932.00    1.02724   1.06995    0.038
 5933.00    1.02273   1.07070    0.038
 5934.00    1.01459   1.07089    0.038
 5935.00    1.01606   1.07286    0.037
 5936.00    1.02585   1.07380    0.037
 5937.00    1.03557   1.07247    0.037
 5938.00    1.04524   1.07223    0.037
 5939.00    1.04986   1.07306    0.037
 5940.00    1.05110   1.07257    0.037
 5941.00    1.03980   1.07182    0.036
 5942.00    1.02114   1.07193    0.036
 5943.00    1.01920   1.07170    0.036
 5944.00    1.02582   1.06976    0.036
 5945.00    1.02801   1.06699    0.036
 5946.00    1.02822   1.06553    0.036
 5947.00    1.03344   1.06441    0.036
 5948.00    1.04058   1.06129    0.036
 5949.00    1.05944   1.05840    0.036
 5950.00    1.08210   1.05864    0.036
 5951.00    1.07037   1.05908    0.036
 5952.00    1.04933   1.05800    0.036
 5953.00    1.03091   1.05880    0.037
 5954.00    1.01307   1.06197    0.037
 5955.00    1.01821   1.06483    0.038
 5956.00    1.02742   1.06781    0.038
 5957.00    1.03481   1.07208    0.038
 5958.00    1.04195   1.07617    0.038
 5959.00    1.05549   1.07928    0.038
 5960.00    1.06964   1.08237    0.038
 5961.00    1.07438   1.08451    0.038
 5962.00    1.07856   1.08568    0.038
 5963.00    1.06882   1.08769    0.037
 5964.00    1.05873   1.08953    0.037
 5965.00    1.05128   1.09041    0.038
 5966.00    1.04357   1.09171    0.038
 5967.00    1.02923   1.09288    0.037
 5968.00    1.01682   1.09221    0.037
 5969.00    1.03034   1.09033    0.036
 5970.00    1.04365   1.08772    0.036
 5971.00    1.05516   1.08334    0.036
 5972.00    1.06399   1.07798    0.037
 5973.00    1.05523   1.07323    0.036
 5974.00    1.04670   1.06879    0.035
 5975.00    1.03938   1.06480    0.035
 5976.00    1.03154   1.06191    0.035
 5977.00    1.02159   1.05932    0.035
 5978.00    1.01258   1.05711    0.034
 5979.00    1.00679   1.05494    0.035
 5980.00    1.00073   1.05209    0.036
 5981.00    0.99390   1.05071    0.036
 5982.00    0.98900   1.05128    0.036
 5983.00    0.98886   1.05158    0.036
 5984.00    0.98547   1.05270    0.036
 5985.00    0.97519   1.05643    0.036
 5986.00    0.96784   1.06064    0.036
 5987.00    0.96590   1.06328    0.037
 5988.00    0.97262   1.06609    0.037
 5989.00    0.99331   1.06954    0.037
 5990.00    1.00837   1.07099    0.038
 5991.00    1.01548   1.07055    0.037
 5992.00    1.01684   1.06981    0.037
 5993.00    1.01105   1.06809    0.036
 5994.00    1.01387   1.06538    0.036
 5995.00    1.02615   1.06255    0.037
 5996.00    1.02748   1.05998    0.037
 5997.00    1.01820   1.05792    0.037
 5998.00    1.01095   1.05537    0.036
 5999.00    1.00541   1.05258    0.036
 6000.00    1.00425   1.05086    0.036
 6001.00    1.00638   1.04863    0.036
 6002.00    1.01217   1.04580    0.036
 6003.00    1.02039   1.04384    0.035
 6004.00    1.02405   1.04183    0.035
 6005.00    1.02506   1.04041    0.035
 6006.00    1.02390   1.04054    0.035
 6007.00    1.02166   1.04073    0.035
 6008.00    1.01053   1.04035    0.035
 6009.00    0.99553   1.03984    0.035
 6010.00    0.98207   1.03977    0.035
 6011.00    0.96920   1.03946    0.035
 6012.00    0.97606   1.03731    0.035
 6013.00    0.98918   1.03503    0.035
 6014.00    0.99536   1.03458    0.035
 6015.00    0.99970   1.03351    0.036
 6016.00    0.99942   1.03148    0.036
 6017.00    0.99813   1.03162    0.036
 6018.00    1.00316   1.03377    0.037
 6019.00    1.00927   1.03567    0.037
 6020.00    1.01625   1.03805    0.037
 6021.00    1.02335   1.04314    0.038
 6022.00    1.03221   1.04892    0.038
 6023.00    1.04124   1.05346    0.038
 6024.00    1.02848   1.05906    0.037
 6025.00    1.01450   1.06562    0.037
 6026.00    0.98871   1.07063    0.037
 6027.00    0.96297   1.07467    0.037
 6028.00    0.96861   1.07926    0.036
 6029.00    0.97439   1.08305    0.035
 6030.00    0.98360   1.08528    0.036
 6031.00    0.99309   1.08710    0.037
 6032.00    1.00624   1.08840    0.036
 6033.00    1.02112   1.08874    0.036
 6034.00    1.05088   1.08854    0.036
 6035.00    1.07442   1.08774    0.036
 6036.00    1.05822   1.08701    0.035
 6037.00    1.04212   1.08681    0.035
 6038.00    1.02654   1.08647    0.035
 6039.00    1.01234   1.08691    0.035
 6040.00    1.00371   1.08855    0.035
 6041.00    0.99870   1.08998    0.034
 6042.00    1.00584   1.09139    0.034
 6043.00    1.01125   1.09336    0.034
 6044.00    1.01176   1.09453    0.034
 6045.00    1.01194   1.09431    0.035
 6046.00    1.01132   1.09368    0.035
 6047.00    1.01190   1.09229    0.036
 6048.00    1.01500   1.08941    0.036
 6049.00    1.01310   1.08556    0.036
 6050.00    1.00209   1.08192    0.036
 6051.00    0.99770   1.07837    0.036
 6052.00    1.00382   1.07462    0.036
 6053.00    1.00900   1.07183    0.037
 6054.00    1.01288   1.07024    0.036
 6055.00    1.01519   1.06887    0.037
 6056.00    1.01559   1.06774    0.037
 6057.00    1.01903   1.06692    0.037
 6058.00    1.02577   1.06521    0.037
 6059.00    1.03260   1.06362    0.037
 6060.00    1.03950   1.06305    0.036
 6061.00    1.04138   1.06201    0.036
 6062.00    1.03905   1.06242    0.036
 6063.00    1.03556   1.06603    0.036
 6064.00    1.03121   1.07038    0.036
 6065.00    1.02270   1.07511    0.035
 6066.00    1.01147   1.08139    0.035
 6067.00    1.00834   1.08736    0.035
 6068.00    1.00981   1.09125    0.035
 6069.00    1.02168   1.09368    0.035
 6070.00    1.03871   1.09445    0.035
 6071.00    1.05798   1.09242    0.035
 6072.00    1.07822   1.08842    0.035
 6073.00    1.08276   1.08372    0.035
 6074.00    1.08153   1.07714    0.035
 6075.00    1.07168   1.06953    0.035
 6076.00    1.05915   1.06372    0.035
 6077.00    1.06019   1.05823    0.036
 6078.00    1.06476   1.05210    0.036
 6079.00    1.04866   1.04844    0.036
 6080.00    1.02818   1.04687    0.035
 6081.00    1.00813   1.04483    0.035
 6082.00    0.98816   1.04329    0.035
 6083.00    0.99059   1.04306    0.036
 6084.00    0.99584   1.04311    0.037
 6085.00    0.99093   1.04252    0.037
 6086.00    0.98514   1.04147    0.037
 6087.00    0.99086   1.04160    0.036
 6088.00    0.99718   1.04268    0.036
 6089.00    0.99237   1.04287    0.036
 6090.00    0.98740   1.04377    0.036
 6091.00    0.98592   1.04651    0.036
 6092.00    0.98491   1.04820    0.036
 6093.00    0.99382   1.04857    0.036
 6094.00    1.00136   1.04906    0.036
 6095.00    0.99216   1.04719    0.035
 6096.00    0.98303   1.04326    0.034
 6097.00    0.97456   1.04013    0.034
 6098.00    0.96634   1.03554    0.034
 6099.00    0.95977   1.03037    0.034
 6100.00    0.95491   1.02891    0.034
 6101.00    0.95843   1.02896    0.034
 6102.00    0.96066   1.02972    0.034
 6103.00    0.95778   1.03358    0.034
 6104.00    0.95377   1.03838    0.034
 6105.00    0.94606   1.04293    0.034
 6106.00    0.94501   1.04798    0.034
 6107.00    0.96249   1.05197    0.035
 6108.00    0.97730   1.05467    0.035
 6109.00    0.98577   1.05676    0.036
 6110.00    0.99266   1.05771    0.036
 6111.00    0.99630   1.05721    0.035
 6112.00    0.99879   1.05475    0.035
 6113.00    0.99923   1.05124    0.036
 6114.00    1.00127   1.04702    0.036
 6115.00    1.00584   1.04021    0.036
 6116.00    1.00801   1.03342    0.035
 6117.00    1.00690   1.02861    0.035
 6118.00    1.00528   1.02281    0.035
 6119.00    1.00306   1.01852    0.036
 6120.00    1.00363   1.01846    0.036
 6121.00    1.00719   1.01868    0.036
 6122.00    1.01269   1.01954    0.036
 6123.00    1.02003   1.02353    0.035
 6124.00    1.01725   1.02714    0.034
 6125.00    1.00610   1.02910    0.034
 6126.00    0.99911   1.03150    0.034
 6127.00    0.99516   1.03234    0.034
 6128.00    0.99581   1.03015    0.034
 6129.00    0.99942   1.02612    0.034
 6130.00    1.01559   1.01962    0.034
 6131.00    1.03879   1.01160    0.034
 6132.00    1.05086   1.00386    0.034
 6133.00    1.05749   0.99624    0.035
 6134.00    1.04117   0.99084    0.035
 6135.00    1.01518   0.99006    0.035
 6136.00    0.99097   0.99274    0.036
 6137.00    0.96741   0.99750    0.036
 6138.00    0.94956   1.00480    0.035
 6139.00    0.93346   1.01401    0.035
 6140.00    0.92819   1.02227    0.035
 6141.00    0.92566   1.02829    0.036
 6142.00    0.92376   1.03326    0.036
 6143.00    0.92199   1.03671    0.036
 6144.00    0.92526   1.03730    0.036
 6145.00    0.92935   1.03634    0.035
 6146.00    0.94477   1.03523    0.035
 6147.00    0.96157   1.03300    0.036
 6148.00    0.96403   1.03011    0.036
 6149.00    0.96529   1.02802    0.037
 6150.00    0.96881   1.02508    0.036
 6151.00    0.97245   1.02044    0.036
 6152.00    0.97153   1.01576    0.035
 6153.00    0.97065   1.00951    0.034
 6154.00    0.97600   0.99979    0.034
 6155.00    0.98088   0.98906    0.034
 6156.00    0.97642   0.97817    0.034
 6157.00    0.96972   0.96587    0.034
 6158.00    0.93721   0.95434    0.034
 6159.00    0.90520   0.94580    0.034
 6160.00    0.87721   0.94048    0.034
 6161.00    0.85311   0.93827    0.034
 6162.00    0.85246   0.93821    0.034
 6163.00    0.85465   0.94073    0.034
 6164.00    0.87028   0.94597    0.034
 6165.00    0.88544   0.95039    0.034
 6166.00    0.89874   0.95389    0.035
 6167.00    0.90662   0.95987    0.035
 6168.00    0.89701   0.96630    0.035
 6169.00    0.88829   0.97070    0.034
 6170.00    0.88197   0.97629    0.034
 6171.00    0.87790   0.98376    0.035
 6172.00    0.87906   0.98948    0.035
 6173.00    0.88037   0.99375    0.035
 6174.00    0.88197   0.99932    0.036
 6175.00    0.88368   1.00445    0.036
 6176.00    0.88561   1.00706    0.035
 6177.00    0.88985   1.00957    0.035
 6178.00    0.89765   1.01225    0.035
 6179.00    0.90364   1.01223    0.035
 6180.00    0.90716   1.01038    0.034
 6181.00    0.90918   1.00792    0.034
 6182.00    0.90941   1.00340    0.034
 6183.00    0.92244   0.99729    0.034
 6184.00    0.94893   0.99046    0.035
 6185.00    0.96088   0.98375    0.035
 6186.00    0.95934   0.97868    0.035
 6187.00    0.94351   0.97442    0.035
 6188.00    0.91600   0.97190    0.034
 6189.00    0.89204   0.97351    0.034
 6190.00    0.87064   0.97674    0.033
 6191.00    0.86090   0.98022    0.033
 6192.00    0.85854   0.98546    0.033
 6193.00    0.88834   0.99076    0.033
 6194.00    0.93590   0.99458    0.034
 6195.00    1.04833   0.99754    0.036
 6196.00    1.19190   0.99990   -2.000
 6197.00    1.24705   1.00207   -2.000
 6198.00    1.26554   1.00425   -2.000
 6199.00    1.18011   1.00645   -2.000
 6200.00    1.05784   1.00893   -2.000
 6201.00    0.93440   1.01138   -2.000
 6202.00    0.81061   1.01322   -2.000
 6203.00    0.81536   1.01363   -2.000
 6204.00    0.85204   1.01232   -2.000
 6205.00    0.90328   1.00959   -2.000
 6206.00    0.95746   1.00445   -2.000
 6207.00    0.95670   0.99715   -2.000
 6208.00    0.94727   0.98921    0.037
 6209.00    0.92528   0.98008    0.036
 6210.00    0.90181   0.97058    0.035
 6211.00    0.89318   0.96282    0.035
 6212.00    0.88572   0.95608    0.035
 6213.00    0.87693   0.95082    0.034
 6214.00    0.86808   0.94839    0.033
 6215.00    0.86771   0.94745    0.033
 6216.00    0.86757   0.94757    0.033
 6217.00    0.87366   0.94924    0.033
 6218.00    0.87932   0.95161    0.033
 6219.00    0.87700   0.95401    0.033
 6220.00    0.87541   0.95580    0.032
 6221.00    0.88188   0.95713    0.033
 6222.00    0.88741   0.95787    0.033
 6223.00    0.88573   0.95630    0.034
 6224.00    0.88584   0.95356    0.034
 6225.00    0.89646   0.95128    0.034
 6226.00    0.90667   0.94777    0.033
 6227.00    0.91498   0.94460    0.034
 6228.00    0.91768   0.94452    0.034
 6229.00    0.89917   0.94536    0.035
 6230.00    0.87979   0.94685    0.036
 6231.00    0.85766   0.95076    0.035
 6232.00    0.84492   0.95432    0.034
 6233.00    0.85736   0.95552    0.034
 6234.00    0.86724   0.95616    0.034
 6235.00    0.87119   0.95532    0.035
 6236.00    0.87268   0.95118    0.034
 6237.00    0.86926   0.94673    0.034
 6238.00    0.87117   0.94348    0.034
 6239.00    0.88233   0.93897    0.033
 6240.00    0.88793   0.93579    0.033
 6241.00    0.88508   0.93621    0.033
 6242.00    0.88215   0.93643    0.033
 6243.00    0.87912   0.93714    0.033
 6244.00    0.87949   0.94025    0.033
 6245.00    0.88383   0.94174    0.033
 6246.00    0.87799   0.94116    0.033
 6247.00    0.86160   0.94041    0.032
 6248.00    0.85671   0.93719    0.032
 6249.00    0.86234   0.93168    0.032
 6250.00    0.87170   0.92639    0.033
 6251.00    0.88407   0.92077    0.033
 6252.00    0.88835   0.91542    0.034
 6253.00    0.88689   0.91270    0.034
 6254.00    0.88596   0.91199    0.034
 6255.00    0.88536   0.91304    0.035
 6256.00    0.88404   0.91765    0.035
 6257.00    0.88232   0.92407    0.035
 6258.00    0.89690   0.93038    0.035
 6259.00    0.91919   0.93827    0.036
 6260.00    0.91711   0.94623    0.038
 6261.00    0.90509   0.95160    0.040
 6262.00    0.86933   0.95622    0.042
 6263.00    0.82533   0.96075    0.043
 6264.00    0.82150   0.96320    0.042
 6265.00    0.82946   0.96468    0.041
 6266.00    0.86243   0.96690    0.039
 6267.00    0.90146   0.96862    0.037
 6268.00    0.89562   0.96973    0.035
 6269.00    0.88097   0.97145    0.033
 6270.00    0.87959   0.97275    0.033
 6271.00    0.88023   0.97322    0.032
 6272.00    0.89730   0.97373    0.032
 6273.00    0.91622   0.97334    0.031
 6274.00    0.91532   0.97217    0.032
 6275.00    0.91294   0.97145    0.032
 6276.00    0.90493   0.97046    0.032
 6277.00    0.89669   0.96987    0.032
 6278.00    0.89086   0.97078    0.033
 6279.00    0.88513   0.97230    0.033
 6280.00    0.88227   0.97488    0.000
 6281.00    0.87969   0.97851    0.000
 6282.00    0.88197   0.98199    0.000
 6283.00    0.88442   0.98544    0.000
 6284.00    0.88875   0.98811    0.000
 6285.00    0.89266   0.98944    0.000
 6286.00    0.89353   0.98954    0.000
 6287.00    0.89439   0.98800    0.000
 6288.00    0.89525   0.98542    0.000
 6289.00    0.89676   0.98182    0.000
 6290.00    0.90122   0.97711    0.000
 6291.00    0.90450   0.97254    0.000
 6292.00    0.90337   0.96784    0.000
 6293.00    0.90100   0.96291    0.000
 6294.00    0.89477   0.95891    0.000
 6295.00    0.88969   0.95560    0.000
 6296.00    0.88761   0.95304    0.000
 6297.00    0.88283   0.95197    0.000
 6298.00    0.87194   0.95202    0.000
 6299.00    0.86371   0.95335    0.000
 6300.00    0.86066   0.95638    0.000
 6301.00    0.86169   0.96007    0.000
 6302.00    0.86968   0.96389    0.000
 6303.00    0.87742   0.96825    0.000
 6304.00    0.88478   0.97183    0.000
 6305.00    0.89903   0.97339    0.000
 6306.00    0.92235   0.97395    0.000
 6307.00    0.93717   0.97306    0.000
 6308.00    0.94215   0.96954    0.000
 6309.00    0.93677   0.96523    0.000
 6310.00    0.92082   0.96099    0.000
 6311.00    0.90377   0.95527    0.000
 6312.00    0.88574   0.95012    0.000
 6313.00    0.87135   0.94747    0.000
 6314.00    0.85985   0.94507    0.000
 6315.00    0.85451   0.94396    0.000
 6316.00    0.85348   0.94626    0.000
 6317.00    0.85483   0.94975    0.000
 6318.00    0.85763   0.95373    0.000
 6319.00    0.87415   0.95947    0.000
 6320.00    0.89799   0.96566    0.000
 6321.00    0.89992   0.97085    0.033
 6322.00    0.89166   0.97579    0.033
 6323.00    0.88004   0.98000    0.033
 6324.00    0.86706   0.98246    0.032
 6325.00    0.87276   0.98421    0.032
 6326.00    0.88484   0.98469    0.032
 6327.00    0.89611   0.98348    0.032
 6328.00    0.90716   0.98169    0.032
 6329.00    0.90509   0.97860    0.032
 6330.00    0.89991   0.97465    0.032
 6331.00    0.89122   0.97085    0.032
 6332.00    0.88186   0.96660    0.032
 6333.00    0.87409   0.96314    0.032
 6334.00    0.86656   0.96125    0.032
 6335.00    0.86296   0.95963    0.032
 6336.00    0.85978   0.95906    0.032
 6337.00    0.85615   0.95983    0.033
 6338.00    0.85250   0.96031    0.033
 6339.00    0.84141   0.96111    0.033
 6340.00    0.83006   0.96231    0.033
 6341.00    0.83218   0.96339    0.034
 6342.00    0.83467   0.96532    0.034
 6343.00    0.84794   0.96743    0.033
 6344.00    0.86077   0.96957    0.033
 6345.00    0.86655   0.97224    0.033
 6346.00    0.87249   0.97405    0.034
 6347.00    0.88013   0.97470    0.033
 6348.00    0.88778   0.97424    0.032
 6349.00    0.89551   0.97192    0.033
 6350.00    0.90186   0.96818    0.033
 6351.00    0.90066   0.96282    0.033
 6352.00    0.90038   0.95602    0.033
 6353.00    0.90414   0.94916    0.032
 6354.00    0.90409   0.94187    0.032
 6355.00    0.89015   0.93438    0.032
 6356.00    0.87505   0.92860    0.032
 6357.00    0.85643   0.92438    0.031
 6358.00    0.84614   0.92152    0.032
 6359.00    0.85738   0.92144    0.033
 6360.00    0.86417   0.92397    0.033
 6361.00    0.86100   0.92837    0.033
 6362.00    0.85600   0.93477    0.033
 6363.00    0.84747   0.94244    0.033
 6364.00    0.84491   0.95059    0.034
 6365.00    0.85244   0.95884    0.034
 6366.00    0.85753   0.96640    0.034
 6367.00    0.85904   0.97306    0.035
 6368.00    0.85554   0.97867    0.034
 6369.00    0.84555   0.98293    0.034
 6370.00    0.85285   0.98598    0.034
 6371.00    0.87993   0.98769    0.034
 6372.00    0.90549   0.98806    0.034
 6373.00    0.92951   0.98776    0.034
 6374.00    0.93308   0.98651    0.034
 6375.00    0.91845   0.98450    0.033
 6376.00    0.90304   0.98308    0.033
 6377.00    0.88701   0.98170    0.032
 6378.00    0.87946   0.98029    0.032
 6379.00    0.87775   0.98021    0.032
 6380.00    0.87897   0.98050    0.032
 6381.00    0.88197   0.98059    0.031
 6382.00    0.88254   0.98130    0.032
 6383.00    0.88183   0.98170    0.032
 6384.00    0.89489   0.98096    0.032
 6385.00    0.91426   0.97983    0.033
 6386.00    0.93591   0.97784    0.033
 6387.00    0.95847   0.97444    0.033
 6388.00    0.95021   0.97114    0.033
 6389.00    0.93163   0.96798    0.033
 6390.00    0.91306   0.96426    0.033
 6391.00    0.89450   0.96187    0.033
 6392.00    0.88240   0.96079    0.034
 6393.00    0.87181   0.95925    0.034
 6394.00    0.86862   0.95864    0.034
 6395.00    0.86682   0.95975    0.035
 6396.00    0.85957   0.96011    0.035
 6397.00    0.85152   0.96081    0.035
 6398.00    0.84935   0.96351    0.034
 6399.00    0.84778   0.96529    0.034
 6400.00    0.85369   0.96694    0.033
 6401.00    0.86011   0.96915    0.033
 6402.00    0.86846   0.96947    0.033
 6403.00    0.87688   0.96944    0.032
 6404.00    0.88330   0.96874    0.032
 6405.00    0.88949   0.96636    0.032
 6406.00    0.88830   0.96505    0.032
 6407.00    0.88684   0.96371    0.032
 6408.00    0.88123   0.96165    0.032
 6409.00    0.87707   0.96145    0.032
 6410.00    0.88688   0.96156    0.032
 6411.00    0.89633   0.96080    0.032
 6412.00    0.90323   0.96105    0.033
 6413.00    0.90645   0.96124    0.033
 6414.00    0.88985   0.96045    0.033
 6415.00    0.87291   0.96014    0.033
 6416.00    0.85443   0.96046    0.033
 6417.00    0.84198   0.96107    0.033
 6418.00    0.85101   0.96247    0.033
 6419.00    0.86199   0.96515    0.033
 6420.00    0.87879   0.96845    0.033
 6421.00    0.89256   0.97127    0.034
 6422.00    0.89860   0.97394    0.034
 6423.00    0.90329   0.97586    0.034
 6424.00    0.90504   0.97570    0.034
 6425.00    0.90218   0.97462    0.033
 6426.00    0.89052   0.97315    0.033
 6427.00    0.87813   0.97057    0.033
 6428.00    0.86451   0.96850    0.033
 6429.00    0.85965   0.96743    0.033
 6430.00    0.86755   0.96647    0.033
 6431.00    0.87627   0.96670    0.032
 6432.00    0.88603   0.96734    0.032
 6433.00    0.89325   0.96783    0.032
 6434.00    0.89761   0.96952    0.032
 6435.00    0.89509   0.97110    0.032
 6436.00    0.88574   0.97280    0.032
 6437.00    0.87715   0.97590    0.032
 6438.00    0.86923   0.97867    0.032
 6439.00    0.87289   0.98105    0.033
 6440.00    0.88549   0.98294    0.033
 6441.00    0.88962   0.98287    0.034
 6442.00    0.88800   0.98122    0.034
 6443.00    0.88477   0.97720    0.034
 6444.00    0.88058   0.97150    0.033
 6445.00    0.87554   0.96605    0.033
 6446.00    0.87005   0.95977    0.034
 6447.00    0.86146   0.95484    0.034
 6448.00    0.85146   0.95300    0.034
 6449.00    0.84145   0.95192    0.034
 6450.00    0.83144   0.95303    0.034
 6451.00    0.83472   0.95657    0.034
 6452.00    0.84238   0.95974    0.034
 6453.00    0.84782   0.96280    0.034
 6454.00    0.85265   0.96608    0.032
 6455.00    0.86599   0.96801    0.032
 6456.00    0.88127   0.96804    0.032
 6457.00    0.88389   0.96780    0.032
 6458.00    0.88421   0.96739    0.032
 6459.00    0.88804   0.96565    0.032
 6460.00    0.89235   0.96487    0.033
 6461.00    0.90092   0.96560    0.032
 6462.00    0.90991   0.96585    0.032
 6463.00    0.89889   0.96702    0.032
 6464.00    0.88660   0.96926    0.032
 6465.00    0.87112   0.97027    0.032
 6466.00    0.85557   0.97093    0.033
 6467.00    0.84536   0.97211    0.033
 6468.00    0.83627   0.97196    0.033
 6469.00    0.85815   0.97132    0.033
 6470.00    0.87872   0.97154    0.034
 6471.00    0.88088   0.97116    0.034
 6472.00    0.88394   0.97017    0.035
 6473.00    0.89533   0.96950    0.035
 6474.00    0.90667   0.96846    0.035
 6475.00    0.91777   0.96636    0.034
 6476.00    0.92804   0.96400    0.034
 6477.00    0.93399   0.96174    0.034
 6478.00    0.93460   0.95916    0.034
 6479.00    0.91266   0.95694    0.033
 6480.00    0.89164   0.95558    0.032
 6481.00    0.87386   0.95447    0.032
 6482.00    0.85836   0.95349    0.032
 6483.00    0.84959   0.95233    0.032
 6484.00    0.84711   0.94969    0.031
 6485.00    0.86034   0.94496    0.031
 6486.00    0.87314   0.93843    0.032
 6487.00    0.88498   0.92929    0.032
 6488.00    0.89484   0.91759    0.032
 6489.00    0.90101   0.90563    0.032
 6490.00    0.89935   0.89357    0.032
 6491.00    0.88488   0.88248    0.032
 6492.00    0.86844   0.87519    0.032
 6493.00    0.84918   0.87095    0.032
 6494.00    0.83481   0.87087    0.032
 6495.00    0.82660   0.87555    0.033
 6496.00    0.82154   0.88257    0.033
 6497.00    0.81997   0.89247    0.034
 6498.00    0.82285   0.90381    0.034
 6499.00    0.83010   0.91455    0.034
 6500.00    0.83130   0.92519    0.033
 6501.00    0.82728   0.93440    0.033
 6502.00    0.82964   0.94158    0.032
 6503.00    0.83685   0.94739    0.032
 6504.00    0.84455   0.95166    0.032
 6505.00    0.85258   0.95433    0.032
 6506.00    0.86264   0.95579    0.032
 6507.00    0.87388   0.95648    0.032
 6508.00    0.88428   0.95637    0.032
 6509.00    0.89425   0.95513    0.031
 6510.00    0.89153   0.95351    0.031
 6511.00    0.88320   0.95185    0.032
 6512.00    0.88227   0.94947    0.032
 6513.00    0.88416   0.94744    0.031
 6514.00    0.89637   0.94651    0.032
 6515.00    0.91192   0.94580    0.032
 6516.00    0.90849   0.94611    0.032
 6517.00    0.89995   0.94744    0.032
 6518.00    0.89353   0.94882    0.033
 6519.00    0.88760   0.95075    0.033
 6520.00    0.90070   0.95220    0.034
 6521.00    0.91715   0.95284    0.034
 6522.00    0.91662   0.95351    0.034
 6523.00    0.91379   0.95324    0.034
 6524.00    0.91384   0.95239    0.034
 6525.00    0.91416   0.95176    0.034
 6526.00    0.91945   0.95086    0.034
 6527.00    0.92504   0.95018    0.033
 6528.00    0.90548   0.94995    0.000
 6529.00    0.88531   0.95009    0.000
 6530.00    0.86817   0.95081    0.000
 6531.00    0.85192   0.95174    0.000
 6532.00    0.85782   0.95302    0.000
 6533.00    0.86406   0.95454    0.000
 6534.00    0.87476   0.95556    0.000
 6535.00    0.88518   0.95604    0.000
 6536.00    0.89320   0.95573    0.000
 6537.00    0.89921   0.95413    0.000
 6538.00    0.89199   0.95169    0.000
 6539.00    0.88552   0.94828    0.000
 6540.00    0.88286   0.94357    0.000
 6541.00    0.88041   0.93920    0.000
 6542.00    0.87884   0.93492    0.000
 6543.00    0.87763   0.93033    0.000
 6544.00    0.87768   0.92681    0.000
 6545.00    0.87905   0.92339    0.000
 6546.00    0.88422   0.91994    0.000
 6547.00    0.88974   0.91678    0.000
 6548.00    0.89612   0.91252    0.000
 6549.00    0.89613   0.90750    0.000
 6550.00    0.88263   0.90162    0.000
 6551.00    0.87220   0.89429    0.000
 6552.00    0.86740   0.88562    0.000
 6553.00    0.86485   0.87460    0.000
 6554.00    0.86590   0.86227    0.000
 6555.00    0.85796   0.84973    0.000
 6556.00    0.83732   0.83431    0.000
 6557.00    0.82528   0.81947    0.000
 6558.00    0.82393   0.81036    0.000
 6559.00    0.82948   0.80272    0.000
 6560.00    0.84258   0.79882    0.000
 6561.00    0.85226   0.80358    0.000
 6562.00    0.85862   0.81170    0.000
 6563.00    0.85815   0.82237    0.000
 6564.00    0.85187   0.83665    0.000
 6565.00    0.85765   0.85011    0.000
 6566.00    0.87249   0.86171    0.000
 6567.00    0.87563   0.87199    0.000
 6568.00    0.87106   0.87959    0.000
 6569.00    0.85624   0.88507    0.000
 6570.00    0.83551   0.89023    0.000
 6571.00    0.83503   0.89455    0.000
 6572.00    0.84472   0.89831    0.000
 6573.00    0.84975   0.90300    0.000
 6574.00    0.85276   0.90732    0.000
 6575.00    0.83925   0.91100    0.000
 6576.00    0.81958   0.91517    0.000
 6577.00    0.82575   0.91840    0.000
 6578.00    0.84010   0.92079    0.000
 6579.00    0.85703   0.92325    0.000
 6580.00    0.87463   0.92464    0.000
 6581.00    0.89078   0.92586    0.000
 6582.00    0.90661   0.92705    0.000
 6583.00    0.91241   0.92670    0.000
 6584.00    0.91647   0.92591    0.000
 6585.00    0.92054   0.92464    0.000
 6586.00    0.92462   0.92147    0.000
 6587.00    0.91677   0.91734    0.000
 6588.00    0.90783   0.91386    0.000
 6589.00    0.89568   0.91049    0.000
 6590.00    0.88335   0.90717    0.000
 6591.00    0.87640   0.90568    0.000
 6592.00    0.86966   0.90569    0.000
 6593.00    0.87179   0.90684    0.000
 6594.00    0.87267   0.90971    0.000
 6595.00    0.84506   0.91293    0.000
 6596.00    0.81937   0.91605    0.000
 6597.00    0.81804   0.91921    0.000
 6598.00    0.81882   0.92113    0.000
 6599.00    0.83771   0.92175    0.000
 6600.00    0.85310   0.92148    0.000
 6601.00    0.84627   0.92015    0.000
 6602.00    0.83984   0.91802    0.000
 6603.00    0.83537   0.91552    0.000
 6604.00    0.83205   0.91385    0.000
 6605.00    0.83332   0.91329    0.000
 6606.00    0.83451   0.91321    0.000
 6607.00    0.83542   0.91442    0.000
 6608.00    0.83856   0.91698    0.000
 6609.00    0.84800   0.92038    0.032
 6610.00    0.85260   0.92396    0.033
 6611.00    0.84550   0.92719    0.032
 6612.00    0.84103   0.93062    0.032
 6613.00    0.84206   0.93339    0.032
 6614.00    0.84596   0.93499    0.032
 6615.00    0.85507   0.93592    0.033
 6616.00    0.85968   0.93585    0.033
 6617.00    0.85712   0.93490    0.033
 6618.00    0.85706   0.93292    0.034
 6619.00    0.86050   0.93015    0.034
 6620.00    0.86288   0.92763    0.034
 6621.00    0.86397   0.92450    0.034
 6622.00    0.86122   0.92106    0.034
 6623.00    0.85433   0.91846    0.033
 6624.00    0.84539   0.91552    0.033
 6625.00    0.83448   0.91261    0.032
 6626.00    0.82920   0.91012    0.032
 6627.00    0.82863   0.90718    0.033
 6628.00    0.83654   0.90463    0.033
 6629.00    0.85072   0.90302    0.033
 6630.00    0.85501   0.90164    0.033
 6631.00    0.85288   0.90098    0.033
 6632.00    0.84913   0.90165    0.032
 6633.00    0.84445   0.90262    0.032
 6634.00    0.84281   0.90377    0.032
 6635.00    0.84267   0.90562    0.033
 6636.00    0.83060   0.90689    0.033
 6637.00    0.81341   0.90712    0.033
 6638.00    0.80487   0.90776    0.033
 6639.00    0.79950   0.90829    0.033
 6640.00    0.80080   0.90792    0.033
 6641.00    0.80418   0.90781    0.033
 6642.00    0.79773   0.90832    0.033
 6643.00    0.78874   0.90900    0.033
 6644.00    0.80594   0.90969    0.033
 6645.00    0.82867   0.91040    0.033
 6646.00    0.84726   0.91140    0.033
 6647.00    0.86516   0.91227    0.033
 6648.00    0.85001   0.91262    0.033
 6649.00    0.83072   0.91292    0.033
 6650.00    0.82726   0.91283    0.033
 6651.00    0.82518   0.91221    0.033
 6652.00    0.82450   0.91152    0.033
 6653.00    0.82389   0.91009    0.034
 6654.00    0.82231   0.90794    0.033
 6655.00    0.82068   0.90569    0.032
 6656.00    0.81650   0.90287    0.032
 6657.00    0.81240   0.89920    0.032
 6658.00    0.81021   0.89604    0.032
 6659.00    0.80870   0.89349    0.032
 6660.00    0.81546   0.89069    0.033
 6661.00    0.82034   0.88931    0.033
 6662.00    0.80977   0.88940    0.033
 6663.00    0.80163   0.89006    0.033
 6664.00    0.80848   0.89199    0.033
 6665.00    0.81364   0.89442    0.033
 6666.00    0.81060   0.89695    0.034
 6667.00    0.80521   0.89957    0.034
 6668.00    0.79052   0.90118    0.034
 6669.00    0.77615   0.90169    0.034
 6670.00    0.76285   0.90138    0.033
 6671.00    0.75419   0.89959    0.033
 6672.00    0.75837   0.89671    0.033
 6673.00    0.76240   0.89442    0.033
 6674.00    0.76605   0.89203    0.033
 6675.00    0.77195   0.88940    0.033
 6676.00    0.78249   0.88904    0.033
 6677.00    0.79152   0.88994    0.033
 6678.00    0.79787   0.89113    0.033
 6679.00    0.79837   0.89350    0.033
 6680.00    0.78974   0.89623    0.032
 6681.00    0.78505   0.89892    0.032
 6682.00    0.78576   0.90134    0.032
 6683.00    0.78380   0.90314    0.033
 6684.00    0.77863   0.90432    0.033
 6685.00    0.77848   0.90484    0.033
 6686.00    0.78368   0.90479    0.033
 6687.00    0.79642   0.90392    0.033
 6688.00    0.81625   0.90266    0.034
 6689.00    0.82432   0.90087    0.034
 6690.00    0.82266   0.89836    0.034
 6691.00    0.81564   0.89628    0.034
 6692.00    0.80471   0.89420    0.033
 6693.00    0.79741   0.89185    0.033
 6694.00    0.79242   0.89074    0.034
 6695.00    0.77593   0.89005    0.034
 6696.00    0.75301   0.88950    0.000
 6697.00    0.74748   0.88980    0.000
 6698.00    0.75043   0.88982    0.000
 6699.00    0.77869   0.89000    0.000
 6700.00    0.81761   0.89031    0.000
 6701.00    0.83395   0.88993    0.000
 6702.00    0.84217   0.88964    0.000
 6703.00    0.82211   0.88934    0.000
 6704.00    0.79345   0.88820    0.000
 6705.00    0.78740   0.88681    0.000
 6706.00    0.78707   0.88505    0.000
 6707.00    0.77972   0.88217    0.000
 6708.00    0.77092   0.87921    0.000
 6709.00    0.77311   0.87593    0.000
 6710.00    0.77708   0.87205    0.000
 6711.00    0.76787   0.86870    0.000
 6712.00    0.75707   0.86590    0.000
 6713.00    0.76397   0.86428    0.000
 6714.00    0.77234   0.86350    0.000
 6715.00    0.78795   0.86375    0.000
 6716.00    0.80390   0.86583    0.000
 6717.00    0.80956   0.86843    0.000
 6718.00    0.81484   0.87121    0.000
 6719.00    0.80606   0.87408    0.000
 6720.00    0.79757   0.87686    0.000
 6721.00    0.79453   0.87962    0.000
 6722.00    0.79319   0.88158    0.000
 6723.00    0.81138   0.88291    0.000
 6724.00    0.82725   0.88444    0.000
 6725.00    0.82458   0.88564    0.000
 6726.00    0.81904   0.88635    0.000
 6727.00    0.79625   0.88683    0.000
 6728.00    0.77775   0.88701    0.000
 6729.00    0.77960   0.88681    0.000
 6730.00    0.78466   0.88610    0.000
 6731.00    0.80219   0.88490    0.000
 6732.00    0.81707   0.88336    0.000
 6733.00    0.82341   0.88167    0.000
 6734.00    0.82554   0.87969    0.000
 6735.00    0.81619   0.87754    0.000
 6736.00    0.81139   0.87544    0.000
 6737.00    0.81718   0.87362    0.000
 6738.00    0.81469   0.87234    0.000
 6739.00    0.79545   0.87084    0.000
 6740.00    0.77900   0.86932    0.000
 6741.00    0.76748   0.86844    0.000
 6742.00    0.76232   0.86751    0.000
 6743.00    0.76694   0.86651    0.000
 6744.00    0.76820   0.86559    0.000
 6745.00    0.76490   0.86499    0.000
 6746.00    0.76537   0.86491    0.000
 6747.00    0.77033   0.86469    0.000
 6748.00    0.77965   0.86575    0.000
 6749.00    0.79352   0.86742    0.000
 6750.00    0.79674   0.86897    0.000
 6751.00    0.79008   0.87211    0.000
 6752.00    0.78272   0.87526    0.000
 6753.00    0.77479   0.87834    0.036
 6754.00    0.77281   0.88178    0.037
 6755.00    0.77512   0.88436    0.038
 6756.00    0.76874   0.88638    0.038
 6757.00    0.75689   0.88773    0.039
 6758.00    0.76237   0.88792    0.039
 6759.00    0.77741   0.88706    0.039
 6760.00    0.81927   0.88554    0.041
 6761.00    0.87398   0.88344    0.042
 6762.00    0.89970   0.88092    0.043
 6763.00    0.91343   0.87854    0.044
 6764.00    0.91621   0.87620    0.043
 6765.00    0.91511   0.87454    0.043
 6766.00    0.91264   0.87434    0.042
 6767.00    0.90975   0.87472    0.041
 6768.00    0.92705   0.87575    0.041
 6769.00    0.94935   0.87782    0.040
 6770.00    0.90247   0.88050    0.040
 6771.00    0.84171   0.88333    0.039
 6772.00    0.82235   0.88562    0.038
 6773.00    0.80950   0.88746    0.037
 6774.00    0.80785   0.88823    0.037
 6775.00    0.80750   0.88781    0.037
 6776.00    0.80684   0.88663    0.037
 6777.00    0.80616   0.88407    0.037
 6778.00    0.81336   0.88077    0.038
 6779.00    0.82091   0.87739    0.038
 6780.00    0.81372   0.87388    0.039
 6781.00    0.80680   0.87095    0.040
 6782.00    0.82009   0.86922    0.040
 6783.00    0.83352   0.86812    0.040
 6784.00    0.84970   0.86794    0.040
 6785.00    0.86133   0.86868    0.040
 6786.00    0.82327   0.86934    0.039
 6787.00    0.79209   0.87000    0.039
 6788.00    0.81378   0.87081    0.039
 6789.00    0.83262   0.87142    0.039
 6790.00    0.83490   0.87142    0.039
 6791.00    0.83496   0.87158    0.039
 6792.00    0.82474   0.87194    0.039
 6793.00    0.81913   0.87213    0.039
 6794.00    0.83101   0.87288    0.039
 6795.00    0.83964   0.87356    0.039
 6796.00    0.83800   0.87413    0.038
 6797.00    0.83563   0.87507    0.038
 6798.00    0.83132   0.87555    0.038
 6799.00    0.83347   0.87588    0.038
 6800.00    0.85048   0.87604    0.038
 6801.00    0.85809   0.87546    0.038
 6802.00    0.84704   0.87531    0.039
 6803.00    0.84151   0.87491    0.039
 6804.00    0.84557   0.87379    0.039
 6805.00    0.83721   0.87364    0.039
 6806.00    0.81001   0.87314    0.039
 6807.00    0.79422   0.87230    0.039
 6808.00    0.79365   0.87231    0.038
 6809.00    0.80042   0.87205    0.038
 6810.00    0.81582   0.87223    0.039
 6811.00    0.82208   0.87254    0.039
 6812.00    0.81886   0.87247    0.039
 6813.00    0.80785   0.87343    0.040
 6814.00    0.78971   0.87454    0.040
 6815.00    0.77122   0.87536    0.040
 6816.00    0.75243   0.87639    0.039
 6817.00    0.75449   0.87705    0.038
 6818.00    0.77131   0.87808    0.038
 6819.00    0.78537   0.87913    0.038
 6820.00    0.79771   0.87945    0.038
 6821.00    0.81074   0.87955    0.038
 6822.00    0.82414   0.87924    0.038
 6823.00    0.80355   0.87888    0.037
 6824.00    0.76693   0.87838    0.037
 6825.00    0.76518   0.87732    0.038
 6826.00    0.77760   0.87667    0.038
 6827.00    0.80364   0.87646    0.039
 6828.00    0.83441   0.87603    0.039
 6829.00    0.83071   0.87529    0.040
 6830.00    0.81694   0.87402    0.040
 6831.00    0.81987   0.87248    0.041
 6832.00    0.82684   0.87059    0.041
 6833.00    0.83725   0.86756    0.041
 6834.00    0.84833   0.86408    0.041
 6835.00    0.85434   0.86061    0.040
 6836.00    0.85958   0.85718    0.040
 6837.00    0.83261   0.85464    0.040
 6838.00    0.80202   0.85283    0.040
 6839.00    0.79106   0.85227    0.041
 6840.00    0.78156   0.85324    0.041
 6841.00    0.79391   0.85513    0.040
 6842.00    0.80712   0.85775    0.039
 6843.00    0.81383   0.86025    0.039
 6844.00    0.82042   0.86242    0.038
 6845.00    0.82420   0.86436    0.038
 6846.00    0.82632   0.86511    0.038
 6847.00    0.80032   0.86484    0.038
 6848.00    0.77559   0.86384    0.039
 6849.00    0.76423   0.86191    0.039
 6850.00    0.75688   0.85980    0.039
 6851.00    0.77933   0.85720    0.039
 6852.00    0.79758   0.85408    0.040
 6853.00    0.79200   0.85201    0.039
 6854.00    0.78493   0.85056    0.039
 6855.00    0.77109   0.84926    0.039
 6856.00    0.76153   0.84900    0.040
 6857.00    0.76774   0.84907    0.040
 6858.00    0.76905   0.84913    0.040
 6859.00    0.75517   0.84971    0.040
 6860.00    0.74246   0.85065    0.040
 6861.00    0.73283   0.85153    0.040
 6862.00    0.73127   0.85180    0.040
 6863.00    0.74797   0.85163    0.039
 6864.00    0.76594   0.85105    0.039
 6865.00    0.78642   0.85036    0.039
 6866.00    0.79959   0.85022    0.039
 6867.00    0.80025   0.85036    0.040
 6868.00    0.80872   0.85023    0.040
 6869.00    0.82884   0.85022    0.041
 6870.00    0.83013   0.85097    0.041
 6871.00    0.80669   0.85219    0.041
 6872.00    0.79393   0.85321    0.041
 6873.00    0.79355   0.85398    0.040
 6874.00    0.77931   0.85488    0.040
 6875.00    0.75092   0.85556    0.040
 6876.00    0.73354   0.85587    0.040
 6877.00    0.72606   0.85603    0.041
 6878.00    0.73110   0.85591    0.041
 6879.00    0.74605   0.85608    0.042
 6880.00    0.76181   0.85668    0.041
 6881.00    0.77813   0.85818    0.041
 6882.00    0.77983   0.86018    0.040
 6883.00    0.77259   0.86195    0.040
 6884.00    0.77283   0.86445    0.039
 6885.00    0.77705   0.86715    0.040
 6886.00    0.76704   0.86939    0.039
 6887.00    0.75044   0.87121    0.039
 6888.00    0.76588   0.87260    0.039
 6889.00    0.79414   0.87330    0.040
 6890.00    0.79993   0.87353    0.040
 6891.00    0.79805   0.87370    0.041
 6892.00    0.80994   0.87319    0.041
 6893.00    0.82577   0.87278    0.042
 6894.00    0.80825   0.87286    0.042
 6895.00    0.78284   0.87294    0.041
 6896.00    0.79561   0.87314    0.042
 6897.00    0.81566   0.87327    0.043
 6898.00    0.81981   0.87384    0.043
 6899.00    0.82160   0.87500    0.043
 6900.00    0.81351   0.87558    0.043
 6901.00    0.80435   0.87602    0.042
 6902.00    0.78675   0.87646    0.043
 6903.00    0.76854   0.87652    0.043
 6904.00    0.74295   0.87653    0.041
 6905.00    0.71710   0.87561    0.039
 6906.00    0.75611   0.87412    0.040
 6907.00    0.79413   0.87268    0.041
 6908.00    0.79075   0.87062    0.040
 6909.00    0.78540   0.86841    0.040
 6910.00    0.74893   0.86661    0.041
 6911.00    0.71399   0.86468    0.041
 6912.00    0.69424   0.86380    0.040
 6913.00    0.67725   0.86359    0.040
 6914.00    0.68005   0.86320    0.041
 6915.00    0.68136   0.86357    0.041
 6916.00    0.67446   0.86379    0.041
 6917.00    0.67370   0.86385    0.041
 6918.00    0.70006   0.86370    0.042
 6919.00    0.72859   0.86314    0.043
 6920.00    0.76504   0.86233    0.043
 6921.00    0.78619   0.86107    0.044
 6922.00    0.76084   0.86001    0.043
 6923.00    0.74000   0.85939    0.043
 6924.00    0.73082   0.85932    0.043
 6925.00    0.72192   0.85931    0.043
 6926.00    0.71364   0.85943    0.042
 6927.00    0.70302   0.86006    0.042
 6928.00    0.68788   0.86067    0.042
 6929.00    0.68769   0.86141    0.042
 6930.00    0.71262   0.86185    0.042
 6931.00    0.73400   0.86257    0.042
 6932.00    0.75015   0.86378    0.042
 6933.00    0.75046   0.86436    0.042
 6934.00    0.73027   0.86472    0.042
 6935.00    0.71824   0.86481    0.042
 6936.00    0.71552   0.86454    0.042
 6937.00    0.71791   0.86387    0.042
 6938.00    0.72543   0.86279    0.042
 6939.00    0.71935   0.86135    0.043
 6940.00    0.70118   0.85961    0.043
 6941.00    0.71255   0.85814    0.043
 6942.00    0.74699   0.85657    0.043
 6943.00    0.77820   0.85547    0.043
 6944.00    0.80717   0.85516    0.044
 6945.00    0.79094   0.85455    0.044
 6946.00    0.74746   0.85429    0.043
 6947.00    0.73153   0.85429    0.043
 6948.00    0.73009   0.85407    0.043
 6949.00    0.73757   0.85455    0.043
 6950.00    0.74911   0.85520    0.043
 6951.00    0.72733   0.85601    0.042
 6952.00    0.69245   0.85732    0.042
 6953.00    0.68866   0.85898    0.042
 6954.00    0.69527   0.86086    0.042
 6955.00    0.72066   0.86259    0.042
 6956.00    0.75132   0.86451    0.042
 6957.00    0.76789   0.86601    0.042
 6958.00    0.78119   0.86735    0.043
 6959.00    0.77091   0.86870    0.043
 6960.00    0.75625   0.86961    0.043
 6961.00    0.77283   0.87044    0.043
 6962.00    0.79388   0.87081    0.043
 6963.00    0.76343   0.87062    0.043
 6964.00    0.72764   0.87071    0.043
 6965.00    0.75188   0.87055    0.043
 6966.00    0.78012   0.86926    0.044
 6967.00    0.76851   0.86732    0.043
 6968.00    0.75562   0.86447    0.043
 6969.00    0.76503   0.86115    0.043
 6970.00    0.77323   0.85728    0.044
 6971.00    0.74429   0.85247    0.043
 6972.00    0.71800   0.84810    0.042
 6973.00    0.73118   0.84425    0.042
 6974.00    0.74223   0.84132    0.043
 6975.00    0.73271   0.83962    0.043
 6976.00    0.72028   0.83937    0.042
 6977.00    0.68758   0.84161    0.042
 6978.00    0.65975   0.84499    0.042
 6979.00    0.65801   0.84885    0.042
 6980.00    0.66746   0.85317    0.042
 6981.00    0.72505   0.85698    0.043
 6982.00    0.76201   0.86057    0.044
 6983.00    0.72574   0.86349    0.043
 6984.00    0.70257   0.86530    0.043
 6985.00    0.71844   0.86646    0.044
 6986.00    0.74407   0.86676    0.044
 6987.00    0.79448   0.86687    0.044
 6988.00    0.81353   0.86710    0.044
 6989.00    0.76404   0.86684    0.044
 6990.00    0.73544   0.86630    0.044
 6991.00    0.74650   0.86507    0.044
 6992.00    0.73889   0.86355    0.044
 6993.00    0.70039   0.86228    0.043
 6994.00    0.68928   0.86057    0.042
 6995.00    0.71792   0.85853    0.043
 6996.00    0.73601   0.85609    0.043
 6997.00    0.74062   0.85379    0.043
 6998.00    0.74485   0.85232    0.043
 6999.00    0.74866   0.85119    0.043
 7000.00    0.74667   0.85019    0.043
 7001.00    0.73894   0.84932    0.043
 7002.00    0.73417   0.84888    0.043
 7003.00    0.73200   0.84878    0.044
 7004.00    0.71905   0.84898    0.044
 7005.00    0.69780   0.84908    0.043
 7006.00    0.68327   0.84891    0.043
 7007.00    0.67330   0.84822    0.044
 7008.00    0.68790   0.84676    0.044
 7009.00    0.71708   0.84552    0.044
 7010.00    0.74965   0.84452    0.044
 7011.00    0.78398   0.84321    0.045
 7012.00    0.75396   0.84196    0.044
 7013.00    0.69505   0.84087    0.044
 7014.00    0.67427   0.84078    0.043
 7015.00    0.66820   0.84176    0.043
 7016.00    0.67975   0.84253    0.043
 7017.00    0.69709   0.84327    0.043
 7018.00    0.72495   0.84409    0.043
 7019.00    0.75570   0.84458    0.043
 7020.00    0.75784   0.84501    0.043
 7021.00    0.75351   0.84539    0.043
 7022.00    0.73733   0.84599    0.043
 7023.00    0.71902   0.84709    0.043
 7024.00    0.69930   0.84799    0.042
 7025.00    0.67939   0.84905    0.042
 7026.00    0.70947   0.85037    0.043
 7027.00    0.74451   0.85165    0.045
 7028.00    0.75160   0.85303    0.045
 7029.00    0.75694   0.85380    0.046
 7030.00    0.75799   0.85412    0.045
 7031.00    0.75883   0.85482    0.045
 7032.00    0.73802   0.85577    0.045
 7033.00    0.71771   0.85712    0.046
 7034.00    0.71086   0.85872    0.045
 7035.00    0.70646   0.86040    0.044
 7036.00    0.73633   0.86302    0.044
 7037.00    0.76224   0.86660    0.045
 7038.00    0.75168   0.87018    0.045
 7039.00    0.74500   0.87344    0.045
 7040.00    0.76453   0.87608    0.045
 7041.00    0.77801   0.87810    0.045
 7042.00    0.75982   0.87930    0.044
 7043.00    0.74554   0.87966    0.044
 7044.00    0.74766   0.87863    0.044
 7045.00    0.75590   0.87609    0.045
 7046.00    0.78545   0.87256    0.045
 7047.00    0.79076   0.86772    0.045
 7048.00    0.72516   0.86235    0.045
 7049.00    0.63223   0.85642    0.045
 7050.00    0.47106   0.85006   -2.000
 7051.00    0.42853   0.84434   -2.000
 7052.00    0.64118   0.83904   -2.000
 7053.00    0.79207   0.83463   -2.000
 7054.00    0.82763   0.83098   -2.000
 7055.00    0.85760   0.82759   -2.000
 7056.00    0.87844   0.82495   -2.000
 7057.00    0.86896   0.82268   -2.000
 7058.00    0.81609   0.82081   -2.000
 7059.00    0.81088   0.81940   -2.000
 7060.00    0.86563   0.81774   -2.000
 7061.00    0.86676   0.81651   -2.000
 7062.00    0.80844   0.81575   -2.000
 7063.00    0.80071   0.81506   -2.000
 7064.00    0.84245   0.81507   -2.000
 7065.00    0.83965   0.81563   -2.000
 7066.00    0.79841   0.81704   -2.000
 7067.00    0.76292   0.81941   -2.000
 7068.00    0.73180   0.82199   -2.000
 7069.00    0.74695   0.82455   -2.000
 7070.00    0.79300   0.82724   -2.000
 7071.00    0.82795   0.82968   -2.000
 7072.00    0.85643   0.83159   -2.000
 7073.00    0.86347   0.83274   -2.000
 7074.00    0.85958   0.83259   -2.000
 7075.00    0.88288   0.83145   -2.000
 7076.00    0.91819   0.82909   -2.000
 7077.00    0.91299   0.82556   -2.000
 7078.00    0.89244   0.82132   -2.000
 7079.00    0.85291   0.81583   -2.000
 7080.00    0.80728   0.80976   -2.000
 7081.00    0.84426   0.80363   -2.000
 7082.00    0.90348   0.79761   -2.000
 7083.00    0.87835   0.79266   -2.000
 7084.00    0.83459   0.78815   -2.000
 7085.00    0.86469   0.78402   -2.000
 7086.00    0.90777   0.78122   -2.000
 7087.00    0.88993   0.77915   -2.000
 7088.00    0.86393   0.77801   -2.000
 7089.00    0.82738   0.77803   -2.000
 7090.00    0.78983   0.77793   -2.000
 7091.00    0.77885   0.77904   -2.000
 7092.00    0.76943   0.78043   -2.000
 7093.00    0.78215   0.78192   -2.000
 7094.00    0.79523   0.78434   -2.000
 7095.00    0.78312   0.78605   -2.000
 7096.00    0.77239   0.78851   -2.000
 7097.00    0.79606   0.79023   -2.000
 7098.00    0.81766   0.79153   -2.000
 7099.00    0.81165   0.79269   -2.000
 7100.00    0.80060   0.79320   -2.000
 7101.00    0.74481   0.79372   -2.000
 7102.00    0.69759   0.79353   -2.000
 7103.00    0.70633   0.79282   -2.000
 7104.00    0.71591   0.79194   -2.000
 7105.00    0.72985   0.79110   -2.000
 7106.00    0.75153   0.79049   -2.000
 7107.00    0.80513   0.78988   -2.000
 7108.00    0.83854   0.78942   -2.000
 7109.00    0.80314   0.78947   -2.000
 7110.00    0.78117   0.78989   -2.000
 7111.00    0.79776   0.79069   -2.000
 7112.00    0.81956   0.79111   -2.000
 7113.00    0.85417   0.79160   -2.000
 7114.00    0.89801   0.79180   -2.000
 7115.00    0.96140   0.79160   -2.000
 7116.00    1.02771   0.79129   -2.000
 7117.00    1.09940   0.78993   -2.000
 7118.00    1.18084   0.78867   -2.000
 7119.00    1.27795   0.78682   -2.000
 7120.00    1.33317   0.78469   -2.000
 7121.00    1.32933   0.78271   -2.000
 7122.00    1.22030   0.78002   -2.000
 7123.00    0.98079   0.77771   -2.000
 7124.00    0.82907   0.77568   -2.000
 7125.00    0.77332   0.77403   -2.000
 7126.00    0.75239   0.77306   -2.000
 7127.00    0.76503   0.77253   -2.000
 7128.00    0.78814   0.77273   -2.000
 7129.00    0.82015   0.77419   -2.000
 7130.00    0.78828   0.77610   -2.000
 7131.00    0.70857   0.77830   -2.000
 7132.00    0.72499   0.78064   -2.000
 7133.00    0.80465   0.78267   -2.000
 7134.00    0.86278   0.78477   -2.000
 7135.00    0.90850   0.78627   -2.000
 7136.00    0.86783   0.78721   -2.000
 7137.00    0.78380   0.78759   -2.000
 7138.00    0.77852   0.78752   -2.000
 7139.00    0.80742   0.78706   -2.000
 7140.00    0.83224   0.78596   -2.000
 7141.00    0.85554   0.78490   -2.000
 7142.00    0.83933   0.78376   -2.000
 7143.00    0.81064   0.78270   -2.000
 7144.00    0.75869   0.78220   -2.000
 7145.00    0.70061   0.78173   -2.000
 7146.00    0.69308   0.78229   -2.000
 7147.00    0.69644   0.78377   -2.000
 7148.00    0.66614   0.78536   -2.000
 7149.00    0.63007   0.78753   -2.000
 7150.00    0.65464   0.78932   -2.000
 7151.00    0.68706   0.79108   -2.000
 7152.00    0.74005   0.79273   -2.000
 7153.00    0.79492   0.79345   -2.000
 7154.00    0.79886   0.79388   -2.000
 7155.00    0.80000   0.79314   -2.000
 7156.00    0.78642   0.79187   -2.000
 7157.00    0.77305   0.79035   -2.000
 7158.00    0.80738   0.78876   -2.000
 7159.00    0.83631   0.78743   -2.000
 7160.00    0.74268   0.78605   -2.000
 7161.00    0.66150   0.78530   -2.000
 7162.00    0.73709   0.78543   -2.000
 7163.00    0.81030   0.78690   -2.000
 7164.00    0.86332   0.78901   -2.000
 7165.00    0.91719   0.79123   -2.000
 7166.00    0.97648   0.79344   -2.000
 7167.00    0.99958   0.79557   -2.000
 7168.00    0.84300   0.79772   -2.000
 7169.00    0.71979   0.79919   -2.000
 7170.00    0.73085   0.79961   -2.000
 7171.00    0.74051   0.79886   -2.000
 7172.00    0.74553   0.79757   -2.000
 7173.00    0.75602   0.79599   -2.000
 7174.00    0.78195   0.79410   -2.000
 7175.00    0.80963   0.79209   -2.000
 7176.00    0.84151   0.78961   -2.000
 7177.00    0.84215   0.78715   -2.000
 7178.00    0.77776   0.78516   -2.000
 7179.00    0.73684   0.78349   -2.000
 7180.00    0.73840   0.78219   -2.000
 7181.00    0.74389   0.78068   -2.000
 7182.00    0.75562   0.77856   -2.000
 7183.00    0.73874   0.77688   -2.000
 7184.00    0.68213   0.77541   -2.000
 7185.00    0.65332   0.77451   -2.000
 7186.00    0.65849   0.77427   -2.000
 7187.00    0.66901   0.77387   -2.000
 7188.00    0.68530   0.77436   -2.000
 7189.00    0.68569   0.77510   -2.000
 7190.00    0.67097   0.77637   -2.000
 7191.00    0.67669   0.77814   -2.000
 7192.00    0.69955   0.77974   -2.000
 7193.00    0.68753   0.78162   -2.000
 7194.00    0.64978   0.78307   -2.000
 7195.00    0.70030   0.78444   -2.000
 7196.00    0.80804   0.78560   -2.000
 7197.00    0.85133   0.78600   -2.000
 7198.00    0.85804   0.78622   -2.000
 7199.00    0.82246   0.78579   -2.000
 7200.00    0.76600   0.78522   -2.000
 7201.00    0.69540   0.78456   -2.000
 7202.00    0.61875   0.78305   -2.000
 7203.00    0.63204   0.78187   -2.000
 7204.00    0.67824   0.78080   -2.000
 7205.00    0.71218   0.78060   -2.000
 7206.00    0.74234   0.78143   -2.000
 7207.00    0.72100   0.78223   -2.000
 7208.00    0.68637   0.78361   -2.000
 7209.00    0.71829   0.78484   -2.000
 7210.00    0.76420   0.78647   -2.000
 7211.00    0.75928   0.78837   -2.000
 7212.00    0.74593   0.79019   -2.000
 7213.00    0.69177   0.79189   -2.000
 7214.00    0.63251   0.79320   -2.000
 7215.00    0.63170   0.79450   -2.000
 7216.00    0.63596   0.79545   -2.000
 7217.00    0.68316   0.79670   -2.000
 7218.00    0.73254   0.79773   -2.000
