###################################################################
## OUTPUT of StarlightChains_v04.for    [Cid@UFSC - 01/Apr/2007] ##
###################################################################

## Some input info
KUG0210-078._36_51.txt                   [arq_obs]
Base.CB07.vall.4m                        [arq_base]
Masks.EmLines.NEW.gm                     [arq_masks]
StCv04.C11.config                        [arq_config]
   66                                    [N_base]
    0                                    [N_YAV_components = # of components with extra extinction!]
    0                                    [i_FitPowerLaw (1/0 = Yes/No)]
-9.99                                    [alpha_PowerLaw]
CCM                                      [red_law_option]
 1.458241                                [q_norm = A(l_norm)/A(V)]

## (Re)Sampling Parameters
 3741.00                                 [l_ini (A)]
 7218.00                                 [l_fin (A)]
    1.00                                 [dl    (A)]     (OBS: dl_cushion =    50.00 A)

## Normalization info
 4020.00                                 [l_norm (A) - for base]
 4010.00                                 [llow_norm (A) - window for f_obs]
 4060.00                                 [lupp_norm (A) - window for f_obs]
6.133467E-18                             [fobs_norm (in input units)]

## S/N
 3691.00                                 [llow_SN (A) - window for S/N]
 7268.00                                 [lupp_SN (A) - window for S/N]
   2.602                                 [S/N in S/N window]
   2.730                                 [S/N in norm. window]
   0.008                                 [S/N_err in S/N window]
   0.008                                 [S/N_err in norm. window]
  1.0000                                 [fscale_chi2]

## etc...
    -2007614                             [idum_orig]
  2366                                   [NOl_eff]
  2063                                   [Nl_eff]
   303    NSIGMA                         [Ntot_cliped & clip_method]
  5491360                                [Nglobal_steps]
   7                                     [N_chains]
   7                                     [NEX0s_base = N_base in EX0s-fits]
 0   0   1      303   2.0   4.809E+03    [Clip-Bug, RC-Crash & Burn-In warning-flags, n_censored_weights, wei_nsig_threshold & wei_limit]
    81     79.646     78.513      1.133  [idt_all, wdt_TotTime, wdt_UsrTime & wdt_SysTime (sec)]

## Synthesis Results - Best model ##

 1.27735E-05                             [chi2/Nl_eff]
    28.14317                             [adev (%)]

   129.99998                             [sum-of-x (%)]
 2.08139E-18                             [Flux_tot (units of input spectrum!)]
 1.82641E-13                             [Mini_tot (???)]
 9.20597E-14                             [Mcor_tot (???)]

 334.14                                  [v0_min  (km/s)]
   0.51                                  [vd_min  (km/s)]
-1.0000                                  [AV_min  (mag)]
 0.0000                                  [YAV_min (mag)]

# j     x_j(%)      Mini_j(%)     Mcor_j(%)     age_j(yr)     Z_j      (L/M)_j    YAV?  Mstars   component_j        a/Fe...       SSP_chi2r SSP_adev(%)   SSP_AV   SSP_x(%)
  1      0.0000     0.0000E+00    0.0000E+00    1.000000E+06  0.00400  1.094E-02    0   1.0000   age020_m42            0.0000     1.3531E-05    26.4198   1.7827   155.3723
  2      0.0000     0.0000E+00    0.0000E+00    3.160000E+06  0.00400  4.007E-02    0   0.9999   age045_m42            0.0000     1.3558E-05    26.4342   1.1492   160.0307
  3      0.0000     0.0000E+00    0.0000E+00    5.010000E+06  0.00400  2.539E-02    0   0.9488   age055_m42            0.0000     1.3597E-05    26.4231   1.4251   159.0139
  4      0.0000     0.0000E+00    0.0000E+00    6.610000E+06  0.00400  2.620E-02    0   0.9220   age061_m42            0.0000     1.3457E-05    26.2941   1.0815   159.9038
  5      0.0000     0.0000E+00    0.0000E+00    1.000000E+07  0.00400  1.322E-02    0   0.8862   age070_m42            0.0000     1.3175E-05    26.0798   0.8020   163.6425
  6      0.0000     0.0000E+00    0.0000E+00    1.445000E+07  0.00400  7.883E-03    0   0.8571   age078_m42            0.0000     1.3288E-05    26.2076   1.1026   161.3648
  7      0.0000     0.0000E+00    0.0000E+00    2.512000E+07  0.00400  5.251E-03    0   0.8174   age090_m42            0.0000     1.3131E-05    26.1136   0.6814   164.1892
  8      0.0000     0.0000E+00    0.0000E+00    4.000000E+07  0.00400  3.649E-03    0   0.7851   age104_m42            0.0000     1.2989E-05    25.9692   0.4747   163.7460
  9      0.0000     0.0000E+00    0.0000E+00    5.500000E+07  0.00400  3.098E-03    0   0.7629   age110_m42            0.0000     1.3078E-05    26.0152   0.6453   162.2354
 10     49.9997     1.9673E-01    2.8129E-01    1.015200E+08  0.00400  2.228E-03    0   0.7207   age116_m42            0.0000     1.3149E-05    26.0193   0.6755   161.6411
 11      0.0000     0.0000E+00    0.0000E+00    2.861200E+08  0.00400  1.093E-03    0   0.6648   age125_m42            0.0000     1.3174E-05    26.1513   0.1132   166.0295
 12      0.0000     0.0000E+00    0.0000E+00    5.088000E+08  0.00400  6.597E-04    0   0.6365   age130_m42            0.0000     1.3141E-05    25.9780   0.1360   164.4723
 13      0.0000     0.0000E+00    0.0000E+00    1.434000E+09  0.00400  2.132E-04    0   0.5798   age139_m42            0.0000     1.2168E-05    24.7864  -0.7345   158.3954
 14      0.0000     0.0000E+00    0.0000E+00    4.250000E+09  0.00400  5.895E-05    0   0.5377   age158_m42            0.0000     1.1743E-05    26.1701  -1.0000   145.6401
 15      0.0000     0.0000E+00    0.0000E+00    7.500000E+09  0.00400  3.510E-05    0   0.5212   age171_m42            0.0000     1.1956E-05    28.2590  -1.0000   137.2305
 16      0.0000     0.0000E+00    0.0000E+00    1.300000E+10  0.00400  2.005E-05    0   0.5034   age193_m42            0.0000     1.2504E-05    30.6024  -1.0000   130.2184
 17      0.0000     0.0000E+00    0.0000E+00    1.800000E+10  0.00400  1.525E-05    0   0.4967   age213_m42            0.0000     1.2614E-05    31.3395  -1.0000   129.4008
 18      4.9356     3.4949E-03    6.9337E-03    1.000000E+06  0.00800  1.238E-02    0   1.0000   age020_m52            0.0000     1.3582E-05    26.4196   1.7791   155.6664
 19      0.0000     0.0000E+00    0.0000E+00    3.160000E+06  0.00800  3.074E-02    0   0.9966   age045_m52            0.0000     1.3621E-05    26.4167   1.7088   156.6993
 20      0.0000     0.0000E+00    0.0000E+00    5.010000E+06  0.00800  2.668E-02    0   0.9443   age055_m52            0.0000     1.3472E-05    26.3547   1.5027   157.8451
 21      0.0000     0.0000E+00    0.0000E+00    6.610000E+06  0.00800  2.136E-02    0   0.9177   age061_m52            0.0000     1.2606E-05    25.4641   0.3229   162.9578
 22      0.0000     0.0000E+00    0.0000E+00    1.000000E+07  0.00800  1.215E-02    0   0.8827   age070_m52            0.0000     1.3138E-05    26.1683   0.9683   164.3737
 23      0.0000     0.0000E+00    0.0000E+00    1.445000E+07  0.00800  8.717E-03    0   0.8552   age078_m52            0.0000     1.3185E-05    26.1618   1.0829   162.5830
 24      0.0000     0.0000E+00    0.0000E+00    2.512000E+07  0.00800  5.592E-03    0   0.8162   age090_m52            0.0000     1.3040E-05    26.0458   0.7596   164.8361
 25      0.0000     0.0000E+00    0.0000E+00    4.000000E+07  0.00800  3.896E-03    0   0.7841   age104_m52            0.0000     1.2972E-05    26.0212   0.6930   164.3420
 26      0.0000     0.0000E+00    0.0000E+00    1.015200E+08  0.00800  2.148E-03    0   0.7226   age116_m52            0.0000     1.2917E-05    26.0538   0.6408   163.2997
 27      0.0000     0.0000E+00    0.0000E+00    2.861200E+08  0.00800  9.925E-04    0   0.6683   age125_m52            0.0000     1.2649E-05    25.6832   0.2205   164.0347
 28      0.0000     0.0000E+00    0.0000E+00    9.047900E+08  0.00800  3.141E-04    0   0.6138   age135_m52            0.0000     1.1954E-05    24.8427  -0.4688   160.5332
 29      0.0000     0.0000E+00    0.0000E+00    1.434000E+09  0.00800  1.719E-04    0   0.5853   age139_m52            0.0000     1.1634E-05    24.9643  -1.0000   154.7318
 30      0.0000     0.0000E+00    0.0000E+00    2.500000E+09  0.00800  7.872E-05    0   0.5600   age150_m52            0.0000     1.1832E-05    27.1271  -1.0000   139.8958
 31      0.0000     0.0000E+00    0.0000E+00    4.250000E+09  0.00800  4.336E-05    0   0.5426   age158_m52            0.0000     1.1886E-05    27.4207  -1.0000   138.3090
 32      0.0000     0.0000E+00    0.0000E+00    6.250000E+09  0.00800  3.159E-05    0   0.5319   age166_m52            0.0000     1.2402E-05    29.8798  -1.0000   130.2376
 33      0.0000     0.0000E+00    0.0000E+00    1.300000E+10  0.00800  1.361E-05    0   0.5073   age193_m52            0.0000     1.4490E-05    37.8398  -1.0000   112.8089
 34      0.0000     0.0000E+00    0.0000E+00    1.800000E+10  0.00800  9.886E-06    0   0.4990   age213_m52            0.0000     1.5179E-05    39.1220  -1.0000   107.9193
 35      0.9170     5.2063E-04    1.0329E-03    1.000000E+06  0.02000  1.544E-02    0   1.0000   age020_m62            0.0000     1.3647E-05    26.4374   1.7717   156.2690
 36      0.0000     0.0000E+00    0.0000E+00    3.160000E+06  0.02000  3.762E-02    0   0.9858   age045_m62            0.0000     1.3677E-05    26.3997   1.7133   157.3691
 37      0.0000     0.0000E+00    0.0000E+00    5.010000E+06  0.02000  3.296E-02    0   0.9342   age055_m62            0.0000     1.3450E-05    26.3269   1.4036   159.4678
 38      0.0000     0.0000E+00    0.0000E+00    8.710000E+06  0.02000  1.154E-02    0   0.8861   age067_m62            0.0000     1.2832E-05    26.2096   0.3991   171.4846
 39      0.0000     0.0000E+00    0.0000E+00    1.445000E+07  0.02000  7.663E-03    0   0.8472   age078_m62            0.0000     1.2939E-05    26.1263   0.6253   167.1804
 40      0.0000     0.0000E+00    0.0000E+00    2.512000E+07  0.02000  4.532E-03    0   0.8099   age090_m62            0.0000     1.3018E-05    26.2496   0.6188   166.8184
 41      0.0000     0.0000E+00    0.0000E+00    5.500000E+07  0.02000  2.733E-03    0   0.7595   age110_m62            0.0000     1.2918E-05    25.9327   0.6673   163.6304
 42      0.0000     0.0000E+00    0.0000E+00    1.609000E+08  0.02000  1.369E-03    0   0.6985   age120_m62            0.0000     1.2831E-05    25.8396   0.5454   164.7529
 43      0.0000     0.0000E+00    0.0000E+00    2.861200E+08  0.02000  9.013E-04    0   0.6714   age125_m62            0.0000     1.2727E-05    25.6460   0.3384   165.8163
 44      0.0000     0.0000E+00    0.0000E+00    5.088000E+08  0.02000  5.028E-04    0   0.6449   age130_m62            0.0000     1.2410E-05    25.1120  -0.0001   165.1286
 45      0.0000     0.0000E+00    0.0000E+00    9.047900E+08  0.02000  2.428E-04    0   0.6179   age135_m62            0.0000     1.1735E-05    24.5454  -0.5047   157.4084
 46      0.0000     0.0000E+00    0.0000E+00    1.434000E+09  0.02000  1.263E-04    0   0.5908   age139_m62            0.0000     1.1395E-05    24.0717  -0.9299   152.6274
 47      0.0000     0.0000E+00    0.0000E+00    2.500000E+09  0.02000  5.985E-05    0   0.5673   age150_m62            0.0000     1.1720E-05    26.2742  -1.0000   138.7674
 48      0.0000     0.0000E+00    0.0000E+00    4.250000E+09  0.02000  3.271E-05    0   0.5468   age158_m62            0.0000     1.2721E-05    29.5493  -1.0000   125.3598
 49      0.0000     0.0000E+00    0.0000E+00    1.000000E+10  0.02000  1.360E-05    0   0.5167   age181_m62            0.0000     1.4221E-05    34.3286  -1.0000   111.6847
 50      0.0000     0.0000E+00    0.0000E+00    1.800000E+10  0.02000  7.124E-06    0   0.5013   age213_m62            0.0000     1.5449E-05    37.5739  -1.0000   103.4131
 51      0.0000     0.0000E+00    0.0000E+00    1.000000E+06  0.05000  2.592E-02    0   0.9998   age020_m72            0.0000     1.3961E-05    26.5324   1.7486   157.5266
 52      0.0000     0.0000E+00    0.0000E+00    3.160000E+06  0.05000  4.845E-02    0   0.9577   age045_m72            0.0000     1.3632E-05    26.3784   1.6224   157.6556
 53      0.0000     0.0000E+00    0.0000E+00    5.010000E+06  0.05000  3.072E-02    0   0.9147   age055_m72            0.0000     1.3276E-05    26.4041   1.1693   163.0946
 54      0.0000     0.0000E+00    0.0000E+00    6.610000E+06  0.05000  1.455E-02    0   0.8877   age061_m72            0.0000     1.3695E-05    27.7423   0.3813   177.5461
 55      0.0000     0.0000E+00    0.0000E+00    1.000000E+07  0.05000  9.074E-03    0   0.8524   age070_m72            0.0000     1.3638E-05    27.0124   1.3282   163.4590
 56      0.0000     0.0000E+00    0.0000E+00    2.512000E+07  0.05000  4.250E-03    0   0.7902   age090_m72            0.0000     1.3441E-05    26.6976   1.0724   164.2141
 57      0.0000     0.0000E+00    0.0000E+00    4.000000E+07  0.05000  3.087E-03    0   0.7618   age104_m72            0.0000     1.3353E-05    26.7522   0.8632   165.9172
 58      0.0000     0.0000E+00    0.0000E+00    1.015200E+08  0.05000  1.700E-03    0   0.7096   age116_m72            0.0000     1.2959E-05    26.2274   0.6631   166.5682
 59      0.0000     0.0000E+00    0.0000E+00    2.861200E+08  0.05000  7.384E-04    0   0.6633   age125_m72            0.0000     1.2332E-05    25.3951   0.2460   164.4924
 60      0.0000     0.0000E+00    0.0000E+00    5.088000E+08  0.05000  3.819E-04    0   0.6372   age130_m72            0.0000     1.1803E-05    24.6936  -0.1768   160.3664
 61      0.0000     0.0000E+00    0.0000E+00    9.047900E+08  0.05000  1.676E-04    0   0.6110   age135_m72            0.0000     1.1155E-05    23.8798  -0.8123   151.0605
 62      0.0000     0.0000E+00    0.0000E+00    1.434000E+09  0.05000  8.837E-05    0   0.5874   age139_m72            0.0000     1.1504E-05    25.8602  -1.0000   139.5472
 63      0.0000     0.0000E+00    0.0000E+00    2.500000E+09  0.05000  4.233E-05    0   0.5598   age150_m72            0.0000     1.2627E-05    29.0674  -1.0000   125.6324
 64      0.0000     0.0000E+00    0.0000E+00    6.250000E+09  0.05000  1.435E-05    0   0.5249   age166_m72            0.0000     1.4780E-05    36.0672  -1.0000   107.9995
 65     74.1476     9.9799E+01    9.9711E+01    1.300000E+10  0.05000  6.513E-06    0   0.5036   age193_m72            0.0000     1.6821E-05    40.6407  -1.0000    99.2926
 66      0.0000     0.0000E+00    0.0000E+00    1.800000E+10  0.05000  4.527E-06    0   0.4945   age213_m72            0.0000     1.8124E-05    43.3743  -1.0000    93.8089


## Synthesis Results - Average & Chains ##

# j      x_j: min, <> & last-chain-values for 1 ...  7 chains
  1      0.0000     46.9716     48.6763     49.3297     50.1106     48.5650     50.1280     49.1861     49.1743
  2      0.0000      0.2694      0.2251      0.0549      0.4176      0.3289      0.2797      0.2180      0.2081
  3      0.0000      0.0954      0.2538      0.0072      0.0000      0.0274      0.0000      0.0425      0.0922
  4      0.0000      0.1224      0.0464      0.0522      0.0053      0.1347      0.0000      0.0291      0.0070
  5      0.0000      0.1056      0.1349      0.0112      0.0277      0.2156      0.0032      0.0115      0.1327
  6      0.0000      0.1059      0.0942      0.0537      0.0033      0.0000      0.0039      0.0078      0.0366
  7      0.0000      0.0907      0.0718      0.0301      0.0324      0.0505      0.0000      0.0503      0.0943
  8      0.0000      0.1327      0.0513      0.0532      0.0088      0.0716      0.0093      0.1281      0.0178
  9      0.0000      0.0960      0.1979      0.0270      0.0102      0.0462      0.0061      0.0440      0.0000
 10     49.9997     16.7216     17.1402     17.5210     17.6807     17.3327     17.7263     17.6400     17.3771
 11      0.0000      0.1014      0.0785      0.0000      0.0077      0.0000      0.0153      0.0350      0.0052
 12      0.0000      3.4125      3.4605      3.6870      3.5000      3.4640      3.5369      3.5418      3.4331
 13      0.0000      0.1289      0.0930      0.0000      0.0189      0.0000      0.0114      0.0239      0.0162
 14      0.0000      0.0929      0.0601      0.0222      0.0000      0.0000      0.0008      0.0294      0.0000
 15      0.0000      0.0979      0.0516      0.0000      0.0296      0.0051      0.0007      0.0240      0.1073
 16      0.0000      0.1191      0.0000      0.0210      0.0000      0.0889      0.0327      0.0000      0.0000
 17      0.0000      0.0938      0.0369      0.0000      0.0000      0.0000      0.0250      0.0420      0.0668
 18      4.9356     17.9655     18.5416     18.7968     18.9949     18.5328     19.3256     18.5667     18.2994
 19      0.0000      0.1142      0.0358      0.0224      0.0041      0.0982      0.0000      0.1291      0.1218
 20      0.0000      0.0756      0.0757      0.0000      0.0000      0.0997      0.0000      0.0143      0.0173
 21      0.0000      0.0915      0.0000      0.1477      0.0009      0.0000      0.0025      0.0000      0.1037
 22      0.0000      0.1045      0.0441      0.0000      0.0000      0.1476      0.0000      0.0635      0.0454
 23      0.0000      0.0901      0.1338      0.0165      0.0000      0.2076      0.0084      0.0133      0.0476
 24      0.0000      0.0949      0.1366      0.1036      0.0022      0.0000      0.0120      0.0000      0.0107
 25      0.0000      0.1014      0.0000      0.1067      0.0118      0.0083      0.0000      0.0014      0.0000
 26      0.0000      0.0953      0.0238      0.0000      0.0065      0.0667      0.0000      0.0312      0.1066
 27      0.0000      0.1086      0.0000      0.0158      0.0080      0.0932      0.0363      0.0178      0.1068
 28      0.0000      0.1214      0.0461      0.0018      0.0100      0.0959      0.0094      0.1156      0.1008
 29      0.0000      0.1183      0.1497      0.0000      0.0368      0.0000      0.0056      0.0004      0.0065
 30      0.0000      0.0968      0.0000      0.0325      0.0144      0.1310      0.0035      0.0000      0.0386
 31      0.0000      0.1522      0.0445      0.0256      0.0000      0.0000      0.0000      0.0197      0.0101
 32      0.0000      0.0839      0.0711      0.0609      0.0000      0.0897      0.0000      0.0000      0.0781
 33      0.0000      0.1243      0.0000      0.0000      0.0053      0.0617      0.0123      0.0604      0.0000
 34      0.0000      0.0768      0.0000      0.0000      0.0000      0.0713      0.0096      0.0143      0.0000
 35      0.9170      7.3290      7.3178      7.4904      7.7901      6.9689      7.5755      7.4589      7.5953
 36      0.0000      0.1085      0.2348      0.1236      0.0000      0.1062      0.0079      0.0385      0.0000
 37      0.0000      0.1373      0.0384      0.0000      0.0000      0.0992      0.0156      0.0000      0.0322
 38      0.0000      0.0762      0.0000      0.0076      0.0171      0.0305      0.0157      0.0345      0.0285
 39      0.0000      0.1066      0.0678      0.1321      0.0000      0.1287      0.0057      0.0068      0.0000
 40      0.0000      0.0902      0.0888      0.1494      0.0028      0.0000      0.0199      0.0000      0.0375
 41      0.0000      0.1408      0.0995      0.1109      0.0009      0.0000      0.0040      0.0438      0.0327
 42      0.0000      0.1097      0.0742      0.0842      0.0053      0.1347      0.0035      0.0096      0.0471
 43      0.0000      0.3857      0.2631      0.2617      0.2627      0.2780      0.2785      0.2932      0.3321
 44      0.0000      0.0923      0.0351      0.0000      0.0000      0.0536      0.0031      0.0336      0.0792
 45      0.0000      0.0716      0.0023      0.0846      0.0105      0.0000      0.0000      0.0427      0.0585
 46      0.0000      0.1573      0.2527      0.1032      0.0000      0.0564      0.0014      0.0402      0.0454
 47      0.0000      0.1166      0.0000      0.0000      0.0000      0.1004      0.0051      0.0032      0.1155
 48      0.0000      0.1190      0.0483      0.0080      0.0049      0.0000      0.0017      0.0000      0.0274
 49      0.0000      0.1184      0.0046      0.0346      0.0000      0.0180      0.0044      0.0000      0.0404
 50      0.0000      0.1251      0.0189      0.0118      0.0021      0.0110      0.0156      0.0480      0.0000
 51      0.0000      0.1002      0.0000      0.0000      0.0024      0.0896      0.0000      0.1030      0.0000
 52      0.0000      0.0776      0.0000      0.0031      0.0513      0.0804      0.0185      0.0328      0.0039
 53      0.0000      0.1210      0.0710      0.0226      0.0028      0.0493      0.0000      0.0302      0.2060
 54      0.0000      0.1012      0.0000      0.0593      0.0000      0.0000      0.0059      0.1139      0.0893
 55      0.0000      0.1179      0.0000      0.1147      0.0802      0.2150      0.0185      0.0509      0.0710
 56      0.0000      0.1297      0.3016      0.0000      0.0101      0.1887      0.0000      0.0000      0.0336
 57      0.0000      0.1009      0.1567      0.0084      0.0000      0.0633      0.0150      0.0419      0.0746
 58      0.0000      0.1304      0.0032      0.0534      0.0068      0.0757      0.0134      0.1112      0.0683
 59      0.0000      0.1076      0.0722      0.0417      0.0000      0.0000      0.0022      0.0292      0.0210
 60      0.0000      0.1364      0.0222      0.0223      0.0011      0.0029      0.0000      0.0071      0.0309
 61      0.0000      0.1004      0.0000      0.0000      0.0348      0.1412      0.0018      0.0181      0.0000
 62      0.0000      0.0803      0.0654      0.0010      0.0000      0.0752      0.0132      0.0504      0.0000
 63      0.0000      0.1549      0.0531      0.0581      0.0000      0.0000      0.0114      0.1112      0.0197
 64      0.0000      0.0875      0.0324      0.0000      0.0000      0.1190      0.0000      0.0225      0.0042
 65     74.1476      1.9027      2.0000      1.7829      1.8303      2.0496      2.0088      2.1598      2.0168
 66      0.0000      3.6150      3.4720      3.7695      3.5134      3.6647      3.3677      3.7986      3.8341

# j      m_j: min, <> & last-chain-values for 1 ...  7 chains
  1  0.0000E+00  7.1137E-01  7.9327E-01  7.8839E-01  8.4419E-01  7.4777E-01  8.4302E-01  7.3710E-01  7.4858E-01
  2  0.0000E+00  1.1137E-03  1.0016E-03  2.3958E-04  1.9203E-03  1.3824E-03  1.2842E-03  8.9192E-04  8.6498E-04
  3  0.0000E+00  5.9083E-04  1.6908E-03  4.7063E-05  0.0000E+00  1.7249E-04  0.0000E+00  2.6010E-04  5.7410E-04
  4  0.0000E+00  7.1376E-04  2.9123E-04  3.2092E-04  3.4405E-05  7.9864E-04  0.0000E+00  1.6765E-04  4.0826E-05
  5  0.0000E+00  1.1729E-03  1.6126E-03  1.3101E-04  3.4223E-04  2.4349E-03  3.8886E-05  1.2614E-04  1.4812E-03
  6  0.0000E+00  1.9083E-03  1.8261E-03  1.0214E-03  6.5330E-05  0.0000E+00  7.7464E-05  1.3947E-04  6.6333E-04
  7  0.0000E+00  2.3398E-03  1.9914E-03  8.1829E-04  9.2839E-04  1.3251E-03  0.0000E+00  1.2828E-03  2.4455E-03
  8  0.0000E+00  4.7291E-03  1.9681E-03  1.9998E-03  3.4741E-04  2.5955E-03  3.6772E-04  4.5202E-03  6.3830E-04
  9  0.0000E+00  3.9157E-03  8.6887E-03  1.1625E-03  4.6324E-04  1.9180E-03  2.7643E-04  1.7771E-03  0.0000E+00
 10  2.8129E-01  8.9618E-01  9.8850E-01  9.9094E-01  1.0541E+00  9.4442E-01  1.0549E+00  9.3549E-01  9.3612E-01
 11  0.0000E+00  1.0221E-02  8.5100E-03  0.0000E+00  8.6276E-04  0.0000E+00  1.7133E-03  3.4941E-03  5.2875E-04
 12  0.0000E+00  5.4551E-01  5.9526E-01  6.2199E-01  6.2237E-01  5.6298E-01  6.2784E-01  5.6025E-01  5.5164E-01
 13  0.0000E+00  5.8083E-02  4.5088E-02  0.0000E+00  9.4819E-03  0.0000E+00  5.6911E-03  1.0646E-02  7.3263E-03
 14  0.0000E+00  1.4033E-01  9.7789E-02  3.5350E-02  0.0000E+00  0.0000E+00  1.4051E-03  4.4033E-02  0.0000E+00
 15  0.0000E+00  2.4090E-01  1.3672E-01  0.0000E+00  8.1062E-02  1.2655E-02  1.9906E-03  5.8532E-02  2.6531E-01
 16  0.0000E+00  4.9563E-01  0.0000E+00  9.1989E-02  0.0000E+00  3.7605E-01  1.5113E-01  0.0000E+00  0.0000E+00
 17  0.0000E+00  5.0608E-01  2.1445E-01  0.0000E+00  0.0000E+00  0.0000E+00  1.5005E-01  2.2428E-01  3.6241E-01
 18  6.9337E-03  2.4043E-01  2.6702E-01  2.6547E-01  2.8278E-01  2.5216E-01  2.8720E-01  2.4588E-01  2.4617E-01
 19  0.0000E+00  6.1358E-04  2.0704E-04  1.2687E-04  2.4331E-05  5.3604E-04  0.0000E+00  6.8622E-04  6.5787E-04
 20  0.0000E+00  4.4324E-04  4.7758E-04  0.0000E+00  0.0000E+00  5.9412E-04  0.0000E+00  8.2921E-05  1.0202E-04
 21  0.0000E+00  6.5108E-04  0.0000E+00  1.1094E-03  7.1301E-06  0.0000E+00  1.9861E-05  0.0000E+00  7.4191E-04
 22  0.0000E+00  1.2573E-03  5.7144E-04  0.0000E+00  0.0000E+00  1.8060E-03  0.0000E+00  7.5644E-04  5.4906E-04
 23  0.0000E+00  1.4649E-03  2.3408E-03  2.8306E-04  0.0000E+00  3.4310E-03  1.5149E-04  2.1377E-04  7.7794E-04
 24  0.0000E+00  2.2951E-03  3.5552E-03  2.6432E-03  5.9041E-05  0.0000E+00  3.2166E-04  0.0000E+00  2.6124E-04
 25  0.0000E+00  3.3813E-03  0.0000E+00  3.7553E-03  4.3850E-04  2.7969E-04  0.0000E+00  4.4667E-05  0.0000E+00
 26  0.0000E+00  5.3108E-03  1.4281E-03  0.0000E+00  4.0260E-04  3.7807E-03  0.0000E+00  1.7232E-03  5.9746E-03
 27  0.0000E+00  1.2111E-02  0.0000E+00  1.8598E-03  9.9234E-04  1.0569E-02  4.4987E-03  1.9689E-03  1.1978E-02
 28  0.0000E+00  3.9314E-02  1.6052E-02  6.1588E-04  3.5928E-03  3.1574E-02  3.3703E-03  3.7043E-02  3.2810E-02
 29  0.0000E+00  6.6725E-02  9.0893E-02  0.0000E+00  2.3086E-02  0.0000E+00  3.4902E-03  2.0321E-04  3.7064E-03
 30  0.0000E+00  1.1405E-01  0.0000E+00  4.0457E-02  1.8897E-02  1.5698E-01  4.5876E-03  0.0000E+00  4.5694E-02
 31  0.0000E+00  3.1560E-01  9.9390E-02  5.5910E-02  0.0000E+00  0.0000E+00  0.0000E+00  4.0479E-02  2.1149E-02
 32  0.0000E+00  2.3407E-01  2.1342E-01  1.7933E-01  0.0000E+00  2.5444E-01  0.0000E+00  0.0000E+00  2.1905E-01
 33  0.0000E+00  7.6778E-01  0.0000E+00  0.0000E+00  3.6113E-02  3.8722E-01  8.4587E-02  3.6916E-01  0.0000E+00
 34  0.0000E+00  6.4266E-01  0.0000E+00  0.0000E+00  0.0000E+00  6.0603E-01  8.9483E-02  1.1864E-01  0.0000E+00
 35  1.0329E-03  7.8645E-02  8.4500E-02  8.4822E-02  9.2986E-02  7.6028E-02  9.0268E-02  7.9200E-02  8.1924E-02
 36  0.0000E+00  4.7119E-04  1.0971E-03  5.6641E-04  0.0000E+00  4.6891E-04  3.8013E-05  1.6542E-04  0.0000E+00
 37  0.0000E+00  6.4457E-04  1.9410E-04  0.0000E+00  0.0000E+00  4.7363E-04  8.1491E-05  0.0000E+00  1.5208E-04
 38  0.0000E+00  9.6885E-04  0.0000E+00  1.0138E-04  2.4129E-04  3.9401E-04  2.2122E-04  4.3423E-04  3.6412E-04
 39  0.0000E+00  1.9517E-03  1.3356E-03  2.5527E-03  0.0000E+00  2.3971E-03  1.1612E-04  1.2329E-04  0.0000E+00
 40  0.0000E+00  2.6722E-03  2.8299E-03  4.6688E-03  9.1484E-05  0.0000E+00  6.5480E-04  0.0000E+00  1.1146E-03
 41  0.0000E+00  6.4811E-03  4.9311E-03  5.3867E-03  4.4324E-05  0.0000E+00  2.0477E-04  1.9939E-03  1.5152E-03
 42  0.0000E+00  9.2749E-03  6.7493E-03  7.5108E-03  5.0155E-04  1.1573E-02  3.2544E-04  8.0631E-04  4.0021E-03
 43  0.0000E+00  4.7602E-02  3.4942E-02  3.4084E-02  3.6065E-02  3.4887E-02  3.8165E-02  3.5805E-02  4.1196E-02
 44  0.0000E+00  1.9618E-02  8.0192E-03  0.0000E+00  0.0000E+00  1.1573E-02  7.2313E-04  7.0640E-03  1.6925E-02
 45  0.0000E+00  3.0186E-02  1.0225E-03  3.7630E-02  4.9172E-03  0.0000E+00  0.0000E+00  1.7829E-02  2.4804E-02
 46  0.0000E+00  1.2189E-01  2.1075E-01  8.4367E-02  0.0000E+00  4.4480E-02  1.1655E-03  3.0807E-02  3.5331E-02
 47  0.0000E+00  1.8311E-01  0.0000E+00  0.0000E+00  0.0000E+00  1.6033E-01  8.8727E-03  4.9016E-03  1.8226E-01
 48  0.0000E+00  3.2950E-01  1.4385E-01  2.3448E-02  1.5246E-02  0.0000E+00  5.0907E-03  2.0295E-05  7.6289E-02
 49  0.0000E+00  7.4518E-01  3.1185E-02  2.2999E-01  0.0000E+00  1.1495E-01  3.0487E-02  2.1744E-04  2.5532E-01
 50  0.0000E+00  1.4581E+00  2.3702E-01  1.4571E-01  2.7107E-02  1.3003E-01  2.0137E-01  5.5399E-01  0.0000E+00
 51  0.0000E+00  6.4022E-04  0.0000E+00  0.0000E+00  1.7218E-05  5.8221E-04  0.0000E+00  6.5133E-04  0.0000E+00
 52  0.0000E+00  2.5411E-04  0.0000E+00  1.0717E-05  1.8696E-04  2.6769E-04  6.7112E-05  1.0646E-04  1.2938E-05
 53  0.0000E+00  5.9710E-04  3.7683E-04  1.1779E-04  1.5510E-05  2.4743E-04  0.0000E+00  1.4734E-04  1.0214E-03
 54  0.0000E+00  1.0230E-03  0.0000E+00  6.3269E-04  0.0000E+00  0.0000E+00  6.6313E-05  1.1396E-03  9.0709E-04
 55  0.0000E+00  1.8354E-03  0.0000E+00  1.8838E-03  1.3882E-03  3.4017E-03  3.2014E-04  7.8401E-04  1.1105E-03
 56  0.0000E+00  3.9954E-03  9.9961E-03  0.0000E+00  3.4520E-04  5.9085E-03  0.0000E+00  0.0000E+00  1.0393E-03
 57  0.0000E+00  4.1256E-03  6.8930E-03  3.6165E-04  0.0000E+00  2.6327E-03  6.8155E-04  1.6953E-03  3.0680E-03
 58  0.0000E+00  9.0153E-03  2.3802E-04  3.8942E-03  5.2205E-04  5.3198E-03  1.0328E-03  7.6096E-03  4.7479E-03
 59  0.0000E+00  1.6021E-02  1.1567E-02  6.5454E-03  0.0000E+00  0.0000E+00  3.6262E-04  4.2939E-03  3.1461E-03
 60  0.0000E+00  3.7709E-02  6.5991E-03  6.5004E-03  3.3883E-04  8.2543E-04  0.0000E+00  1.9379E-03  8.5933E-03
 61  0.0000E+00  6.0631E-02  0.0000E+00  0.0000E+00  2.3375E-02  8.6692E-02  1.2337E-03  1.0830E-02  0.0000E+00
 62  0.0000E+00  8.8461E-02  7.7534E-02  1.1731E-03  0.0000E+00  8.4189E-02  1.6135E-02  5.4970E-02  0.0000E+00
 63  0.0000E+00  3.3951E-01  1.2532E-01  1.3444E-01  0.0000E+00  0.0000E+00  2.7748E-02  2.4114E-01  4.3393E-02
 64  0.0000E+00  5.3051E-01  2.1144E-01  0.0000E+00  0.0000E+00  7.3338E-01  0.0000E+00  1.3487E-01  2.5452E-02
 65  9.9711E+01  2.4375E+01  2.7571E+01  2.4104E+01  2.6083E+01  2.6696E+01  2.8576E+01  2.7379E+01  2.5970E+01
 66  0.0000E+00  6.5425E+01  6.7616E+01  7.1994E+01  7.0731E+01  6.7429E+01  6.7681E+01  6.8028E+01  6.9748E+01

# AV, chi2 & Mass for <> & i_chain = 1 ...  7 solutions
AV      -1.0000      1.9987      1.9863      1.9995      2.0459      1.9538      2.0394      1.9547      1.9625
chi2 1.2773E-05  2.4643E-05  2.4362E-05  2.4373E-05  2.4385E-05  2.4378E-05  2.4364E-05  2.4391E-05  2.4391E-05
Mass 9.2060E-14  5.4234E-13  4.9564E-13  5.1444E-13  5.1947E-13  5.0221E-13  5.1586E-13  5.1665E-13  5.1393E-13
 334.14                                  [v0_min (km/s) before EX0s...]
   0.51                                  [vd_min (km/s) before EX0s...]


## Synthetic spectrum (Best Model) ##l_obs f_obs f_syn wei
 3478    [Nl_obs]
 3741.00    1.41965   0.54516    0.000
 3742.00    1.18384   0.62810    0.000
 3743.00    1.48868   0.73058    0.000
 3744.00    1.08136   0.82036    0.000
 3745.00    0.25911   0.86487   -1.000
 3746.00   -0.53728   0.83989    0.000
 3747.00   -1.32054   0.77198    0.000
 3748.00   -1.95088   0.71198    0.000
 3749.00   -2.51397   0.66386    0.000
 3750.00   -1.68504   0.62215    0.000
 3751.00   -0.33058   0.59249    0.000
 3752.00    0.65514   0.54081   -1.000
 3753.00    1.52268   0.48060   -1.000
 3754.00    1.70173   0.48631   -1.000
 3755.00    1.69627   0.57380   -1.000
 3756.00    1.89665   0.67525   -1.000
 3757.00    2.14220   0.75426   -1.000
 3758.00    1.54491   0.83670   -1.000
 3759.00    0.80047   0.90985   -1.000
 3760.00    0.16258   0.91766   -1.000
 3761.00   -0.46116   0.84061    0.000
 3762.00   -0.12949   0.74875    0.000
 3763.00    0.29195   0.73005   -1.000
 3764.00    0.14221   0.78076   -1.000
 3765.00   -0.04047   0.83267    0.000
 3766.00   -0.24133   0.84335    0.000
 3767.00   -0.43563   0.80926    0.000
 3768.00    0.21794   0.77529   -1.000
 3769.00    0.86054   0.77493   -1.000
 3770.00    1.23680   0.75207   -1.000
 3771.00    1.57254   0.69783   -1.000
 3772.00    1.37725   0.68773   -1.000
 3773.00    1.24249   0.71691   -1.000
 3774.00    1.63926   0.72063   -1.000
 3775.00    1.92947   0.72486   -1.000
 3776.00    1.52879   0.77314   -1.000
 3777.00    1.20069   0.83341   -1.000
 3778.00    1.23990   0.86228   -1.000
 3779.00    1.16345   0.86925   -1.000
 3780.00    0.61360   0.88992   -1.000
 3781.00    0.07097   0.92334   -1.000
 3782.00   -0.44714   0.94586    0.000
 3783.00   -0.60932   0.97508    0.000
 3784.00    0.24649   1.01740   -1.000
 3785.00    0.77385   1.03846   -1.000
 3786.00    0.49874   1.03872   -1.000
 3787.00   -0.03300   1.04638    0.000
 3788.00   -1.10563   1.06103    0.000
 3789.00   -1.50948   1.03387    0.000
 3790.00   -0.68831   0.94788    0.000
 3791.00    0.16224   0.87021   -1.000
 3792.00    1.05985   0.83166   -1.000
 3793.00    1.48199   0.80835   -1.000
 3794.00    1.23631   0.80218   -1.000
 3795.00    0.94643   0.82507   -1.000
 3796.00    0.60192   0.83344   -1.000
 3797.00    0.18871   0.78889   -1.000
 3798.00   -0.29936   0.71553    0.000
 3799.00   -0.51791   0.65529    0.000
 3800.00   -0.47743   0.62538    0.000
 3801.00   -0.46919   0.59228    0.000
 3802.00   -0.48827   0.54473    0.000
 3803.00   -0.21728   0.54008    0.000
 3804.00    0.27017   0.60874   -1.000
 3805.00    0.39916   0.70491   -1.000
 3806.00    0.29318   0.78221   -1.000
 3807.00   -0.01737   0.84558    0.000
 3808.00   -0.44530   0.89397    0.000
 3809.00   -0.59039   0.91046    0.000
 3810.00   -0.59411   0.88991    0.000
 3811.00   -0.39830   0.86144    0.000
 3812.00   -0.11620   0.87317    0.000
 3813.00    0.45941   0.92120   -1.000
 3814.00    1.14386   0.96664   -1.000
 3815.00    1.67464   0.98533   -1.000
 3816.00    2.15711   0.96514   -1.000
 3817.00    1.60383   0.91274   -1.000
 3818.00    0.77884   0.86221   -1.000
 3819.00    0.93559   0.82588   -1.000
 3820.00    1.30268   0.80697   -1.000
 3821.00    1.05322   0.81906   -1.000
 3822.00    0.69913   0.82864   -1.000
 3823.00    0.70187   0.78450   -1.000
 3824.00    0.75039   0.72286   -1.000
 3825.00    0.49598   0.71657   -1.000
 3826.00    0.21437   0.76217   -1.000
 3827.00   -0.18354   0.79228    0.000
 3828.00   -0.58770   0.76687    0.000
 3829.00    0.01796   0.71814   -1.000
 3830.00    0.63261   0.68859   -1.000
 3831.00    0.29772   0.68067   -1.000
 3832.00   -0.01970   0.67766    0.000
 3833.00    0.05134   0.67256   -1.000
 3834.00    0.16044   0.66526   -1.000
 3835.00    0.74280   0.64088   -1.000
 3836.00    1.24219   0.58507   -1.000
 3837.00    1.04030   0.52184   -1.000
 3838.00    0.87259   0.47858   -1.000
 3839.00    0.91983   0.47277   -1.000
 3840.00    0.98690   0.50252   -1.000
 3841.00    1.15188   0.53046   -1.000
 3842.00    1.15561   0.54119   -1.000
 3843.00    0.51390   0.55513   -1.000
 3844.00   -0.04087   0.58037    0.000
 3845.00   -0.30659   0.62345    0.000
 3846.00   -0.41038   0.69724    0.000
 3847.00   -0.05942   0.77314    0.000
 3848.00    0.19495   0.81763    0.000
 3849.00    0.21737   0.83466    0.000
 3850.00    0.12752   0.84122    0.000
 3851.00   -0.19515   0.85359    0.000
 3852.00   -0.28882   0.86544    0.000
 3853.00    0.03056   0.85031    0.000
 3854.00    0.36386   0.82321    0.000
 3855.00    0.71912   0.83413    0.000
 3856.00    0.67302   0.87114    0.000
 3857.00    0.07128   0.88288    0.000
 3858.00   -0.04947   0.86702    0.000
 3859.00    0.41584   0.84715    0.000
 3860.00    0.80878   0.82771    0.000
 3861.00    1.12398   0.81898    0.000
 3862.00    0.83303   0.81143    0.000
 3863.00   -0.03226   0.78581    0.000
 3864.00   -0.16240   0.76356    0.000
 3865.00    0.32162   0.78306    0.000
 3866.00    0.59767   0.83966    0.000
 3867.00    0.72077   0.89118    0.000
 3868.00    0.79377   0.90452    0.000
 3869.00    0.83440   0.88683    0.000
 3870.00    0.81178   0.86805    0.000
 3871.00    0.75342   0.85967    0.000
 3872.00    0.72945   0.85405    0.000
 3873.00    0.72242   0.84549    0.000
 3874.00    0.63547   0.82429    0.000
 3875.00    0.51456   0.79177    0.000
 3876.00    0.34127   0.77037    0.000
 3877.00    0.14891   0.78555    0.000
 3878.00    0.56574   0.83711    0.000
 3879.00    1.17036   0.88793    0.000
 3880.00    1.31057   0.89483    0.000
 3881.00    1.33155   0.84847   -1.000
 3882.00    1.42362   0.78139   -1.000
 3883.00    1.53055   0.75149   -1.000
 3884.00    1.50592   0.76340   -1.000
 3885.00    1.45959   0.75741   -1.000
 3886.00    0.65160   0.72362   -1.000
 3887.00   -0.25072   0.72313    0.000
 3888.00    0.14917   0.75712   -1.000
 3889.00    0.66050   0.73465   -1.000
 3890.00    0.42042   0.63961   -1.000
 3891.00    0.14288   0.56563   -1.000
 3892.00    0.26853   0.54830   -1.000
 3893.00    0.39815   0.56192   -1.000
 3894.00    0.35688   0.61366   -1.000
 3895.00    0.31500   0.70441   -1.000
 3896.00    0.26081   0.79404   -1.000
 3897.00    0.25881   0.84506   -1.000
 3898.00    0.87408   0.85499   -1.000
 3899.00    1.38122   0.84180   -1.000
 3900.00    1.00751   0.84659   -1.000
 3901.00    0.71414   0.88764   -1.000
 3902.00    0.91154   0.91259   -1.000
 3903.00    1.00798   0.89647   -1.000
 3904.00    0.61861   0.88889   -1.000
 3905.00    0.34804   0.92527   -1.000
 3906.00    0.54271   0.95375   -1.000
 3907.00    0.63645   0.94206   -1.000
 3908.00    0.40119   0.93189   -1.000
 3909.00    0.24085   0.91987   -1.000
 3910.00    0.28714   0.90011   -1.000
 3911.00    0.33013   0.92266   -1.000
 3912.00    0.36535   0.98878   -1.000
 3913.00    0.35207   1.04450   -1.000
 3914.00    0.23979   1.06400   -1.000
 3915.00    0.14537   1.06971   -1.000
 3916.00    0.08267   1.08415   -1.000
 3917.00   -0.14921   1.09376    0.000
 3918.00   -0.64395   1.09011    0.000
 3919.00   -0.80902   1.08490    0.000
 3920.00   -0.52425   1.06741    0.000
 3921.00    0.06816   1.04154   -1.000
 3922.00    1.03014   1.02320   -1.000
 3923.00    1.24573   0.99199   -1.000
 3924.00    0.67085   0.93813   -1.000
 3925.00    0.33179   0.89396   -1.000
 3926.00    0.21301   0.88599   -1.000
 3927.00    0.60986   0.90221   -1.000
 3928.00    1.43134   0.92747   -1.000
 3929.00    2.30887   0.93810   -1.000
 3930.00    3.22702   0.91244   -1.000
 3931.00    3.05353   0.86844   -1.000
 3932.00    2.18533   0.82541   -1.000
 3933.00    1.04546   0.78670   -1.000
 3934.00   -0.24560   0.75422    0.000
 3935.00   -0.53121   0.72582    0.000
 3936.00   -0.33009   0.69791    0.000
 3937.00   -0.52291   0.67116    0.000
 3938.00   -0.88044   0.65560    0.000
 3939.00   -0.87800   0.66171    0.000
 3940.00   -0.74679   0.69198    0.000
 3941.00   -0.50264   0.73757    0.000
 3942.00   -0.22436   0.78832    0.000
 3943.00    0.02874   0.83688   -1.000
 3944.00    0.27552   0.87348   -1.000
 3945.00    0.43257   0.88859   -1.000
 3946.00    0.57134   0.88670   -1.000
 3947.00    0.75164   0.87036   -1.000
 3948.00    0.93858   0.84959   -1.000
 3949.00    1.77578   0.87081   -1.000
 3950.00    2.69061   0.93956   -1.000
 3951.00    1.35702   0.98625   -1.000
 3952.00   -0.15966   0.98235    0.000
 3953.00    0.31621   0.98205   -1.000
 3954.00    0.88366   1.01928   -1.000
 3955.00    1.65359   1.05589   -1.000
 3956.00    2.39662   1.04397   -1.000
 3957.00    1.59921   1.01555   -1.000
 3958.00    0.84751   1.03179   -1.000
 3959.00    0.96168   1.05457   -1.000
 3960.00    1.05008   1.02134    0.000
 3961.00    0.84807   0.97075    0.000
 3962.00    0.66123   0.95997    0.000
 3963.00    0.59368   0.96941    0.000
 3964.00    0.58573   0.93722    0.000
 3965.00    0.93152   0.84125    0.000
 3966.00    1.29536   0.74044    0.000
 3967.00    1.74391   0.69407    0.000
 3968.00    2.01329   0.67899    0.000
 3969.00    1.59601   0.64489    0.000
 3970.00    1.16106   0.58158    0.000
 3971.00    0.66965   0.50915    0.000
 3972.00    0.54093   0.44659    0.000
 3973.00    1.39448   0.40228    0.000
 3974.00    1.88161   0.38963    0.000
 3975.00    1.51793   0.42129    0.000
 3976.00    1.30613   0.48666    0.000
 3977.00    1.39939   0.56164    0.000
 3978.00    1.50055   0.63835    0.000
 3979.00    1.61550   0.71930    0.000
 3980.00    1.77868   0.79142    0.000
 3981.00    2.01569   0.84935   -1.000
 3982.00    1.68136   0.90815   -1.000
 3983.00    0.57864   0.97132   -1.000
 3984.00    0.31788   1.02691   -1.000
 3985.00    1.05416   1.05359   -1.000
 3986.00    1.42599   1.04772   -1.000
 3987.00    1.41726   1.03812   -1.000
 3988.00    1.42892   1.04541   -1.000
 3989.00    1.45938   1.07159   -1.000
 3990.00    1.19731   1.09956   -1.000
 3991.00    0.69776   1.12011   -1.000
 3992.00    0.58473   1.15218   -1.000
 3993.00    0.74785   1.16992   -1.000
 3994.00    0.21847   1.14963   -1.000
 3995.00   -0.74510   1.14010    0.000
 3996.00   -0.43193   1.16412    0.000
 3997.00    0.58091   1.19169   -1.000
 3998.00    1.20007   1.19599   -1.000
 3999.00    1.63170   1.17748   -1.000
 4000.00    1.15434   1.15212   -1.000
 4001.00    0.30336   1.12511   -1.000
 4002.00    0.55727   1.11294   -1.000
 4003.00    1.19924   1.15198   -1.000
 4004.00    1.04304   1.22136   -1.000
 4005.00    0.65036   1.25600   -1.000
 4006.00    1.22366   1.26286   -1.000
 4007.00    2.03426   1.27510   -1.000
 4008.00    1.42922   1.25034   -1.000
 4009.00    0.54272   1.15543   -1.000
 4010.00    0.79030   1.07334   -1.000
 4011.00    1.21409   1.08864   -1.000
 4012.00    1.00000   1.15876   -1.000
 4013.00    0.71257   1.20619   -1.000
 4014.00    0.98937   1.22092   -1.000
 4015.00    1.30979   1.22716   -1.000
 4016.00    0.81622   1.23615   -1.000
 4017.00    0.28838   1.24743   -1.000
 4018.00   -0.45652   1.25763    0.000
 4019.00   -1.18060   1.27338    0.000
 4020.00   -0.90590   1.28808    0.000
 4021.00   -0.59677   1.27195    0.000
 4022.00    0.31946   1.24810   -1.000
 4023.00    1.17922   1.26601   -1.000
 4024.00    1.43134   1.29390   -1.000
 4025.00    1.63989   1.28399   -1.000
 4026.00    1.51761   1.26115   -1.000
 4027.00    1.36357   1.24964   -1.000
 4028.00    1.02634   1.22442   -1.000
 4029.00    0.75655   1.18678   -1.000
 4030.00    0.79583   1.17874   -1.000
 4031.00    0.95144   1.21696   -1.000
 4032.00    1.54344   1.27747   -1.000
 4033.00    1.87108   1.29937   -1.000
 4034.00    1.36994   1.22792   -1.000
 4035.00    0.89460   1.11133   -1.000
 4036.00    0.48788   1.04344   -1.000
 4037.00    0.23596   1.02397   -1.000
 4038.00    0.33754   1.02369   -1.000
 4039.00    0.33444   1.06131   -1.000
 4040.00    0.12441   1.14647   -1.000
 4041.00    0.24783   1.25132   -1.000
 4042.00    0.94571   1.32371   -1.000
 4043.00    1.52158   1.33174   -1.000
 4044.00    1.91341   1.29336   -1.000
 4045.00    1.50179   1.25417   -1.000
 4046.00    0.02514   1.25309   -1.000
 4047.00   -0.15543   1.25652    0.000
 4048.00    1.17717   1.18088   -1.000
 4049.00    1.85635   1.03107   -1.000
 4050.00    1.86280   0.92317   -1.000
 4051.00    1.54409   0.95570   -1.000
 4052.00    0.93010   1.08724   -1.000
 4053.00    0.91705   1.20107   -1.000
 4054.00    1.38497   1.26149   -1.000
 4055.00    1.56848   1.29108   -1.000
 4056.00    1.55170   1.28832   -1.000
 4057.00    1.41092   1.25910   -1.000
 4058.00    1.19355   1.22082   -1.000
 4059.00    1.77574   1.18222   -1.000
 4060.00    2.78937   1.16204   -1.000
 4061.00    2.28795   1.14721   -1.000
 4062.00    1.07645   1.11426   -1.000
 4063.00    0.69046   1.10751   -1.000
 4064.00    0.63799   1.15799   -1.000
 4065.00    0.46760   1.20643   -1.000
 4066.00    0.25655   1.17384   -1.000
 4067.00    0.24749   1.05792   -1.000
 4068.00    0.29709   0.96469   -1.000
 4069.00    0.18823   0.99428   -1.000
 4070.00    0.04131   1.08451   -1.000
 4071.00    0.94936   1.12211   -1.000
 4072.00    2.06184   1.13705   -1.000
 4073.00    1.96121   1.19202   -1.000
 4074.00    1.67778   1.22465   -1.000
 4075.00    1.54931   1.15458   -1.000
 4076.00    1.43798   1.05507   -1.000
 4077.00    0.89361   1.06710   -1.000
 4078.00    0.31753   1.16318   -1.000
 4079.00    0.40246   1.20080   -1.000
 4080.00    0.51270   1.14153   -1.000
 4081.00    1.41349   1.05120   -1.000
 4082.00    2.27889   1.01126   -1.000
 4083.00    1.64531   1.05507   -1.000
 4084.00    1.00990   1.14771   -1.000
 4085.00    0.34438   1.23844   -1.000
 4086.00   -0.21752   1.27810    0.000
 4087.00    0.28688   1.24609   -1.000
 4088.00    0.71720   1.19078   -1.000
 4089.00    0.60397   1.16180   -1.000
 4090.00    0.54101   1.16786   -1.000
 4091.00    0.76009   1.21211   -1.000
 4092.00    1.05095   1.27623    0.000
 4093.00    1.66303   1.31269    0.000
 4094.00    1.95929   1.29732    0.000
 4095.00    1.09565   1.25395    0.000
 4096.00    0.32348   1.20948    0.000
 4097.00   -0.16742   1.18226    0.000
 4098.00   -0.38538   1.18015    0.000
 4099.00    0.11001   1.14905    0.000
 4100.00    0.62374   1.06309    0.000
 4101.00    1.17868   0.99106    0.000
 4102.00    1.42097   0.96732    0.000
 4103.00    1.05489   0.95646    0.000
 4104.00    0.90357   0.91557    0.000
 4105.00    1.11663   0.83351    0.000
 4106.00    1.43913   0.77382    0.000
 4107.00    1.92428   0.80024    0.000
 4108.00    1.97828   0.87568    0.000
 4109.00    1.46890   0.94811    0.000
 4110.00    1.28632   1.02258    0.000
 4111.00    1.47989   1.08458    0.000
 4112.00    1.28586   1.10499    0.000
 4113.00    0.69838   1.09674   -1.000
 4114.00    0.53435   1.07884   -1.000
 4115.00    0.74946   1.06386   -1.000
 4116.00    1.02608   1.06793   -1.000
 4117.00    1.35123   1.09990   -1.000
 4118.00    1.43851   1.14643   -1.000
 4119.00    1.36070   1.17680   -1.000
 4120.00    0.88214   1.19048   -1.000
 4121.00    0.15973   1.19927   -1.000
 4122.00    0.46168   1.17925   -1.000
 4123.00    1.30783   1.12911   -1.000
 4124.00    1.32058   1.10748   -1.000
 4125.00    0.94906   1.12831   -1.000
 4126.00    1.02794   1.14181   -1.000
 4127.00    1.28567   1.13854   -1.000
 4128.00    1.32117   1.15161   -1.000
 4129.00    1.28147   1.19059   -1.000
 4130.00    1.21758   1.21263   -1.000
 4131.00    1.14680   1.18897   -1.000
 4132.00    1.25067   1.15204   -1.000
 4133.00    1.39555   1.13334   -1.000
 4134.00    1.42696   1.12619   -1.000
 4135.00    1.43695   1.10303   -1.000
 4136.00    1.31241   1.05447   -1.000
 4137.00    1.16823   1.01392   -1.000
 4138.00    0.90179   1.01728   -1.000
 4139.00    0.62236   1.06197   -1.000
 4140.00    0.68303   1.13404   -1.000
 4141.00    0.76722   1.18685   -1.000
 4142.00    0.89402   1.19494   -1.000
 4143.00    1.02228   1.19762   -1.000
 4144.00    1.13141   1.20561   -1.000
 4145.00    1.24305   1.19654   -1.000
 4146.00    1.43885   1.13831   -1.000
 4147.00    1.61744   1.01849   -1.000
 4148.00    1.52977   0.91942   -1.000
 4149.00    1.38010   0.94148   -1.000
 4150.00    0.61925   1.04561   -1.000
 4151.00   -0.06255   1.12180    0.000
 4152.00   -0.18312   1.14155    0.000
 4153.00   -0.24120   1.12839    0.000
 4154.00    0.04187   1.09793   -1.000
 4155.00    0.24356   1.07660   -1.000
 4156.00    0.08954   1.07664   -1.000
 4157.00   -0.05812   1.07897    0.000
 4158.00   -0.18288   1.07227    0.000
 4159.00   -0.10281   1.06080    0.000
 4160.00    0.59538   1.05722    0.013
 4161.00    1.09133   1.05868    0.013
 4162.00    1.06792   1.07732    0.013
 4163.00    1.02067   1.12410    0.013
 4164.00    0.92078   1.16497    0.013
 4165.00    0.92921   1.17683    0.013
 4166.00    1.14513   1.18641    0.013
 4167.00    1.35403   1.21181    0.013
 4168.00    1.55122   1.21331    0.013
 4169.00    1.82169   1.17788    0.013
 4170.00    2.19954   1.14352    0.014
 4171.00    2.12463   1.11311    0.014
 4172.00    1.46660   1.08634    0.014
 4173.00    1.06018   1.10162    0.013
 4174.00    0.93930   1.14622    0.013
 4175.00    0.96325   1.15516    0.013
 4176.00    1.13215   1.10019    0.013
 4177.00    1.15156   1.02294    0.013
 4178.00    1.03900   0.99826    0.013
 4179.00    1.14757   1.02862    0.013
 4180.00    1.42812   1.05904    0.013
 4181.00    1.64103   1.06407    0.013
 4182.00    1.80770   1.05386    0.013
 4183.00    1.49653   1.06088    0.013
 4184.00    0.89894   1.08829    0.013
 4185.00    0.84752   1.09570    0.013
 4186.00    1.08175   1.07622    0.014
 4187.00    1.22714   1.07078    0.014
 4188.00    1.33223   1.10469    0.013
 4189.00    0.99752   1.15691    0.013
 4190.00    0.49120   1.17648    0.013
 4191.00    0.65524   1.11922    0.013
 4192.00    1.04193   1.04577    0.013
 4193.00    1.19648   1.05674    0.013
 4194.00    1.28631   1.11661    0.013
 4195.00    1.10514   1.13501    0.013
 4196.00    0.86180   1.12280    0.013
 4197.00    0.58330   1.14857    0.013
 4198.00    0.29833   1.18742    0.013
 4199.00    0.62441   1.16233    0.013
 4200.00    1.03690   1.08871    0.013
 4201.00    0.86711   1.03094    0.013
 4202.00    0.63795   1.00405    0.013
 4203.00    1.48329   0.99447    0.013
 4204.00    2.39864   1.00967    0.013
 4205.00    1.81946   1.03024    0.013
 4206.00    1.19511   1.01616    0.012
 4207.00    1.04773   1.01179    0.012
 4208.00    0.90544   1.05786    0.012
 4209.00    0.91308   1.10773    0.013
 4210.00    0.92026   1.14169    0.013
 4211.00    0.92069   1.17429    0.013
 4212.00    0.93423   1.19927    0.012
 4213.00    1.07179   1.20406    0.012
 4214.00    1.20968   1.17584    0.012
 4215.00    1.34989   1.14640    0.012
 4216.00    1.40611   1.15974    0.012
 4217.00    1.01594   1.17961    0.012
 4218.00    0.69528   1.14988    0.012
 4219.00    0.67151   1.07444    0.012
 4220.00    0.75849   1.01404    0.012
 4221.00    1.23563   1.05400    0.012
 4222.00    1.48516   1.17384    0.012
 4223.00    1.06062   1.25742    0.012
 4224.00    0.78634   1.27940    0.012
 4225.00    0.89123   1.28340    0.013
 4226.00    0.81633   1.26605    0.013
 4227.00    0.35078   1.20045    0.013
 4228.00    0.19710   1.10693    0.014
 4229.00    0.63157   1.00119    0.014
 4230.00    0.81721   0.87451    0.013
 4231.00    0.59318   0.76733    0.013
 4232.00    0.52672   0.77978    0.013
 4233.00    0.68768   0.92776    0.012
 4234.00    0.59498   1.08803    0.011
 4235.00    0.18021   1.18658    0.011
 4236.00    0.15412   1.22391    0.011
 4237.00    0.56287   1.18478    0.011
 4238.00    1.08716   1.12244    0.011
 4239.00    1.72548   1.10735    0.011
 4240.00    1.74917   1.09704    0.011
 4241.00    1.23797   1.07418    0.011
 4242.00    1.00552   1.09130    0.011
 4243.00    0.98676   1.12140    0.012
 4244.00    0.93193   1.13276    0.012
 4245.00    0.85277   1.16159    0.012
 4246.00    1.15440   1.20911    0.012
 4247.00    1.68085   1.23274    0.012
 4248.00    1.22640   1.25698    0.012
 4249.00    0.26693   1.31401    0.013
 4250.00    0.27298   1.33290    0.012
 4251.00    0.70982   1.27326    0.012
 4252.00    0.94236   1.18951    0.012
 4253.00    1.09658   1.12928    0.012
 4254.00    1.34196   1.07712    0.012
 4255.00    1.61706   1.02755    0.012
 4256.00    1.60433   1.04773    0.012
 4257.00    1.51304   1.11284    0.012
 4258.00    1.49345   1.10308    0.012
 4259.00    1.48993   1.03595    0.012
 4260.00    1.93593   1.04295    0.012
 4261.00    2.46233   1.14639    0.012
 4262.00    2.34834   1.22164    0.013
 4263.00    2.14673   1.17649    0.013
 4264.00    1.50437   1.07029    0.012
 4265.00    0.81896   0.99816    0.012
 4266.00    0.93936   1.02320    0.012
 4267.00    1.10905   1.14316    0.012
 4268.00    1.42788   1.25574    0.012
 4269.00    1.74836   1.29892    0.012
 4270.00    1.60601   1.31065    0.012
 4271.00    1.45423   1.30294    0.012
 4272.00    1.05311   1.24792    0.012
 4273.00    0.70187   1.18121    0.011
 4274.00    1.03633   1.12083    0.012
 4275.00    1.34261   1.02204    0.012
 4276.00    1.39296   0.90694    0.012
 4277.00    1.44112   0.87930    0.012
 4278.00    1.47466   0.93247    0.012
 4279.00    1.40487   0.95689    0.012
 4280.00    0.80017   0.98717    0.012
 4281.00    0.39700   1.09187    0.012
 4282.00    0.83519   1.20623   -2.000
 4283.00    1.42868   1.25894   -2.000
 4284.00    2.55833   1.22354   -2.000
 4285.00    3.31101   1.14371   -2.000
 4286.00    2.96799   1.11730   -2.000
 4287.00    2.44368   1.13763   -2.000
 4288.00    1.46976   1.16114   -2.000
 4289.00    0.78420   1.16532   -2.000
 4290.00    0.71511   1.12984   -2.000
 4291.00    0.66593   1.10816   -2.000
 4292.00    0.65370   1.11794   -2.000
 4293.00    0.76206   1.08211   -2.000
 4294.00    1.06601   0.98360   -2.000
 4295.00    1.22401   0.93158   -2.000
 4296.00    1.17437   0.98631   -2.000
 4297.00    1.20261   1.08571   -2.000
 4298.00    1.32830   1.13516    0.012
 4299.00    1.39456   1.10893    0.012
 4300.00    1.39524   1.09435    0.012
 4301.00    1.26994   1.09953    0.012
 4302.00    1.02205   1.06023    0.012
 4303.00    0.98947   0.97591    0.011
 4304.00    1.14163   0.87849    0.012
 4305.00    1.27827   0.84175    0.012
 4306.00    1.40318   0.88062    0.012
 4307.00    1.23287   0.90943    0.012
 4308.00    0.86650   0.91801    0.012
 4309.00    1.04492   0.93500    0.012
 4310.00    1.54016   0.92298    0.012
 4311.00    1.86188   0.87832    0.012
 4312.00    2.09566   0.81974    0.011
 4313.00    2.11273   0.77648    0.011
 4314.00    2.03468   0.79714    0.011
 4315.00    1.55296   0.86448    0.011
 4316.00    0.91917   0.93508    0.011
 4317.00    0.47072   0.99839    0.011
 4318.00    0.08152   1.05290    0.011
 4319.00    0.35012   1.09954    0.011
 4320.00    0.79452   1.19495    0.011
 4321.00    1.25467   1.34140    0.012
 4322.00    1.71827   1.41680    0.011
 4323.00    1.39264   1.39312    0.012
 4324.00    0.92971   1.34810    0.012
 4325.00    0.61581   1.30781    0.011
 4326.00    0.32163   1.26807    0.011
 4327.00    0.48317   1.22476    0.011
 4328.00    0.68730   1.11767    0.012
 4329.00    0.94718   0.96080    0.012
 4330.00    1.21025   0.84445    0.000
 4331.00    1.59536   0.85993    0.000
 4332.00    1.97679   1.03093    0.000
 4333.00    1.60896   1.22210    0.000
 4334.00    1.26963   1.29321    0.000
 4335.00    1.61457   1.25603    0.000
 4336.00    1.96595   1.22448    0.000
 4337.00    2.40122   1.24059    0.000
 4338.00    2.68271   1.25941    0.000
 4339.00    1.62075   1.27732    0.000
 4340.00    0.66906   1.29001    0.000
 4341.00    0.42953   1.21815    0.000
 4342.00    0.33587   1.04496    0.000
 4343.00    0.97811   0.90378    0.000
 4344.00    1.44960   0.83931    0.000
 4345.00    1.22413   0.80603    0.000
 4346.00    1.10083   0.85924    0.000
 4347.00    1.32321   0.99098    0.000
 4348.00    1.50342   1.06779    0.000
 4349.00    1.56332   1.09106    0.000
 4350.00    1.49391   1.14883    0.000
 4351.00    1.10925   1.18999   -1.000
 4352.00    0.85811   1.19543   -1.000
 4353.00    0.88781   1.24871   -1.000
 4354.00    0.97491   1.31989   -1.000
 4355.00    1.16693   1.26675   -1.000
 4356.00    1.36153   1.09326   -1.000
 4357.00    1.56026   0.99595   -1.000
 4358.00    1.73653   1.06004    0.052
 4359.00    1.88130   1.15424    0.015
 4360.00    1.98337   1.19723    0.011
 4361.00    2.03276   1.24506    0.011
 4362.00    1.98745   1.28832    0.011
 4363.00    1.83915   1.25501    0.011
 4364.00    1.71852   1.19107    0.011
 4365.00    1.62442   1.20969    0.011
 4366.00    1.54270   1.29069    0.011
 4367.00    1.47146   1.33024    0.011
 4368.00    1.45697   1.32369    0.011
 4369.00    1.48474   1.35539    0.011
 4370.00    1.32699   1.40053    0.011
 4371.00    1.04783   1.36316    0.011
 4372.00    1.01809   1.26576    0.011
 4373.00    1.13120   1.21424    0.011
 4374.00    1.37519   1.23266    0.011
 4375.00    1.68446   1.25241    0.011
 4376.00    1.76200   1.25899    0.011
 4377.00    1.73954   1.25624    0.011
 4378.00    1.54876   1.20528    0.011
 4379.00    1.29569   1.11590    0.011
 4380.00    1.18365   1.06748    0.011
 4381.00    1.11583   1.11907    0.011
 4382.00    1.04847   1.23115    0.011
 4383.00    0.98123   1.29847    0.011
 4384.00    0.99069   1.28338    0.011
 4385.00    1.01654   1.23003    0.011
 4386.00    1.14193   1.16475    0.011
 4387.00    1.28415   1.03360    0.011
 4388.00    1.47505   0.84705    0.011
 4389.00    1.67218   0.77083    0.011
 4390.00    1.72485   0.88835    0.011
 4391.00    1.76463   1.06579    0.011
 4392.00    1.75770   1.13992    0.011
 4393.00    1.74829   1.12782    0.011
 4394.00    2.03819   1.11024    0.011
 4395.00    2.32427   1.10231    0.011
 4396.00    1.82294   1.12339    0.011
 4397.00    1.34849   1.17093    0.011
 4398.00    1.46484   1.19406    0.011
 4399.00    1.58373   1.17185    0.011
 4400.00    1.73399   1.16266    0.011
 4401.00    1.83048   1.23488    0.011
 4402.00    1.47448   1.32970    0.011
 4403.00    1.19498   1.34035    0.011
 4404.00    1.39491   1.27062    0.011
 4405.00    1.56403   1.18182    0.011
 4406.00    1.58160   1.16645    0.011
 4407.00    1.62353   1.22846    0.011
 4408.00    1.76266   1.18694    0.011
 4409.00    1.89210   1.00979    0.011
 4410.00    1.98935   0.92123    0.011
 4411.00    2.06119   1.00258    0.011
 4412.00    2.06180   1.07812    0.011
 4413.00    1.91349   1.08550    0.011
 4414.00    1.40826   1.14491    0.011
 4415.00    1.17342   1.26127    0.011
 4416.00    1.49822   1.33547    0.011
 4417.00    1.73104   1.36000    0.011
 4418.00    1.79829   1.33407    0.011
 4419.00    1.86027   1.20670    0.011
 4420.00    1.91395   1.07309    0.011
 4421.00    1.92605   1.08805    0.011
 4422.00    1.88071   1.18889    0.011
 4423.00    1.79438   1.27759    0.011
 4424.00    1.65817   1.34656    0.011
 4425.00    1.58348   1.36382    0.011
 4426.00    1.57475   1.30154    0.011
 4427.00    1.65845   1.20410    0.011
 4428.00    1.82959   1.17303    0.011
 4429.00    2.08899   1.21701    0.011
 4430.00    2.42202   1.24017    0.011
 4431.00    2.42725   1.22950    0.011
 4432.00    2.19182   1.23279    0.011
 4433.00    2.00289   1.26592    0.011
 4434.00    1.84394   1.26770    0.011
 4435.00    1.63085   1.20932    0.011
 4436.00    1.38722   1.20733    0.011
 4437.00    1.38025   1.26269    0.011
 4438.00    1.48945   1.24270    0.011
 4439.00    1.47639   1.14506    0.011
 4440.00    1.41145   1.07023    0.011
 4441.00    1.60240   1.10193    0.011
 4442.00    1.88633   1.22017    0.011
 4443.00    1.87462   1.33119    0.011
 4444.00    1.77199   1.38518    0.011
 4445.00    1.76586   1.34980    0.011
 4446.00    1.78443   1.24490    0.011
 4447.00    2.10536   1.15512    0.011
 4448.00    2.48930   1.13877    0.011
 4449.00    1.90877   1.20925    0.011
 4450.00    1.16978   1.32251    0.011
 4451.00    1.19673   1.37475    0.011
 4452.00    1.31810   1.34358    0.011
 4453.00    1.38428   1.33864    0.011
 4454.00    1.44578   1.35361    0.011
 4455.00    1.32387   1.32014    0.011
 4456.00    1.19291   1.30575    0.011
 4457.00    1.11287   1.31463    0.011
 4458.00    1.03067   1.27021    0.011
 4459.00    0.76250   1.17117    0.011
 4460.00    0.53628   1.08885    0.011
 4461.00    1.15950   1.09769    0.000
 4462.00    1.73530   1.14374    0.000
 4463.00    1.75383   1.14266    0.000
 4464.00    1.74017   1.11779    0.000
 4465.00    1.46543   1.10776    0.000
 4466.00    1.30729   1.07958    0.000
 4467.00    1.85869   1.07739    0.000
 4468.00    2.23210   1.17884    0.000
 4469.00    1.75161   1.26798    0.000
 4470.00    1.36002   1.25952    0.000
 4471.00    1.31570   1.23490    0.000
 4472.00    1.35568   1.23996    0.000
 4473.00    1.66975   1.23631    0.000
 4474.00    1.84655   1.19869    0.000
 4475.00    1.64569   1.18465    0.000
 4476.00    1.56853   1.21421    0.000
 4477.00    1.78286   1.26671    0.000
 4478.00    1.87330   1.33375    0.000
 4479.00    1.71138   1.36607    0.000
 4480.00    1.60973   1.34712    0.000
 4481.00    1.61490   1.35664    0.000
 4482.00    1.69416   1.41904    0.010
 4483.00    1.88836   1.44176    0.010
 4484.00    1.87948   1.36660    0.010
 4485.00    1.59402   1.24064    0.010
 4486.00    1.33109   1.15616    0.010
 4487.00    1.09517   1.15572    0.010
 4488.00    1.08582   1.24350    0.010
 4489.00    1.31601   1.34963    0.010
 4490.00    1.58888   1.41471    0.010
 4491.00    1.90157   1.43779    0.010
 4492.00    1.94140   1.41014    0.010
 4493.00    1.75693   1.32543    0.010
 4494.00    1.56761   1.23485    0.010
 4495.00    1.37479   1.20683    0.010
 4496.00    1.22743   1.26305    0.010
 4497.00    1.10895   1.33467    0.010
 4498.00    1.24236   1.32839    0.010
 4499.00    1.51568   1.23356    0.010
 4500.00    1.71477   1.16437    0.010
 4501.00    1.87800   1.18079    0.010
 4502.00    1.89129   1.24761    0.010
 4503.00    1.84203   1.32586    0.010
 4504.00    1.72798   1.37614    0.010
 4505.00    1.59081   1.37292    0.010
 4506.00    1.57239   1.31604    0.010
 4507.00    1.58977   1.31700    0.010
 4508.00    1.63391   1.42113    0.010
 4509.00    1.68476   1.50107    0.010
 4510.00    1.61367   1.49704    0.010
 4511.00    1.51781   1.45329    0.010
 4512.00    1.43323   1.40838    0.010
 4513.00    1.35045   1.39452    0.010
 4514.00    1.52038   1.41094    0.018
 4515.00    1.72034   1.43874    0.260
 4516.00    1.59766   1.43833   -1.000
 4517.00    1.44888   1.38890   -1.000
 4518.00    1.39422   1.32911   -1.000
 4519.00    1.34385   1.29705   -1.000
 4520.00    1.46736   1.30803   -1.000
 4521.00    1.58664   1.34267   -1.000
 4522.00    1.38129   1.33490   -1.000
 4523.00    1.18490   1.30572   -1.000
 4524.00    1.15642   1.33342   -1.000
 4525.00    1.13771   1.39449    0.227
 4526.00    1.22843   1.43577    0.017
 4527.00    1.30344   1.39958    0.009
 4528.00    1.25556   1.33139    0.010
 4529.00    1.25015   1.30985    0.010
 4530.00    1.49582   1.28026    0.010
 4531.00    1.68895   1.21027    0.010
 4532.00    1.63617   1.14019    0.010
 4533.00    1.56155   1.09609    0.010
 4534.00    1.40345   1.09561    0.010
 4535.00    1.31557   1.12995    0.010
 4536.00    1.45155   1.16816    0.010
 4537.00    1.46247   1.22079    0.010
 4538.00    1.13542   1.22949    0.010
 4539.00    1.02156   1.17155    0.010
 4540.00    1.40168   1.11991    0.010
 4541.00    1.68945   1.17412    0.010
 4542.00    1.79210   1.32448    0.010
 4543.00    1.74052   1.40057    0.010
 4544.00    1.41970   1.36138    0.010
 4545.00    1.25266   1.28747    0.010
 4546.00    1.32063   1.24710    0.010
 4547.00    1.37813   1.27959    0.010
 4548.00    1.42158   1.33225    0.010
 4549.00    1.49075   1.31708    0.010
 4550.00    1.59034   1.26475    0.000
 4551.00    1.73505   1.26171    0.000
 4552.00    1.92681   1.28894    0.000
 4553.00    1.85687   1.28372    0.000
 4554.00    1.54632   1.23858    0.000
 4555.00    1.49793   1.23673    0.000
 4556.00    1.66200   1.28554    0.000
 4557.00    1.67977   1.28613    0.000
 4558.00    1.59320   1.25101    0.000
 4559.00    1.43771   1.22186    0.000
 4560.00    1.23908   1.21261    0.000
 4561.00    1.23041   1.25691    0.000
 4562.00    1.32563   1.34161    0.000
 4563.00    1.55040   1.39866    0.000
 4564.00    1.83675   1.40943    0.000
 4565.00    1.82757   1.39154    0.000
 4566.00    1.69718   1.38667    0.000
 4567.00    1.58947   1.39467    0.000
 4568.00    1.48970   1.34813    0.000
 4569.00    1.50970   1.26580    0.000
 4570.00    1.56508   1.22272    0.000
 4571.00    1.32446   1.25984    0.000
 4572.00    1.01133   1.35573    0.000
 4573.00    1.05659   1.41626    0.000
 4574.00    1.17287   1.41205    0.000
 4575.00    1.48095   1.37203    0.000
 4576.00    1.81872   1.29047    0.000
 4577.00    1.59229   1.26405    0.000
 4578.00    1.30129   1.34701    0.000
 4579.00    1.52820   1.39893    0.000
 4580.00    1.79489   1.37625    0.000
 4581.00    1.90529   1.36471    0.000
 4582.00    2.00918   1.36733    0.000
 4583.00    1.82191   1.34111    0.000
 4584.00    1.63013   1.27477    0.000
 4585.00    1.35369   1.20779    0.000
 4586.00    1.09544   1.20028    0.000
 4587.00    1.15506   1.25590    0.000
 4588.00    1.22245   1.29593    0.000
 4589.00    1.37292   1.28322    0.000
 4590.00    1.52012   1.25267    0.000
 4591.00    1.64259   1.23355    0.000
 4592.00    1.75083   1.26959    0.000
 4593.00    1.77732   1.34511    0.000
 4594.00    1.79302   1.39642    0.000
 4595.00    1.75940   1.38614    0.000
 4596.00    1.76647   1.32752    0.000
 4597.00    1.92576   1.27370    0.000
 4598.00    1.98749   1.25997    0.000
 4599.00    1.74413   1.25496    0.000
 4600.00    1.46720   1.23669    0.000
 4601.00    1.10120   1.23351    0.000
 4602.00    0.90434   1.24382    0.000
 4603.00    1.09290   1.25948    0.000
 4604.00    1.06373   1.28297    0.000
 4605.00    0.60495   1.26709    0.000
 4606.00    0.45394   1.24528    0.000
 4607.00    0.83213   1.26500    0.000
 4608.00    0.99278   1.27881    0.000
 4609.00    0.82588   1.26946    0.000
 4610.00    0.93314   1.24786    0.000
 4611.00    1.40316   1.25073    0.000
 4612.00    1.71813   1.30467    0.000
 4613.00    1.85241   1.39233    0.000
 4614.00    1.83181   1.45604    0.000
 4615.00    1.65202   1.44568    0.000
 4616.00    1.54308   1.39111    0.000
 4617.00    1.49838   1.34929    0.000
 4618.00    1.56016   1.32543    0.000
 4619.00    1.70702   1.33713    0.000
 4620.00    1.65074   1.37948    0.000
 4621.00    1.45167   1.39251    0.000
 4622.00    1.53218   1.40114    0.000
 4623.00    1.78505   1.40304    0.000
 4624.00    1.69712   1.36535    0.000
 4625.00    1.42565   1.35634    0.000
 4626.00    1.27963   1.39437    0.000
 4627.00    1.19229   1.39639    0.000
 4628.00    1.17291   1.37997    0.000
 4629.00    1.18092   1.38264    0.000
 4630.00    1.21930   1.36932    0.000
 4631.00    1.26812   1.34535    0.000
 4632.00    1.22334   1.35520    0.000
 4633.00    1.15145   1.37042    0.000
 4634.00    1.18934   1.35042    0.000
 4635.00    1.25351   1.34216    0.000
 4636.00    1.33510   1.38105    0.000
 4637.00    1.42006   1.38998    0.000
 4638.00    1.50221   1.33915    0.000
 4639.00    1.58393   1.30289    0.000
 4640.00    1.74853   1.30514    0.000
 4641.00    1.92225   1.30736    0.000
 4642.00    1.72032   1.28035    0.000
 4643.00    1.49107   1.24451    0.000
 4644.00    1.35274   1.22089    0.000
 4645.00    1.21786   1.20814    0.000
 4646.00    1.39838   1.24478    0.000
 4647.00    1.57250   1.29859    0.000
 4648.00    1.44948   1.29817    0.000
 4649.00    1.34539   1.26416    0.000
 4650.00    1.55052   1.22055    0.000
 4651.00    1.72922   1.15154    0.000
 4652.00    1.63748   1.10431    0.000
 4653.00    1.52221   1.12029    0.000
 4654.00    1.23496   1.17325    0.000
 4655.00    1.01228   1.23195    0.000
 4656.00    1.15060   1.27678    0.000
 4657.00    1.21960   1.30575    0.000
 4658.00    0.97932   1.31653    0.000
 4659.00    0.75393   1.27859    0.000
 4660.00    0.58302   1.22456    0.000
 4661.00    0.54583   1.20630    0.000
 4662.00    0.91894   1.23674    0.000
 4663.00    1.21923   1.31252    0.000
 4664.00    1.32963   1.39259    0.000
 4665.00    1.45566   1.42662    0.000
 4666.00    1.61669   1.39751    0.000
 4667.00    1.60205   1.33157    0.000
 4668.00    1.24625   1.26930    0.000
 4669.00    1.10014   1.24630    0.000
 4670.00    1.30917   1.24089    0.000
 4671.00    1.45720   1.17981    0.000
 4672.00    1.51472   1.07542    0.000
 4673.00    1.57792   1.03648    0.000
 4674.00    1.64855   1.10242    0.000
 4675.00    1.52462   1.20346    0.000
 4676.00    1.17715   1.27403    0.000
 4677.00    1.04046   1.28812    0.000
 4678.00    1.11734   1.26381    0.000
 4679.00    1.32866   1.24199    0.000
 4680.00    1.66013   1.25069    0.000
 4681.00    1.75185   1.29545    0.000
 4682.00    1.65474   1.31649    0.000
 4683.00    1.51451   1.28149    0.000
 4684.00    1.34442   1.23289    0.000
 4685.00    1.11018   1.20075    0.000
 4686.00    0.83699   1.18212    0.000
 4687.00    0.88489   1.18744    0.000
 4688.00    1.10306   1.22865    0.000
 4689.00    1.37525   1.26462    0.000
 4690.00    1.67231   1.27138    0.000
 4691.00    1.61233   1.26731    0.000
 4692.00    1.41089   1.24985    0.000
 4693.00    1.39978   1.22872    0.000
 4694.00    1.45294   1.23364    0.000
 4695.00    1.22527   1.24089    0.000
 4696.00    0.91790   1.22660    0.000
 4697.00    0.89590   1.21977    0.000
 4698.00    0.94072   1.23149    0.000
 4699.00    1.06808   1.25147    0.000
 4700.00    1.21098   1.28548    0.000
 4701.00    1.41646   1.31551    0.000
 4702.00    1.63103   1.29904    0.000
 4703.00    1.72355   1.22989    0.000
 4704.00    1.80316   1.17515    0.000
 4705.00    1.68454   1.17730    0.000
 4706.00    1.55230   1.18847    0.000
 4707.00    1.63376   1.17227    0.000
 4708.00    1.72249   1.15283    0.000
 4709.00    1.27683   1.17575    0.000
 4710.00    0.85197   1.22035    0.000
 4711.00    1.13054   1.23024    0.000
 4712.00    1.39760   1.19891    0.000
 4713.00    1.48776   1.17141    0.000
 4714.00    1.54688   1.16429    0.000
 4715.00    1.30172   1.18854    0.000
 4716.00    1.08384   1.24527    0.000
 4717.00    1.05892   1.27382    0.000
 4718.00    1.06006   1.24480    0.000
 4719.00    1.20306   1.19028    0.000
 4720.00    1.29852   1.17441    0.000
 4721.00    1.18682   1.22898    0.000
 4722.00    1.14515   1.29341    0.000
 4723.00    1.35470   1.32419    0.000
 4724.00    1.53502   1.34981    0.000
 4725.00    1.62730   1.37309    0.000
 4726.00    1.57673   1.37016    0.000
 4727.00    1.16013   1.33782    0.000
 4728.00    0.97825   1.31573    0.000
 4729.00    1.31380   1.33824    0.000
 4730.00    1.57590   1.37368    0.000
 4731.00    1.69762   1.35847    0.000
 4732.00    1.75674   1.26938    0.000
 4733.00    1.71144   1.16935    0.000
 4734.00    1.56733   1.12986    0.000
 4735.00    1.27874   1.14330    0.000
 4736.00    1.12980   1.17347    0.000
 4737.00    1.16040   1.21320    0.000
 4738.00    1.14102   1.24527    0.000
 4739.00    1.06502   1.25987    0.000
 4740.00    1.11098   1.27313    0.000
 4741.00    1.27880   1.25351    0.000
 4742.00    1.21719   1.22370    0.000
 4743.00    0.95340   1.25971    0.000
 4744.00    0.82998   1.31465    0.000
 4745.00    0.81551   1.31040    0.000
 4746.00    1.00068   1.27824    0.000
 4747.00    1.32213   1.27486    0.000
 4748.00    1.43885   1.29932    0.000
 4749.00    1.43308   1.30846    0.000
 4750.00    1.42306   1.29422    0.000
 4751.00    1.41083   1.30496    0.000
 4752.00    1.37876   1.33589    0.000
 4753.00    1.33772   1.34154    0.000
 4754.00    1.52814   1.33276    0.000
 4755.00    1.80870   1.33486    0.000
 4756.00    1.97951   1.33081    0.000
 4757.00    2.11396   1.30270    0.000
 4758.00    2.28252   1.27212    0.000
 4759.00    2.46054   1.25101    0.000
 4760.00    2.27725   1.24394    0.000
 4761.00    2.01130   1.24734    0.010
 4762.00    1.69409   1.25447    0.010
 4763.00    1.36748   1.26387    0.009
 4764.00    1.27948   1.27975    0.009
 4765.00    1.22509   1.29761    0.009
 4766.00    1.54973   1.28210    0.009
 4767.00    1.91280   1.23309    0.009
 4768.00    1.64541   1.20120    0.009
 4769.00    1.33726   1.18891    0.009
 4770.00    1.34457   1.15993    0.009
 4771.00    1.36107   1.12894    0.009
 4772.00    1.19446   1.14095    0.009
 4773.00    1.03527   1.19048    0.009
 4774.00    1.09107   1.24985    0.009
 4775.00    1.14383   1.28895    0.009
 4776.00    1.15245   1.27514    0.009
 4777.00    1.14230   1.23759    0.009
 4778.00    0.95563   1.23841    0.009
 4779.00    0.81113   1.28654    0.009
 4780.00    0.95530   1.32523    0.009
 4781.00    1.10721   1.32162    0.009
 4782.00    1.30003   1.32063    0.008
 4783.00    1.37435   1.33380    0.008
 4784.00    0.94395   1.32646    0.008
 4785.00    0.66188   1.30743    0.008
 4786.00    0.90110   1.29584    0.008
 4787.00    1.05992   1.27068    0.008
 4788.00    0.98120   1.22457    0.008
 4789.00    0.94473   1.21000    0.008
 4790.00    1.01464   1.23195    0.008
 4791.00    1.05582   1.22517    0.008
 4792.00    1.03471   1.20846    0.008
 4793.00    1.11116   1.22225    0.008
 4794.00    1.37123   1.22776    0.009
 4795.00    1.47169   1.21867    0.009
 4796.00    1.30985   1.22792    0.009
 4797.00    1.23523   1.25325    0.009
 4798.00    1.28628   1.29366    0.009
 4799.00    1.27380   1.34971    0.009
 4800.00    1.18079   1.38815    0.009
 4801.00    1.16708   1.37931    0.009
 4802.00    1.24194   1.33900    0.009
 4803.00    1.30318   1.29023    0.009
 4804.00    1.35100   1.24469    0.009
 4805.00    1.34524   1.22516    0.009
 4806.00    1.29293   1.25364    0.009
 4807.00    1.11159   1.31342    0.009
 4808.00    0.83153   1.35201    0.008
 4809.00    0.84877   1.33856    0.008
 4810.00    1.06602   1.29135    0.008
 4811.00    1.19101   1.25903    0.008
 4812.00    1.26163   1.24055    0.009
 4813.00    1.29818   1.22074    0.008
 4814.00    1.31721   1.22526    0.008
 4815.00    1.32657   1.25828    0.009
 4816.00    1.33163   1.28228    0.009
 4817.00    1.39456   1.28361    0.009
 4818.00    1.47963   1.27608    0.009
 4819.00    1.41517   1.27334    0.009
 4820.00    1.30209   1.27932    0.009
 4821.00    1.35967   1.29579    0.009
 4822.00    1.46371   1.31850    0.009
 4823.00    1.47354   1.33701    0.009
 4824.00    1.46231   1.35203    0.009
 4825.00    1.38902   1.35769    0.009
 4826.00    1.30466   1.34533    0.008
 4827.00    1.07873   1.31118    0.008
 4828.00    0.83350   1.24474    0.008
 4829.00    0.68383   1.19567    0.008
 4830.00    0.54344   1.21954    0.009
 4831.00    0.92574   1.27352    0.008
 4832.00    1.33975   1.29079    0.008
 4833.00    1.38536   1.26879    0.008
 4834.00    1.41998   1.24886    0.008
 4835.00    1.23648   1.25423    0.008
 4836.00    1.05373   1.24705    0.008
 4837.00    0.89047   1.20897    0.008
 4838.00    0.75176   1.20023    0.008
 4839.00    0.94806   1.24148    0.008
 4840.00    1.11243   1.27751    0.008
 4841.00    0.98821   1.28075    0.008
 4842.00    0.89043   1.27641    0.008
 4843.00    0.96802   1.26674    0.008
 4844.00    1.04841   1.23195    0.008
 4845.00    1.14320   1.19471    0.008
 4846.00    1.23475   1.19352    0.009
 4847.00    1.31280   1.20946    0.008
 4848.00    1.33525   1.20154    0.000
 4849.00    1.16621   1.19730    0.000
 4850.00    1.08445   1.23603    0.000
 4851.00    1.25576   1.27885    0.000
 4852.00    1.33988   1.27506    0.000
 4853.00    1.20821   1.22563    0.000
 4854.00    1.05664   1.18454    0.000
 4855.00    0.86261   1.19769    0.000
 4856.00    0.80837   1.22640    0.000
 4857.00    1.01317   1.22843    0.000
 4858.00    1.09139   1.21805    0.000
 4859.00    0.96468   1.18401    0.000
 4860.00    0.98632   1.11042    0.000
 4861.00    1.21865   1.06394    0.000
 4862.00    1.28572   1.08922    0.000
 4863.00    1.14632   1.11552    0.000
 4864.00    1.04041   1.07484    0.000
 4865.00    0.97138   0.97516    0.000
 4866.00    1.05508   0.87204    0.000
 4867.00    1.28712   0.85323    0.000
 4868.00    1.40933   0.93312    0.000
 4869.00    1.43747   1.01391    0.000
 4870.00    1.36267   1.05642    0.000
 4871.00    1.21023   1.09630    0.000
 4872.00    1.05944   1.12785    0.000
 4873.00    0.90974   1.13510    0.000
 4874.00    1.00901   1.13922    0.000
 4875.00    1.25278   1.11933    0.008
 4876.00    1.29352   1.04320    0.008
 4877.00    1.23156   0.98570    0.008
 4878.00    1.24676   1.02619    0.008
 4879.00    1.29575   1.10452    0.008
 4880.00    1.43547   1.13746    0.008
 4881.00    1.60929   1.14826    0.009
 4882.00    1.39989   1.17204    0.008
 4883.00    1.06826   1.19694    0.008
 4884.00    1.12978   1.23467    0.008
 4885.00    1.29609   1.26384    0.008
 4886.00    1.33948   1.22917    0.008
 4887.00    1.35605   1.17979    0.008
 4888.00    1.13591   1.18816    0.008
 4889.00    0.87473   1.20599    0.008
 4890.00    1.04032   1.16815    0.008
 4891.00    1.26212   1.11057    0.009
 4892.00    1.12599   1.09746    0.008
 4893.00    0.95660   1.12423    0.008
 4894.00    1.00188   1.14036    0.008
 4895.00    1.05933   1.10568    0.009
 4896.00    1.20894   1.03723    0.008
 4897.00    1.35734   1.03712    0.008
 4898.00    1.14379   1.14099    0.008
 4899.00    0.95007   1.25657    0.008
 4900.00    1.22746   1.32537    0.008
 4901.00    1.47051   1.35061    0.008
 4902.00    1.26959   1.34640    0.008
 4903.00    1.09164   1.33410    0.008
 4904.00    1.11341   1.30674    0.008
 4905.00    1.13491   1.26199    0.008
 4906.00    1.15458   1.24431    0.009
 4907.00    1.13797   1.25107    0.009
 4908.00    0.93892   1.23309    0.008
 4909.00    0.83473   1.21174    0.008
 4910.00    1.11661   1.24091    0.009
 4911.00    1.32230   1.29978    0.009
 4912.00    1.27084   1.32107    0.009
 4913.00    1.22118   1.28371    0.008
 4914.00    1.17663   1.21928    0.009
 4915.00    1.14805   1.16300    0.009
 4916.00    1.15830   1.14506    0.008
 4917.00    1.14056   1.17319    0.008
 4918.00    1.06404   1.21461    0.009
 4919.00    1.00266   1.24579    0.009
 4920.00    0.96891   1.27698    0.008
 4921.00    0.98550   1.30015    0.008
 4922.00    1.08233   1.27722    0.008
 4923.00    1.10939   1.18761    0.008
 4924.00    1.03879   1.06131    0.008
 4925.00    0.97870   0.96598    0.008
 4926.00    0.93154   0.95833    0.008
 4927.00    0.99054   1.03763    0.008
 4928.00    1.16478   1.12769    0.008
 4929.00    1.30875   1.15544    0.008
 4930.00    1.42371   1.14753    0.008
 4931.00    1.45911   1.17470    0.008
 4932.00    1.42732   1.23009    0.009
 4933.00    1.39295   1.26970    0.009
 4934.00    1.35667   1.30159    0.009
 4935.00    1.30791   1.32582    0.008
 4936.00    1.25099   1.32755    0.008
 4937.00    1.07887   1.30837    0.008
 4938.00    0.84088   1.25065    0.008
 4939.00    0.66533   1.18539    0.008
 4940.00    0.52085   1.18902    0.000
 4941.00    0.78348   1.22816    0.000
 4942.00    1.22142   1.20733    0.000
 4943.00    1.23844   1.12465    0.000
 4944.00    1.10008   1.06208    0.000
 4945.00    1.14939   1.08932    0.000
 4946.00    1.25742   1.18246    0.000
 4947.00    1.37597   1.25538    0.000
 4948.00    1.49727   1.28676    0.000
 4949.00    1.57032   1.30670    0.000
 4950.00    1.63309   1.30094    0.000
 4951.00    1.60264   1.26920    0.000
 4952.00    1.55649   1.26339    0.000
 4953.00    1.21701   1.29106    0.000
 4954.00    0.84022   1.31031    0.000
 4955.00    0.95561   1.31510    0.000
 4956.00    1.11468   1.32600    0.000
 4957.00    1.07815   1.32962    0.000
 4958.00    1.03131   1.30470    0.000
 4959.00    1.24527   1.27322    0.000
 4960.00    1.45898   1.25426    0.000
 4961.00    1.26136   1.20882    0.000
 4962.00    1.07743   1.09415    0.000
 4963.00    1.19131   0.99587    0.000
 4964.00    1.27700   1.04531    0.000
 4965.00    1.01656   1.18329    0.000
 4966.00    0.79249   1.26174    0.000
 4967.00    0.87295   1.26488    0.000
 4968.00    0.96042   1.25954    0.000
 4969.00    1.09169   1.25640    0.000
 4970.00    1.20934   1.21497    0.000
 4971.00    1.26023   1.15626    0.000
 4972.00    1.27828   1.13587    0.000
 4973.00    1.16558   1.14655    0.000
 4974.00    1.08511   1.16237    0.000
 4975.00    1.11128   1.18025    0.000
 4976.00    1.09586   1.19935    0.000
 4977.00    0.96417   1.22556    0.000
 4978.00    0.89265   1.25141    0.000
 4979.00    0.96504   1.26696    0.000
 4980.00    1.02022   1.27176    0.000
 4981.00    1.03988   1.25993    0.000
 4982.00    1.08669   1.23622    0.000
 4983.00    1.18228   1.19934    0.000
 4984.00    1.28218   1.15827    0.000
 4985.00    1.38887   1.14372    0.000
 4986.00    1.32678   1.13375    0.000
 4987.00    1.03187   1.07827    0.000
 4988.00    0.83471   1.00667    0.000
 4989.00    0.75625   0.99316    0.000
 4990.00    0.83015   1.03445    0.000
 4991.00    1.06713   1.08484    0.000
 4992.00    0.97655   1.14156    0.000
 4993.00    0.57669   1.19227    0.000
 4994.00    0.48182   1.20394    0.000
 4995.00    0.64084   1.18418    0.000
 4996.00    0.76731   1.16064    0.000
 4997.00    0.86992   1.16114    0.000
 4998.00    1.04252   1.18078    0.000
 4999.00    1.26016   1.17818    0.000
 5000.00    1.34500   1.17258    0.000
 5001.00    1.35508   1.19127    0.000
 5002.00    1.23306   1.20193    0.000
 5003.00    1.04631   1.19192    0.000
 5004.00    1.00404   1.15984    0.000
 5005.00    1.02296   1.10848    0.000
 5006.00    0.97794   1.07636    0.000
 5007.00    0.90974   1.07612    0.000
 5008.00    0.77166   1.08669    0.000
 5009.00    0.61214   1.08955    0.000
 5010.00    0.84054   1.06157    0.000
 5011.00    1.16798   1.00805    0.000
 5012.00    1.27487   0.99175    0.000
 5013.00    1.33592   1.05248    0.000
 5014.00    1.01626   1.13115    0.000
 5015.00    0.63428   1.15677    0.000
 5016.00    0.65769   1.13606    0.000
 5017.00    0.73084   1.08834    0.000
 5018.00    0.90788   1.02507    0.000
 5019.00    1.09369   0.97938    0.000
 5020.00    1.08345   0.97631    0.000
 5021.00    1.06363   1.01585    0.000
 5022.00    0.99969   1.05255    0.000
 5023.00    0.93381   1.05250    0.000
 5024.00    0.79123   1.05144    0.000
 5025.00    0.66347   1.07231    0.000
 5026.00    0.83292   1.08303    0.000
 5027.00    0.99520   1.06302    0.000
 5028.00    1.07380   1.04849    0.000
 5029.00    1.13190   1.07808    0.008
 5030.00    1.02443   1.11946    0.008
 5031.00    0.92459   1.13077    0.008
 5032.00    0.87108   1.10828    0.008
 5033.00    0.81129   1.07488    0.008
 5034.00    0.72150   1.08607    0.008
 5035.00    0.71613   1.13547    0.008
 5036.00    1.03955   1.16697    0.008
 5037.00    1.28342   1.18927    0.008
 5038.00    1.26929   1.22368    0.008
 5039.00    1.24566   1.24127    0.008
 5040.00    1.19594   1.20082    0.008
 5041.00    1.13882   1.11739    0.008
 5042.00    1.06427   1.07519    0.008
 5043.00    1.02921   1.09334    0.008
 5044.00    1.07439   1.08417    0.008
 5045.00    1.09164   1.01299    0.008
 5046.00    1.05946   0.92832    0.008
 5047.00    1.00838   0.91157    0.008
 5048.00    0.92802   1.00155    0.008
 5049.00    0.83241   1.11578    0.008
 5050.00    0.71606   1.18669    0.008
 5051.00    0.67863   1.23286    0.008
 5052.00    0.73567   1.24394    0.008
 5053.00    0.83569   1.18926    0.008
 5054.00    0.98107   1.10350    0.008
 5055.00    0.94330   1.05715    0.008
 5056.00    0.73505   1.05983    0.008
 5057.00    0.70499   1.07167    0.008
 5058.00    0.82116   1.08885    0.008
 5059.00    0.92186   1.12851    0.008
 5060.00    1.01140   1.17158    0.008
 5061.00    1.02258   1.19129    0.008
 5062.00    0.98410   1.19066    0.008
 5063.00    0.92079   1.19505    0.008
 5064.00    0.84372   1.20611    0.008
 5065.00    0.81391   1.21129    0.008
 5066.00    0.80687   1.22548    0.008
 5067.00    0.68703   1.24689    0.008
 5068.00    0.52023   1.23963    0.008
 5069.00    0.51622   1.17981    0.008
 5070.00    0.57018   1.09340    0.008
 5071.00    0.77229   1.05951    0.008
 5072.00    1.01896   1.08801    0.008
 5073.00    1.04617   1.10045    0.008
 5074.00    1.01857   1.09057    0.008
 5075.00    0.90122   1.11168    0.008
 5076.00    0.76567   1.14263    0.008
 5077.00    0.85983   1.12548    0.008
 5078.00    0.99050   1.09351    0.008
 5079.00    0.80294   1.10868    0.008
 5080.00    0.57773   1.13381    0.008
 5081.00    0.64365   1.12498    0.008
 5082.00    0.73297   1.11974    0.008
 5083.00    0.76889   1.12792    0.008
 5084.00    0.80240   1.08380    0.008
 5085.00    0.87372   0.98992    0.008
 5086.00    0.94285   0.95348    0.008
 5087.00    0.88001   0.99552    0.008
 5088.00    0.83849   1.03521    0.008
 5089.00    1.19319   1.04621    0.008
 5090.00    1.48640   1.06981    0.008
 5091.00    1.09476   1.10799    0.008
 5092.00    0.75741   1.12603    0.008
 5093.00    0.84318   1.12514    0.008
 5094.00    0.88379   1.12925    0.008
 5095.00    0.65838   1.14247    0.008
 5096.00    0.47871   1.14826    0.008
 5097.00    0.51249   1.15431    0.008
 5098.00    0.54481   1.17781    0.008
 5099.00    0.57155   1.19892    0.008
 5100.00    0.63408   1.18658    0.008
 5101.00    0.81049   1.14882    0.008
 5102.00    0.99298   1.10934    0.008
 5103.00    1.19185   1.06561    0.008
 5104.00    1.25222   1.01428    0.008
 5105.00    0.99238   0.99857    0.008
 5106.00    0.80514   1.05194    0.008
 5107.00    0.76314   1.11947    0.008
 5108.00    0.76389   1.13869    0.008
 5109.00    0.83913   1.11752    0.008
 5110.00    0.95465   1.09624    0.008
 5111.00    1.13159   1.08819    0.008
 5112.00    1.29624   1.07356    0.008
 5113.00    1.44440   1.04640    0.008
 5114.00    1.49746   1.03449    0.008
 5115.00    1.43831   1.03355    0.008
 5116.00    1.29560   1.03507    0.008
 5117.00    1.06595   1.06634    0.008
 5118.00    0.91078   1.10302    0.008
 5119.00    0.82397   1.11756    0.008
 5120.00    0.94652   1.13095    0.008
 5121.00    1.23844   1.14493    0.008
 5122.00    1.21229   1.16023    0.008
 5123.00    0.95970   1.18380    0.008
 5124.00    0.76938   1.19133    0.008
 5125.00    0.61795   1.17057    0.008
 5126.00    0.56305   1.13457    0.008
 5127.00    0.56085   1.09746    0.008
 5128.00    0.61715   1.05603    0.008
 5129.00    0.70120   1.00451    0.008
 5130.00    0.72854   0.98089    0.008
 5131.00    0.73267   1.00087    0.008
 5132.00    0.74007   1.02083    0.008
 5133.00    0.74860   1.01803    0.008
 5134.00    0.82413   1.01092    0.008
 5135.00    0.91941   1.01454    0.008
 5136.00    0.87622   1.03772    0.008
 5137.00    0.79921   1.07423    0.008
 5138.00    0.88531   1.09504    0.008
 5139.00    1.00362   1.09652    0.008
 5140.00    1.02511   1.11094    0.008
 5141.00    1.03167   1.13451    0.008
 5142.00    0.90584   1.11520    0.008
 5143.00    0.76493   1.06388    0.008
 5144.00    0.71929   1.02218    0.008
 5145.00    0.68093   1.00987    0.008
 5146.00    0.52928   1.04715    0.008
 5147.00    0.37298   1.06573    0.008
 5148.00    0.56379   1.02527    0.008
 5149.00    0.75622   1.01615    0.008
 5150.00    0.89632   1.05070    0.008
 5151.00    1.02154   1.04780    0.008
 5152.00    0.88879   1.01589    0.008
 5153.00    0.76573   1.00265    0.008
 5154.00    0.74585   1.01846    0.008
 5155.00    0.74595   1.04334    0.008
 5156.00    0.89633   1.03941    0.008
 5157.00    1.03230   1.01596    0.008
 5158.00    1.08572   1.00294    0.008
 5159.00    1.11093   1.00342    0.008
 5160.00    1.00762   1.01802    0.008
 5161.00    0.93008   1.05428    0.008
 5162.00    0.94870   1.09792    0.008
 5163.00    0.92573   1.13236    0.008
 5164.00    0.77306   1.14181    0.008
 5165.00    0.66918   1.13198    0.008
 5166.00    0.69455   1.13201    0.008
 5167.00    0.72305   1.12030    0.008
 5168.00    0.75870   1.07946    0.008
 5169.00    0.73385   1.04752    0.008
 5170.00    0.58989   1.00882    0.008
 5171.00    0.54202   0.91775    0.008
 5172.00    0.65908   0.79552    0.008
 5173.00    0.76212   0.71057    0.008
 5174.00    0.84410   0.72707    0.008
 5175.00    0.96005   0.82271    0.008
 5176.00    1.12089   0.87987    0.008
 5177.00    1.09442   0.80938    0.008
 5178.00    0.85005   0.69439    0.008
 5179.00    0.70400   0.70296    0.008
 5180.00    0.65882   0.84622    0.008
 5181.00    0.69633   0.97744    0.008
 5182.00    0.80864   1.02085    0.008
 5183.00    0.86069   1.03296    0.008
 5184.00    0.86467   1.04530    0.008
 5185.00    0.88276   1.03500    0.007
 5186.00    0.91075   0.99640    0.008
 5187.00    0.98488   0.92468    0.008
 5188.00    1.08740   0.80420    0.008
 5189.00    1.17100   0.68762    0.008
 5190.00    1.24442   0.70104    0.000
 5191.00    1.06802   0.85292    0.000
 5192.00    0.77501   1.00128    0.000
 5193.00    0.75426   1.06175    0.000
 5194.00    0.84303   1.06652    0.000
 5195.00    0.97503   1.08509    0.000
 5196.00    1.12188   1.09184    0.000
 5197.00    1.11165   1.01240    0.000
 5198.00    1.05604   0.92557    0.000
 5199.00    0.89366   0.93952    0.000
 5200.00    0.70578   0.99082    0.000
 5201.00    0.84624   1.00318    0.000
 5202.00    1.04992   1.02056    0.000
 5203.00    1.11703   1.06134    0.000
 5204.00    1.16372   1.09263    0.000
 5205.00    0.90362   1.11191    0.000
 5206.00    0.60993   1.11629    0.000
 5207.00    0.64900   1.10057    0.000
 5208.00    0.71210   1.07749    0.000
 5209.00    0.83614   1.04737    0.000
 5210.00    0.96246   0.97835    0.000
 5211.00    1.04487   0.89820    0.008
 5212.00    1.12240   0.87642    0.008
 5213.00    1.02988   0.88471    0.008
 5214.00    0.93656   0.86892    0.008
 5215.00    0.83018   0.88380    0.008
 5216.00    0.73643   0.95159    0.008
 5217.00    0.77143   1.03165    0.008
 5218.00    0.80361   1.09963    0.008
 5219.00    0.81532   1.12971    0.008
 5220.00    0.84219   1.10865    0.008
 5221.00    0.95354   1.05411    0.008
 5222.00    1.03165   1.02316    0.008
 5223.00    0.96191   1.04621    0.008
 5224.00    0.91120   1.09903    0.008
 5225.00    0.93004   1.13827    0.008
 5226.00    0.95522   1.15064    0.008
 5227.00    0.99983   1.15387    0.008
 5228.00    1.03449   1.13830    0.008
 5229.00    1.04327   1.08955    0.008
 5230.00    0.99288   1.01570    0.008
 5231.00    0.81015   0.93816    0.008
 5232.00    0.73793   0.87487    0.008
 5233.00    0.87991   0.87745    0.008
 5234.00    0.93168   0.97993    0.008
 5235.00    0.83097   1.08664    0.008
 5236.00    0.73823   1.12616    0.008
 5237.00    0.65731   1.12631    0.008
 5238.00    0.69292   1.08214    0.008
 5239.00    0.88025   1.02763    0.008
 5240.00    1.01662   1.02871    0.008
 5241.00    1.09453   1.06993    0.008
 5242.00    1.09749   1.12776    0.008
 5243.00    1.02461   1.17332    0.008
 5244.00    0.99928   1.17982    0.008
 5245.00    1.01637   1.16342    0.008
 5246.00    1.02526   1.15351    0.008
 5247.00    1.02771   1.15694    0.008
 5248.00    0.95494   1.15317    0.008
 5249.00    0.83016   1.15355    0.008
 5250.00    0.74699   1.18044    0.008
 5251.00    0.68903   1.18531    0.008
 5252.00    0.74589   1.11230    0.008
 5253.00    0.86352   1.03095    0.008
 5254.00    0.76840   1.03451    0.008
 5255.00    0.57559   1.05589    0.008
 5256.00    0.59952   1.02797    0.008
 5257.00    0.70914   1.02261    0.008
 5258.00    0.93103   1.06525    0.008
 5259.00    1.19073   1.09323    0.008
 5260.00    1.15498   1.07262    0.008
 5261.00    1.03560   1.04716    0.008
 5262.00    0.78283   1.09309    0.008
 5263.00    0.49892   1.17293    0.008
 5264.00    0.63861   1.21164    0.008
 5265.00    0.85772   1.20277    0.008
 5266.00    0.89674   1.15865    0.008
 5267.00    0.90967   1.09169    0.008
 5268.00    0.75527   1.01154    0.008
 5269.00    0.58326   0.93988    0.008
 5270.00    0.75210   0.89142    0.008
 5271.00    0.94417   0.85809    0.008
 5272.00    0.94800   0.86128    0.008
 5273.00    0.94552   0.92546    0.008
 5274.00    0.80478   0.93294    0.008
 5275.00    0.66962   0.82240    0.008
 5276.00    0.71790   0.77691    0.008
 5277.00    0.77510   0.89469    0.008
 5278.00    0.96807   1.01996    0.008
 5279.00    1.13809   1.05297    0.008
 5280.00    1.08423   1.04385    0.008
 5281.00    0.99253   1.02469    0.008
 5282.00    0.63441   1.04779    0.008
 5283.00    0.36196   1.13131    0.008
 5284.00    0.55410   1.18942    0.008
 5285.00    0.74254   1.18135    0.008
 5286.00    0.91493   1.13011    0.008
 5287.00    1.05438   1.07753    0.008
 5288.00    1.07599   1.04420    0.008
 5289.00    1.07642   1.02147    0.008
 5290.00    1.01321   1.03609    0.008
 5291.00    1.00584   1.11789    0.008
 5292.00    1.14121   1.20632    0.008
 5293.00    1.18674   1.22710    0.008
 5294.00    1.03463   1.20082    0.008
 5295.00    0.99737   1.19381    0.008
 5296.00    1.17927   1.21733    0.008
 5297.00    1.30387   1.23064    0.008
 5298.00    1.33307   1.21181    0.008
 5299.00    1.28795   1.18221    0.008
 5300.00    1.13433   1.17126    0.008
 5301.00    1.12407   1.15547    0.008
 5302.00    1.29779   1.08749    0.008
 5303.00    1.25884   0.99142    0.008
 5304.00    0.97942   0.95892    0.008
 5305.00    0.82341   1.02650    0.008
 5306.00    0.79047   1.09071    0.008
 5307.00    0.78285   1.08546    0.008
 5308.00    0.79751   1.08476    0.008
 5309.00    0.79504   1.13558    0.008
 5310.00    0.77931   1.20029    0.008
 5311.00    0.76975   1.23380    0.008
 5312.00    0.76440   1.22262    0.008
 5313.00    0.88156   1.18871    0.008
 5314.00    1.07189   1.18616    0.008
 5315.00    0.97560   1.21687    0.008
 5316.00    0.73000   1.23525    0.008
 5317.00    0.73425   1.22731    0.008
 5318.00    0.85137   1.20781    0.008
 5319.00    0.83906   1.18885    0.008
 5320.00    0.77647   1.18149    0.008
 5321.00    0.86477   1.17520    0.008
 5322.00    1.00295   1.15657    0.008
 5323.00    1.02496   1.14759    0.008
 5324.00    1.01475   1.15836    0.008
 5325.00    1.13735   1.15945    0.008
 5326.00    1.29024   1.15435    0.008
 5327.00    1.21947   1.15237    0.008
 5328.00    1.10787   1.13962    0.008
 5329.00    0.99417   1.09664    0.008
 5330.00    0.88017   1.04884    0.008
 5331.00    0.86924   1.05634    0.008
 5332.00    0.86870   1.06390    0.008
 5333.00    0.86746   0.96584    0.008
 5334.00    0.86618   0.83556    0.007
 5335.00    0.88560   0.85792    0.007
 5336.00    0.90568   1.00258    0.007
 5337.00    0.94378   1.10411    0.007
 5338.00    0.97508   1.11565    0.008
 5339.00    0.81179   1.10809    0.008
 5340.00    0.66273   1.14617    0.008
 5341.00    0.71774   1.18707    0.008
 5342.00    0.78332   1.18706    0.008
 5343.00    0.94791   1.16959    0.008
 5344.00    1.08231   1.15661    0.008
 5345.00    1.01082   1.10802    0.008
 5346.00    0.94598   1.02397    0.008
 5347.00    0.91618   1.00837    0.007
 5348.00    0.90152   1.08263    0.007
 5349.00    0.95116   1.14339    0.008
 5350.00    0.98953   1.15237    0.008
 5351.00    0.98842   1.12488    0.008
 5352.00    1.00351   1.10173    0.008
 5353.00    1.06635   1.10958    0.008
 5354.00    1.06825   1.09358    0.008
 5355.00    0.91701   1.06185    0.008
 5356.00    0.81816   1.08526    0.008
 5357.00    0.83265   1.14768    0.008
 5358.00    0.84630   1.18483    0.008
 5359.00    0.85836   1.18774    0.008
 5360.00    0.84927   1.20705    0.008
 5361.00    0.80550   1.24201    0.008
 5362.00    0.87820   1.25147    0.008
 5363.00    1.11843   1.24871    0.008
 5364.00    1.21092   1.24444    0.008
 5365.00    1.11652   1.23966    0.008
 5366.00    0.95887   1.22693    0.008
 5367.00    0.73071   1.19449    0.008
 5368.00    0.77083   1.16211   -2.000
 5369.00    1.07475   1.15564   -2.000
 5370.00    1.35106   1.14505   -2.000
 5371.00    1.60340   1.11772   -2.000
 5372.00    1.60668   1.11263   -2.000
 5373.00    1.41969   1.11711   -2.000
 5374.00    1.16367   1.11248   -2.000
 5375.00    0.86130   1.07449   -2.000
 5376.00    0.75541   0.99132   -2.000
 5377.00    0.76508   0.93391   -2.000
 5378.00    0.77324   0.98118   -2.000
 5379.00    0.78062   1.09970   -2.000
 5380.00    0.83903   1.17966   -2.000
 5381.00    0.92011   1.20619   -2.000
 5382.00    0.89470   1.19133   -2.000
 5383.00    0.82864   1.16329    0.008
 5384.00    0.79969   1.17044    0.008
 5385.00    0.78279   1.19073    0.008
 5386.00    0.78158   1.18192    0.008
 5387.00    0.78462   1.16066    0.008
 5388.00    0.86734   1.14180    0.007
 5389.00    0.96779   1.12245    0.007
 5390.00    0.96928   1.13300    0.007
 5391.00    0.95318   1.16627    0.007
 5392.00    0.88946   1.17326    0.007
 5393.00    0.81927   1.16061    0.007
 5394.00    0.93759   1.14482    0.007
 5395.00    1.07412   1.11438    0.007
 5396.00    1.06498   1.07994    0.007
 5397.00    1.04707   1.06720    0.008
 5398.00    0.99766   1.06776    0.007
 5399.00    0.94718   1.07086    0.007
 5400.00    0.85463   1.07098    0.007
 5401.00    0.76446   1.06908    0.007
 5402.00    0.73560   1.02548    0.007
 5403.00    0.71492   0.96319    0.007
 5404.00    0.80512   0.99555    0.007
 5405.00    0.86583   1.07822    0.007
 5406.00    0.66136   1.10065    0.007
 5407.00    0.50754   1.09916    0.007
 5408.00    0.68844   1.11778    0.007
 5409.00    0.83885   1.09595    0.008
 5410.00    0.83244   1.01030    0.008
 5411.00    0.85216   0.92534    0.008
 5412.00    0.98037   0.91346    0.008
 5413.00    1.03587   0.98101    0.008
 5414.00    0.84163   1.03976    0.008
 5415.00    0.73046   1.02229    0.008
 5416.00    0.85963   0.98858    0.008
 5417.00    0.95787   1.02881    0.008
 5418.00    0.97976   1.10455    0.008
 5419.00    1.00421   1.13822    0.008
 5420.00    1.03414   1.12728    0.008
 5421.00    0.99788   1.11988    0.008
 5422.00    0.83922   1.15008    0.008
 5423.00    0.80412   1.18538    0.008
 5424.00    0.96868   1.18506    0.008
 5425.00    1.05455   1.15570    0.008
 5426.00    1.02886   1.11940    0.008
 5427.00    0.97811   1.11262    0.008
 5428.00    0.89608   1.13651    0.008
 5429.00    0.96777   1.12494    0.008
 5430.00    1.20842   1.07877    0.008
 5431.00    1.20046   1.08892    0.008
 5432.00    0.95147   1.15144    0.008
 5433.00    0.95418   1.19198    0.008
 5434.00    1.17207   1.15128    0.008
 5435.00    1.27304   1.03661    0.008
 5436.00    1.28599   0.99169    0.008
 5437.00    1.13875   1.05848    0.008
 5438.00    0.88552   1.08685    0.008
 5439.00    0.85742   1.04495    0.008
 5440.00    0.95972   1.00401    0.008
 5441.00    1.02321   0.99584    0.008
 5442.00    1.06712   1.02229    0.007
 5443.00    1.06715   1.07044    0.008
 5444.00    1.04802   1.13370    0.008
 5445.00    1.00587   1.18425    0.008
 5446.00    0.95509   1.20704    0.007
 5447.00    1.00312   1.20799    0.007
 5448.00    1.08258   1.20562    0.007
 5449.00    1.09887   1.20213    0.007
 5450.00    1.09837   1.17482    0.007
 5451.00    1.12498   1.10735    0.007
 5452.00    1.15749   1.01248    0.007
 5453.00    1.10167   0.96340    0.007
 5454.00    1.03060   1.02162    0.007
 5455.00    0.97557   1.10728    0.007
 5456.00    0.92266   1.14621    0.007
 5457.00    0.94275   1.14581    0.007
 5458.00    0.96958   1.12962    0.008
 5459.00    0.86466   1.10516    0.008
 5460.00    0.75233   1.05490    0.007
 5461.00    0.82776   0.98555    0.007
 5462.00    0.90814   0.97478    0.007
 5463.00    1.06648   1.05017    0.007
 5464.00    1.21747   1.12984    0.007
 5465.00    1.19606   1.15574    0.008
 5466.00    1.16774   1.13256    0.008
 5467.00    1.05074   1.09889    0.007
 5468.00    0.93871   1.06461    0.007
 5469.00    0.86962   1.03184    0.008
 5470.00    0.84245   1.04910    0.008
 5471.00    1.08393   1.09564    0.008
 5472.00    1.26982   1.10740    0.008
 5473.00    1.17702   1.10507    0.008
 5474.00    1.06721   1.11801    0.008
 5475.00    0.88837   1.11241    0.008
 5476.00    0.73274   1.08355    0.008
 5477.00    0.65519   1.07549    0.008
 5478.00    0.64553   1.08352   -2.000
 5479.00    0.82868   1.06239   -2.000
 5480.00    0.97071   1.04521   -2.000
 5481.00    1.01297   1.03894   -2.000
 5482.00    1.01982   0.98801   -2.000
 5483.00    0.95252   0.94754   -2.000
 5484.00    1.53783   1.00362   -2.000
 5485.00    3.31162   1.08206   -2.000
 5486.00    4.50164   1.08075   -2.000
 5487.00    4.76243   1.02121   -2.000
 5488.00    4.57422   1.00208   -2.000
 5489.00    3.75876   1.03778   -2.000
 5490.00    2.56789   1.09068   -2.000
 5491.00    0.91550   1.13466   -2.000
 5492.00    0.07225   1.12963   -2.000
 5493.00    0.10588   1.07595   -2.000
 5494.00    0.13033   1.04671   -2.000
 5495.00    0.14600   1.06507   -2.000
 5496.00    0.44967   1.08049   -2.000
 5497.00    0.99609   1.09382   -2.000
 5498.00    1.16402   1.10755   -2.000
 5499.00    1.05106   1.09172   -2.000
 5500.00    1.04460   1.07574   -2.000
 5501.00    1.10758   1.09299   -2.000
 5502.00    1.22124   1.09605    0.007
 5503.00    1.36383   1.06400    0.007
 5504.00    1.27386   1.06566    0.007
 5505.00    1.06835   1.11330    0.007
 5506.00    0.98476   1.12649    0.007
 5507.00    0.95356   1.08374    0.007
 5508.00    0.92857   1.05068    0.007
 5509.00    0.90587   1.05408    0.007
 5510.00    0.86708   1.06781    0.007
 5511.00    0.82327   1.06121    0.007
 5512.00    0.90922   1.02549    0.007
 5513.00    1.02894   1.02153    0.007
 5514.00    1.08255   1.06709    0.007
 5515.00    1.12213   1.09472    0.007
 5516.00    1.08792   1.08621    0.008
 5517.00    1.04131   1.05781    0.008
 5518.00    0.91391   1.01323    0.008
 5519.00    0.77628   0.99043    0.008
 5520.00    0.98390   1.00051    0.008
 5521.00    1.22196   1.02180    0.007
 5522.00    1.03997   1.04213    0.008
 5523.00    0.83603   1.06605    0.008
 5524.00    0.92554   1.10639    0.008
 5525.00    1.01959   1.13702    0.008
 5526.00    1.04228   1.13396    0.008
 5527.00    1.06576   1.12025    0.008
 5528.00    1.10633   1.11569    0.008
 5529.00    1.12412   1.11696    0.008
 5530.00    0.86396   1.11571    0.008
 5531.00    0.64824   1.10399    0.008
 5532.00    0.80286   1.08146    0.008
 5533.00    0.95153   1.04055    0.007
 5534.00    1.06317   0.99723    0.008
 5535.00    1.14979   1.00713    0.008
 5536.00    1.11417   1.06469    0.008
 5537.00    1.05678   1.10111    0.008
 5538.00    0.91298   1.09970    0.007
 5539.00    0.89844   1.08910    0.007
 5540.00    1.31047   1.07930    0.007
 5541.00    1.56423   1.06422    0.008
 5542.00    1.37658   1.06586    0.008
 5543.00    1.20197   1.07627    0.008
 5544.00    1.05850   1.07635    0.007
 5545.00    1.03039   1.08766    0.007
 5546.00    1.24009   1.11508    0.007
 5547.00    1.33795   1.13435    0.007
 5548.00    1.23525   1.12508    0.007
 5549.00    1.07919   1.09661    0.007
 5550.00    0.83946   1.08697    0.007
 5551.00    0.71791   1.09380    0.007
 5552.00    0.75908   1.08854    0.007
 5553.00    0.82239   1.09323    0.007
 5554.00    0.91253   1.12437    0.007
 5555.00    0.97491   1.14798    0.007
 5556.00    1.00763   1.15307    0.007
 5557.00    1.02208   1.14946    0.007
 5558.00    1.01931   1.13711    0.007
 5559.00    0.98032   1.11382    0.007
 5560.00    0.91125   1.09102    0.007
 5561.00    0.95773   1.08878    0.007
 5562.00    1.08874   1.10146    0.007
 5563.00    1.09286   1.10230    0.007
 5564.00    1.01548   1.09498    0.007
 5565.00    0.94474   1.09921    0.007
 5566.00    0.87773   1.10343    0.007
 5567.00    0.94505   1.09543    0.007
 5568.00    1.07806   1.07589    0.007
 5569.00    1.07458   1.06068    0.007
 5570.00    1.01343   1.06651    0.007
 5571.00    0.94195   1.06743    0.007
 5572.00    0.86674   1.04995    0.007
 5573.00    0.97280   1.04435    0.007
 5574.00    1.13433   1.05207    0.007
 5575.00    1.19647   1.04698    0.007
 5576.00    1.23329   1.04893    0.007
 5577.00    1.23827   1.07280    0.007
 5578.00    1.23664   1.06487    0.007
 5579.00    1.09558   1.03569    0.007
 5580.00    0.93177   1.05433    0.007
 5581.00    1.05820   1.08576    0.007
 5582.00    1.22009   1.08524    0.007
 5583.00    1.26701   1.08737    0.007
 5584.00    1.30427   1.09397    0.007
 5585.00    1.11233   1.09061    0.007
 5586.00    0.90930   1.09734    0.007
 5587.00    0.97359   1.09866    0.007
 5588.00    1.04273   1.08427    0.007
 5589.00    1.16138   1.07804    0.007
 5590.00    1.27191   1.07337    0.007
 5591.00    1.22091   1.04908    0.007
 5592.00    1.16438   1.00397    0.007
 5593.00    1.04368   0.95472    0.007
 5594.00    0.93262   0.92972    0.007
 5595.00    0.89907   0.93569    0.007
 5596.00    0.90031   0.96595    0.007
 5597.00    1.11173   1.00356    0.007
 5598.00    1.26124   1.02264    0.007
 5599.00    1.11559   1.02156    0.007
 5600.00    0.96602   1.01302    0.007
 5601.00    0.80117   1.03085    0.007
 5602.00    0.70599   1.08103    0.007
 5603.00    0.83625   1.09643    0.007
 5604.00    0.96441   1.05506    0.007
 5605.00    1.08684   1.02027    0.007
 5606.00    1.18087   1.01062    0.007
 5607.00    1.20824   0.99540    0.007
 5608.00    1.16771   0.97662    0.007
 5609.00    0.98943   0.97909    0.007
 5610.00    0.88712   1.02152    0.007
 5611.00    0.91898   1.08034    0.007
 5612.00    0.97927   1.12056    0.007
 5613.00    1.08351   1.13497    0.007
 5614.00    1.03247   1.12851    0.007
 5615.00    0.77071   1.11700    0.007
 5616.00    0.70227   1.11163    0.007
 5617.00    0.86482   1.11741    0.007
 5618.00    0.91878   1.13103    0.007
 5619.00    0.85835   1.13227    0.007
 5620.00    0.77750   1.08142    0.007
 5621.00    0.67768   0.98617    0.007
 5622.00    0.67691   0.94138    0.007
 5623.00    0.75729   0.98622    0.007
 5624.00    0.81689   1.03668    0.007
 5625.00    0.86151   1.04245    0.007
 5626.00    0.96997   1.03640    0.007
 5627.00    1.11884   1.05208    0.007
 5628.00    1.12689   1.07489    0.007
 5629.00    1.05702   1.06571    0.007
 5630.00    1.00212   1.01246    0.007
 5631.00    0.95443   0.96984    0.007
 5632.00    1.06542   0.98512    0.007
 5633.00    1.24234   1.02494    0.007
 5634.00    1.24518   1.04981    0.007
 5635.00    1.18618   1.07276    0.007
 5636.00    1.19816   1.09745    0.007
 5637.00    1.23143   1.10766    0.007
 5638.00    1.09951   1.10355    0.007
 5639.00    0.92643   1.09272    0.007
 5640.00    0.93057   1.07641    0.007
 5641.00    0.97051   1.05891    0.007
 5642.00    0.89707   1.04158    0.007
 5643.00    0.80567   1.02509    0.007
 5644.00    0.91896   1.02236    0.007
 5645.00    1.05634   1.03864    0.007
 5646.00    1.05283   1.04821    0.007
 5647.00    1.03806   1.03233    0.007
 5648.00    1.03982   1.01939    0.006
 5649.00    1.04230   1.02694    0.006
 5650.00    0.97236   1.03757    0.006
 5651.00    0.90408   1.04629    0.007
 5652.00    0.95657   1.05479    0.007
 5653.00    1.00258   1.06391    0.007
 5654.00    0.92898   1.06704    0.007
 5655.00    0.85547   1.05766    0.007
 5656.00    0.78283   1.04986    0.007
 5657.00    0.72799   1.06197    0.007
 5658.00    0.81127   1.08411    0.007
 5659.00    0.90864   1.09084    0.007
 5660.00    1.08880   1.06701    0.007
 5661.00    1.20322   1.03984    0.007
 5662.00    1.01177   1.04549    0.007
 5663.00    0.83622   1.04449    0.007
 5664.00    0.72113   0.98897    0.007
 5665.00    0.67575   0.94796    0.007
 5666.00    0.85154   0.97994    0.007
 5667.00    0.99544   1.01817    0.007
 5668.00    1.05358   1.01074    0.007
 5669.00    1.09981   1.00195    0.007
 5670.00    1.11857   1.02849    0.007
 5671.00    1.10599   1.06460    0.007
 5672.00    1.03084   1.07552    0.007
 5673.00    0.97707   1.05652    0.007
 5674.00    0.96048   1.03657    0.007
 5675.00    0.93472   1.03520    0.007
 5676.00    0.89500   1.04129    0.007
 5677.00    0.91202   1.04730    0.007
 5678.00    1.00495   1.06670    0.007
 5679.00    1.04371   1.09835    0.007
 5680.00    1.01868   1.11324    0.007
 5681.00    0.97057   1.10242    0.007
 5682.00    0.89848   1.09660    0.006
 5683.00    0.87143   1.10591    0.006
 5684.00    0.88566   1.10521    0.007
 5685.00    0.91340   1.08966    0.006
 5686.00    0.95207   1.08081    0.006
 5687.00    0.99290   1.07553    0.006
 5688.00    1.03525   1.05049    0.007
 5689.00    1.03682   1.02556    0.006
 5690.00    1.01297   1.03374    0.006
 5691.00    0.96277   1.05643    0.006
 5692.00    0.89821   1.05462    0.006
 5693.00    0.92904   1.02826    0.006
 5694.00    1.00502   1.01102    0.006
 5695.00    1.02830   1.02098    0.006
 5696.00    1.03005   1.04853    0.006
 5697.00    1.02382   1.07364    0.007
 5698.00    1.01480   1.09394    0.007
 5699.00    1.03140   1.10581    0.007
 5700.00    1.05553   1.10019    0.007
 5701.00    1.14332   1.08755    0.007
 5702.00    1.24662   1.08453    0.007
 5703.00    1.16310   1.08252    0.007
 5704.00    1.04279   1.06119    0.007
 5705.00    1.05591   1.03900    0.007
 5706.00    1.08952   1.03073    0.007
 5707.00    1.09505   1.01520    0.007
 5708.00    1.09739   0.99775    0.007
 5709.00    1.23209   1.00375    0.007
 5710.00    1.37681   1.02913    0.007
 5711.00    1.34350   1.04114    0.007
 5712.00    1.30295   1.02194    0.007
 5713.00    1.13409   0.99091    0.007
 5714.00    0.96628   0.96525    0.006
 5715.00    0.88331   0.94544    0.006
 5716.00    0.79933   0.94797    0.006
 5717.00    0.69816   0.96113    0.006
 5718.00    0.61383   0.96731    0.006
 5719.00    0.70756   0.99438    0.006
 5720.00    0.80098   1.03716    0.006
 5721.00    0.89200   1.06186    0.006
 5722.00    0.95433   1.07314    0.006
 5723.00    0.85287   1.07845    0.006
 5724.00    0.76864   1.07754    0.006
 5725.00    0.76266   1.08201    0.006
 5726.00    0.76436   1.09115    0.006
 5727.00    0.79464   1.09895    0.006
 5728.00    0.81770   1.11100    0.006
 5729.00    0.81827   1.12282    0.006
 5730.00    0.83273   1.12400    0.006
 5731.00    0.88385   1.11685    0.006
 5732.00    0.93752   1.09829    0.006
 5733.00    0.99694   1.06713    0.006
 5734.00    1.03943   1.05536    0.006
 5735.00    1.04864   1.07868    0.006
 5736.00    1.07897   1.09544    0.006
 5737.00    1.14549   1.07434    0.006
 5738.00    1.18868   1.05061    0.006
 5739.00    1.19685   1.06288    0.006
 5740.00    1.16028   1.09151    0.000
 5741.00    1.06470   1.10590    0.000
 5742.00    1.03082   1.10227    0.000
 5743.00    1.06859   1.08947    0.000
 5744.00    1.08972   1.08090    0.000
 5745.00    1.09380   1.08108    0.000
 5746.00    1.09343   1.08437    0.000
 5747.00    1.08905   1.08555    0.000
 5748.00    1.04944   1.08004    0.000
 5749.00    0.98178   1.07055    0.000
 5750.00    0.96994   1.07387    0.000
 5751.00    0.99719   1.09510    0.000
 5752.00    0.94387   1.11202    0.000
 5753.00    0.84106   1.09852    0.000
 5754.00    0.79870   1.06065    0.000
 5755.00    0.78877   1.04557    0.000
 5756.00    0.83836   1.07171    0.000
 5757.00    0.91568   1.09671    0.000
 5758.00    0.99696   1.08238    0.000
 5759.00    1.07983   1.03787    0.000
 5760.00    1.11547   1.00143    0.000
 5761.00    1.13495   1.00869    0.000
 5762.00    1.04070   1.05464    0.000
 5763.00    0.91367   1.09693    0.000
 5764.00    0.91560   1.11320    0.000
 5765.00    0.94823   1.10353    0.000
 5766.00    0.96447   1.07398    0.000
 5767.00    0.97756   1.03677    0.000
 5768.00    0.94581   1.00542    0.000
 5769.00    0.90737   0.99736    0.000
 5770.00    0.92868   1.02967    0.000
 5771.00    0.95650   1.07909    0.000
 5772.00    0.97108   1.10661    0.000
 5773.00    0.98471   1.11219    0.000
 5774.00    1.00160   1.11206    0.000
 5775.00    1.01860   1.10724    0.000
 5776.00    0.96903   1.09871    0.000
 5777.00    0.92132   1.08987    0.000
 5778.00    0.95057   1.07894    0.000
 5779.00    0.97791   1.07211    0.000
 5780.00    0.97459   1.06918    0.000
 5781.00    0.97163   1.06641    0.000
 5782.00    0.97232   1.07266    0.000
 5783.00    0.96503   1.08511    0.000
 5784.00    0.89995   1.09011    0.000
 5785.00    0.85114   1.07943    0.000
 5786.00    0.89267   1.04378    0.000
 5787.00    0.93282   0.98760    0.000
 5788.00    0.96688   0.95108    0.000
 5789.00    1.02948   0.95642    0.000
 5790.00    1.19606   0.96840    0.000
 5791.00    1.32124   0.95627   -2.000
 5792.00    1.31998   0.95243   -2.000
 5793.00    1.27852   0.98683   -2.000
 5794.00    1.13265   1.03093   -2.000
 5795.00    0.97146   1.05565   -2.000
 5796.00    0.77607   1.05540   -2.000
 5797.00    0.66576   1.03690   -2.000
 5798.00    0.72003   1.03228   -2.000
 5799.00    0.79586   1.05227   -2.000
 5800.00    0.90808   1.07479   -2.000
 5801.00    0.96926   1.09296   -2.000
 5802.00    0.95500   1.09808   -2.000
 5803.00    0.91306   1.07344   -2.000
 5804.00    0.83513   1.04051   -2.000
 5805.00    0.83549   1.04500   -2.000
 5806.00    0.92547   1.08465   -2.000
 5807.00    0.99226   1.11759   -2.000
 5808.00    1.03564   1.12927   -2.000
 5809.00    1.01743   1.12150   -2.000
 5810.00    0.94437   1.09238   -2.000
 5811.00    0.90352   1.06147    0.000
 5812.00    0.88795   1.05170    0.000
 5813.00    0.88884   1.05903    0.000
 5814.00    0.90109   1.06806    0.000
 5815.00    0.91424   1.07389    0.000
 5816.00    0.92794   1.08107    0.000
 5817.00    0.96564   1.09025    0.000
 5818.00    1.01600   1.09406    0.000
 5819.00    1.02575   1.09151    0.000
 5820.00    1.01687   1.08386    0.000
 5821.00    0.96190   1.06510    0.000
 5822.00    0.88874   1.04007    0.000
 5823.00    0.93344   1.03355    0.000
 5824.00    1.01774   1.05945    0.000
 5825.00    1.09830   1.09385    0.000
 5826.00    1.17780   1.11157    0.000
 5827.00    1.06458   1.11366    0.000
 5828.00    0.90650   1.10711    0.000
 5829.00    0.94858   1.09669    0.000
 5830.00    1.02807   1.09043    0.000
 5831.00    1.00046   1.09358    0.000
 5832.00    0.95739   1.09878    0.000
 5833.00    0.96130   1.09888    0.000
 5834.00    0.97014   1.09725    0.000
 5835.00    0.92167   1.10066    0.000
 5836.00    0.86933   1.10673    0.000
 5837.00    0.87542   1.10570    0.000
 5838.00    0.88343   1.09989    0.000
 5839.00    0.93406   1.09572    0.000
 5840.00    0.98609   1.08542    0.000
 5841.00    1.08138   1.07074    0.000
 5842.00    1.16460   1.07164    0.000
 5843.00    1.06553   1.08306    0.000
 5844.00    0.97928   1.07962    0.000
 5845.00    1.01746   1.06942    0.000
 5846.00    1.05119   1.07795    0.000
 5847.00    1.05374   1.09880    0.000
 5848.00    1.05547   1.11267    0.000
 5849.00    1.05286   1.11667    0.000
 5850.00    1.05357   1.11199    0.000
 5851.00    1.06868   1.09951    0.000
 5852.00    1.06691   1.08239    0.000
 5853.00    1.00488   1.06393    0.000
 5854.00    0.95024   1.05176    0.000
 5855.00    0.91773   1.05296    0.000
 5856.00    0.88184   1.06189    0.000
 5857.00    0.83733   1.06469    0.000
 5858.00    0.83668   1.05098    0.000
 5859.00    0.93232   1.02392    0.000
 5860.00    0.99039   1.00855    0.000
 5861.00    0.97693   1.01897    0.000
 5862.00    0.97558   1.02700    0.000
 5863.00    0.99437   1.00229    0.000
 5864.00    1.01707   0.96741    0.000
 5865.00    1.04548   0.96708    0.000
 5866.00    1.02865   0.99854    0.000
 5867.00    0.95387   1.02910    0.000
 5868.00    0.92137   1.03823    0.000
 5869.00    0.93659   1.03041    0.000
 5870.00    0.96215   1.03045    0.000
 5871.00    0.99798   1.04108    0.000
 5872.00    1.00737   1.03775    0.000
 5873.00    0.99354   1.02082    0.000
 5874.00    1.00161   1.02110    0.000
 5875.00    1.02664   1.04477    0.000
 5876.00    1.08836   1.06763    0.000
 5877.00    1.17503   1.07387    0.000
 5878.00    1.17172   1.06494    0.000
 5879.00    1.11477   1.05019    0.000
 5880.00    1.01360   1.04394    0.000
 5881.00    0.88945   1.05099    0.000
 5882.00    0.83757   1.05523    0.000
 5883.00    0.81827   1.04679    0.000
 5884.00    0.76964   1.03577    0.000
 5885.00    0.70964   1.02422    0.000
 5886.00    0.69693   1.00547    0.000
 5887.00    0.69981   0.99248    0.000
 5888.00    0.76929   1.00139    0.000
 5889.00    0.85718   1.01385    0.000
 5890.00    0.93658   1.00748    0.000
 5891.00    1.01404   0.99828    0.000
 5892.00    0.99000   1.00125    0.000
 5893.00    0.94750   0.99365    0.000
 5894.00    0.85174   0.93679    0.000
 5895.00    0.74855   0.80939    0.000
 5896.00    0.78657   0.66434    0.000
 5897.00    0.83877   0.62211    0.000
 5898.00    0.90290   0.70951    0.000
 5899.00    0.96778   0.81571    0.000
 5900.00    1.01048   0.85679    0.000
 5901.00    1.05252   0.81455    0.006
 5902.00    1.09219   0.72327    0.006
 5903.00    1.12951   0.70015    0.006
 5904.00    1.10062   0.79148    0.006
 5905.00    1.06637   0.89318    0.006
 5906.00    0.95574   0.94336    0.006
 5907.00    0.85227   0.97366    0.006
 5908.00    0.81547   0.99678    0.006
 5909.00    0.79106   1.00684    0.006
 5910.00    0.85076   1.01185    0.006
 5911.00    0.91072   1.01034    0.006
 5912.00    0.97204   1.00117    0.006
 5913.00    1.03894   1.00005    0.006
 5914.00    1.12945   1.01212    0.006
 5915.00    1.19084   1.02332    0.006
 5916.00    1.15037   1.02621    0.006
 5917.00    1.11428   1.02922    0.006
 5918.00    1.09106   1.03568    0.006
 5919.00    1.07523   1.02970    0.006
 5920.00    1.07797   1.00328    0.006
 5921.00    1.08160   0.97721    0.006
 5922.00    1.08716   0.97047    0.006
 5923.00    1.07576   0.98040    0.006
 5924.00    1.03253   0.99928    0.006
 5925.00    0.98893   1.01490    0.006
 5926.00    0.94472   1.02404    0.006
 5927.00    0.89916   1.02859    0.006
 5928.00    0.85165   1.02250    0.006
 5929.00    0.84082   1.01348    0.006
 5930.00    0.87629   1.01581    0.006
 5931.00    0.91083   1.02430    0.006
 5932.00    0.94432   1.03267    0.006
 5933.00    0.94335   1.03738    0.006
 5934.00    0.90853   1.02959    0.006
 5935.00    0.87614   1.01168    0.006
 5936.00    0.84585   0.99312    0.006
 5937.00    0.84429   0.99184    0.006
 5938.00    0.86465   1.01578    0.006
 5939.00    0.92445   1.03557    0.006
 5940.00    1.01068   1.02460    0.006
 5941.00    1.06064   0.99878    0.006
 5942.00    1.08931   0.99385    0.006
 5943.00    1.08951   1.01277    0.006
 5944.00    1.07514   1.02902    0.006
 5945.00    1.01704   1.03791    0.006
 5946.00    0.93954   1.03988    0.006
 5947.00    0.91078   1.02213    0.006
 5948.00    0.90059   0.99809    0.006
 5949.00    0.98110   0.99530    0.006
 5950.00    1.09097   1.01108    0.006
 5951.00    1.11435   1.03034    0.006
 5952.00    1.11431   1.04528    0.006
 5953.00    0.99414   1.04800    0.006
 5954.00    0.84729   1.03155    0.006
 5955.00    0.67271   1.00415    0.006
 5956.00    0.49322   0.99350    0.006
 5957.00    0.52741   1.00980    0.006
 5958.00    0.59046   1.01935    0.006
 5959.00    0.69153   1.00092    0.006
 5960.00    0.79626   0.98865    0.006
 5961.00    0.83821   1.00452    0.006
 5962.00    0.87642   1.01468    0.006
 5963.00    0.94873   0.99969    0.006
 5964.00    1.02160   0.98546    0.006
 5965.00    1.04734   0.99140    0.006
 5966.00    1.06966   1.01216    0.006
 5967.00    1.00496   1.03378    0.006
 5968.00    0.94089   1.04660    0.006
 5969.00    0.88520   1.04868    0.006
 5970.00    0.83231   1.04529    0.006
 5971.00    0.80464   1.03776    0.006
 5972.00    0.77726   1.02392    0.006
 5973.00    0.75188   1.01827    0.006
 5974.00    0.73381   1.03157    0.006
 5975.00    0.75330   1.04420    0.006
 5976.00    0.78454   1.05046    0.006
 5977.00    0.86445   1.05681    0.006
 5978.00    0.91940   1.06077    0.006
 5979.00    0.88884   1.05850    0.006
 5980.00    0.88503   1.05282    0.006
 5981.00    0.95844   1.04026    0.006
 5982.00    1.01685   1.01637    0.006
 5983.00    1.03832   0.99229    0.006
 5984.00    1.04628   0.98417    0.006
 5985.00    1.02556   0.99252    0.006
 5986.00    1.03297   1.01133    0.006
 5987.00    1.09233   1.03130    0.006
 5988.00    1.13650   1.03543    0.006
 5989.00    1.15618   1.01676    0.006
 5990.00    1.12332   0.98195    0.006
 5991.00    1.01613   0.95662    0.006
 5992.00    0.91739   0.96772    0.006
 5993.00    0.82916   0.99576    0.006
 5994.00    0.78457   1.01035    0.006
 5995.00    0.78788   1.01858    0.006
 5996.00    0.77504   1.02920    0.006
 5997.00    0.74659   1.02934    0.006
 5998.00    0.75823   1.01665    0.006
 5999.00    0.80408   1.01509    0.006
 6000.00    0.82694   1.03362    0.006
 6001.00    0.83253   1.04770    0.006
 6002.00    0.81068   1.04151    0.006
 6003.00    0.77070   1.01931    0.006
 6004.00    0.74137   0.99594    0.006
 6005.00    0.71819   0.98845    0.006
 6006.00    0.72972   0.99973    0.006
 6007.00    0.75872   1.01528    0.006
 6008.00    0.76620   1.01803    0.006
 6009.00    0.76430   1.00307    0.006
 6010.00    0.75249   0.99439    0.006
 6011.00    0.73698   1.00617    0.006
 6012.00    0.78115   1.01005    0.006
 6013.00    0.84426   0.99104    0.006
 6014.00    0.90146   0.96221    0.006
 6015.00    0.95709   0.94901    0.006
 6016.00    0.89442   0.97640    0.006
 6017.00    0.80610   1.01762    0.006
 6018.00    0.78194   1.02537    0.006
 6019.00    0.76883   1.00018    0.006
 6020.00    0.85765   0.97699    0.006
 6021.00    0.95978   0.98082    0.006
 6022.00    0.95301   0.99161    0.006
 6023.00    0.93623   0.98539    0.006
 6024.00    0.89710   0.98091    0.006
 6025.00    0.85673   0.98692    0.006
 6026.00    0.88971   0.98199    0.006
 6027.00    0.92350   0.96904    0.006
 6028.00    0.87777   0.96923    0.006
 6029.00    0.83581   0.97969    0.006
 6030.00    0.88149   0.98857    0.006
 6031.00    0.92298   0.99560    0.006
 6032.00    0.91091   1.00935    0.006
 6033.00    0.89683   1.01669    0.006
 6034.00    0.86545   1.01676    0.006
 6035.00    0.84182   1.02720    0.006
 6036.00    0.86771   1.03873    0.006
 6037.00    0.88588   1.03701    0.006
 6038.00    0.86552   1.03303    0.006
 6039.00    0.85116   1.03895    0.006
 6040.00    0.86105   1.04680    0.006
 6041.00    0.88843   1.04721    0.006
 6042.00    0.97456   1.04530    0.006
 6043.00    1.05472   1.04628    0.006
 6044.00    1.11792   1.04751    0.006
 6045.00    1.14287   1.04524    0.006
 6046.00    1.07515   1.03705    0.006
 6047.00    0.99109   1.02849    0.006
 6048.00    0.87285   1.02670    0.006
 6049.00    0.80921   1.03040    0.006
 6050.00    0.84481   1.04195    0.006
 6051.00    0.89792   1.05430    0.006
 6052.00    0.97886   1.05853    0.006
 6053.00    0.99324   1.06027    0.006
 6054.00    0.91483   1.06029    0.006
 6055.00    0.82522   1.05428    0.006
 6056.00    0.72188   1.05029    0.006
 6057.00    0.64723   1.05719    0.006
 6058.00    0.60363   1.06039    0.006
 6059.00    0.58535   1.04925    0.006
 6060.00    0.59125   1.03415    0.006
 6061.00    0.63828   1.02521    0.006
 6062.00    0.71993   1.01774    0.006
 6063.00    0.75919   1.00770    0.006
 6064.00    0.76705   1.00722    0.006
 6065.00    0.75983   1.01910    0.006
 6066.00    0.74280   1.03435    0.006
 6067.00    0.70792   1.04317    0.006
 6068.00    0.66288   1.03978    0.006
 6069.00    0.65757   1.02562    0.006
 6070.00    0.67196   1.00557    0.006
 6071.00    0.74716   0.98252    0.006
 6072.00    0.84843   0.96455    0.006
 6073.00    0.89889   0.98321    0.006
 6074.00    0.93067   1.03115    0.006
 6075.00    0.92282   1.06080    0.006
 6076.00    0.90262   1.06444    0.006
 6077.00    0.88321   1.06116    0.006
 6078.00    0.86399   1.06203    0.005
 6079.00    0.86636   1.06623    0.005
 6080.00    0.87331   1.06811    0.005
 6081.00    0.86741   1.06681    0.006
 6082.00    0.85936   1.06082    0.006
 6083.00    0.83154   1.04809    0.006
 6084.00    0.80124   1.03055    0.006
 6085.00    0.77238   1.00894    0.006
 6086.00    0.74364   1.00035    0.006
 6087.00    0.74195   1.00650    0.006
 6088.00    0.74166   0.99789    0.006
 6089.00    0.74100   0.98267    0.006
 6090.00    0.74021   0.98999    0.006
 6091.00    0.73000   1.00453    0.006
 6092.00    0.72201   1.00268    0.006
 6093.00    0.76149   1.00067    0.006
 6094.00    0.79666   1.01094    0.006
 6095.00    0.77975   1.01887    0.006
 6096.00    0.76386   1.00550    0.006
 6097.00    0.75650   0.98164    0.006
 6098.00    0.75694   0.97593    0.006
 6099.00    0.80575   0.98369    0.006
 6100.00    0.83135   0.98923    0.006
 6101.00    0.74382   1.00431    0.006
 6102.00    0.68327   1.02595    0.006
 6103.00    0.72948   1.02642    0.006
 6104.00    0.77412   1.01360    0.005
 6105.00    0.81358   1.01373    0.005
 6106.00    0.82330   1.02751    0.005
 6107.00    0.75030   1.03285    0.005
 6108.00    0.71408   0.99940    0.005
 6109.00    0.76549   0.93065    0.006
 6110.00    0.82553   0.90149    0.006
 6111.00    0.90333   0.95129    0.006
 6112.00    0.93870   1.00599    0.006
 6113.00    0.89812   1.01953    0.006
 6114.00    0.88327   1.00860    0.006
 6115.00    0.90872   1.00329    0.006
 6116.00    0.92347   1.01830    0.006
 6117.00    0.92353   1.02692    0.006
 6118.00    0.89494   1.01201    0.006
 6119.00    0.83170   1.00705    0.006
 6120.00    0.77881   1.02638    0.006
 6121.00    0.73697   1.04471    0.006
 6122.00    0.71132   1.03803    0.006
 6123.00    0.70092   1.01506    0.006
 6124.00    0.71648   1.00828    0.006
 6125.00    0.75357   1.01666    0.006
 6126.00    0.81455   1.00340    0.006
 6127.00    0.89297   0.97021    0.006
 6128.00    0.91904   0.93345    0.006
 6129.00    0.91154   0.90993    0.006
 6130.00    0.88474   0.93980    0.006
 6131.00    0.84711   0.99632    0.006
 6132.00    0.88150   1.01288    0.006
 6133.00    0.95103   0.99942    0.006
 6134.00    0.95962   0.98557    0.006
 6135.00    0.94251   0.97693    0.006
 6136.00    0.88010   0.98302    0.006
 6137.00    0.80132   1.00529    0.006
 6138.00    0.75092   1.02405    0.006
 6139.00    0.70917   1.03001    0.006
 6140.00    0.70836   1.02642    0.006
 6141.00    0.71795   1.00400    0.006
 6142.00    0.83560   0.95190    0.006
 6143.00    0.97556   0.88005    0.005
 6144.00    0.99745   0.83435    0.006
 6145.00    1.00016   0.87389    0.006
 6146.00    0.88730   0.96471    0.006
 6147.00    0.76038   1.01136    0.006
 6148.00    0.75356   0.99085    0.006
 6149.00    0.75677   0.96814    0.006
 6150.00    0.76581   0.99184    0.006
 6151.00    0.77513   1.02710    0.006
 6152.00    0.74583   1.03567    0.006
 6153.00    0.71740   1.02756    0.006
 6154.00    0.77220   1.01568    0.006
 6155.00    0.82678   0.99813    0.006
 6156.00    0.87711   0.97907    0.006
 6157.00    0.91450   0.96802    0.006
 6158.00    0.80249   0.97529    0.006
 6159.00    0.69846   0.99349    0.006
 6160.00    0.65815   1.00273    0.006
 6161.00    0.63472   0.98591    0.006
 6162.00    0.71287   0.96768    0.006
 6163.00    0.79190   0.97267    0.006
 6164.00    0.87517   0.97913    0.006
 6165.00    0.93744   0.97589    0.005
 6166.00    0.91840   0.96461    0.005
 6167.00    0.89006   0.92206    0.005
 6168.00    0.83168   0.84314    0.005
 6169.00    0.79493   0.78891    0.005
 6170.00    0.81729   0.80432    0.005
 6171.00    0.84170   0.86213    0.005
 6172.00    0.87088   0.91013    0.006
 6173.00    0.89215   0.93107    0.006
 6174.00    0.89742   0.94383    0.006
 6175.00    0.90797   0.93151    0.006
 6176.00    0.92785   0.87943    0.006
 6177.00    0.94147   0.85504    0.006
 6178.00    0.94544   0.89909    0.006
 6179.00    0.97385   0.94680    0.006
 6180.00    1.03536   0.95138    0.006
 6181.00    1.05020   0.94862    0.006
 6182.00    1.00938   0.95458    0.006
 6183.00    0.95607   0.94985    0.006
 6184.00    0.88962   0.94475    0.006
 6185.00    0.83104   0.95845    0.006
 6186.00    0.77976   0.96980    0.006
 6187.00    0.77066   0.96306    0.006
 6188.00    0.79605   0.96684    0.006
 6189.00    0.83540   0.98156    0.006
 6190.00    0.88479   0.98305    0.006
 6191.00    0.92747   0.98013    0.006
 6192.00    0.96590   0.97389    0.006
 6193.00    1.08933   0.95094    0.006
 6194.00    1.25969   0.92744    0.006
 6195.00    1.49010   0.92041    0.006
 6196.00    1.74935   0.92242   -2.000
 6197.00    1.50396   0.90529   -2.000
 6198.00    1.04937   0.86126   -2.000
 6199.00    0.67123   0.85475   -2.000
 6200.00    0.32018   0.90822   -2.000
 6201.00    0.46466   0.95229   -2.000
 6202.00    0.75742   0.96425   -2.000
 6203.00    1.30508   0.97156   -2.000
 6204.00    1.91604   0.97952   -2.000
 6205.00    1.88853   0.96676   -2.000
 6206.00    1.73247   0.92809   -2.000
 6207.00    1.37619   0.90390   -2.000
 6208.00    0.98833   0.92430    0.006
 6209.00    0.91964   0.96217    0.006
 6210.00    0.88834   0.97874    0.006
 6211.00    0.96261   0.97505    0.006
 6212.00    1.04526   0.96970    0.006
 6213.00    1.03119   0.97162    0.006
 6214.00    1.01286   0.97340    0.006
 6215.00    0.93517   0.97264    0.006
 6216.00    0.85636   0.97053    0.006
 6217.00    0.75533   0.96125    0.006
 6218.00    0.65583   0.94875    0.006
 6219.00    0.58399   0.93394    0.005
 6220.00    0.52063   0.89932    0.005
 6221.00    0.55046   0.86323    0.005
 6222.00    0.58960   0.85291    0.005
 6223.00    0.70052   0.86565    0.005
 6224.00    0.81419   0.89357    0.005
 6225.00    0.94390   0.91162    0.005
 6226.00    1.05002   0.89438    0.005
 6227.00    1.04674   0.87417    0.005
 6228.00    1.02000   0.88028    0.006
 6229.00    0.90430   0.90295    0.006
 6230.00    0.80704   0.91698    0.006
 6231.00    0.76819   0.91111    0.005
 6232.00    0.74938   0.91117    0.005
 6233.00    0.78441   0.92271    0.005
 6234.00    0.78503   0.92801    0.005
 6235.00    0.70642   0.92369    0.005
 6236.00    0.65576   0.89655    0.005
 6237.00    0.66080   0.84412    0.006
 6238.00    0.69093   0.81794    0.006
 6239.00    0.76462   0.84172    0.006
 6240.00    0.83021   0.87785    0.006
 6241.00    0.88348   0.91875    0.006
 6242.00    0.93157   0.95403    0.006
 6243.00    0.97271   0.96051    0.006
 6244.00    0.97614   0.94370    0.006
 6245.00    0.93520   0.91986    0.006
 6246.00    0.89407   0.89417    0.006
 6247.00    0.85274   0.87053    0.006
 6248.00    0.82801   0.87578    0.006
 6249.00    0.81847   0.88058    0.005
 6250.00    0.81236   0.85498    0.005
 6251.00    0.80902   0.84820    0.005
 6252.00    0.76913   0.86370    0.005
 6253.00    0.70333   0.87049    0.005
 6254.00    0.70070   0.89300    0.005
 6255.00    0.73739   0.92776    0.005
 6256.00    0.82246   0.93861    0.005
 6257.00    0.93385   0.92876    0.005
 6258.00    0.99928   0.90664    0.006
 6259.00    1.04300   0.86865    0.006
 6260.00    0.91806   0.84661    0.006
 6261.00    0.72437   0.85238    0.007
 6262.00    0.70510   0.86170    0.007
 6263.00    0.74653   0.85269    0.007
 6264.00    0.87169   0.82704    0.007
 6265.00    1.02142   0.80617    0.007
 6266.00    1.17694   0.81731    0.007
 6267.00    1.33387   0.86197    0.006
 6268.00    1.23302   0.89240    0.006
 6269.00    1.08157   0.91468    0.006
 6270.00    0.89899   0.94161    0.006
 6271.00    0.71165   0.93843    0.006
 6272.00    0.69165   0.90424    0.006
 6273.00    0.69052   0.89440    0.006
 6274.00    0.75838   0.91641    0.006
 6275.00    0.83143   0.92450    0.006
 6276.00    0.81138   0.91215    0.006
 6277.00    0.78760   0.90663    0.006
 6278.00    0.78200   0.91274    0.006
 6279.00    0.77646   0.92550    0.006
 6280.00    0.76758   0.93578    0.000
 6281.00    0.76094   0.93227    0.000
 6282.00    0.79236   0.92686    0.000
 6283.00    0.82595   0.92995    0.000
 6284.00    0.88229   0.93116    0.000
 6285.00    0.93194   0.93073    0.000
 6286.00    0.93169   0.92195    0.000
 6287.00    0.92042   0.89768    0.000
 6288.00    0.84647   0.88647    0.000
 6289.00    0.78749   0.90036    0.000
 6290.00    0.79633   0.92130    0.000
 6291.00    0.81019   0.93741    0.000
 6292.00    0.84270   0.93535    0.000
 6293.00    0.85977   0.93451    0.000
 6294.00    0.82893   0.94868    0.000
 6295.00    0.80652   0.96310    0.000
 6296.00    0.80635   0.97075    0.000
 6297.00    0.80705   0.95925    0.000
 6298.00    0.80972   0.93713    0.000
 6299.00    0.80651   0.92356    0.000
 6300.00    0.79178   0.91904    0.000
 6301.00    0.74861   0.92898    0.000
 6302.00    0.65682   0.93536    0.000
 6303.00    0.60198   0.91200    0.000
 6304.00    0.60249   0.88422    0.000
 6305.00    0.64603   0.88412    0.000
 6306.00    0.74618   0.90615    0.000
 6307.00    0.80542   0.91453    0.000
 6308.00    0.81723   0.89290    0.000
 6309.00    0.80838   0.87374    0.000
 6310.00    0.77840   0.88774    0.000
 6311.00    0.77694   0.91144    0.000
 6312.00    0.80121   0.91657    0.000
 6313.00    0.82232   0.91806    0.000
 6314.00    0.84092   0.94198    0.000
 6315.00    0.82988   0.96500    0.000
 6316.00    0.79812   0.96455    0.000
 6317.00    0.74950   0.94374    0.000
 6318.00    0.69053   0.91858    0.000
 6319.00    0.66350   0.90929    0.000
 6320.00    0.65355   0.91781    0.000
 6321.00    0.66669   0.91312    0.006
 6322.00    0.69057   0.88952    0.006
 6323.00    0.71746   0.88728    0.006
 6324.00    0.74557   0.89068    0.006
 6325.00    0.74886   0.86625    0.006
 6326.00    0.74367   0.86029    0.005
 6327.00    0.71337   0.89200    0.006
 6328.00    0.67585   0.91535    0.006
 6329.00    0.64283   0.91611    0.006
 6330.00    0.61089   0.91870    0.006
 6331.00    0.68609   0.93470    0.005
 6332.00    0.78178   0.94493    0.005
 6333.00    0.84473   0.94594    0.005
 6334.00    0.90283   0.93991    0.005
 6335.00    0.89178   0.94119    0.005
 6336.00    0.87324   0.95096    0.005
 6337.00    0.84957   0.94300    0.005
 6338.00    0.82554   0.93500    0.005
 6339.00    0.76440   0.94590    0.005
 6340.00    0.70191   0.95829    0.005
 6341.00    0.69294   0.94656    0.005
 6342.00    0.68612   0.90104    0.005
 6343.00    0.74810   0.86517    0.005
 6344.00    0.81179   0.87668    0.005
 6345.00    0.90260   0.90428    0.006
 6346.00    0.98731   0.91489    0.006
 6347.00    1.01061   0.92731    0.006
 6348.00    1.01749   0.94396    0.006
 6349.00    0.90585   0.93798    0.006
 6350.00    0.80946   0.90935    0.006
 6351.00    0.79738   0.88357    0.006
 6352.00    0.78724   0.89202    0.006
 6353.00    0.78567   0.91746    0.006
 6354.00    0.78283   0.92992    0.006
 6355.00    0.77533   0.93754    0.006
 6356.00    0.76903   0.94509    0.006
 6357.00    0.76637   0.94615    0.006
 6358.00    0.76685   0.94665    0.006
 6359.00    0.77544   0.95073    0.005
 6360.00    0.80326   0.94396    0.005
 6361.00    0.87389   0.91790    0.005
 6362.00    0.90349   0.89427    0.005
 6363.00    0.85388   0.90043    0.005
 6364.00    0.78948   0.90888    0.005
 6365.00    0.70019   0.88624    0.005
 6366.00    0.66163   0.85811    0.005
 6367.00    0.69790   0.85347    0.005
 6368.00    0.71818   0.85189    0.005
 6369.00    0.71769   0.83929    0.005
 6370.00    0.73828   0.83961    0.006
 6371.00    0.78295   0.85835    0.006
 6372.00    0.82454   0.88111    0.006
 6373.00    0.86300   0.89792    0.006
 6374.00    0.84871   0.91437    0.006
 6375.00    0.78753   0.93545    0.006
 6376.00    0.73819   0.94316    0.006
 6377.00    0.69812   0.93335    0.006
 6378.00    0.68228   0.93047    0.006
 6379.00    0.68311   0.94626    0.006
 6380.00    0.71883   0.96311    0.006
 6381.00    0.77563   0.96228    0.006
 6382.00    0.81785   0.95370    0.006
 6383.00    0.85239   0.95441    0.006
 6384.00    0.81286   0.95554    0.006
 6385.00    0.73944   0.94184    0.006
 6386.00    0.63609   0.92588    0.006
 6387.00    0.52096   0.92338    0.005
 6388.00    0.50426   0.92627    0.005
 6389.00    0.52056   0.93488    0.005
 6390.00    0.62416   0.94218    0.005
 6391.00    0.75235   0.93646    0.005
 6392.00    0.78822   0.93153    0.005
 6393.00    0.80267   0.94121    0.005
 6394.00    0.77133   0.95219    0.005
 6395.00    0.73145   0.95217    0.006
 6396.00    0.76073   0.95119    0.006
 6397.00    0.79994   0.95662    0.006
 6398.00    0.78741   0.95365    0.006
 6399.00    0.76949   0.92557    0.006
 6400.00    0.67896   0.87995    0.006
 6401.00    0.58355   0.86732    0.006
 6402.00    0.54952   0.90208    0.006
 6403.00    0.51750   0.94204    0.006
 6404.00    0.56670   0.96014    0.012
 6405.00    0.61488   0.95477   -1.000
 6406.00    0.63084   0.91358   -1.000
 6407.00    0.65460   0.86002   -1.000
 6408.00    0.79532   0.86803   -1.000
 6409.00    0.93408   0.92570   -1.000
 6410.00    1.05400   0.96147   -1.000
 6411.00    1.17234   0.96721   -1.000
 6412.00    1.27962   0.96251   -1.000
 6413.00    1.39135   0.95006   -1.000
 6414.00    1.52704   0.92595   -1.000
 6415.00    1.61745   0.90314   -1.000
 6416.00    1.51224   0.91405   -1.000
 6417.00    1.37351   0.93404    0.067
 6418.00    1.11546   0.92032    0.012
 6419.00    0.91726   0.90407    0.007
 6420.00    0.89801   0.91259    0.007
 6421.00    0.88825   0.92232    0.006
 6422.00    0.90268   0.92846    0.006
 6423.00    0.90323   0.94119    0.006
 6424.00    0.87337   0.94766    0.006
 6425.00    0.86388   0.93903    0.006
 6426.00    0.89306   0.91777    0.006
 6427.00    0.88748   0.88715    0.006
 6428.00    0.82423   0.87138    0.006
 6429.00    0.78861   0.89336    0.006
 6430.00    0.79317   0.93758    0.006
 6431.00    0.79409   0.95818    0.006
 6432.00    0.79035   0.95141    0.006
 6433.00    0.75143   0.94956    0.006
 6434.00    0.67288   0.96237    0.006
 6435.00    0.62446   0.97051    0.006
 6436.00    0.60600   0.95532    0.006
 6437.00    0.60263   0.91360    0.006
 6438.00    0.61250   0.87603    0.005
 6439.00    0.63609   0.88312    0.006
 6440.00    0.67028   0.91667    0.006
 6441.00    0.70996   0.94198    0.006
 6442.00    0.75336   0.95338    0.006
 6443.00    0.78793   0.95518    0.005
 6444.00    0.81723   0.94614    0.005
 6445.00    0.80793   0.91393    0.005
 6446.00    0.77861   0.88099    0.006
 6447.00    0.75409   0.89509    0.006
 6448.00    0.73174   0.94027    0.006
 6449.00    0.72906   0.96776    0.006
 6450.00    0.73399   0.97122    0.006
 6451.00    0.69037   0.96676    0.006
 6452.00    0.63077   0.96779    0.006
 6453.00    0.68112   0.97655    0.006
 6454.00    0.76179   0.97916    0.006
 6455.00    0.78537   0.95176    0.006
 6456.00    0.79600   0.88483    0.006
 6457.00    0.76953   0.82677    0.006
 6458.00    0.73634   0.83878    0.006
 6459.00    0.64187   0.89345    0.006
 6460.00    0.53887   0.93694    0.006
 6461.00    0.56866   0.95007    0.006
 6462.00    0.61170   0.93249    0.005
 6463.00    0.62830   0.91277    0.006
 6464.00    0.64322   0.92232    0.006
 6465.00    0.67615   0.95008    0.006
 6466.00    0.70987   0.97066    0.005
 6467.00    0.82498   0.97667    0.005
 6468.00    0.93910   0.95783    0.005
 6469.00    1.02563   0.90748    0.005
 6470.00    1.10361   0.86963    0.006
 6471.00    1.06074   0.88569    0.006
 6472.00    1.00840   0.92312    0.006
 6473.00    0.86841   0.94590    0.006
 6474.00    0.74066   0.95799    0.006
 6475.00    0.69578   0.96235    0.006
 6476.00    0.66191   0.95324    0.006
 6477.00    0.68585   0.93803    0.006
 6478.00    0.71761   0.92309    0.006
 6479.00    0.78244   0.92145    0.006
 6480.00    0.83130   0.93935    0.006
 6481.00    0.82444   0.94865    0.006
 6482.00    0.80420   0.93626    0.006
 6483.00    0.74471   0.93023    0.006
 6484.00    0.69373   0.94235    0.006
 6485.00    0.66408   0.94903    0.006
 6486.00    0.64919   0.94630    0.006
 6487.00    0.66613   0.94192    0.006
 6488.00    0.70679   0.92282    0.006
 6489.00    0.79182   0.89069    0.006
 6490.00    0.82340   0.87607    0.006
 6491.00    0.76761   0.89293    0.005
 6492.00    0.71877   0.91703    0.005
 6493.00    0.67987   0.93044    0.005
 6494.00    0.67140   0.93706    0.005
 6495.00    0.70127   0.94249    0.006
 6496.00    0.73352   0.93950    0.006
 6497.00    0.76841   0.92365    0.006
 6498.00    0.78076   0.90858    0.006
 6499.00    0.77103   0.89860    0.006
 6500.00    0.73220   0.86963    0.006
 6501.00    0.66822   0.80783    0.006
 6502.00    0.66203   0.75871    0.006
 6503.00    0.69982   0.75802    0.006
 6504.00    0.73376   0.78545    0.006
 6505.00    0.76511   0.81429    0.006
 6506.00    0.79834   0.83032    0.006
 6507.00    0.83267   0.84779    0.006
 6508.00    0.80124   0.87514    0.006
 6509.00    0.73620   0.89615    0.006
 6510.00    0.73116   0.90729    0.006
 6511.00    0.75266   0.91561    0.006
 6512.00    0.75347   0.92394    0.006
 6513.00    0.74642   0.93326    0.006
 6514.00    0.73623   0.93352    0.006
 6515.00    0.72502   0.92154    0.006
 6516.00    0.72123   0.91049    0.006
 6517.00    0.71944   0.91497    0.005
 6518.00    0.68654   0.92760    0.005
 6519.00    0.64675   0.93192    0.005
 6520.00    0.64487   0.93150    0.006
 6521.00    0.64967   0.93146    0.006
 6522.00    0.68077   0.92266    0.006
 6523.00    0.71542   0.90972    0.006
 6524.00    0.76493   0.90131    0.006
 6525.00    0.81586   0.89232    0.006
 6526.00    0.79359   0.88690    0.006
 6527.00    0.76699   0.90150    0.006
 6528.00    0.71713   0.92314    0.000
 6529.00    0.66716   0.93309    0.000
 6530.00    0.68384   0.93252    0.000
 6531.00    0.70164   0.93376    0.000
 6532.00    0.74757   0.93833    0.000
 6533.00    0.79375   0.93015    0.000
 6534.00    0.84331   0.91114    0.000
 6535.00    0.88574   0.90486    0.000
 6536.00    0.86469   0.91669    0.000
 6537.00    0.84554   0.92891    0.000
 6538.00    0.83882   0.92777    0.000
 6539.00    0.83465   0.91208    0.000
 6540.00    0.84352   0.89767    0.000
 6541.00    0.85433   0.90194    0.000
 6542.00    0.87318   0.92221    0.000
 6543.00    0.88590   0.93703    0.000
 6544.00    0.87767   0.93222    0.000
 6545.00    0.85637   0.92466    0.000
 6546.00    0.79742   0.93312    0.000
 6547.00    0.75234   0.94709    0.000
 6548.00    0.74138   0.94534    0.000
 6549.00    0.72186   0.93122    0.000
 6550.00    0.68420   0.91750    0.000
 6551.00    0.64521   0.90894    0.000
 6552.00    0.60380   0.89621    0.000
 6553.00    0.59199   0.87258    0.000
 6554.00    0.62784   0.86211    0.000
 6555.00    0.67929   0.87802    0.000
 6556.00    0.75280   0.90010    0.000
 6557.00    0.81807   0.90727    0.000
 6558.00    0.87310   0.89807    0.000
 6559.00    0.95626   0.88569    0.000
 6560.00    1.07022   0.87753    0.000
 6561.00    1.10483   0.86381    0.000
 6562.00    1.06278   0.84527    0.000
 6563.00    1.00901   0.83722    0.000
 6564.00    0.94524   0.84647    0.000
 6565.00    0.81983   0.85943    0.000
 6566.00    0.64815   0.86283    0.000
 6567.00    0.54944   0.85508    0.000
 6568.00    0.49881   0.81744    0.000
 6569.00    0.50591   0.72123    0.000
 6570.00    0.54634   0.62346    0.000
 6571.00    0.57878   0.63889    0.000
 6572.00    0.60722   0.74459    0.000
 6573.00    0.61824   0.83128    0.000
 6574.00    0.62169   0.87201    0.000
 6575.00    0.62834   0.88267    0.000
 6576.00    0.63618   0.86975    0.000
 6577.00    0.66523   0.85646    0.000
 6578.00    0.70099   0.85917    0.000
 6579.00    0.74685   0.85978    0.000
 6580.00    0.79538   0.84599    0.000
 6581.00    0.82065   0.83079    0.000
 6582.00    0.84090   0.82796    0.000
 6583.00    0.82308   0.84772    0.000
 6584.00    0.79873   0.88006    0.000
 6585.00    0.77811   0.90330    0.000
 6586.00    0.75797   0.90769    0.000
 6587.00    0.75618   0.89467    0.000
 6588.00    0.75608   0.87511    0.000
 6589.00    0.73431   0.87071    0.000
 6590.00    0.71135   0.88341    0.000
 6591.00    0.66322   0.89629    0.000
 6592.00    0.61521   0.89863    0.000
 6593.00    0.62911   0.89301    0.000
 6594.00    0.64130   0.89383    0.000
 6595.00    0.61427   0.90692    0.000
 6596.00    0.58995   0.91678    0.000
 6597.00    0.60008   0.91773    0.000
 6598.00    0.62050   0.90812    0.000
 6599.00    0.72910   0.87450    0.000
 6600.00    0.81957   0.82697    0.000
 6601.00    0.79472   0.81100    0.000
 6602.00    0.75968   0.84023    0.000
 6603.00    0.67384   0.87427    0.000
 6604.00    0.60871   0.88455    0.000
 6605.00    0.62710   0.87783    0.000
 6606.00    0.64485   0.87210    0.000
 6607.00    0.66039   0.88308    0.000
 6608.00    0.65929   0.90363    0.000
 6609.00    0.61118   0.91402    0.006
 6610.00    0.57120   0.91081    0.006
 6611.00    0.55091   0.90030    0.006
 6612.00    0.55226   0.88728    0.006
 6613.00    0.59877   0.87673    0.006
 6614.00    0.60671   0.86971    0.006
 6615.00    0.54468   0.85806    0.006
 6616.00    0.54174   0.84200    0.006
 6617.00    0.63250   0.84365    0.006
 6618.00    0.71388   0.87280    0.006
 6619.00    0.78218   0.90065    0.006
 6620.00    0.81107   0.90232    0.006
 6621.00    0.79168   0.89171    0.006
 6622.00    0.83079   0.89637    0.006
 6623.00    0.93306   0.90904    0.006
 6624.00    1.00989   0.90872    0.006
 6625.00    1.06249   0.90115    0.006
 6626.00    1.06029   0.90110    0.006
 6627.00    1.01207   0.90822    0.006
 6628.00    0.93658   0.91417    0.006
 6629.00    0.84092   0.91328    0.006
 6630.00    0.81940   0.90058    0.006
 6631.00    0.84602   0.87626    0.006
 6632.00    0.77631   0.85560    0.006
 6633.00    0.65184   0.85957    0.006
 6634.00    0.65595   0.87757    0.006
 6635.00    0.72368   0.88603    0.006
 6636.00    0.77886   0.88388    0.006
 6637.00    0.82866   0.87840    0.006
 6638.00    0.75585   0.87246    0.006
 6639.00    0.63806   0.86304    0.006
 6640.00    0.59714   0.84482    0.006
 6641.00    0.58008   0.82904    0.006
 6642.00    0.61145   0.83498    0.006
 6643.00    0.65536   0.85827    0.006
 6644.00    0.64020   0.87922    0.006
 6645.00    0.61258   0.88695    0.006
 6646.00    0.59950   0.88079    0.006
 6647.00    0.58883   0.87169    0.006
 6648.00    0.58037   0.87500    0.006
 6649.00    0.57219   0.88119    0.006
 6650.00    0.61043   0.86773    0.006
 6651.00    0.65272   0.84977    0.006
 6652.00    0.52950   0.85537    0.006
 6653.00    0.39779   0.87223    0.006
 6654.00    0.44613   0.87594    0.006
 6655.00    0.49985   0.87106    0.006
 6656.00    0.70845   0.87340    0.006
 6657.00    0.90248   0.87951    0.006
 6658.00    0.78947   0.87835    0.006
 6659.00    0.68575   0.87148    0.006
 6660.00    0.69405   0.86742    0.006
 6661.00    0.71282   0.86859    0.006
 6662.00    0.81812   0.87267    0.006
 6663.00    0.90837   0.87421    0.006
 6664.00    0.90567   0.87090    0.006
 6665.00    0.88701   0.87012    0.006
 6666.00    0.79083   0.87165    0.006
 6667.00    0.71699   0.86789    0.006
 6668.00    0.73131   0.86037    0.006
 6669.00    0.74298   0.85101    0.006
 6670.00    0.74595   0.83360    0.006
 6671.00    0.75777   0.82010    0.006
 6672.00    0.79413   0.82704    0.006
 6673.00    0.83682   0.84014    0.006
 6674.00    0.89455   0.84256    0.006
 6675.00    0.91789   0.84213    0.006
 6676.00    0.87063   0.85034    0.006
 6677.00    0.84957   0.86595    0.006
 6678.00    0.87532   0.87772    0.006
 6679.00    0.85063   0.87970    0.006
 6680.00    0.74711   0.87729    0.006
 6681.00    0.71093   0.87678    0.006
 6682.00    0.76713   0.87848    0.006
 6683.00    0.78599   0.87471    0.006
 6684.00    0.75975   0.85035    0.006
 6685.00    0.76122   0.81232    0.006
 6686.00    0.79220   0.80101    0.006
 6687.00    0.82844   0.82666    0.006
 6688.00    0.86964   0.85020    0.006
 6689.00    0.83865   0.85492    0.006
 6690.00    0.74790   0.85731    0.006
 6691.00    0.71965   0.86381    0.006
 6692.00    0.73697   0.86844    0.006
 6693.00    0.76916   0.86905    0.006
 6694.00    0.81086   0.86616    0.006
 6695.00    0.74532   0.86099    0.006
 6696.00    0.61976   0.85905    0.000
 6697.00    0.58657   0.86289    0.000
 6698.00    0.59838   0.86699    0.000
 6699.00    0.74187   0.86770    0.000
 6700.00    0.94077   0.86658    0.000
 6701.00    0.86304   0.86473    0.000
 6702.00    0.68568   0.85646    0.000
 6703.00    0.69182   0.83772    0.000
 6704.00    0.75384   0.82221    0.000
 6705.00    0.69830   0.82205    0.000
 6706.00    0.61299   0.83408    0.000
 6707.00    0.64466   0.85184    0.000
 6708.00    0.70042   0.86537    0.000
 6709.00    0.64402   0.86592    0.000
 6710.00    0.56948   0.85513    0.000
 6711.00    0.61423   0.84091    0.000
 6712.00    0.67343   0.83463    0.000
 6713.00    0.73601   0.84140    0.000
 6714.00    0.79887   0.85082    0.000
 6715.00    0.79963   0.85494    0.000
 6716.00    0.79744   0.85535    0.000
 6717.00    0.84485   0.85029    0.000
 6718.00    0.89047   0.84342    0.000
 6719.00    0.79633   0.84238    0.000
 6720.00    0.70479   0.84064    0.000
 6721.00    0.66396   0.83197    0.000
 6722.00    0.64408   0.81962    0.000
 6723.00    0.86434   0.80494    0.000
 6724.00    1.05269   0.78974    0.000
 6725.00    0.98683   0.78553    0.000
 6726.00    0.92628   0.80404    0.000
 6727.00    0.89755   0.83033    0.000
 6728.00    0.84447   0.84035    0.000
 6729.00    0.67593   0.83710    0.000
 6730.00    0.55470   0.83876    0.000
 6731.00    0.61621   0.84862    0.000
 6732.00    0.71196   0.85096    0.000
 6733.00    0.91795   0.83974    0.000
 6734.00    1.02745   0.83143    0.000
 6735.00    0.87387   0.83561    0.000
 6736.00    0.73862   0.84384    0.000
 6737.00    0.64621   0.85042    0.000
 6738.00    0.62973   0.85516    0.000
 6739.00    0.76669   0.85497    0.000
 6740.00    0.83167   0.84836    0.000
 6741.00    0.77002   0.84167    0.000
 6742.00    0.73225   0.84200    0.000
 6743.00    0.73123   0.84797    0.000
 6744.00    0.71346   0.84850    0.000
 6745.00    0.67307   0.83651    0.000
 6746.00    0.64264   0.82278    0.000
 6747.00    0.62409   0.82127    0.000
 6748.00    0.62167   0.83022    0.000
 6749.00    0.63619   0.83361    0.000
 6750.00    0.64142   0.82559    0.000
 6751.00    0.63804   0.82177    0.000
 6752.00    0.66279   0.82881    0.000
 6753.00    0.71049   0.83277    0.008
 6754.00    0.73384   0.82787    0.008
 6755.00    0.73969   0.82212    0.008
 6756.00    0.80836   0.81870    0.008
 6757.00    0.91662   0.81524    0.008
 6758.00    0.77208   0.81552    0.008
 6759.00    0.48820   0.81964    0.008
 6760.00    0.38688   0.81774    0.008
 6761.00    0.37304   0.81651    0.008
 6762.00    0.51088   0.82387    0.008
 6763.00    0.71147   0.83214    0.009
 6764.00    0.84347   0.84171    0.009
 6765.00    0.95123   0.85272    0.008
 6766.00    0.95491   0.85905    0.008
 6767.00    0.92752   0.86091    0.008
 6768.00    1.05292   0.85995    0.008
 6769.00    1.21618   0.85398    0.009
 6770.00    1.09064   0.84879    0.008
 6771.00    0.90712   0.85086    0.008
 6772.00    0.83591   0.85283    0.008
 6773.00    0.78233   0.84452    0.008
 6774.00    0.75810   0.82757    0.008
 6775.00    0.73728   0.81628    0.008
 6776.00    0.74026   0.82014    0.008
 6777.00    0.74511   0.82755    0.008
 6778.00    0.85638   0.82413    0.008
 6779.00    0.97228   0.81884    0.008
 6780.00    0.89538   0.82684    0.008
 6781.00    0.81795   0.84315    0.008
 6782.00    0.81008   0.85554    0.008
 6783.00    0.79831   0.86119    0.008
 6784.00    0.71595   0.86096    0.008
 6785.00    0.65174   0.85884    0.008
 6786.00    0.78621   0.86112    0.008
 6787.00    0.88820   0.86524    0.008
 6788.00    0.74043   0.86232    0.008
 6789.00    0.63635   0.84921    0.008
 6790.00    0.78695   0.82780    0.008
 6791.00    0.91885   0.80596    0.008
 6792.00    0.96422   0.79513    0.008
 6793.00    0.90714   0.79853    0.009
 6794.00    0.46269   0.81134    0.009
 6795.00    0.16084   0.82856    0.008
 6796.00    0.30927   0.83981    0.008
 6797.00    0.44161   0.83886    0.008
 6798.00    0.53084   0.83743    0.008
 6799.00    0.66582   0.83999    0.008
 6800.00    0.90593   0.83544    0.008
 6801.00    1.05460   0.82437    0.008
 6802.00    1.02141   0.81938    0.008
 6803.00    0.95164   0.82069    0.008
 6804.00    0.81849   0.82428    0.008
 6805.00    0.78795   0.83013    0.008
 6806.00    0.91307   0.83413    0.008
 6807.00    1.02078   0.83544    0.008
 6808.00    1.10525   0.83857    0.008
 6809.00    1.04379   0.84270    0.008
 6810.00    0.81104   0.84294    0.008
 6811.00    0.71006   0.83654    0.008
 6812.00    0.74547   0.83299    0.008
 6813.00    0.80309   0.83482    0.008
 6814.00    0.88100   0.83255    0.009
 6815.00    0.89751   0.83040    0.009
 6816.00    0.86462   0.83295    0.009
 6817.00    0.86175   0.83141    0.009
 6818.00    0.88013   0.82843    0.009
 6819.00    0.80913   0.83249    0.009
 6820.00    0.68261   0.83622    0.008
 6821.00    0.72278   0.83094    0.008
 6822.00    0.85342   0.82075    0.008
 6823.00    0.82459   0.81945    0.008
 6824.00    0.72055   0.83315    0.008
 6825.00    0.68211   0.84605    0.008
 6826.00    0.67035   0.84452    0.008
 6827.00    0.62256   0.83302    0.008
 6828.00    0.56228   0.82565    0.008
 6829.00    0.65014   0.83128    0.008
 6830.00    0.78134   0.84421    0.008
 6831.00    0.68836   0.85244    0.008
 6832.00    0.54108   0.85365    0.008
 6833.00    0.64158   0.85206    0.008
 6834.00    0.79056   0.84630    0.008
 6835.00    0.72830   0.83357    0.008
 6836.00    0.63384   0.82082    0.008
 6837.00    0.72275   0.82228    0.009
 6838.00    0.83224   0.83542    0.009
 6839.00    0.73378   0.84424    0.009
 6840.00    0.61978   0.84168    0.009
 6841.00    0.75955   0.83924    0.009
 6842.00    0.90941   0.84497    0.009
 6843.00    0.70475   0.85037    0.009
 6844.00    0.50575   0.84613    0.008
 6845.00    0.62838   0.83596    0.008
 6846.00    0.73952   0.82390    0.008
 6847.00    0.65673   0.80778    0.008
 6848.00    0.58499   0.79109    0.008
 6849.00    0.62886   0.78050    0.008
 6850.00    0.66708   0.78326    0.008
 6851.00    0.66340   0.80060    0.008
 6852.00    0.67361   0.82163    0.008
 6853.00    0.76256   0.83461    0.008
 6854.00    0.79779   0.83776    0.008
 6855.00    0.59041   0.83866    0.008
 6856.00    0.45226   0.83929    0.008
 6857.00    0.57036   0.83723    0.008
 6858.00    0.65366   0.83442    0.008
 6859.00    0.62915   0.83408    0.008
 6860.00    0.65068   0.83523    0.008
 6861.00    0.79331   0.83026    0.008
 6862.00    0.86615   0.81173    0.008
 6863.00    0.78128   0.79313    0.008
 6864.00    0.74418   0.79407    0.008
 6865.00    0.80062   0.80484    0.009
 6866.00    0.74683   0.81122    0.009
 6867.00    0.50494   0.81228    0.009
 6868.00    0.47881   0.80185    0.009
 6869.00    0.77518   0.78819    0.009
 6870.00    0.81580   0.79480    0.009
 6871.00    0.52046   0.82060    0.008
 6872.00    0.39891   0.83845    0.008
 6873.00    0.47845   0.83570    0.008
 6874.00    0.61151   0.82030    0.008
 6875.00    0.79919   0.79952    0.008
 6876.00    0.81258   0.78869    0.008
 6877.00    0.66911   0.80214    0.008
 6878.00    0.67862   0.81955    0.008
 6879.00    0.80948   0.81500    0.008
 6880.00    0.82458   0.80197    0.008
 6881.00    0.75891   0.80214    0.008
 6882.00    0.69925   0.80987    0.008
 6883.00    0.64326   0.81203    0.008
 6884.00    0.72480   0.81460    0.008
 6885.00    0.87983   0.82475    0.009
 6886.00    0.79201   0.83343    0.008
 6887.00    0.59152   0.83162    0.008
 6888.00    0.53790   0.82274    0.008
 6889.00    0.54297   0.80952    0.008
 6890.00    0.59205   0.79704    0.008
 6891.00    0.65613   0.79850    0.008
 6892.00    0.61664   0.81321    0.008
 6893.00    0.54744   0.82259    0.008
 6894.00    0.45662   0.82190    0.008
 6895.00    0.36066   0.82785    0.008
 6896.00    0.59452   0.83876    0.008
 6897.00    0.89125   0.84353    0.008
 6898.00    1.02205   0.84766    0.008
 6899.00    1.12832   0.85022    0.008
 6900.00    0.93904   0.84309    0.008
 6901.00    0.71788   0.83646    0.008
 6902.00    0.99352   0.83629    0.008
 6903.00    1.30428   0.83269    0.008
 6904.00    0.94482   0.82779    0.008
 6905.00    0.56129   0.83280    0.008
 6906.00    0.81092   0.84095    0.008
 6907.00    1.04744   0.83719    0.008
 6908.00    0.75718   0.82894    0.008
 6909.00    0.49465   0.83315    0.008
 6910.00    0.67121   0.84505    0.008
 6911.00    0.81695   0.84586    0.009
 6912.00    0.65401   0.83872    0.008
 6913.00    0.52650   0.83633    0.008
 6914.00    0.65362   0.84206    0.008
 6915.00    0.74671   0.84914    0.008
 6916.00    0.65213   0.84955    0.008
 6917.00    0.59037   0.84941    0.008
 6918.00    0.67330   0.84946    0.008
 6919.00    0.72551   0.84391    0.008
 6920.00    0.66636   0.83328    0.008
 6921.00    0.59947   0.82092    0.008
 6922.00    0.50911   0.81314    0.008
 6923.00    0.45788   0.81745    0.008
 6924.00    0.50780   0.82336    0.008
 6925.00    0.60408   0.82300    0.008
 6926.00    0.80340   0.82822    0.008
 6927.00    0.98777   0.83853    0.008
 6928.00    1.14334   0.84779    0.008
 6929.00    1.12438   0.85225    0.009
 6930.00    0.81207   0.84834    0.009
 6931.00    0.64838   0.83375    0.009
 6932.00    0.70360   0.81189    0.008
 6933.00    0.76887   0.79787    0.008
 6934.00    0.84715   0.80214    0.009
 6935.00    0.86275   0.81716    0.009
 6936.00    0.80684   0.82888    0.009
 6937.00    0.81004   0.83284    0.009
 6938.00    0.87269   0.83440    0.009
 6939.00    0.86524   0.83165    0.009
 6940.00    0.79557   0.82095    0.008
 6941.00    0.80573   0.81129    0.008
 6942.00    0.87830   0.81765    0.008
 6943.00    0.72366   0.83179    0.008
 6944.00    0.41277   0.83519    0.008
 6945.00    0.48882   0.83068    0.008
 6946.00    0.79811   0.82971    0.008
 6947.00    0.90030   0.83637    0.008
 6948.00    0.89354   0.84581    0.008
 6949.00    0.67053   0.84813    0.008
 6950.00    0.34884   0.83781    0.008
 6951.00    0.32272   0.82031    0.008
 6952.00    0.41269   0.80302    0.009
 6953.00    0.61846   0.79504    0.009
 6954.00    0.86296   0.80658    0.009
 6955.00    0.78590   0.82605    0.009
 6956.00    0.61852   0.83683    0.008
 6957.00    0.48722   0.84004    0.008
 6958.00    0.36427   0.83392    0.009
 6959.00    0.49847   0.81935    0.009
 6960.00    0.68041   0.81102    0.009
 6961.00    0.71060   0.80962    0.008
 6962.00    0.71907   0.80926    0.008
 6963.00    0.65929   0.81624    0.008
 6964.00    0.59244   0.82910    0.008
 6965.00    0.76428   0.83591    0.008
 6966.00    0.95202   0.83616    0.008
 6967.00    0.90553   0.83557    0.008
 6968.00    0.85154   0.83607    0.008
 6969.00    0.86531   0.83898    0.008
 6970.00    0.87958   0.84226    0.009
 6971.00    0.90942   0.84508    0.009
 6972.00    0.91810   0.84531    0.009
 6973.00    0.61184   0.83755    0.009
 6974.00    0.33465   0.83070    0.009
 6975.00    0.33658   0.83983    0.009
 6976.00    0.35202   0.85483    0.009
 6977.00    0.46144   0.85669    0.009
 6978.00    0.53461   0.84443    0.009
 6979.00    0.41314   0.83228    0.009
 6980.00    0.37353   0.83761    0.009
 6981.00    0.68650   0.85103    0.009
 6982.00    0.90427   0.84742    0.009
 6983.00    0.78401   0.83049    0.009
 6984.00    0.60804   0.81372    0.009
 6985.00    0.26592   0.79076    0.008
 6986.00    0.12764   0.76017    0.008
 6987.00    0.50718   0.75386    0.008
 6988.00    0.73401   0.78416    0.008
 6989.00    0.62697   0.81880    0.008
 6990.00    0.51477   0.83946    0.008
 6991.00    0.39275   0.85132    0.008
 6992.00    0.39657   0.85498    0.008
 6993.00    0.60872   0.85265    0.008
 6994.00    0.73405   0.84976    0.009
 6995.00    0.73339   0.84705    0.009
 6996.00    0.79645   0.83973    0.009
 6997.00    0.94086   0.82719    0.009
 6998.00    0.97930   0.82323    0.009
 6999.00    0.89856   0.83459    0.009
 7000.00    0.71834   0.84832    0.009
 7001.00    0.43943   0.85059    0.009
 7002.00    0.37366   0.84219    0.009
 7003.00    0.49437   0.83756    0.009
 7004.00    0.55177   0.84334    0.009
 7005.00    0.56039   0.84760    0.009
 7006.00    0.54090   0.83938    0.009
 7007.00    0.50237   0.81775    0.008
 7008.00    0.52943   0.80321    0.008
 7009.00    0.59543   0.81328    0.008
 7010.00    0.45195   0.83233    0.008
 7011.00    0.19997   0.83506    0.008
 7012.00    0.16232   0.82102    0.008
 7013.00    0.22088   0.81002    0.008
 7014.00    0.31158   0.81142    0.008
 7015.00    0.41467   0.81839    0.008
 7016.00    0.48070   0.82730    0.008
 7017.00    0.53457   0.83519    0.009
 7018.00    0.42997   0.83497    0.009
 7019.00    0.28176   0.82768    0.009
 7020.00    0.34138   0.82768    0.009
 7021.00    0.44800   0.83494    0.009
 7022.00    0.36657   0.83009    0.009
 7023.00    0.25116   0.80045    0.009
 7024.00    0.28109   0.76757    0.009
 7025.00    0.33116   0.77101    0.009
 7026.00    0.49435   0.81014    0.009
 7027.00    0.66877   0.84210    0.009
 7028.00    0.51040   0.85158    0.009
 7029.00    0.33119   0.85023    0.008
 7030.00    0.53094   0.83742    0.009
 7031.00    0.74055   0.81180    0.009
 7032.00    0.71414   0.79275    0.009
 7033.00    0.68983   0.79767    0.009
 7034.00    0.72322   0.81618    0.009
 7035.00    0.75737   0.82695    0.009
 7036.00    0.80240   0.82991    0.009
 7037.00    0.83322   0.83424    0.009
 7038.00    0.73312   0.83938    0.009
 7039.00    0.66729   0.83945    0.009
 7040.00    0.83238   0.83447    0.009
 7041.00    0.91282   0.83076    0.009
 7042.00    0.55076   0.83195    0.009
 7043.00    0.28821   0.83794    0.009
 7044.00    0.44462   0.84451    0.009
 7045.00    0.58596   0.83200    0.009
 7046.00    0.67485   0.80055    0.009
 7047.00    0.16966   0.79782    0.008
 7048.00   -2.07438   0.83464    0.000
 7049.00   -3.08365   0.87107    0.000
 7050.00   -1.01055   0.88475   -2.000
 7051.00    0.40799   0.87988   -2.000
 7052.00    0.41866   0.86155   -2.000
 7053.00    0.45141   0.84266   -2.000
 7054.00    0.52537   0.84537   -2.000
 7055.00    0.60055   0.86369   -2.000
 7056.00    0.67769   0.87992   -2.000
 7057.00    0.73134   0.88567   -2.000
 7058.00    0.75137   0.87980   -2.000
 7059.00    0.73550   0.86269   -2.000
 7060.00    0.67444   0.82917   -2.000
 7061.00    0.60554   0.79210   -2.000
 7062.00    0.52795   0.77459   -2.000
 7063.00    0.53563   0.77684   -2.000
 7064.00    0.62671   0.79187   -2.000
 7065.00    0.62524   0.80629   -2.000
 7066.00    0.54394   0.80491   -2.000
 7067.00    0.60135   0.78438   -2.000
 7068.00    0.76413   0.76302   -2.000
 7069.00    0.72319   0.76087   -2.000
 7070.00    0.54623   0.77181   -2.000
 7071.00    0.52996   0.78105   -2.000
 7072.00    0.60769   0.79164   -2.000
 7073.00    0.69602   0.79556   -2.000
 7074.00    0.78976   0.78194   -2.000
 7075.00    0.71180   0.75833   -2.000
 7076.00    0.55803   0.73993   -2.000
 7077.00    0.47615   0.74411   -2.000
 7078.00    0.42154   0.77378   -2.000
 7079.00    0.49780   0.80045   -2.000
 7080.00    0.61621   0.80570   -2.000
 7081.00    0.67538   0.80253   -2.000
 7082.00    0.71861   0.80158   -2.000
 7083.00    0.65726   0.79904   -2.000
 7084.00    0.57283   0.79693   -2.000
 7085.00    0.49658   0.79889   -2.000
 7086.00    0.42175   0.80436   -2.000
 7087.00   -0.06463   0.80807   -2.000
 7088.00   -0.60615   0.81437   -2.000
 7089.00   -0.02728   0.81927   -2.000
 7090.00    0.65804   0.80726   -2.000
 7091.00    0.74142   0.77717   -2.000
 7092.00    0.78949   0.74319   -2.000
 7093.00    0.67271   0.72947   -2.000
 7094.00    0.55352   0.74271   -2.000
 7095.00    0.65926   0.75106   -2.000
 7096.00    0.75669   0.74329   -2.000
 7097.00    0.64735   0.73435   -2.000
 7098.00    0.55374   0.72807   -2.000
 7099.00    0.66887   0.72859   -2.000
 7100.00    0.76231   0.73477   -2.000
 7101.00    0.66350   0.73408   -2.000
 7102.00    0.56712   0.73476   -2.000
 7103.00    0.48666   0.73700   -2.000
 7104.00    0.44891   0.73874   -2.000
 7105.00    0.62872   0.74226   -2.000
 7106.00    0.58847   0.74910   -2.000
 7107.00   -0.35755   0.75933   -2.000
 7108.00   -0.88262   0.76454   -2.000
 7109.00    0.02717   0.75848   -2.000
 7110.00    0.73455   0.74687   -2.000
 7111.00    0.86037   0.74107   -2.000
 7112.00    0.90812   0.75096   -2.000
 7113.00    0.76429   0.76479   -2.000
 7114.00    0.69338   0.76125   -2.000
 7115.00    0.77677   0.74711   -2.000
 7116.00    0.81089   0.74373   -2.000
 7117.00    0.75440   0.74967   -2.000
 7118.00    0.72204   0.74393   -2.000
 7119.00    0.72844   0.73042   -2.000
 7120.00    0.74014   0.72854   -2.000
 7121.00    0.75931   0.74089   -2.000
 7122.00    0.84168   0.75266   -2.000
 7123.00    1.00244   0.75661   -2.000
 7124.00    1.08047   0.75929   -2.000
 7125.00    1.06804   0.75896   -2.000
 7126.00    1.12024   0.75528   -2.000
 7127.00    1.23477   0.75210   -2.000
 7128.00    1.10908   0.74952   -2.000
 7129.00    0.77910   0.74659   -2.000
 7130.00    0.67885   0.73981   -2.000
 7131.00    0.75064   0.74159   -2.000
 7132.00    0.90849   0.75025   -2.000
 7133.00    1.12296   0.74318   -2.000
 7134.00    0.97295   0.72550   -2.000
 7135.00    0.61301   0.71816   -2.000
 7136.00    0.52806   0.72635   -2.000
 7137.00    0.58109   0.72553   -2.000
 7138.00    0.73401   0.70598   -2.000
 7139.00    0.93031   0.69183   -2.000
 7140.00    0.99522   0.70246   -2.000
 7141.00    1.01120   0.72185   -2.000
 7142.00    0.83951   0.73790   -2.000
 7143.00    0.60853   0.74444   -2.000
 7144.00    0.59528   0.74401   -2.000
 7145.00    0.63945   0.75064   -2.000
 7146.00    0.80462   0.75020   -2.000
 7147.00    0.99588   0.73283   -2.000
 7148.00    0.90926   0.72664   -2.000
 7149.00    0.77515   0.74277   -2.000
 7150.00    0.85976   0.75204   -2.000
 7151.00    0.97268   0.74735   -2.000
 7152.00    0.94268   0.74387   -2.000
 7153.00    0.89971   0.74307   -2.000
 7154.00    0.87488   0.74283   -2.000
 7155.00    0.85103   0.73016   -2.000
 7156.00    0.84404   0.70750   -2.000
 7157.00    0.83688   0.70419   -2.000
 7158.00    0.78207   0.71859   -2.000
 7159.00    0.73631   0.73054   -2.000
 7160.00    0.89605   0.74527   -2.000
 7161.00    1.06740   0.76281   -2.000
 7162.00    1.38508   0.76326   -2.000
 7163.00    1.65049   0.74694   -2.000
 7164.00    1.46986   0.74286   -2.000
 7165.00    1.23717   0.76237   -2.000
 7166.00    0.67442   0.76867   -2.000
 7167.00    0.28622   0.75323   -2.000
 7168.00    0.76465   0.73935   -2.000
 7169.00    1.12818   0.74070   -2.000
 7170.00    1.02922   0.75380   -2.000
 7171.00    0.96942   0.75110   -2.000
 7172.00    1.04040   0.72247   -2.000
 7173.00    1.04520   0.69767   -2.000
 7174.00    0.86328   0.70768   -2.000
 7175.00    0.74603   0.73937   -2.000
 7176.00    0.78473   0.76346   -2.000
 7177.00    0.79618   0.76485   -2.000
 7178.00    0.75085   0.75438   -2.000
 7179.00    0.80140   0.75501   -2.000
 7180.00    1.02556   0.76829   -2.000
 7181.00    1.10201   0.77571   -2.000
 7182.00    0.94466   0.77146   -2.000
 7183.00    0.85864   0.75898   -2.000
 7184.00    0.87170   0.74255   -2.000
 7185.00    0.78518   0.74375   -2.000
 7186.00    0.57688   0.76331   -2.000
 7187.00    0.58490   0.76462   -2.000
 7188.00    0.82610   0.73571   -2.000
 7189.00    0.93500   0.70879   -2.000
 7190.00    0.91810   0.71523   -2.000
 7191.00    0.90413   0.75128   -2.000
 7192.00    0.89262   0.77406   -2.000
 7193.00    0.88322   0.77180   -2.000
 7194.00    0.87540   0.75526   -2.000
 7195.00    0.82132   0.72796   -2.000
 7196.00    0.73724   0.70726   -2.000
 7197.00    0.70497   0.70817   -2.000
 7198.00    0.70208   0.72264   -2.000
 7199.00    0.84772   0.74027   -2.000
 7200.00    1.06672   0.74222   -2.000
 7201.00    1.29237   0.73058   -2.000
 7202.00    1.52087   0.73032   -2.000
 7203.00    1.45494   0.74461   -2.000
 7204.00    1.28128   0.75029   -2.000
 7205.00    0.91205   0.73860   -2.000
 7206.00    0.48224   0.73447   -2.000
 7207.00    0.54497   0.74353   -2.000
 7208.00    0.73482   0.74870   -2.000
 7209.00    0.71238   0.74396   -2.000
 7210.00    0.64528   0.73833   -2.000
 7211.00    0.67494   0.74668   -2.000
 7212.00    0.72067   0.76420   -2.000
 7213.00    0.90208   0.77026   -2.000
 7214.00    1.10046   0.74895   -2.000
 7215.00    1.16129   0.70885   -2.000
 7216.00    1.21021   0.69116   -2.000
 7217.00    1.02423   0.70644   -2.000
 7218.00    0.82631   0.73461   -2.000
