###################################################################
## OUTPUT of StarlightChains_v04.for    [Cid@UFSC - 01/Apr/2007] ##
###################################################################

## Some input info
KUG0210-078._40_29.txt                   [arq_obs]
Base.CB07.vall.4m                        [arq_base]
Masks.EmLines.NEW.gm                     [arq_masks]
StCv04.C11.config                        [arq_config]
   66                                    [N_base]
    0                                    [N_YAV_components = # of components with extra extinction!]
    0                                    [i_FitPowerLaw (1/0 = Yes/No)]
-9.99                                    [alpha_PowerLaw]
CCM                                      [red_law_option]
 1.458241                                [q_norm = A(l_norm)/A(V)]

## (Re)Sampling Parameters
 3741.00                                 [l_ini (A)]
 7218.00                                 [l_fin (A)]
    1.00                                 [dl    (A)]     (OBS: dl_cushion =    50.00 A)

## Normalization info
 4020.00                                 [l_norm (A) - for base]
 4010.00                                 [llow_norm (A) - window for f_obs]
 4060.00                                 [lupp_norm (A) - window for f_obs]
8.359290E-18                             [fobs_norm (in input units)]

## S/N
 3691.00                                 [llow_SN (A) - window for S/N]
 7268.00                                 [lupp_SN (A) - window for S/N]
   3.758                                 [S/N in S/N window]
   3.949                                 [S/N in norm. window]
   0.010                                 [S/N_err in S/N window]
   0.011                                 [S/N_err in norm. window]
  1.0000                                 [fscale_chi2]

## etc...
    -2007715                             [idum_orig]
  2400                                   [NOl_eff]
  2230                                   [Nl_eff]
   170    NSIGMA                         [Ntot_cliped & clip_method]
  6992160                                [Nglobal_steps]
   7                                     [N_chains]
  33                                     [NEX0s_base = N_base in EX0s-fits]
 0   0   1      170   2.0   4.805E+03    [Clip-Bug, RC-Crash & Burn-In warning-flags, n_censored_weights, wei_nsig_threshold & wei_limit]
    68     66.233     64.711      1.522  [idt_all, wdt_TotTime, wdt_UsrTime & wdt_SysTime (sec)]

## Synthesis Results - Best model ##

 1.29832E-05                             [chi2/Nl_eff]
    24.79148                             [adev (%)]

   107.57966                             [sum-of-x (%)]
 1.12153E-17                             [Flux_tot (units of input spectrum!)]
 1.60497E-13                             [Mini_tot (???)]
 8.43946E-14                             [Mcor_tot (???)]

-272.86                                  [v0_min  (km/s)]
 308.08                                  [vd_min  (km/s)]
 0.1644                                  [AV_min  (mag)]
 0.0000                                  [YAV_min (mag)]

# j     x_j(%)      Mini_j(%)     Mcor_j(%)     age_j(yr)     Z_j      (L/M)_j    YAV?  Mstars   component_j        a/Fe...       SSP_chi2r SSP_adev(%)   SSP_AV   SSP_x(%)
  1      0.0000     0.0000E+00    0.0000E+00    1.000000E+06  0.00400  1.094E-02    0   1.0000   age020_m42            0.0000     1.3876E-05    26.0948   2.8315    96.3437
  2      6.0513     9.8094E-03    1.8653E-02    3.160000E+06  0.00400  4.007E-02    0   0.9999   age045_m42            0.0000     1.3459E-05    25.5180   2.1610   100.6015
  3      0.0000     0.0000E+00    0.0000E+00    5.010000E+06  0.00400  2.539E-02    0   0.9488   age055_m42            0.0000     1.3673E-05    25.7488   2.4642    98.9254
  4      0.0000     0.0000E+00    0.0000E+00    6.610000E+06  0.00400  2.620E-02    0   0.9220   age061_m42            0.0000     1.3505E-05    25.4940   2.0984   100.4560
  5      0.0000     0.0000E+00    0.0000E+00    1.000000E+07  0.00400  1.322E-02    0   0.8862   age070_m42            0.0000     1.3502E-05    25.6492   1.8544   101.7050
  6      1.0353     8.5305E-03    1.3905E-02    1.445000E+07  0.00400  7.883E-03    0   0.8571   age078_m42            0.0000     1.3636E-05    25.7748   2.1596    99.9406
  7      0.0000     0.0000E+00    0.0000E+00    2.512000E+07  0.00400  5.251E-03    0   0.8174   age090_m42            0.0000     1.3482E-05    25.6536   1.7367   101.9181
  8      0.0677     1.2048E-03    1.7988E-03    4.000000E+07  0.00400  3.649E-03    0   0.7851   age104_m42            0.0000     1.3413E-05    25.5372   1.5137   102.5039
  9      0.0000     0.0000E+00    0.0000E+00    5.500000E+07  0.00400  3.098E-03    0   0.7629   age110_m42            0.0000     1.3413E-05    25.3681   1.6585   102.5290
 10      0.0000     0.0000E+00    0.0000E+00    1.015200E+08  0.00400  2.228E-03    0   0.7207   age116_m42            0.0000     1.3413E-05    25.2265   1.6791   102.5417
 11      6.1540     3.6572E-01    4.6237E-01    2.861200E+08  0.00400  1.093E-03    0   0.6648   age125_m42            0.0000     1.3238E-05    25.3267   1.1326   104.7064
 12      0.0000     0.0000E+00    0.0000E+00    5.088000E+08  0.00400  6.597E-04    0   0.6365   age130_m42            0.0000     1.3168E-05    24.9861   1.1131   105.6610
 13      0.0000     0.0000E+00    0.0000E+00    1.434000E+09  0.00400  2.132E-04    0   0.5798   age139_m42            0.0000     1.2931E-05    24.4844   0.1330   107.7995
 14      0.0000     0.0000E+00    0.0000E+00    4.250000E+09  0.00400  5.895E-05    0   0.5377   age158_m42            0.0000     1.3109E-05    24.5217  -0.3728   105.6370
 15      0.0000     0.0000E+00    0.0000E+00    7.500000E+09  0.00400  3.510E-05    0   0.5212   age171_m42            0.0000     1.3254E-05    24.5995  -0.5766   105.2907
 16      0.0000     0.0000E+00    0.0000E+00    1.300000E+10  0.00400  2.005E-05    0   0.5034   age193_m42            0.0000     1.3413E-05    24.7125  -0.7570   105.0623
 17     10.7443     4.5764E+01    4.3228E+01    1.800000E+10  0.00400  1.525E-05    0   0.4967   age213_m42            0.0000     1.3415E-05    24.7012  -0.7802   104.6476
 18      0.0000     0.0000E+00    0.0000E+00    1.000000E+06  0.00800  1.238E-02    0   1.0000   age020_m52            0.0000     1.3871E-05    26.0949   2.8279    96.5470
 19      0.0000     0.0000E+00    0.0000E+00    3.160000E+06  0.00800  3.074E-02    0   0.9966   age045_m52            0.0000     1.3858E-05    26.0536   2.7553    97.2375
 20      0.0000     0.0000E+00    0.0000E+00    5.010000E+06  0.00800  2.668E-02    0   0.9443   age055_m52            0.0000     1.3746E-05    25.8464   2.5374    98.4120
 21      0.0000     0.0000E+00    0.0000E+00    6.610000E+06  0.00800  2.136E-02    0   0.9177   age061_m52            0.0000     1.3282E-05    25.5022   1.3310   103.6622
 22      0.0000     0.0000E+00    0.0000E+00    1.000000E+07  0.00800  1.215E-02    0   0.8827   age070_m52            0.0000     1.3548E-05    25.8434   2.0340   101.7083
 23      0.0000     0.0000E+00    0.0000E+00    1.445000E+07  0.00800  8.717E-03    0   0.8552   age078_m52            0.0000     1.3574E-05    25.7150   2.1322   101.1011
 24      0.0000     0.0000E+00    0.0000E+00    2.512000E+07  0.00800  5.592E-03    0   0.8162   age090_m52            0.0000     1.3463E-05    25.6752   1.8033   103.0473
 25      0.0000     0.0000E+00    0.0000E+00    4.000000E+07  0.00800  3.896E-03    0   0.7841   age104_m52            0.0000     1.3417E-05    25.5634   1.7175   103.5789
 26      0.0000     0.0000E+00    0.0000E+00    1.015200E+08  0.00800  2.148E-03    0   0.7226   age116_m52            0.0000     1.3348E-05    25.3100   1.6498   103.3432
 27      0.0000     0.0000E+00    0.0000E+00    2.861200E+08  0.00800  9.925E-04    0   0.6683   age125_m52            0.0000     1.3236E-05    24.9615   1.1825   106.5049
 28      0.0000     0.0000E+00    0.0000E+00    9.047900E+08  0.00800  3.141E-04    0   0.6138   age135_m52            0.0000     1.2953E-05    24.4041   0.3533   111.5841
 29     17.6844     6.6824E+00    7.4381E+00    1.434000E+09  0.00800  1.719E-04    0   0.5853   age139_m52            0.0000     1.3049E-05    24.6015  -0.2467   109.8989
 30     10.0957     8.3304E+00    8.8716E+00    2.500000E+09  0.00800  7.872E-05    0   0.5600   age150_m52            0.0000     1.3327E-05    24.6830  -0.5573   108.1142
 31      0.0000     0.0000E+00    0.0000E+00    4.250000E+09  0.00800  4.336E-05    0   0.5426   age158_m52            0.0000     1.3380E-05    24.7148  -0.5817   107.4048
 32     15.0106     3.0865E+01    3.1221E+01    6.250000E+09  0.00800  3.159E-05    0   0.5319   age166_m52            0.0000     1.3612E-05    24.7988  -0.7991   107.6602
 33      0.0000     0.0000E+00    0.0000E+00    1.300000E+10  0.00800  1.361E-05    0   0.5073   age193_m52            0.0000     1.4413E-05    23.4869  -1.0000   100.2323
 34      0.0000     0.0000E+00    0.0000E+00    1.800000E+10  0.00800  9.886E-06    0   0.4990   age213_m52            0.0000     1.5172E-05    23.5995  -1.0000    96.8655
 35      0.3220     1.3547E-03    2.5763E-03    1.000000E+06  0.02000  1.544E-02    0   1.0000   age020_m62            0.0000     1.3870E-05    26.1240   2.8211    96.8719
 36      9.3908     1.6214E-02    3.0397E-02    3.160000E+06  0.02000  3.762E-02    0   0.9858   age045_m62            0.0000     1.3889E-05    26.1575   2.7589    97.7370
 37      0.0000     0.0000E+00    0.0000E+00    5.010000E+06  0.02000  3.296E-02    0   0.9342   age055_m62            0.0000     1.3657E-05    25.6972   2.4287    99.8765
 38      0.0000     0.0000E+00    0.0000E+00    8.710000E+06  0.02000  1.154E-02    0   0.8861   age067_m62            0.0000     1.3826E-05    27.2147   1.5256   104.1433
 39      0.0000     0.0000E+00    0.0000E+00    1.445000E+07  0.02000  7.663E-03    0   0.8472   age078_m62            0.0000     1.3511E-05    26.2422   1.6932   103.7849
 40      0.0000     0.0000E+00    0.0000E+00    2.512000E+07  0.02000  4.532E-03    0   0.8099   age090_m62            0.0000     1.3604E-05    26.3672   1.6978   103.0466
 41      6.7810     1.6116E-01    2.3278E-01    5.500000E+07  0.02000  2.733E-03    0   0.7595   age110_m62            0.0000     1.3468E-05    25.6205   1.6969   102.9713
 42      0.0000     0.0000E+00    0.0000E+00    1.609000E+08  0.02000  1.369E-03    0   0.6985   age120_m62            0.0000     1.3407E-05    25.2117   1.5448   105.0101
 43      0.0000     0.0000E+00    0.0000E+00    2.861200E+08  0.02000  9.013E-04    0   0.6714   age125_m62            0.0000     1.3335E-05    24.8931   1.3008   107.5349
 44      0.0000     0.0000E+00    0.0000E+00    5.088000E+08  0.02000  5.028E-04    0   0.6449   age130_m62            0.0000     1.3113E-05    24.5326   0.8938   111.0389
 45      0.0000     0.0000E+00    0.0000E+00    9.047900E+08  0.02000  2.428E-04    0   0.6179   age135_m62            0.0000     1.3023E-05    24.3998   0.2667   111.6627
 46      0.0000     0.0000E+00    0.0000E+00    1.434000E+09  0.02000  1.263E-04    0   0.5908   age139_m62            0.0000     1.3197E-05    24.4767  -0.2024   110.7693
 47      0.0035     3.8059E-03    4.1060E-03    2.500000E+09  0.02000  5.985E-05    0   0.5673   age150_m62            0.0000     1.3566E-05    24.7957  -0.6018   110.1059
 48      0.0000     0.0000E+00    0.0000E+00    4.250000E+09  0.02000  3.271E-05    0   0.5468   age158_m62            0.0000     1.4003E-05    25.1056  -0.9318   109.6344
 49      0.0000     0.0000E+00    0.0000E+00    1.000000E+10  0.02000  1.360E-05    0   0.5167   age181_m62            0.0000     1.5157E-05    23.4466  -1.0000   101.9426
 50      0.0000     0.0000E+00    0.0000E+00    1.800000E+10  0.02000  7.124E-06    0   0.5013   age213_m62            0.0000     1.6689E-05    23.7786  -1.0000    95.4676
 51      0.0000     0.0000E+00    0.0000E+00    1.000000E+06  0.05000  2.592E-02    0   0.9998   age020_m72            0.0000     1.3887E-05    26.1658   2.8092    97.0821
 52      0.0000     0.0000E+00    0.0000E+00    3.160000E+06  0.05000  4.845E-02    0   0.9577   age045_m72            0.0000     1.3843E-05    26.0099   2.6570    98.3647
 53      0.0000     0.0000E+00    0.0000E+00    5.010000E+06  0.05000  3.072E-02    0   0.9147   age055_m72            0.0000     1.3678E-05    26.2544   2.2364   101.1311
 54      3.9264     1.7529E-02    2.9591E-02    6.610000E+06  0.05000  1.455E-02    0   0.8877   age061_m72            0.0000     1.4261E-05    28.9383   1.5891   104.7572
 55      0.0000     0.0000E+00    0.0000E+00    1.000000E+07  0.05000  9.074E-03    0   0.8524   age070_m72            0.0000     1.3854E-05    26.7563   2.4227   100.6701
 56      0.0000     0.0000E+00    0.0000E+00    2.512000E+07  0.05000  4.250E-03    0   0.7902   age090_m72            0.0000     1.3694E-05    26.3131   2.1509   101.4206
 57      0.0000     0.0000E+00    0.0000E+00    4.000000E+07  0.05000  3.087E-03    0   0.7618   age104_m72            0.0000     1.3646E-05    26.3390   1.9417   102.4436
 58      1.8844     7.2000E-02    9.7162E-02    1.015200E+08  0.05000  1.700E-03    0   0.7096   age116_m72            0.0000     1.3451E-05    25.4610   1.6946   104.4651
 59      0.0000     0.0000E+00    0.0000E+00    2.861200E+08  0.05000  7.384E-04    0   0.6633   age125_m72            0.0000     1.3327E-05    24.7771   1.1551   109.2645
 60     17.1217     2.9121E+00    3.5289E+00    5.088000E+08  0.05000  3.819E-04    0   0.6372   age130_m72            0.0000     1.3107E-05    24.4930   0.6157   112.4673
 61      0.0000     0.0000E+00    0.0000E+00    9.047900E+08  0.05000  1.676E-04    0   0.6110   age135_m72            0.0000     1.3439E-05    24.7593  -0.1447   112.3719
 62      0.0000     0.0000E+00    0.0000E+00    1.434000E+09  0.05000  8.837E-05    0   0.5874   age139_m72            0.0000     1.3627E-05    24.7258  -0.6099   111.9473
 63      0.3763     5.7748E-01    6.1478E-01    2.500000E+09  0.05000  4.233E-05    0   0.5598   age150_m72            0.0000     1.4165E-05    25.2786  -0.9474   111.0008
 64      0.9305     4.2117E+00    4.2042E+00    6.250000E+09  0.05000  1.435E-05    0   0.5249   age166_m72            0.0000     1.5693E-05    23.5056  -1.0000    99.0010
 65      0.0000     0.0000E+00    0.0000E+00    1.300000E+10  0.05000  6.513E-06    0   0.5036   age193_m72            0.0000     1.8164E-05    24.8491  -1.0000    92.0702
 66      0.0000     0.0000E+00    0.0000E+00    1.800000E+10  0.05000  4.527E-06    0   0.4945   age213_m72            0.0000     2.0049E-05    26.1612  -1.0000    87.2510


## Synthesis Results - Average & Chains ##

# j      x_j: min, <> & last-chain-values for 1 ...  7 chains
  1      0.0000     13.0360     11.9863     12.7453     11.7560     12.4258     11.4344     12.0962     12.7948
  2      6.0513      0.1034      0.1052      0.0437      0.3203      0.2115      0.2566      0.1963      0.5314
  3      0.0000      0.1219      0.1523      0.0000      0.4160      0.2610      0.6799      0.1823      0.0726
  4      0.0000      0.0962      0.0000      0.2813      0.0000      0.0621      0.2865      0.2135      0.0641
  5      0.0000      0.1342      0.1474      0.3809      0.7793      0.0000      0.0258      0.3523      0.1480
  6      1.0353      0.1022      0.3248      0.0401      0.4287      0.2351      0.0672      0.1908      0.5466
  7      0.0000      0.1059      0.0000      0.0000      0.1011      0.3023      0.0000      0.0710      0.0000
  8      0.0677      0.1252      0.2583      0.1940      0.3772      0.5249      0.0150      0.3260      0.5795
  9      0.0000      0.1109      0.1475      0.3174      0.4690      0.0851      0.0000      0.4950      0.0000
 10      0.0000      0.1242      0.2194      0.0119      0.4895      0.4008      0.5111      0.1608      0.0000
 11      6.1540      0.1093      0.0000      0.0000      0.0124      0.1394      0.3042      0.3324      0.2814
 12      0.0000      0.1173      0.3372      0.1316      0.3530      0.4351      0.6844      0.2357      0.0789
 13      0.0000      0.1556      0.5079      0.3939      0.0318      0.0000      0.3236      0.0000      0.1711
 14      0.0000      0.1233      0.0746      0.2832      0.0000      0.4194      0.1088      0.0391      0.1667
 15      0.0000      0.0796      0.5440      0.0000      0.5871      0.0628      0.2755      0.0037      0.0000
 16      0.0000      0.1019      0.2877      0.5322      0.1317      0.2884      0.0157      0.0000      0.0000
 17     10.7443      0.1418      0.3388      0.3068      0.1821      0.3625      0.0000      0.5228      0.5769
 18      0.0000      0.9711      1.1160      1.0678      0.0500      0.9703      0.4605      0.8776      1.2668
 19      0.0000      0.1025      0.2478      0.1376      0.0000      0.0940      0.3205      0.2435      0.1594
 20      0.0000      0.0835      0.3308      0.0581      0.2150      0.0000      0.1395      0.3067      0.0548
 21      0.0000      0.0955      0.0000      0.0000      0.0000      0.0000      0.7500      0.2574      0.0000
 22      0.0000      0.1680      0.2400      0.6323      0.3241      0.1401      0.0088      0.1869      0.5079
 23      0.0000      0.0910      0.1446      0.1102      0.1503      0.2108      0.3149      0.2492      0.7343
 24      0.0000      0.0939      0.3359      0.0000      0.3158      0.0000      0.0000      0.0000      0.2312
 25      0.0000      0.0862      0.0000      0.3620      0.4203      0.0000      0.0259      0.2840      0.2384
 26      0.0000      0.1201      1.1159      0.0005      0.1890      0.5603      0.0000      0.0109      0.0000
 27      0.0000      0.1276      0.1884      0.1923      0.1498      0.1633      0.0000      0.0000      0.0837
 28      0.0000      0.0916      0.4219      0.0803      0.3542      0.0113      0.2712      0.1181      0.0305
 29     17.6844      0.1215      0.0000      0.1687      0.0523      0.0000      0.4697      0.2067      0.3068
 30     10.0957      0.1110      0.3263      0.1533      0.1146      0.0000      0.8216      0.0000      0.7476
 31      0.0000      0.0850      0.3319      0.0000      0.0000      0.0000      0.3598      0.0000      0.0000
 32     15.0106      0.1217      0.3935      0.0000      0.1609      0.2623      0.2355      0.0000      0.4703
 33      0.0000      0.1335      0.0598      0.5383      0.0870      0.2594      0.2602      0.3673      0.3939
 34      0.0000      0.0889      0.7194      0.1629      0.0000      0.1215      0.1653      0.0518      0.1262
 35      0.3220      0.1427      0.0597      0.4189      0.4860      0.4182      0.0483      0.1980      0.4052
 36      9.3908      0.1628      0.3220      0.0880      0.4058      0.0883      0.5463      0.1912      0.3606
 37      0.0000      0.1291      0.2613      0.2846      0.3528      0.0000      0.7421      0.0702      0.0595
 38      0.0000      0.1417      0.3599      0.3721      0.0000      0.4454      0.2706      0.0000      0.0000
 39      0.0000      0.1205      0.1177      0.3975      0.2637      0.1240      0.0612      0.0370      0.0674
 40      0.0000      0.1082      0.3362      0.0923      0.0537      0.1176      0.2570      0.2414      0.4364
 41      6.7810      0.1413      0.1536      0.4545      0.3685      0.9089      0.0000      0.2859      0.7147
 42      0.0000      0.0963      0.0064      0.2162      0.1705      0.1041      0.0000      0.0000      0.3370
 43      0.0000      0.1007      0.0694      0.2219      0.6319      0.0000      0.0000      0.0205      0.0000
 44      0.0000      0.1411      0.0946      0.0000      0.3593      0.1106      0.3067      0.0432      0.0661
 45      0.0000      0.1346      0.2140      0.1708      0.0773      0.0260      0.8097      0.0653      0.2025
 46      0.0000      0.1107      0.1208      0.3942      0.0058      0.4559      0.0000      0.1416      0.0160
 47      0.0035      0.1267      0.1093      0.0688      0.3358      0.3794      0.0978      0.0758      0.3488
 48      0.0000      0.1403      0.1963      0.0000      0.1473      0.0793      0.3991      0.3308      0.0419
 49      0.0000      0.1273      0.0000      0.4164      0.0846      0.5224      0.3541      0.3216      0.3602
 50      0.0000     15.6460     14.6039     14.2763     15.1566     15.2941     15.1437     15.2406     13.5688
 51      0.0000      0.1465      0.0156      0.1155      0.3182      0.0166      0.0317      0.0915      0.4511
 52      0.0000      0.0908      0.0000      0.0099      0.4411      0.1633      0.0046      0.0000      0.0000
 53      0.0000      0.0992      0.0000      0.4142      0.3317      0.3173      0.1087      0.2835      0.0000
 54      3.9264      0.3737      0.4808      0.4192      0.2833      0.3912      0.3788      0.5224      0.3874
 55      0.0000      5.4051      5.3169      5.4030      4.8653      5.5259      5.1007      5.3199      5.3136
 56      0.0000      0.1195      0.0284      0.3767      0.0000      0.0149      0.0930      0.0000      0.1207
 57      0.0000      0.1168      0.0000      0.1277      0.2196      0.0199      0.2676      0.0000      0.2900
 58      1.8844      0.1184      0.2222      0.2030      0.3502      0.0454      0.1114      0.2742      0.2284
 59      0.0000      0.1254      0.0000      0.1281      0.0194      0.4765      0.3096      0.8748      0.0028
 60     17.1217      0.0945      0.1474      0.0601      0.0691      0.0000      0.0000      0.4894      0.2875
 61      0.0000      0.0947      0.3402      0.0461      0.1219      0.0000      0.1513      0.1564      0.0000
 62      0.0000      0.0921      0.6015      0.1658      0.0000      0.0000      0.0026      0.2944      0.2081
 63      0.3763      4.5452      4.1078      3.3733      4.0348      4.6684      5.1628      4.1302      4.6945
 64      0.9305     17.0601     16.3817     16.5046     16.3093     16.3385     16.6228     16.3365     15.6249
 65      0.0000     35.4141     33.3393     34.6121     33.7170     32.8623     31.8276     34.4086     32.7052
 66      0.0000      0.0694      0.2046      0.0000      0.0000      0.3532      0.2836      0.0049      0.2208

# j      m_j: min, <> & last-chain-values for 1 ...  7 chains
  1  0.0000E+00  2.6085E-02  2.5035E-02  2.6420E-02  2.4629E-02  2.5872E-02  2.4295E-02  2.4865E-02  2.7708E-02
  2  1.8653E-02  5.6494E-05  5.9960E-05  2.4743E-05  1.8319E-04  1.2023E-04  1.4885E-04  1.1014E-04  3.1417E-04
  3  0.0000E+00  9.9715E-05  1.3005E-04  0.0000E+00  3.5633E-04  2.2220E-04  5.9056E-04  1.5322E-04  6.4249E-05
  4  0.0000E+00  7.4131E-05  0.0000E+00  2.2449E-04  0.0000E+00  4.9764E-05  2.3439E-04  1.6900E-04  5.3446E-05
  5  0.0000E+00  1.9686E-04  2.2576E-04  5.7905E-04  1.1974E-03  0.0000E+00  4.0208E-05  5.3112E-04  2.3508E-04
  6  1.3905E-02  2.4314E-04  8.0703E-04  9.8805E-05  1.0684E-03  5.8215E-04  1.6982E-04  4.6657E-04  1.4080E-03
  7  0.0000E+00  3.6080E-04  0.0000E+00  0.0000E+00  3.6082E-04  1.0718E-03  0.0000E+00  2.4869E-04  0.0000E+00
  8  1.7988E-03  5.8991E-04  1.2696E-03  9.4653E-04  1.8600E-03  2.5726E-03  7.4791E-05  1.5774E-03  2.9537E-03
  9  0.0000E+00  5.9794E-04  8.2975E-04  1.7727E-03  2.6471E-03  4.7722E-04  0.0000E+00  2.7412E-03  0.0000E+00
 10  0.0000E+00  8.7939E-04  1.6214E-03  8.7320E-05  3.6292E-03  2.9530E-03  3.8432E-03  1.1697E-03  0.0000E+00
 11  4.6237E-01  1.4557E-03  0.0000E+00  0.0000E+00  1.7278E-04  1.9310E-03  4.3009E-03  4.5462E-03  4.0553E-03
 12  0.0000E+00  2.4782E-03  7.4347E-03  2.8800E-03  7.8064E-03  9.5623E-03  1.5350E-02  5.1132E-03  1.8027E-03
 13  0.0000E+00  9.2628E-03  3.1561E-02  2.4294E-02  1.9803E-03  0.0000E+00  2.0458E-02  0.0000E+00  1.1022E-02
 14  0.0000E+00  2.4616E-02  1.5544E-02  5.8576E-02  0.0000E+00  8.7141E-02  2.3064E-02  8.0202E-03  3.6027E-02
 15  0.0000E+00  2.5865E-02  1.8457E-01  0.0000E+00  1.9979E-01  2.1252E-02  9.5095E-02  1.2222E-03  0.0000E+00
 16  0.0000E+00  5.5981E-02  1.6502E-01  3.0304E-01  7.5788E-02  1.6493E-01  9.1371E-03  0.0000E+00  0.0000E+00
 17  4.3228E+01  1.0113E-01  2.5212E-01  2.2658E-01  1.3593E-01  2.6894E-01  0.0000E+00  3.8290E-01  4.4514E-01
 18  0.0000E+00  1.7172E-03  2.0598E-03  1.9561E-03  9.2629E-05  1.7852E-03  8.6462E-04  1.5942E-03  2.4241E-03
 19  0.0000E+00  7.2771E-05  1.8360E-04  1.0113E-04  0.0000E+00  6.9440E-05  2.4152E-04  1.7756E-04  1.2242E-04
 20  0.0000E+00  6.4663E-05  2.6755E-04  4.6635E-05  1.7443E-04  0.0000E+00  1.1477E-04  2.4412E-04  4.5928E-05
 21  0.0000E+00  8.9832E-05  0.0000E+00  0.0000E+00  0.0000E+00  0.0000E+00  7.4896E-04  2.4873E-04  0.0000E+00
 22  0.0000E+00  2.6719E-04  3.9833E-04  1.0417E-03  5.3975E-04  2.3190E-04  1.4839E-05  3.0533E-04  8.7421E-04
 23  0.0000E+00  1.9548E-04  3.2425E-04  2.4527E-04  3.3806E-04  4.7115E-04  7.1807E-04  5.4977E-04  1.7067E-03
 24  0.0000E+00  3.0013E-04  1.1202E-03  0.0000E+00  1.0563E-03  0.0000E+00  0.0000E+00  0.0000E+00  7.9933E-04
 25  0.0000E+00  3.7961E-04  0.0000E+00  1.6523E-03  1.9386E-03  0.0000E+00  1.2130E-04  1.2854E-03  1.1368E-03
 26  0.0000E+00  8.8467E-04  8.5778E-03  4.1592E-06  1.4569E-03  4.2934E-03  0.0000E+00  8.2793E-05  0.0000E+00
 27  0.0000E+00  1.8805E-03  2.8986E-03  2.9365E-03  2.3125E-03  2.5051E-03  0.0000E+00  0.0000E+00  1.3359E-03
 28  0.0000E+00  3.9205E-03  1.8839E-02  3.5587E-03  1.5865E-02  5.0124E-04  1.2318E-02  5.1905E-03  1.4117E-03
 29  7.4381E+00  9.0560E-03  0.0000E+00  1.3028E-02  4.0825E-03  0.0000E+00  3.7173E-02  1.5829E-02  2.4749E-02
 30  8.8716E+00  1.7285E-02  5.3041E-02  2.4733E-02  1.8693E-02  0.0000E+00  1.3585E-01  0.0000E+00  1.2599E-01
 31  0.0000E+00  2.3278E-02  9.4904E-02  0.0000E+00  0.0000E+00  0.0000E+00  1.0466E-01  0.0000E+00  0.0000E+00
 32  3.1221E+01  4.4866E-02  1.5139E-01  0.0000E+00  6.2078E-02  1.0059E-01  9.2170E-02  0.0000E+00  1.8761E-01
 33  0.0000E+00  1.0895E-01  5.0964E-02  4.5506E-01  7.4293E-02  2.2026E-01  2.2547E-01  3.0785E-01  3.4781E-01
 34  0.0000E+00  9.8196E-02  8.2975E-01  1.8645E-01  0.0000E+00  1.3968E-01  1.9398E-01  5.8816E-02  1.5095E-01
 35  2.5763E-03  2.0231E-04  8.8399E-05  6.1529E-04  7.2140E-04  6.1694E-04  7.2732E-05  2.8840E-04  6.2168E-04
 36  3.0397E-02  9.3364E-05  1.9279E-04  5.2276E-05  2.4373E-04  5.2730E-05  3.3276E-04  1.1267E-04  2.2389E-04
 37  0.0000E+00  8.0110E-05  1.6921E-04  1.8290E-04  2.2921E-04  0.0000E+00  4.8892E-04  4.4716E-05  3.9959E-05
 38  0.0000E+00  2.3818E-04  6.3138E-04  6.4800E-04  0.0000E+00  7.7908E-04  4.8300E-04  0.0000E+00  0.0000E+00
 39  0.0000E+00  2.9159E-04  2.9730E-04  9.9667E-04  6.6828E-04  3.1225E-04  1.5717E-04  9.2020E-05  1.7641E-04
 40  0.0000E+00  4.2318E-04  1.3726E-03  3.7398E-04  2.1987E-04  4.7853E-04  1.0676E-03  9.7010E-04  1.8477E-03
 41  2.3278E-01  8.5929E-04  9.7558E-04  2.8641E-03  2.3474E-03  5.7531E-03  0.0000E+00  1.7866E-03  4.7056E-03
 42  0.0000E+00  1.0756E-03  7.4133E-05  2.5015E-03  1.9940E-03  1.2094E-03  0.0000E+00  0.0000E+00  4.0732E-03
 43  0.0000E+00  1.6420E-03  1.1814E-03  3.7491E-03  1.0789E-02  0.0000E+00  0.0000E+00  3.4412E-04  0.0000E+00
 44  0.0000E+00  3.9617E-03  2.7717E-03  0.0000E+00  1.0562E-02  3.2305E-03  9.1450E-03  1.2465E-03  2.0095E-03
 45  0.0000E+00  7.4982E-03  1.2445E-02  9.8582E-03  4.5098E-03  1.5062E-03  4.7900E-02  3.7398E-03  1.2208E-02
 46  0.0000E+00  1.1338E-02  1.2910E-02  4.1813E-02  6.2254E-04  4.8573E-02  0.0000E+00  1.4898E-02  1.7717E-03
 47  4.1060E-03  2.6280E-02  2.3680E-02  1.4781E-02  7.2956E-02  8.1908E-02  2.1554E-02  1.6157E-02  7.8336E-02
 48  0.0000E+00  5.1357E-02  7.4994E-02  0.0000E+00  5.6436E-02  3.0213E-02  1.5510E-01  1.2436E-01  1.6583E-02
 49  0.0000E+00  1.0589E-01  0.0000E+00  3.5880E-01  7.3661E-02  4.5206E-01  3.1268E-01  2.7479E-01  3.2420E-01
 50  0.0000E+00  2.4101E+01  2.3481E+01  2.2782E+01  2.4445E+01  2.4514E+01  2.4770E+01  2.4118E+01  2.2620E+01
 51  0.0000E+00  1.2367E-04  1.3791E-05  1.0103E-04  2.8131E-04  1.4586E-05  2.8462E-05  7.9350E-05  4.1221E-04
 52  0.0000E+00  3.9275E-05  0.0000E+00  4.4313E-06  1.9984E-04  7.3547E-05  2.1335E-06  0.0000E+00  0.0000E+00
 53  0.0000E+00  6.4643E-05  0.0000E+00  2.7966E-04  2.2635E-04  2.1522E-04  7.5216E-05  1.8982E-04  0.0000E+00
 54  2.9591E-02  4.9910E-04  6.7025E-04  5.7999E-04  3.9620E-04  5.4368E-04  5.3714E-04  7.1674E-04  5.5992E-04
 55  0.0000E+00  1.1115E-02  1.1412E-02  1.1510E-02  1.0475E-02  1.1824E-02  1.1138E-02  1.1238E-02  1.1825E-02
 56  0.0000E+00  4.8643E-04  1.2080E-04  1.5884E-03  0.0000E+00  6.3089E-05  4.0206E-04  0.0000E+00  5.3175E-04
 57  0.0000E+00  6.3095E-04  0.0000E+00  7.1468E-04  1.2423E-03  1.1164E-04  1.5348E-03  0.0000E+00  1.6955E-03
 58  9.7162E-02  1.0818E-03  2.1192E-03  1.9214E-03  3.3507E-03  4.3211E-04  1.0806E-03  2.5743E-03  2.2587E-03
 59  0.0000E+00  2.4662E-03  0.0000E+00  2.6094E-03  4.0006E-04  9.7510E-03  6.4647E-03  1.7671E-02  6.0370E-05
 60  3.5289E+00  3.4529E-03  5.6177E-03  2.2732E-03  2.6422E-03  0.0000E+00  0.0000E+00  1.8363E-02  1.1364E-02
 61  0.0000E+00  7.5613E-03  2.8335E-02  3.8145E-03  1.0186E-02  0.0000E+00  1.2825E-02  1.2820E-02  0.0000E+00
 62  0.0000E+00  1.3399E-02  9.1353E-02  2.4987E-02  0.0000E+00  0.0000E+00  4.0863E-04  4.4007E-02  3.2773E-02
 63  6.1478E-01  1.3158E+00  1.2413E+00  1.0117E+00  1.2230E+00  1.4063E+00  1.5870E+00  1.2283E+00  1.4708E+00
 64  4.2042E+00  1.3660E+01  1.3692E+01  1.3691E+01  1.3673E+01  1.3613E+01  1.4133E+01  1.3438E+01  1.3540E+01
 65  0.0000E+00  5.9943E+01  5.8903E+01  6.0692E+01  5.9753E+01  5.7880E+01  5.7205E+01  5.9831E+01  5.9911E+01
 66  0.0000E+00  1.6601E-01  5.1074E-01  0.0000E+00  0.0000E+00  8.7893E-01  7.2007E-01  1.2119E-02  5.7148E-01

# AV, chi2 & Mass for <> & i_chain = 1 ...  7 solutions
AV       0.1644     -0.8159     -0.7273     -0.7099     -0.6957     -0.7165     -0.7133     -0.7252     -0.6859
chi2 1.2983E-05  1.4639E-05  1.4443E-05  1.4488E-05  1.4503E-05  1.4482E-05  1.4515E-05  1.4549E-05  1.4470E-05
Mass 8.4395E-14  1.2765E-13  1.3774E-13  1.4207E-13  1.4328E-13  1.4018E-13  1.3796E-13  1.4035E-13  1.4044E-13
-272.86                                  [v0_min (km/s) before EX0s...]
 308.08                                  [vd_min (km/s) before EX0s...]


## Synthetic spectrum (Best Model) ##l_obs f_obs f_syn wei
 3478    [Nl_obs]
 3741.00   -0.87778   0.64545    0.000
 3742.00   -0.68586   0.63274    0.000
 3743.00   -0.57099   0.61898    0.000
 3744.00   -0.11750   0.60718    0.000
 3745.00    0.53329   0.60202   -1.000
 3746.00    0.83899   0.60326   -1.000
 3747.00    0.96946   0.61055   -1.000
 3748.00    0.69198   0.62390   -1.000
 3749.00    0.23510   0.64147   -1.000
 3750.00    0.06230   0.66055   -1.000
 3751.00   -0.00326   0.67957    0.000
 3752.00    0.05956   0.69577   -1.000
 3753.00    0.16352   0.70811   -1.000
 3754.00    0.28838   0.71845   -1.000
 3755.00    0.41884   0.72466   -1.000
 3756.00    0.67488   0.72704   -1.000
 3757.00    0.95848   0.72871   -1.000
 3758.00    1.16948   0.72665   -1.000
 3759.00    1.36781   0.72136   -1.000
 3760.00    1.39464   0.71604   -1.000
 3761.00    1.39869   0.70667   -1.000
 3762.00    1.57714   0.69451   -1.000
 3763.00    1.77198   0.68467   -1.000
 3764.00    1.44054   0.67495   -1.000
 3765.00    1.07874   0.66596   -1.000
 3766.00    0.70668   0.66324   -1.000
 3767.00    0.33838   0.66648   -1.000
 3768.00    0.45352   0.67396   -1.000
 3769.00    0.57216   0.68745   -1.000
 3770.00    0.77586   0.70573   -1.000
 3771.00    0.98343   0.72694   -1.000
 3772.00    1.24173   0.75048   -1.000
 3773.00    1.44824   0.77339   -1.000
 3774.00    1.20000   0.79531   -1.000
 3775.00    0.91353   0.81566   -1.000
 3776.00    0.37912   0.83180   -1.000
 3777.00   -0.11593   0.84363    0.000
 3778.00   -0.41175   0.85108    0.000
 3779.00   -0.70646   0.85432    0.000
 3780.00   -0.99664   0.85218    0.000
 3781.00   -1.14645   0.84445    0.000
 3782.00   -0.82018   0.83458    0.000
 3783.00   -0.57118   0.82158    0.000
 3784.00   -0.54321   0.80479    0.000
 3785.00   -0.36103   0.78702    0.000
 3786.00    0.19792   0.76791   -1.000
 3787.00    0.61865   0.74685   -1.000
 3788.00    0.74806   0.72479   -1.000
 3789.00    0.80316   0.70198   -1.000
 3790.00    0.72216   0.68004   -1.000
 3791.00    0.60854   0.66078   -1.000
 3792.00    0.44269   0.64450   -1.000
 3793.00    0.37788   0.63393   -1.000
 3794.00    0.45500   0.63187   -1.000
 3795.00    0.54674   0.63786   -1.000
 3796.00    0.65656   0.65046   -1.000
 3797.00    0.52698   0.66965   -1.000
 3798.00    0.13657   0.69437   -1.000
 3799.00   -0.15680   0.72047    0.000
 3800.00   -0.35693   0.74649    0.000
 3801.00   -0.17408   0.77137    0.000
 3802.00    0.33330   0.79291   -1.000
 3803.00    0.45297   0.81174   -1.000
 3804.00    0.28332   0.82674   -1.000
 3805.00    0.14348   0.83699   -1.000
 3806.00    0.02317   0.84420   -1.000
 3807.00    0.17695   0.84751   -1.000
 3808.00    0.48801   0.84645   -1.000
 3809.00    0.39128   0.84356   -1.000
 3810.00    0.09072   0.83824   -1.000
 3811.00   -0.04692   0.83054    0.000
 3812.00   -0.11411   0.82345    0.000
 3813.00    0.28681   0.81601   -1.000
 3814.00    0.86134   0.80704   -1.000
 3815.00    0.82271   0.79872   -1.000
 3816.00    0.59133   0.79125   -1.000
 3817.00    0.33039   0.78308   -1.000
 3818.00    0.06171   0.77370   -1.000
 3819.00   -0.01863   0.76300    0.000
 3820.00   -0.05862   0.75180    0.000
 3821.00    0.26112   0.73909   -1.000
 3822.00    0.64191   0.72344   -1.000
 3823.00    0.38166   0.70627   -1.000
 3824.00    0.03916   0.68740   -1.000
 3825.00    0.13225   0.66697   -1.000
 3826.00    0.26444   0.64554   -1.000
 3827.00    0.32458   0.62280   -1.000
 3828.00    0.38084   0.60223   -1.000
 3829.00    0.27429   0.58461   -1.000
 3830.00    0.15958   0.56968   -1.000
 3831.00   -0.36878   0.56222    0.000
 3832.00   -0.87532   0.56182    0.000
 3833.00   -0.89700   0.56739    0.000
 3834.00   -0.87700   0.58198    0.000
 3835.00   -0.33863   0.60241    0.000
 3836.00    0.14260   0.62697   -1.000
 3837.00    0.14081   0.65637   -1.000
 3838.00    0.18570   0.68616   -1.000
 3839.00    0.52420   0.71559   -1.000
 3840.00    0.78559   0.74412   -1.000
 3841.00    0.66657   0.76905   -1.000
 3842.00    0.51802   0.79116   -1.000
 3843.00    0.25125   0.80985   -1.000
 3844.00    0.14934   0.82416   -1.000
 3845.00    0.59553   0.83571   -1.000
 3846.00    0.96741   0.84517   -1.000
 3847.00    1.13063   0.85154    0.000
 3848.00    1.23315   0.85511    0.000
 3849.00    1.18990   0.85775    0.000
 3850.00    0.99075   0.85892    0.000
 3851.00    0.46830   0.85796    0.000
 3852.00   -0.02208   0.85757    0.000
 3853.00   -0.45460   0.85699    0.000
 3854.00   -0.61475   0.85584    0.000
 3855.00   -0.34536   0.85726    0.000
 3856.00   -0.13483   0.86010    0.000
 3857.00   -0.00579   0.86299    0.000
 3858.00    0.11399   0.86705    0.000
 3859.00    0.22248   0.87171    0.000
 3860.00    0.37192   0.87546    0.000
 3861.00    0.56532   0.87785    0.000
 3862.00    0.59724   0.87830    0.000
 3863.00    0.47616   0.87692    0.000
 3864.00    0.37514   0.87402    0.000
 3865.00    0.29088   0.86902    0.000
 3866.00    0.59471   0.86304    0.000
 3867.00    1.18399   0.85622    0.000
 3868.00    1.18305   0.84883    0.000
 3869.00    0.80088   0.84212    0.000
 3870.00    0.77374   0.83476    0.000
 3871.00    0.94726   0.82696    0.000
 3872.00    0.91735   0.81937    0.000
 3873.00    0.78738   0.81012    0.000
 3874.00    0.56066   0.79986    0.000
 3875.00    0.29279   0.78806    0.000
 3876.00    0.62150   0.77267    0.000
 3877.00    1.16752   0.75625    0.000
 3878.00    0.86389   0.73857    0.000
 3879.00    0.29834   0.71815    0.000
 3880.00    0.07765   0.69648    0.000
 3881.00   -0.05452   0.67531    0.000
 3882.00    0.14071   0.65721    0.020
 3883.00    0.40438   0.64200    0.020
 3884.00    0.25815   0.63116    0.020
 3885.00    0.04433   0.62850    0.020
 3886.00    0.06903   0.63269    0.020
 3887.00    0.12327   0.64288    0.020
 3888.00    0.67384   0.65928    0.020
 3889.00    1.26689   0.67984    0.020
 3890.00    1.22608   0.70240    0.020
 3891.00    1.15367   0.72552    0.020
 3892.00    1.50995   0.74789    0.020
 3893.00    1.86319   0.76789    0.020
 3894.00    1.56661   0.78663    0.020
 3895.00    1.26957   0.80312    0.020
 3896.00    0.96298   0.81684    0.019
 3897.00    0.68477   0.82903    0.019
 3898.00    0.74209   0.83911    0.019
 3899.00    0.78326   0.84962    0.018
 3900.00    0.69287   0.85884    0.018
 3901.00    0.60230   0.86690    0.017
 3902.00    0.51064   0.87729    0.017
 3903.00    0.43904   0.88658    0.017
 3904.00    0.46389   0.89548    0.017
 3905.00    0.49521   0.90539    0.017
 3906.00    0.55180   0.91340    0.017
 3907.00    0.57225   0.92004    0.017
 3908.00    0.47489   0.92409    0.017
 3909.00    0.43793   0.92528    0.017
 3910.00    0.56748   0.92509    0.018
 3911.00    0.57535   0.92150    0.019
 3912.00    0.29587   0.91618    0.019
 3913.00    0.22093   0.91020    0.019
 3914.00    0.56340   0.90245    0.020
 3915.00    0.73009   0.89446    0.020
 3916.00    0.58454   0.88588    0.021
 3917.00    0.39466   0.87680    0.021
 3918.00    0.13588   0.86630    0.021
 3919.00    0.16911   0.85422    0.020
 3920.00    0.60074   0.84021    0.020
 3921.00    0.58097   0.82237    0.020
 3922.00    0.01896   0.80177    0.020
 3923.00   -0.19517   0.77740    0.000
 3924.00   -0.04087   0.75030    0.000
 3925.00    0.39126   0.72293    0.020
 3926.00    1.08292   0.69568    0.020
 3927.00    1.14532   0.67159    0.020
 3928.00    0.68949   0.65271    0.020
 3929.00    0.31091   0.64089    0.020
 3930.00   -0.01166   0.63755    0.000
 3931.00    0.10951   0.64199    0.020
 3932.00    0.51308   0.65484    0.020
 3933.00    0.91622   0.67464    0.020
 3934.00    1.31911   0.69865    0.020
 3935.00    1.22516   0.72511    0.020
 3936.00    0.89070   0.75119    0.019
 3937.00    0.68845   0.77571    0.019
 3938.00    0.54148   0.79850    0.019
 3939.00    0.55638   0.81804    0.019
 3940.00    0.62920   0.83475    0.019
 3941.00    0.70913   0.84893    0.019
 3942.00    0.79122   0.85987    0.020
 3943.00    0.68656   0.86982    0.020
 3944.00    0.53500   0.87894    0.020
 3945.00    0.23154   0.88447    0.020
 3946.00   -0.10290   0.88784    0.000
 3947.00   -0.02506   0.89037    0.000
 3948.00    0.11879   0.89093    0.020
 3949.00    0.36456   0.88929    0.020
 3950.00    0.62249   0.88410    0.020
 3951.00    0.86884   0.87587    0.020
 3952.00    1.11425   0.86641    0.020
 3953.00    0.86566   0.85275    0.020
 3954.00    0.59436   0.83341    0.020
 3955.00    0.37088   0.81083    0.020
 3956.00    0.14624   0.78454    0.020
 3957.00   -0.17026   0.75424    0.000
 3958.00   -0.45790   0.72014    0.000
 3959.00   -0.19888   0.68195    0.000
 3960.00    0.01724   0.64328    0.000
 3961.00   -0.24999   0.60656    0.000
 3962.00   -0.42002   0.57226    0.000
 3963.00    0.17396   0.54346    0.000
 3964.00    0.64024   0.52278    0.000
 3965.00    0.34883   0.51163    0.000
 3966.00    0.22444   0.51139    0.000
 3967.00    0.88425   0.52220    0.000
 3968.00    1.33326   0.54347    0.000
 3969.00    0.97443   0.57341    0.000
 3970.00    0.66171   0.60947    0.000
 3971.00    0.49637   0.64858    0.000
 3972.00    0.38496   0.68870    0.000
 3973.00    0.41961   0.72863    0.000
 3974.00    0.45980   0.76514    0.000
 3975.00    0.51286   0.79772    0.000
 3976.00    0.52805   0.82679    0.000
 3977.00    0.46721   0.85155    0.000
 3978.00    0.30621   0.87327    0.000
 3979.00   -0.02995   0.89107    0.000
 3980.00   -0.15697   0.90578    0.000
 3981.00    0.03620   0.91991    0.019
 3982.00    0.41452   0.93200    0.019
 3983.00    1.04182   0.94302    0.020
 3984.00    1.53471   0.95272    0.020
 3985.00    1.86840   0.96069    0.020
 3986.00    1.81578   0.96882    0.020
 3987.00    1.35974   0.97435    0.020
 3988.00    0.94540   0.97827    0.020
 3989.00    0.56946   0.98191    0.020
 3990.00    0.66466   0.98413    0.020
 3991.00    1.14237   0.98609    0.020
 3992.00    1.28342   0.98765    0.020
 3993.00    1.18393   0.98908    0.020
 3994.00    1.14673   0.99076    0.020
 3995.00    1.14858   0.99245    0.020
 3996.00    1.06116   0.99436    0.020
 3997.00    0.92482   0.99651    0.020
 3998.00    0.87960   0.99741    0.020
 3999.00    0.87779   0.99757    0.020
 4000.00    1.36742   0.99839    0.020
 4001.00    2.05905   0.99971    0.021
 4002.00    1.54316   1.00073    0.020
 4003.00    0.60317   1.00158    0.020
 4004.00    0.48048   1.00457    0.020
 4005.00    0.59994   1.00943    0.020
 4006.00    0.99948   1.01476    0.020
 4007.00    1.46783   1.01950    0.020
 4008.00    1.76377   1.02442    0.020
 4009.00    2.02545   1.02985    0.020
 4010.00    1.87473   1.03370    0.020
 4011.00    1.65993   1.03734    0.020
 4012.00    1.28902   1.04039    0.020
 4013.00    0.90016   1.04226    0.020
 4014.00    0.61950   1.04349    0.020
 4015.00    0.34721   1.04285    0.020
 4016.00    0.47266   1.04187    0.020
 4017.00    0.61487   1.04052    0.020
 4018.00    0.91505   1.03753    0.020
 4019.00    1.21843   1.03422    0.020
 4020.00    1.59870   1.03078    0.020
 4021.00    1.92587   1.02727    0.019
 4022.00    1.31698   1.02312    0.019
 4023.00    0.78786   1.01773    0.019
 4024.00    1.11700   1.01358    0.019
 4025.00    1.37563   1.01063    0.019
 4026.00    1.09901   1.00770    0.019
 4027.00    0.83656   1.00615    0.019
 4028.00    0.65584   1.00512    0.019
 4029.00    0.61353   1.00686    0.019
 4030.00    1.20548   1.01203    0.019
 4031.00    1.55585   1.01752    0.019
 4032.00    1.00000   1.02372    0.019
 4033.00    0.54013   1.02897    0.019
 4034.00    0.38116   1.03322    0.018
 4035.00    0.44902   1.03717    0.018
 4036.00    1.12033   1.03751    0.019
 4037.00    1.57797   1.03439    0.019
 4038.00    1.54771   1.02881    0.019
 4039.00    1.44482   1.02295    0.019
 4040.00    1.19832   1.01993    0.019
 4041.00    1.00114   1.01678    0.019
 4042.00    0.88893   1.01345    0.019
 4043.00    0.63579   1.01218    0.020
 4044.00    0.17004   1.01330    0.019
 4045.00    0.31053   1.01714    0.020
 4046.00    1.25462   1.02050    0.020
 4047.00    1.60140   1.02183    0.020
 4048.00    1.25081   1.02268    0.020
 4049.00    1.04775   1.02310    0.019
 4050.00    0.99657   1.02152    0.020
 4051.00    0.97834   1.01875    0.020
 4052.00    0.99005   1.01574    0.020
 4053.00    0.99434   1.01263    0.020
 4054.00    0.99270   1.00969    0.020
 4055.00    0.83538   1.00552    0.020
 4056.00    0.56845   1.00072    0.020
 4057.00    0.90444   0.99762    0.020
 4058.00    1.61285   0.99611    0.020
 4059.00    1.54773   0.99366    0.019
 4060.00    1.06523   0.99085    0.019
 4061.00    1.02854   0.98906    0.019
 4062.00    1.20081   0.98903    0.019
 4063.00    1.22074   0.99048    0.019
 4064.00    1.17913   0.98987    0.019
 4065.00    1.05266   0.98820    0.019
 4066.00    0.89692   0.98792    0.019
 4067.00    0.67664   0.98688    0.019
 4068.00    0.43762   0.98406    0.019
 4069.00    0.68896   0.97940    0.019
 4070.00    1.05809   0.97441    0.019
 4071.00    1.00432   0.97226    0.019
 4072.00    0.86860   0.97097    0.019
 4073.00    0.81647   0.96954    0.019
 4074.00    0.77694   0.96952    0.019
 4075.00    1.01070   0.97059    0.019
 4076.00    1.27470   0.97398    0.019
 4077.00    1.21665   0.97888    0.019
 4078.00    1.13502   0.98330    0.019
 4079.00    0.85317   0.98765    0.018
 4080.00    0.56366   0.99090    0.018
 4081.00    0.34930   0.99301    0.018
 4082.00    0.16014   0.99412    0.019
 4083.00    0.90478   0.99338    0.019
 4084.00    1.61179   0.99097    0.019
 4085.00    1.69871   0.98586    0.019
 4086.00    1.73942   0.97772    0.019
 4087.00    1.30457   0.96625    0.019
 4088.00    0.95657   0.95049    0.019
 4089.00    1.24594   0.93159    0.019
 4090.00    1.48271   0.90955    0.019
 4091.00    1.42440   0.88497    0.019
 4092.00    1.34869   0.85881    0.000
 4093.00    1.19519   0.83129    0.000
 4094.00    1.08983   0.80482    0.000
 4095.00    1.16132   0.78239    0.000
 4096.00    1.19849   0.76568    0.000
 4097.00    1.13014   0.75466    0.000
 4098.00    0.99204   0.75018    0.000
 4099.00    0.67166   0.75255    0.000
 4100.00    0.41138   0.76231    0.000
 4101.00    0.28604   0.77924    0.000
 4102.00    0.41807   0.79953    0.000
 4103.00    1.05092   0.82149    0.000
 4104.00    1.32238   0.84433    0.000
 4105.00    0.98065   0.86639    0.000
 4106.00    1.00630   0.88763    0.000
 4107.00    1.57806   0.90676    0.000
 4108.00    1.70818   0.92319    0.000
 4109.00    1.26123   0.93758    0.000
 4110.00    1.02419   0.94948    0.000
 4111.00    1.02879   0.95910    0.000
 4112.00    0.84773   0.96656    0.000
 4113.00    0.47821   0.97238    0.019
 4114.00    0.62527   0.97664    0.019
 4115.00    1.23484   0.97993    0.019
 4116.00    1.29612   0.98221    0.019
 4117.00    0.92481   0.98394    0.018
 4118.00    0.81876   0.98609    0.026
 4119.00    0.89678   0.98735    0.093
 4120.00    1.01998   0.98803   -1.000
 4121.00    1.17067   0.98793   -1.000
 4122.00    1.28455   0.98745   -1.000
 4123.00    1.37887   0.98638   -1.000
 4124.00    1.19126   0.98448   -1.000
 4125.00    0.87366   0.98228   -1.000
 4126.00    1.06687   0.98091    0.051
 4127.00    1.46293   0.98132    0.021
 4128.00    1.38168   0.98240    0.018
 4129.00    1.13889   0.98524    0.018
 4130.00    1.10620   0.98835    0.018
 4131.00    1.13330   0.99316    0.018
 4132.00    1.30819   0.99864    0.018
 4133.00    1.51779   1.00252    0.018
 4134.00    1.45683   1.00558    0.018
 4135.00    1.34482   1.00578    0.018
 4136.00    1.39021   1.00505    0.018
 4137.00    1.45858   1.00364    0.018
 4138.00    1.35715   1.00109    0.018
 4139.00    1.23767   0.99834    0.018
 4140.00    1.22422   0.99523    0.018
 4141.00    1.21811   0.99311    0.018
 4142.00    1.37956   0.99284    0.018
 4143.00    1.54678   0.99412    0.018
 4144.00    1.35605   0.99560    0.018
 4145.00    1.17052   0.99606    0.018
 4146.00    1.18019   0.99667    0.018
 4147.00    1.18310   0.99703    0.018
 4148.00    1.08151   0.99761    0.018
 4149.00    1.04292   0.99899    0.018
 4150.00    1.62528   0.99982    0.018
 4151.00    2.10147   1.00179    0.019
 4152.00    1.82377   1.00393    0.019
 4153.00    1.49456   1.00737    0.019
 4154.00    0.88411   1.01183    0.019
 4155.00    0.42174   1.01600    0.019
 4156.00    0.60662   1.02076    0.018
 4157.00    0.77767   1.02421    0.018
 4158.00    0.89899   1.02676    0.018
 4159.00    1.00290   1.02795    0.018
 4160.00    1.05428   1.02778    0.018
 4161.00    1.03916   1.02644    0.019
 4162.00    0.85329   1.02279    0.019
 4163.00    0.75642   1.01737    0.018
 4164.00    0.85616   1.01105    0.019
 4165.00    0.84523   1.00409    0.019
 4166.00    0.62228   0.99716    0.019
 4167.00    0.69800   0.99070    0.019
 4168.00    1.27287   0.98420    0.018
 4169.00    1.45571   0.97866    0.018
 4170.00    1.06429   0.97471    0.019
 4171.00    0.97452   0.97300    0.019
 4172.00    1.27329   0.97343    0.019
 4173.00    1.38294   0.97466    0.019
 4174.00    1.27797   0.97694    0.019
 4175.00    1.17374   0.97960    0.019
 4176.00    1.07023   0.98309    0.018
 4177.00    1.12748   0.98681    0.018
 4178.00    1.32663   0.98971    0.018
 4179.00    1.18976   0.99257    0.018
 4180.00    0.79155   0.99461    0.018
 4181.00    0.76648   0.99706    0.018
 4182.00    0.99658   0.99903    0.018
 4183.00    1.10006   1.00069    0.018
 4184.00    1.12765   1.00298    0.018
 4185.00    0.91578   1.00394    0.018
 4186.00    0.57867   1.00505    0.018
 4187.00    0.79249   1.00570    0.018
 4188.00    1.25620   1.00532    0.018
 4189.00    1.38719   1.00327    0.018
 4190.00    1.38836   0.99987    0.017
 4191.00    1.38839   0.99636    0.018
 4192.00    1.38806   0.99144    0.018
 4193.00    1.29556   0.98600    0.018
 4194.00    1.17738   0.98126    0.017
 4195.00    1.01535   0.97809    0.017
 4196.00    0.84326   0.97657    0.017
 4197.00    0.82686   0.97687    0.017
 4198.00    0.83907   0.97931    0.017
 4199.00    1.00760   0.98347    0.017
 4200.00    1.19823   0.98839    0.017
 4201.00    1.36826   0.99437    0.017
 4202.00    1.53620   1.00098    0.017
 4203.00    1.42578   1.00706    0.017
 4204.00    1.29722   1.01248    0.017
 4205.00    1.26855   1.01641    0.016
 4206.00    1.24272   1.01866    0.016
 4207.00    1.06699   1.01998    0.016
 4208.00    0.89252   1.02065    0.017
 4209.00    0.75506   1.02060    0.017
 4210.00    0.66024   1.02018    0.017
 4211.00    1.18610   1.01863    0.017
 4212.00    1.68959   1.01719    0.017
 4213.00    1.98160   1.01517    0.017
 4214.00    2.19039   1.01238    0.018
 4215.00    1.82717   1.00910    0.017
 4216.00    1.53140   1.00362    0.017
 4217.00    1.59407   0.99634    0.017
 4218.00    1.61164   0.98743    0.017
 4219.00    1.43660   0.97904    0.017
 4220.00    1.38123   0.97077    0.017
 4221.00    1.74745   0.96340    0.017
 4222.00    1.96649   0.95813    0.017
 4223.00    1.74968   0.95532    0.017
 4224.00    1.50812   0.95595    0.017
 4225.00    1.20412   0.95925    0.017
 4226.00    0.95638   0.96481    0.017
 4227.00    0.83090   0.97074    0.017
 4228.00    0.78034   0.97597    0.017
 4229.00    0.87106   0.98028    0.017
 4230.00    0.86115   0.98426    0.017
 4231.00    0.68556   0.98759    0.017
 4232.00    0.82650   0.99079    0.017
 4233.00    1.42440   0.99440    0.016
 4234.00    1.62523   0.99729    0.016
 4235.00    1.32194   1.00107    0.016
 4236.00    1.03046   1.00460    0.016
 4237.00    0.75217   1.00798    0.016
 4238.00    0.82938   1.01055    0.016
 4239.00    1.25740   1.01192    0.016
 4240.00    1.32177   1.01267    0.016
 4241.00    1.06967   1.01121    0.016
 4242.00    0.97846   1.00893    0.016
 4243.00    1.01058   1.00560    0.016
 4244.00    1.02116   1.00155    0.016
 4245.00    1.01721   0.99771    0.016
 4246.00    1.13906   0.99411    0.017
 4247.00    1.33518   0.99195    0.017
 4248.00    1.37043   0.99070    0.017
 4249.00    1.32285   0.98955    0.017
 4250.00    1.04548   0.98933    0.017
 4251.00    0.66559   0.98956    0.017
 4252.00    0.86084   0.99034    0.017
 4253.00    1.27660   0.99219    0.017
 4254.00    1.46251   0.99400    0.016
 4255.00    1.57351   0.99649    0.016
 4256.00    1.60393   0.99844    0.016
 4257.00    1.61236   1.00083    0.016
 4258.00    1.58926   1.00364    0.016
 4259.00    1.55909   1.00593    0.016
 4260.00    1.26385   1.00711    0.016
 4261.00    0.92120   1.00632    0.016
 4262.00    1.11630   1.00344    0.016
 4263.00    1.38498   0.99796    0.016
 4264.00    1.14827   0.99158    0.016
 4265.00    0.86218   0.98421    0.016
 4266.00    0.67929   0.97698    0.016
 4267.00    0.50272   0.97061    0.016
 4268.00    0.69976   0.96597    0.015
 4269.00    0.90600   0.96409    0.015
 4270.00    0.93843   0.96410    0.015
 4271.00    0.96936   0.96659    0.015
 4272.00    0.96091   0.97090    0.015
 4273.00    0.95096   0.97555    0.015
 4274.00    0.92044   0.98012    0.015
 4275.00    0.88927   0.98372    0.015
 4276.00    0.85209   0.98521    0.015
 4277.00    0.82643   0.98542    0.015
 4278.00    0.87748   0.98331    0.016
 4279.00    0.92568   0.97985    0.016
 4280.00    0.95902   0.97561    0.016
 4281.00    0.94340   0.96978    0.016
 4282.00    0.72336   0.96417   -2.000
 4283.00    0.68585   0.95793   -2.000
 4284.00    1.27847   0.95237   -2.000
 4285.00    1.70952   0.94696   -2.000
 4286.00    1.67092   0.94206   -2.000
 4287.00    1.51819   0.93835   -2.000
 4288.00    1.08237   0.93415   -2.000
 4289.00    0.71477   0.93035   -2.000
 4290.00    0.49299   0.92484   -2.000
 4291.00    0.41341   0.91832   -2.000
 4292.00    0.59786   0.91034   -2.000
 4293.00    0.91389   0.90116   -2.000
 4294.00    1.44331   0.89177   -2.000
 4295.00    1.57427   0.88152   -2.000
 4296.00    1.13839   0.87208   -2.000
 4297.00    0.75216   0.86400   -2.000
 4298.00    0.42808   0.85728    0.016
 4299.00    0.37308   0.85253    0.016
 4300.00    0.61489   0.85013    0.016
 4301.00    0.84124   0.84911    0.016
 4302.00    1.05257   0.85041    0.016
 4303.00    0.98741   0.85366    0.016
 4304.00    0.68505   0.85896    0.016
 4305.00    0.67453   0.86783    0.016
 4306.00    0.88456   0.87890    0.016
 4307.00    1.01780   0.89276    0.017
 4308.00    1.10004   0.90803    0.016
 4309.00    1.15119   0.92440    0.016
 4310.00    1.18427   0.94056    0.016
 4311.00    1.38341   0.95586    0.016
 4312.00    1.66672   0.96978    0.016
 4313.00    1.52502   0.98002    0.016
 4314.00    1.19682   0.98643    0.016
 4315.00    1.02050   0.98851    0.015
 4316.00    0.90139   0.98715    0.015
 4317.00    1.02400   0.98205    0.016
 4318.00    1.22390   0.97565    0.016
 4319.00    1.28022   0.96733    0.016
 4320.00    1.29818   0.95925    0.016
 4321.00    1.25042   0.95209    0.016
 4322.00    1.18828   0.94629    0.016
 4323.00    1.11947   0.94328    0.016
 4324.00    1.04950   0.94070    0.016
 4325.00    1.01831   0.93817    0.016
 4326.00    0.99224   0.93328    0.016
 4327.00    1.11822   0.92593    0.016
 4328.00    1.25841   0.91568    0.016
 4329.00    0.95646   0.90135    0.016
 4330.00    0.62923   0.88425    0.000
 4331.00    0.82868   0.86461    0.000
 4332.00    1.03774   0.84375    0.000
 4333.00    0.94300   0.82249    0.000
 4334.00    0.84816   0.80387    0.000
 4335.00    0.75081   0.78995    0.000
 4336.00    0.67713   0.78114    0.000
 4337.00    0.91164   0.78007    0.000
 4338.00    1.13051   0.78630    0.000
 4339.00    1.21267   0.79784    0.000
 4340.00    1.23966   0.81326    0.000
 4341.00    0.91027   0.83169    0.000
 4342.00    0.68294   0.85087    0.000
 4343.00    0.97044   0.86944    0.000
 4344.00    1.18805   0.88700    0.000
 4345.00    1.12037   0.90279    0.000
 4346.00    1.07429   0.91629    0.000
 4347.00    1.10128   0.92745    0.000
 4348.00    1.11317   0.93760    0.000
 4349.00    1.08194   0.94815    0.000
 4350.00    1.00799   0.95867    0.000
 4351.00    0.82990   0.96887    0.015
 4352.00    0.77942   0.97940    0.015
 4353.00    0.99735   0.98966    0.015
 4354.00    1.13626   0.99935    0.019
 4355.00    1.13070   1.00797    0.049
 4356.00    1.05434   1.01639   -1.000
 4357.00    0.86490   1.02390   -1.000
 4358.00    0.81234   1.03009   -1.000
 4359.00    0.95171   1.03443   -1.000
 4360.00    0.96129   1.03711   -1.000
 4361.00    0.81073   1.03826   -1.000
 4362.00    0.83233   1.03728    0.061
 4363.00    1.04114   1.03471    0.020
 4364.00    1.20867   1.03113    0.015
 4365.00    1.33661   1.02767    0.015
 4366.00    1.36379   1.02353    0.015
 4367.00    1.30576   1.01961    0.015
 4368.00    1.24083   1.01598    0.015
 4369.00    1.17077   1.01248    0.015
 4370.00    1.09699   1.00874    0.015
 4371.00    1.02076   1.00535    0.015
 4372.00    0.83277   1.00254    0.015
 4373.00    0.58077   0.99983    0.015
 4374.00    0.64427   0.99587    0.015
 4375.00    0.86515   0.99058    0.015
 4376.00    0.89467   0.98423    0.015
 4377.00    0.84161   0.97756    0.015
 4378.00    0.74780   0.97086    0.015
 4379.00    0.63890   0.96395    0.015
 4380.00    0.80559   0.95958    0.015
 4381.00    1.05869   0.95842    0.015
 4382.00    1.08959   0.96032    0.015
 4383.00    1.06235   0.96375    0.015
 4384.00    1.05214   0.96852    0.015
 4385.00    1.04557   0.97492    0.014
 4386.00    0.86107   0.98183    0.015
 4387.00    0.64649   0.98884    0.015
 4388.00    0.86187   0.99605    0.015
 4389.00    1.13218   1.00236    0.015
 4390.00    1.22155   1.00733    0.015
 4391.00    1.29478   1.01089    0.015
 4392.00    1.21981   1.01388    0.015
 4393.00    1.13696   1.01608    0.015
 4394.00    1.04979   1.01594    0.015
 4395.00    0.96324   1.01469    0.015
 4396.00    0.93280   1.01219    0.015
 4397.00    0.92160   1.00980    0.015
 4398.00    1.33341   1.00820    0.015
 4399.00    1.67890   1.00651    0.015
 4400.00    1.20491   1.00464    0.015
 4401.00    0.76675   1.00431    0.015
 4402.00    0.63000   1.00660    0.015
 4403.00    0.55797   1.00954    0.015
 4404.00    0.89153   1.01273    0.015
 4405.00    1.16637   1.01693    0.015
 4406.00    1.15237   1.02164    0.015
 4407.00    1.10863   1.02566    0.015
 4408.00    0.94619   1.02884    0.015
 4409.00    0.79481   1.03123    0.015
 4410.00    0.68012   1.03261    0.015
 4411.00    0.62267   1.03328    0.015
 4412.00    0.72556   1.03501    0.015
 4413.00    0.85834   1.03693    0.015
 4414.00    1.06277   1.03878    0.015
 4415.00    1.18824   1.04123    0.015
 4416.00    1.15027   1.04306    0.015
 4417.00    1.04668   1.04444    0.015
 4418.00    0.82496   1.04519    0.015
 4419.00    0.75134   1.04563    0.015
 4420.00    0.91086   1.04606    0.015
 4421.00    1.11665   1.04559    0.015
 4422.00    1.38638   1.04474    0.015
 4423.00    1.54019   1.04348    0.015
 4424.00    1.55301   1.04195    0.015
 4425.00    1.47014   1.04063    0.015
 4426.00    1.28467   1.03852    0.015
 4427.00    1.16137   1.03703    0.015
 4428.00    1.09687   1.03625    0.015
 4429.00    1.02710   1.03544    0.015
 4430.00    0.95294   1.03528    0.015
 4431.00    1.03274   1.03575    0.015
 4432.00    1.22559   1.03719    0.015
 4433.00    1.32910   1.03951    0.016
 4434.00    1.37500   1.04148    0.016
 4435.00    1.13230   1.04339    0.016
 4436.00    0.72681   1.04469    0.016
 4437.00    0.82042   1.04580    0.016
 4438.00    1.15904   1.04682    0.016
 4439.00    1.23833   1.04810    0.016
 4440.00    1.20757   1.04970    0.016
 4441.00    0.98856   1.05137    0.015
 4442.00    0.70115   1.05261    0.015
 4443.00    0.86808   1.05272    0.015
 4444.00    1.17472   1.05184    0.016
 4445.00    0.99764   1.05019    0.016
 4446.00    0.69671   1.04669    0.015
 4447.00    0.95247   1.04224    0.015
 4448.00    1.32426   1.03693    0.015
 4449.00    1.30112   1.03054    0.015
 4450.00    1.21309   1.02430    0.015
 4451.00    1.19961   1.01795    0.015
 4452.00    1.19533   1.01316    0.015
 4453.00    1.16508   1.00926    0.015
 4454.00    1.13263   1.00672    0.015
 4455.00    0.87697   1.00538    0.015
 4456.00    0.61029   1.00540    0.015
 4457.00    0.70308   1.00708    0.015
 4458.00    0.80247   1.00910    0.015
 4459.00    0.95744   1.01258    0.015
 4460.00    1.10425   1.01612    0.014
 4461.00    1.08582   1.01974    0.000
 4462.00    1.04487   1.02377    0.000
 4463.00    0.73923   1.02768    0.000
 4464.00    0.49415   1.03235    0.000
 4465.00    0.74029   1.03696    0.000
 4466.00    0.97436   1.04249    0.000
 4467.00    1.13499   1.04824    0.000
 4468.00    1.25081   1.05411    0.000
 4469.00    1.15161   1.05956    0.000
 4470.00    1.11403   1.06408    0.000
 4471.00    1.31710   1.06758    0.000
 4472.00    1.44089   1.06954    0.000
 4473.00    1.30688   1.07043    0.000
 4474.00    1.21872   1.06984    0.000
 4475.00    1.25670   1.06855    0.000
 4476.00    1.23058   1.06695    0.000
 4477.00    1.05344   1.06606    0.000
 4478.00    0.92602   1.06577    0.000
 4479.00    0.89990   1.06633    0.000
 4480.00    0.91256   1.06722    0.000
 4481.00    0.99400   1.06814    0.000
 4482.00    1.07662   1.06882    0.014
 4483.00    1.16106   1.06913    0.014
 4484.00    1.23268   1.06908    0.014
 4485.00    1.28683   1.06898    0.014
 4486.00    1.15681   1.06877    0.014
 4487.00    0.80596   1.06891    0.014
 4488.00    0.70871   1.06886    0.014
 4489.00    0.87958   1.06968    0.014
 4490.00    0.95077   1.07098    0.014
 4491.00    0.92900   1.07339    0.014
 4492.00    0.88369   1.07700    0.014
 4493.00    0.81902   1.08125    0.014
 4494.00    0.91517   1.08646    0.014
 4495.00    1.12769   1.09168    0.014
 4496.00    1.07493   1.09751    0.014
 4497.00    0.85366   1.10352    0.014
 4498.00    0.76936   1.10909    0.014
 4499.00    0.76115   1.11423    0.014
 4500.00    0.74965   1.11813    0.014
 4501.00    0.73655   1.12093    0.014
 4502.00    0.76712   1.12246    0.014
 4503.00    0.81590   1.12291    0.014
 4504.00    0.96749   1.12229    0.014
 4505.00    1.15577   1.12062    0.014
 4506.00    1.13985   1.11794    0.014
 4507.00    1.06234   1.11460    0.014
 4508.00    0.94545   1.11077    0.014
 4509.00    0.81870   1.10670    0.014
 4510.00    0.86348   1.10285    0.014
 4511.00    0.94312   1.09890    0.014
 4512.00    0.76844   1.09477    0.014
 4513.00    0.55319   1.09105    0.014
 4514.00    0.59662   1.08678    0.014
 4515.00    0.67080   1.08263    0.014
 4516.00    0.82728   1.07741    0.014
 4517.00    0.99043   1.07153    0.014
 4518.00    1.04462   1.06548    0.014
 4519.00    1.09386   1.05836    0.014
 4520.00    0.95027   1.05131    0.014
 4521.00    0.80611   1.04384    0.013
 4522.00    0.75374   1.03716    0.013
 4523.00    0.70095   1.03092    0.013
 4524.00    0.64031   1.02662    0.013
 4525.00    0.56395   1.02316    0.013
 4526.00    0.31148   1.02214    0.013
 4527.00    0.13259   1.02210    0.013
 4528.00    0.52944   1.02375    0.013
 4529.00    0.88694   1.02713    0.013
 4530.00    1.01186   1.03181    0.013
 4531.00    1.06303   1.03821    0.013
 4532.00    0.76903   1.04427    0.013
 4533.00    0.54506   1.05033    0.013
 4534.00    0.58873   1.05555    0.013
 4535.00    0.64262   1.05998    0.013
 4536.00    0.72913   1.06354    0.013
 4537.00    0.83861   1.06583    0.013
 4538.00    1.01019   1.06655    0.013
 4539.00    1.05589   1.06572    0.013
 4540.00    0.80995   1.06441    0.013
 4541.00    0.65433   1.06192    0.013
 4542.00    0.67978   1.05916    0.013
 4543.00    0.75671   1.05578    0.013
 4544.00    0.92353   1.05292    0.013
 4545.00    0.97278   1.05126    0.013
 4546.00    0.84238   1.04960    0.013
 4547.00    0.76442   1.04932    0.013
 4548.00    0.75688   1.04977    0.013
 4549.00    0.76670   1.05189    0.013
 4550.00    0.79704   1.05492    0.000
 4551.00    0.81236   1.05942    0.000
 4552.00    0.81203   1.06404    0.000
 4553.00    0.80798   1.06901    0.000
 4554.00    0.80050   1.07381    0.000
 4555.00    0.87085   1.07811    0.000
 4556.00    1.00427   1.08183    0.000
 4557.00    0.89011   1.08449    0.000
 4558.00    0.59937   1.08650    0.000
 4559.00    0.61292   1.08812    0.000
 4560.00    0.81689   1.08936    0.000
 4561.00    0.86009   1.09053    0.000
 4562.00    0.81535   1.09142    0.000
 4563.00    0.74175   1.09201    0.000
 4564.00    0.65442   1.09263    0.000
 4565.00    0.85106   1.09302    0.000
 4566.00    1.16418   1.09319    0.000
 4567.00    1.13941   1.09354    0.000
 4568.00    0.99625   1.09321    0.000
 4569.00    0.87170   1.09231    0.000
 4570.00    0.75266   1.09084    0.000
 4571.00    0.77085   1.08867    0.000
 4572.00    0.82266   1.08590    0.000
 4573.00    0.80404   1.08250    0.000
 4574.00    0.77145   1.07894    0.000
 4575.00    0.78749   1.07531    0.000
 4576.00    0.81106   1.07202    0.000
 4577.00    0.83271   1.06935    0.000
 4578.00    0.85414   1.06715    0.000
 4579.00    1.00957   1.06625    0.000
 4580.00    1.17530   1.06581    0.000
 4581.00    0.93928   1.06651    0.000
 4582.00    0.68655   1.06738    0.000
 4583.00    0.68301   1.06864    0.000
 4584.00    0.68583   1.06965    0.000
 4585.00    0.86921   1.07059    0.000
 4586.00    1.03319   1.07117    0.000
 4587.00    0.85798   1.07143    0.000
 4588.00    0.70374   1.07146    0.000
 4589.00    0.77386   1.07133    0.000
 4590.00    0.85829   1.07106    0.000
 4591.00    1.05087   1.07117    0.000
 4592.00    1.17382   1.07107    0.000
 4593.00    0.89654   1.07157    0.000
 4594.00    0.67016   1.07231    0.000
 4595.00    0.67628   1.07346    0.000
 4596.00    0.69043   1.07527    0.000
 4597.00    0.73459   1.07725    0.000
 4598.00    0.78863   1.08010    0.000
 4599.00    0.87361   1.08308    0.000
 4600.00    0.90104   1.08689    0.000
 4601.00    0.77574   1.09069    0.000
 4602.00    0.63554   1.09470    0.000
 4603.00    0.46141   1.09831    0.000
 4604.00    0.33892   1.10175    0.000
 4605.00    0.31832   1.10457    0.000
 4606.00    0.38389   1.10680    0.000
 4607.00    0.59762   1.10867    0.000
 4608.00    0.69784   1.10941    0.000
 4609.00    0.62717   1.11019    0.000
 4610.00    0.55786   1.11018    0.000
 4611.00    0.49037   1.11011    0.000
 4612.00    0.47135   1.10984    0.000
 4613.00    0.50883   1.10997    0.000
 4614.00    0.67436   1.10985    0.000
 4615.00    0.97149   1.10992    0.000
 4616.00    1.09936   1.11004    0.000
 4617.00    1.07380   1.10998    0.000
 4618.00    0.94445   1.10990    0.000
 4619.00    0.73217   1.10952    0.000
 4620.00    0.77406   1.10897    0.000
 4621.00    0.99459   1.10784    0.000
 4622.00    1.09766   1.10660    0.000
 4623.00    1.12830   1.10503    0.000
 4624.00    0.91302   1.10316    0.000
 4625.00    0.56530   1.10082    0.000
 4626.00    0.42673   1.09842    0.000
 4627.00    0.38598   1.09576    0.000
 4628.00    0.44739   1.09303    0.000
 4629.00    0.54998   1.09018    0.000
 4630.00    0.57757   1.08725    0.000
 4631.00    0.57936   1.08459    0.000
 4632.00    0.56830   1.08183    0.000
 4633.00    0.55353   1.07951    0.000
 4634.00    0.67566   1.07707    0.000
 4635.00    0.83057   1.07491    0.000
 4636.00    0.82548   1.07249    0.000
 4637.00    0.78949   1.07031    0.000
 4638.00    0.75710   1.06784    0.000
 4639.00    0.72526   1.06566    0.000
 4640.00    0.69976   1.06353    0.000
 4641.00    0.67495   1.06185    0.000
 4642.00    0.76753   1.06055    0.000
 4643.00    0.86865   1.06004    0.000
 4644.00    0.76644   1.06004    0.000
 4645.00    0.65654   1.06100    0.000
 4646.00    0.46658   1.06255    0.000
 4647.00    0.28640   1.06487    0.000
 4648.00    0.48339   1.06777    0.000
 4649.00    0.68633   1.07101    0.000
 4650.00    0.98631   1.07449    0.000
 4651.00    1.22891   1.07765    0.000
 4652.00    0.88425   1.08058    0.000
 4653.00    0.59353   1.08258    0.000
 4654.00    0.69704   1.08383    0.000
 4655.00    0.79706   1.08370    0.000
 4656.00    0.87758   1.08218    0.000
 4657.00    0.92238   1.07909    0.000
 4658.00    0.80780   1.07496    0.000
 4659.00    0.71306   1.07008    0.000
 4660.00    0.69102   1.06484    0.000
 4661.00    0.71400   1.05994    0.000
 4662.00    0.87511   1.05568    0.000
 4663.00    0.93639   1.05273    0.000
 4664.00    0.73731   1.05119    0.000
 4665.00    0.58458   1.05127    0.000
 4666.00    0.53573   1.05272    0.000
 4667.00    0.54614   1.05519    0.000
 4668.00    0.67163   1.05826    0.000
 4669.00    0.63895   1.06146    0.000
 4670.00    0.33842   1.06448    0.000
 4671.00    0.27071   1.06698    0.000
 4672.00    0.54849   1.06883    0.000
 4673.00    0.79434   1.07003    0.000
 4674.00    0.99858   1.07066    0.000
 4675.00    1.12165   1.07086    0.000
 4676.00    1.15148   1.07090    0.000
 4677.00    1.02787   1.07091    0.000
 4678.00    0.74880   1.07110    0.000
 4679.00    0.50616   1.07143    0.000
 4680.00    0.29610   1.07212    0.000
 4681.00    0.18202   1.07291    0.000
 4682.00    0.14354   1.07400    0.000
 4683.00    0.13196   1.07512    0.000
 4684.00    0.13902   1.07636    0.000
 4685.00    0.22825   1.07749    0.000
 4686.00    0.36739   1.07845    0.000
 4687.00    0.36719   1.07914    0.000
 4688.00    0.29312   1.07945    0.000
 4689.00    0.46414   1.07922    0.000
 4690.00    0.74793   1.07832    0.000
 4691.00    0.77399   1.07670    0.000
 4692.00    0.69792   1.07448    0.000
 4693.00    0.61759   1.07157    0.000
 4694.00    0.53583   1.06835    0.000
 4695.00    0.72241   1.06476    0.000
 4696.00    0.98514   1.06139    0.000
 4697.00    1.07559   1.05817    0.000
 4698.00    1.12569   1.05555    0.000
 4699.00    0.93863   1.05355    0.000
 4700.00    0.70696   1.05225    0.000
 4701.00    0.57619   1.05180    0.000
 4702.00    0.46011   1.05198    0.000
 4703.00    0.61008   1.05311    0.000
 4704.00    0.78818   1.05467    0.000
 4705.00    0.82958   1.05715    0.000
 4706.00    0.86160   1.05990    0.000
 4707.00    0.66030   1.06345    0.000
 4708.00    0.45106   1.06717    0.000
 4709.00    0.52290   1.07150    0.000
 4710.00    0.59313   1.07588    0.000
 4711.00    0.59670   1.08053    0.000
 4712.00    0.60741   1.08495    0.000
 4713.00    0.72772   1.08913    0.000
 4714.00    0.84278   1.09268    0.000
 4715.00    0.90641   1.09545    0.000
 4716.00    0.93789   1.09721    0.000
 4717.00    0.74212   1.09775    0.000
 4718.00    0.54875   1.09716    0.000
 4719.00    0.36842   1.09529    0.000
 4720.00    0.24653   1.09253    0.000
 4721.00    0.37934   1.08893    0.000
 4722.00    0.48728   1.08503    0.000
 4723.00    0.50601   1.08104    0.000
 4724.00    0.55875   1.07745    0.000
 4725.00    0.71388   1.07448    0.000
 4726.00    0.85428   1.07237    0.000
 4727.00    0.95690   1.07124    0.000
 4728.00    1.00895   1.07103    0.000
 4729.00    0.94951   1.07171    0.000
 4730.00    0.83499   1.07308    0.000
 4731.00    0.61514   1.07495    0.000
 4732.00    0.49363   1.07722    0.000
 4733.00    0.53617   1.07962    0.000
 4734.00    0.51303   1.08219    0.000
 4735.00    0.39388   1.08469    0.000
 4736.00    0.40784   1.08719    0.000
 4737.00    0.59294   1.08953    0.000
 4738.00    0.73528   1.09174    0.000
 4739.00    0.82919   1.09370    0.000
 4740.00    0.75992   1.09534    0.000
 4741.00    0.52762   1.09663    0.000
 4742.00    0.46505   1.09736    0.000
 4743.00    0.55203   1.09765    0.000
 4744.00    0.71898   1.09720    0.000
 4745.00    0.94800   1.09632    0.000
 4746.00    0.99813   1.09468    0.000
 4747.00    0.92614   1.09271    0.000
 4748.00    0.87691   1.09014    0.000
 4749.00    0.84130   1.08737    0.000
 4750.00    0.75050   1.08420    0.000
 4751.00    0.63088   1.08093    0.000
 4752.00    0.70413   1.07741    0.000
 4753.00    0.86468   1.07381    0.000
 4754.00    0.86451   1.07008    0.000
 4755.00    0.80176   1.06637    0.000
 4756.00    0.61995   1.06275    0.000
 4757.00    0.39869   1.05942    0.000
 4758.00    0.53576   1.05654    0.000
 4759.00    0.77246   1.05435    0.000
 4760.00    0.78158   1.05302    0.000
 4761.00    0.73866   1.05266    0.012
 4762.00    0.72661   1.05332    0.012
 4763.00    0.72021   1.05494    0.012
 4764.00    0.87377   1.05741    0.012
 4765.00    1.04985   1.06049    0.013
 4766.00    0.90681   1.06397    0.012
 4767.00    0.73140   1.06755    0.012
 4768.00    0.68736   1.07100    0.012
 4769.00    0.65180   1.07408    0.012
 4770.00    0.55936   1.07657    0.012
 4771.00    0.46523   1.07837    0.012
 4772.00    0.38859   1.07932    0.012
 4773.00    0.31830   1.07949    0.012
 4774.00    0.43191   1.07881    0.012
 4775.00    0.54728   1.07751    0.012
 4776.00    0.68818   1.07562    0.012
 4777.00    0.80855   1.07349    0.012
 4778.00    0.73588   1.07122    0.012
 4779.00    0.67713   1.06922    0.012
 4780.00    0.71377   1.06756    0.012
 4781.00    0.77800   1.06660    0.012
 4782.00    0.98837   1.06635    0.012
 4783.00    1.13079   1.06699    0.012
 4784.00    0.98380   1.06841    0.012
 4785.00    0.82742   1.07057    0.012
 4786.00    0.63801   1.07323    0.012
 4787.00    0.53987   1.07619    0.012
 4788.00    0.71141   1.07914    0.012
 4789.00    0.85373   1.08184    0.012
 4790.00    0.92246   1.08405    0.012
 4791.00    0.93983   1.08561    0.012
 4792.00    0.84584   1.08649    0.012
 4793.00    0.83016   1.08663    0.012
 4794.00    0.96189   1.08621    0.012
 4795.00    1.05721   1.08521    0.012
 4796.00    1.09269   1.08394    0.012
 4797.00    0.99499   1.08232    0.012
 4798.00    0.70538   1.08074    0.012
 4799.00    0.56149   1.07904    0.012
 4800.00    0.60228   1.07761    0.012
 4801.00    0.66515   1.07628    0.012
 4802.00    0.75268   1.07539    0.012
 4803.00    0.74218   1.07482    0.012
 4804.00    0.63512   1.07479    0.012
 4805.00    0.68821   1.07518    0.012
 4806.00    0.88043   1.07606    0.012
 4807.00    0.93372   1.07728    0.012
 4808.00    0.88070   1.07874    0.012
 4809.00    0.82608   1.08027    0.012
 4810.00    0.77037   1.08165    0.012
 4811.00    0.87033   1.08272    0.012
 4812.00    1.06202   1.08327    0.012
 4813.00    1.15673   1.08321    0.012
 4814.00    1.20161   1.08246    0.012
 4815.00    0.96860   1.08103    0.012
 4816.00    0.61185   1.07901    0.012
 4817.00    0.50106   1.07655    0.012
 4818.00    0.48436   1.07382    0.012
 4819.00    0.64312   1.07101    0.012
 4820.00    0.85894   1.06829    0.012
 4821.00    0.82556   1.06578    0.012
 4822.00    0.72434   1.06355    0.012
 4823.00    0.76488   1.06164    0.012
 4824.00    0.83709   1.06001    0.012
 4825.00    0.81787   1.05863    0.012
 4826.00    0.78236   1.05738    0.012
 4827.00    0.85683   1.05624    0.012
 4828.00    0.94628   1.05504    0.012
 4829.00    0.85025   1.05379    0.012
 4830.00    0.73620   1.05233    0.012
 4831.00    0.77492   1.05071    0.012
 4832.00    0.82290   1.04880    0.012
 4833.00    0.80659   1.04672    0.012
 4834.00    0.78953   1.04440    0.012
 4835.00    0.94624   1.04192    0.012
 4836.00    1.08731   1.03927    0.012
 4837.00    0.82023   1.03645    0.012
 4838.00    0.57913   1.03340    0.012
 4839.00    0.69282   1.03000    0.012
 4840.00    0.81636   1.02612    0.012
 4841.00    1.02894   1.02155    0.012
 4842.00    1.19885   1.01607    0.012
 4843.00    1.08565   1.00945    0.012
 4844.00    0.96294   1.00148    0.012
 4845.00    0.79117   0.99194    0.012
 4846.00    0.67504   0.98070    0.012
 4847.00    0.79054   0.96770    0.013
 4848.00    0.84120   0.95303    0.000
 4849.00    0.66862   0.93687    0.000
 4850.00    0.58728   0.91967    0.000
 4851.00    0.77056   0.90201    0.000
 4852.00    0.83302   0.88468    0.000
 4853.00    0.59648   0.86857    0.000
 4854.00    0.43774   0.85466    0.000
 4855.00    0.44499   0.84377    0.000
 4856.00    0.50401   0.83664    0.000
 4857.00    0.65899   0.83369    0.000
 4858.00    0.73819   0.83493    0.000
 4859.00    0.69473   0.84018    0.000
 4860.00    0.64550   0.84875    0.000
 4861.00    0.58808   0.85996    0.000
 4862.00    0.58200   0.87280    0.000
 4863.00    0.64007   0.88658    0.000
 4864.00    0.69619   0.90045    0.000
 4865.00    0.75014   0.91402    0.000
 4866.00    0.79703   0.92689    0.000
 4867.00    0.83706   0.93901    0.000
 4868.00    0.85542   0.95028    0.000
 4869.00    0.85521   0.96080    0.000
 4870.00    0.88168   0.97050    0.000
 4871.00    0.92829   0.97943    0.000
 4872.00    0.90885   0.98741    0.000
 4873.00    0.84562   0.99447    0.000
 4874.00    0.73285   1.00033    0.000
 4875.00    0.59134   1.00510    0.013
 4876.00    0.52189   1.00856    0.013
 4877.00    0.48891   1.01101    0.013
 4878.00    0.51895   1.01240    0.013
 4879.00    0.57660   1.01321    0.013
 4880.00    0.63053   1.01359    0.013
 4881.00    0.68306   1.01408    0.013
 4882.00    0.53650   1.01494    0.013
 4883.00    0.32645   1.01660    0.013
 4884.00    0.33157   1.01926    0.013
 4885.00    0.39404   1.02304    0.013
 4886.00    0.46288   1.02800    0.013
 4887.00    0.53311   1.03385    0.013
 4888.00    0.67452   1.04046    0.013
 4889.00    0.82827   1.04723    0.013
 4890.00    0.73778   1.05394    0.013
 4891.00    0.61512   1.06000    0.013
 4892.00    0.63299   1.06521    0.013
 4893.00    0.66391   1.06928    0.013
 4894.00    0.68233   1.07216    0.013
 4895.00    0.70003   1.07391    0.013
 4896.00    0.74574   1.07463    0.013
 4897.00    0.79229   1.07458    0.013
 4898.00    0.86103   1.07386    0.013
 4899.00    0.92689   1.07275    0.013
 4900.00    0.92452   1.07130    0.013
 4901.00    0.91876   1.06968    0.013
 4902.00    0.86907   1.06789    0.013
 4903.00    0.80743   1.06595    0.013
 4904.00    0.64179   1.06386    0.013
 4905.00    0.51101   1.06155    0.013
 4906.00    0.60448   1.05897    0.013
 4907.00    0.69154   1.05600    0.013
 4908.00    0.74636   1.05257    0.013
 4909.00    0.82159   1.04866    0.013
 4910.00    0.97989   1.04421    0.013
 4911.00    1.06517   1.03949    0.013
 4912.00    0.90406   1.03458    0.012
 4913.00    0.82809   1.03004    0.012
 4914.00    0.99451   1.02607    0.013
 4915.00    1.04779   1.02332    0.013
 4916.00    0.82584   1.02197    0.013
 4917.00    0.63075   1.02235    0.013
 4918.00    0.49203   1.02446    0.013
 4919.00    0.40365   1.02809    0.012
 4920.00    0.40712   1.03296    0.012
 4921.00    0.51096   1.03843    0.012
 4922.00    0.77488   1.04410    0.012
 4923.00    0.93403   1.04921    0.012
 4924.00    0.94659   1.05350    0.012
 4925.00    0.95756   1.05647    0.012
 4926.00    0.96658   1.05817    0.012
 4927.00    0.94973   1.05852    0.013
 4928.00    0.90479   1.05791    0.012
 4929.00    0.96467   1.05658    0.012
 4930.00    1.12494   1.05510    0.012
 4931.00    1.06959   1.05382    0.012
 4932.00    0.83217   1.05322    0.012
 4933.00    0.74625   1.05351    0.012
 4934.00    0.77296   1.05493    0.012
 4935.00    0.84346   1.05740    0.012
 4936.00    0.94255   1.06086    0.012
 4937.00    1.02171   1.06500    0.012
 4938.00    1.08948   1.06954    0.012
 4939.00    1.04044   1.07410    0.012
 4940.00    0.93326   1.07830    0.000
 4941.00    0.76429   1.08184    0.000
 4942.00    0.56872   1.08436    0.000
 4943.00    0.60941   1.08573    0.000
 4944.00    0.73731   1.08569    0.000
 4945.00    0.83097   1.08436    0.000
 4946.00    0.91391   1.08162    0.000
 4947.00    0.83624   1.07783    0.000
 4948.00    0.71667   1.07311    0.000
 4949.00    0.69770   1.06794    0.000
 4950.00    0.70016   1.06267    0.000
 4951.00    0.82863   1.05763    0.000
 4952.00    0.97833   1.05331    0.000
 4953.00    0.89318   1.04973    0.000
 4954.00    0.77816   1.04727    0.000
 4955.00    0.74895   1.04563    0.000
 4956.00    0.72734   1.04492    0.000
 4957.00    0.70937   1.04478    0.000
 4958.00    0.69159   1.04510    0.000
 4959.00    0.70473   1.04569    0.000
 4960.00    0.72087   1.04638    0.000
 4961.00    0.92581   1.04720    0.000
 4962.00    1.11664   1.04800    0.000
 4963.00    1.00073   1.04892    0.000
 4964.00    0.87580   1.04976    0.000
 4965.00    0.64022   1.05062    0.000
 4966.00    0.43609   1.05119    0.000
 4967.00    0.49530   1.05140    0.000
 4968.00    0.55426   1.05098    0.000
 4969.00    0.61161   1.04971    0.000
 4970.00    0.65837   1.04751    0.000
 4971.00    0.65318   1.04423    0.000
 4972.00    0.67602   1.04007    0.000
 4973.00    0.81044   1.03512    0.000
 4974.00    0.94048   1.02981    0.000
 4975.00    1.05606   1.02448    0.000
 4976.00    1.12760   1.01957    0.000
 4977.00    1.07602   1.01553    0.000
 4978.00    1.01856   1.01256    0.000
 4979.00    0.94701   1.01100    0.000
 4980.00    0.93587   1.01071    0.000
 4981.00    1.04951   1.01175    0.000
 4982.00    1.10626   1.01372    0.000
 4983.00    1.06082   1.01644    0.000
 4984.00    0.91635   1.01942    0.000
 4985.00    0.61628   1.02240    0.000
 4986.00    0.44843   1.02503    0.000
 4987.00    0.46294   1.02700    0.000
 4988.00    0.51165   1.02824    0.000
 4989.00    0.60189   1.02848    0.000
 4990.00    0.66902   1.02783    0.000
 4991.00    0.71143   1.02617    0.000
 4992.00    0.76415   1.02372    0.000
 4993.00    0.82659   1.02048    0.000
 4994.00    0.76837   1.01676    0.000
 4995.00    0.60969   1.01266    0.000
 4996.00    0.60701   1.00850    0.000
 4997.00    0.71865   1.00437    0.000
 4998.00    0.81557   1.00058    0.000
 4999.00    0.90303   0.99707    0.000
 5000.00    0.88209   0.99405    0.000
 5001.00    0.80014   0.99132    0.000
 5002.00    0.85561   0.98900    0.000
 5003.00    0.97839   0.98678    0.000
 5004.00    0.80416   0.98479    0.000
 5005.00    0.50417   0.98276    0.000
 5006.00    0.60887   0.98086    0.000
 5007.00    0.86033   0.97902    0.000
 5008.00    0.89836   0.97740    0.000
 5009.00    0.87092   0.97619    0.000
 5010.00    0.84696   0.97542    0.000
 5011.00    0.82389   0.97543    0.000
 5012.00    0.83856   0.97607    0.000
 5013.00    0.86108   0.97766    0.000
 5014.00    0.78027   0.97984    0.000
 5015.00    0.68255   0.98290    0.000
 5016.00    0.84682   0.98635    0.000
 5017.00    1.04324   0.99040    0.000
 5018.00    1.03636   0.99455    0.000
 5019.00    1.01229   0.99892    0.000
 5020.00    1.21633   1.00321    0.000
 5021.00    1.43152   1.00727    0.000
 5022.00    1.21184   1.01107    0.000
 5023.00    0.98667   1.01416    0.000
 5024.00    0.83622   1.01675    0.000
 5025.00    0.70220   1.01824    0.000
 5026.00    0.89769   1.01892    0.000
 5027.00    1.05915   1.01834    0.000
 5028.00    0.82306   1.01681    0.000
 5029.00    0.61933   1.01419    0.012
 5030.00    0.67689   1.01083    0.012
 5031.00    0.76438   1.00704    0.012
 5032.00    1.03333   1.00313    0.012
 5033.00    1.20359   0.99965    0.012
 5034.00    0.90189   0.99681    0.012
 5035.00    0.65717   0.99509    0.012
 5036.00    0.63442   0.99453    0.012
 5037.00    0.61529   0.99517    0.012
 5038.00    0.60792   0.99694    0.012
 5039.00    0.68491   0.99947    0.012
 5040.00    0.99345   1.00264    0.012
 5041.00    1.15544   1.00598    0.012
 5042.00    0.97283   1.00940    0.012
 5043.00    0.81218   1.01269    0.011
 5044.00    0.69617   1.01580    0.012
 5045.00    0.73779   1.01883    0.012
 5046.00    1.05830   1.02178    0.012
 5047.00    1.16031   1.02480    0.012
 5048.00    0.92405   1.02783    0.012
 5049.00    0.81341   1.03092    0.012
 5050.00    0.87356   1.03387    0.011
 5051.00    0.91854   1.03665    0.011
 5052.00    0.94538   1.03891    0.011
 5053.00    0.88261   1.04059    0.011
 5054.00    0.72528   1.04139    0.011
 5055.00    0.72161   1.04135    0.011
 5056.00    0.86100   1.04028    0.011
 5057.00    0.89253   1.03847    0.011
 5058.00    0.83555   1.03585    0.011
 5059.00    0.81089   1.03280    0.011
 5060.00    0.80955   1.02944    0.012
 5061.00    0.84451   1.02605    0.011
 5062.00    0.90248   1.02278    0.011
 5063.00    0.85571   1.01967    0.011
 5064.00    0.75086   1.01690    0.011
 5065.00    0.73312   1.01428    0.011
 5066.00    0.75736   1.01177    0.011
 5067.00    0.73931   1.00934    0.011
 5068.00    0.70365   1.00681    0.011
 5069.00    0.78075   1.00437    0.011
 5070.00    0.89801   1.00156    0.011
 5071.00    0.87646   0.99904    0.011
 5072.00    0.81316   0.99639    0.011
 5073.00    0.73988   0.99431    0.011
 5074.00    0.66411   0.99253    0.011
 5075.00    0.60675   0.99164    0.011
 5076.00    0.55312   0.99161    0.011
 5077.00    0.73610   0.99251    0.011
 5078.00    0.95669   0.99444    0.011
 5079.00    1.01836   0.99715    0.011
 5080.00    1.06124   1.00069    0.011
 5081.00    0.94803   1.00450    0.011
 5082.00    0.82227   1.00854    0.011
 5083.00    0.77442   1.01229    0.011
 5084.00    0.73008   1.01560    0.011
 5085.00    0.90555   1.01815    0.011
 5086.00    1.07847   1.01973    0.011
 5087.00    0.99463   1.02047    0.011
 5088.00    0.91671   1.02007    0.011
 5089.00    0.94865   1.01900    0.011
 5090.00    0.97498   1.01699    0.011
 5091.00    0.93878   1.01468    0.011
 5092.00    0.91355   1.01187    0.011
 5093.00    0.97372   1.00920    0.012
 5094.00    1.01930   1.00648    0.012
 5095.00    0.97896   1.00421    0.012
 5096.00    0.95399   1.00220    0.012
 5097.00    1.00074   1.00061    0.012
 5098.00    1.04211   0.99957    0.012
 5099.00    1.06301   0.99875    0.012
 5100.00    1.04893   0.99857    0.012
 5101.00    0.92363   0.99866    0.011
 5102.00    0.81019   0.99933    0.011
 5103.00    0.72873   1.00034    0.012
 5104.00    0.73042   1.00194    0.012
 5105.00    0.92435   1.00388    0.012
 5106.00    1.06985   1.00623    0.012
 5107.00    1.11848   1.00876    0.012
 5108.00    1.09155   1.01118    0.012
 5109.00    0.93295   1.01339    0.012
 5110.00    0.82108   1.01490    0.012
 5111.00    0.78048   1.01580    0.012
 5112.00    0.80712   1.01550    0.012
 5113.00    0.92386   1.01430    0.012
 5114.00    0.96157   1.01202    0.012
 5115.00    0.90602   1.00893    0.012
 5116.00    0.94633   1.00503    0.012
 5117.00    1.08639   1.00078    0.012
 5118.00    1.10700   0.99640    0.012
 5119.00    1.01800   0.99224    0.012
 5120.00    1.02481   0.98877    0.012
 5121.00    1.10912   0.98584    0.012
 5122.00    1.00727   0.98390    0.012
 5123.00    0.77289   0.98260    0.012
 5124.00    0.79078   0.98247    0.012
 5125.00    0.96627   0.98258    0.011
 5126.00    1.06045   0.98319    0.012
 5127.00    1.11023   0.98396    0.012
 5128.00    1.05451   0.98440    0.012
 5129.00    0.94873   0.98498    0.012
 5130.00    0.92579   0.98493    0.011
 5131.00    0.93675   0.98446    0.011
 5132.00    0.96198   0.98343    0.011
 5133.00    0.99221   0.98230    0.012
 5134.00    1.05556   0.98063    0.012
 5135.00    1.12869   0.97898    0.011
 5136.00    0.93693   0.97724    0.011
 5137.00    0.68046   0.97557    0.011
 5138.00    0.72293   0.97431    0.011
 5139.00    0.82446   0.97312    0.011
 5140.00    0.87456   0.97243    0.011
 5141.00    0.91673   0.97192    0.011
 5142.00    0.97511   0.97191    0.011
 5143.00    1.03533   0.97219    0.011
 5144.00    1.14877   0.97308    0.011
 5145.00    1.26628   0.97431    0.011
 5146.00    1.29560   0.97610    0.011
 5147.00    1.32130   0.97828    0.011
 5148.00    1.21744   0.98057    0.011
 5149.00    1.11126   0.98306    0.011
 5150.00    0.95177   0.98504    0.011
 5151.00    0.80433   0.98650    0.011
 5152.00    0.86563   0.98692    0.011
 5153.00    0.92002   0.98589    0.011
 5154.00    0.90073   0.98304    0.011
 5155.00    0.88369   0.97826    0.011
 5156.00    0.88354   0.97108    0.011
 5157.00    0.88645   0.96207    0.011
 5158.00    0.90682   0.95113    0.011
 5159.00    0.94620   0.93954    0.011
 5160.00    1.07221   0.92728    0.011
 5161.00    1.17721   0.91550    0.011
 5162.00    1.20383   0.90428    0.011
 5163.00    1.16466   0.89454    0.011
 5164.00    0.92022   0.88719    0.011
 5165.00    0.72851   0.88272    0.011
 5166.00    0.67647   0.88093    0.011
 5167.00    0.65105   0.88124    0.011
 5168.00    0.68618   0.88373    0.011
 5169.00    0.73832   0.88769    0.011
 5170.00    0.82396   0.89249    0.011
 5171.00    0.84966   0.89744    0.011
 5172.00    0.77250   0.90190    0.011
 5173.00    0.69035   0.90562    0.011
 5174.00    0.60070   0.90800    0.012
 5175.00    0.62705   0.90988    0.012
 5176.00    0.80662   0.91202    0.011
 5177.00    0.93174   0.91349    0.011
 5178.00    0.99350   0.91527    0.012
 5179.00    1.03911   0.91688    0.012
 5180.00    1.06817   0.91944    0.011
 5181.00    1.08184   0.92282    0.011
 5182.00    1.08158   0.92630    0.011
 5183.00    1.00550   0.93021    0.011
 5184.00    0.86896   0.93463    0.011
 5185.00    0.83876   0.93966    0.011
 5186.00    0.88316   0.94390    0.011
 5187.00    0.90846   0.94845    0.011
 5188.00    0.92200   0.95257    0.011
 5189.00    0.93009   0.95622    0.012
 5190.00    0.93526   0.95963    0.000
 5191.00    0.95349   0.96221    0.000
 5192.00    0.97783   0.96438    0.000
 5193.00    1.14351   0.96523    0.000
 5194.00    1.36605   0.96575    0.000
 5195.00    1.22630   0.96477    0.000
 5196.00    0.96221   0.96324    0.000
 5197.00    0.95264   0.96088    0.000
 5198.00    1.01660   0.95870    0.000
 5199.00    1.03362   0.95587    0.000
 5200.00    1.03943   0.95395    0.000
 5201.00    1.16863   0.95264    0.000
 5202.00    1.32158   0.95238    0.000
 5203.00    1.16811   0.95368    0.000
 5204.00    0.96882   0.95580    0.000
 5205.00    0.83822   0.95951    0.000
 5206.00    0.71513   0.96341    0.000
 5207.00    0.97946   0.96849    0.000
 5208.00    1.27178   0.97350    0.000
 5209.00    1.17779   0.97892    0.000
 5210.00    1.06938   0.98390    0.000
 5211.00    1.19352   0.98814    0.011
 5212.00    1.31133   0.99171    0.012
 5213.00    1.15966   0.99387    0.011
 5214.00    1.00460   0.99505    0.011
 5215.00    0.79474   0.99470    0.011
 5216.00    0.61326   0.99342    0.011
 5217.00    0.72060   0.99111    0.011
 5218.00    0.84232   0.98811    0.011
 5219.00    1.06869   0.98563    0.011
 5220.00    1.24179   0.98306    0.011
 5221.00    1.11811   0.98142    0.011
 5222.00    1.00254   0.98064    0.011
 5223.00    0.92303   0.98044    0.011
 5224.00    0.88156   0.98133    0.011
 5225.00    0.97906   0.98320    0.011
 5226.00    1.00560   0.98580    0.011
 5227.00    0.81496   0.98962    0.011
 5228.00    0.66094   0.99381    0.011
 5229.00    0.60223   0.99865    0.011
 5230.00    0.59458   1.00335    0.011
 5231.00    0.70114   1.00801    0.011
 5232.00    0.83882   1.01231    0.011
 5233.00    1.03685   1.01595    0.011
 5234.00    1.13957   1.01911    0.011
 5235.00    1.08120   1.02133    0.011
 5236.00    1.02385   1.02270    0.011
 5237.00    0.96801   1.02296    0.011
 5238.00    0.99539   1.02245    0.011
 5239.00    1.13112   1.02095    0.011
 5240.00    1.22911   1.01890    0.011
 5241.00    1.28381   1.01652    0.011
 5242.00    1.30479   1.01428    0.011
 5243.00    1.29165   1.01174    0.011
 5244.00    1.23652   1.00961    0.011
 5245.00    1.14391   1.00810    0.011
 5246.00    1.01031   1.00658    0.011
 5247.00    0.84449   1.00589    0.011
 5248.00    0.87190   1.00477    0.011
 5249.00    1.03291   1.00433    0.012
 5250.00    1.01114   1.00325    0.012
 5251.00    0.87856   1.00159    0.012
 5252.00    0.85494   0.99874    0.012
 5253.00    0.88898   0.99447    0.012
 5254.00    0.85933   0.98916    0.012
 5255.00    0.80043   0.98226    0.012
 5256.00    0.94455   0.97481    0.012
 5257.00    1.16892   0.96639    0.011
 5258.00    1.20904   0.95852    0.012
 5259.00    1.18708   0.95058    0.012
 5260.00    1.11534   0.94404    0.012
 5261.00    1.02951   0.93875    0.012
 5262.00    1.04475   0.93442    0.012
 5263.00    1.08358   0.93234    0.012
 5264.00    1.00142   0.93310    0.012
 5265.00    0.89657   0.93602    0.012
 5266.00    0.73862   0.93989    0.012
 5267.00    0.57297   0.94574    0.012
 5268.00    0.72308   0.95242    0.012
 5269.00    0.90640   0.95998    0.012
 5270.00    0.86493   0.96857    0.012
 5271.00    0.80813   0.97677    0.012
 5272.00    0.69908   0.98466    0.012
 5273.00    0.58828   0.99162    0.012
 5274.00    0.65255   0.99827    0.012
 5275.00    0.72086   1.00410    0.011
 5276.00    0.91223   1.00977    0.011
 5277.00    1.09411   1.01471    0.012
 5278.00    1.13155   1.02019    0.012
 5279.00    1.15563   1.02500    0.012
 5280.00    1.04944   1.02927    0.011
 5281.00    0.95404   1.03295    0.011
 5282.00    0.93458   1.03598    0.011
 5283.00    0.94487   1.03867    0.011
 5284.00    1.11648   1.04009    0.011
 5285.00    1.24313   1.04073    0.011
 5286.00    1.17440   1.03995    0.011
 5287.00    1.11729   1.03875    0.011
 5288.00    1.10178   1.03650    0.011
 5289.00    1.14504   1.03357    0.011
 5290.00    1.36480   1.03018    0.011
 5291.00    1.48512   1.02696    0.011
 5292.00    1.35120   1.02507    0.011
 5293.00    1.29077   1.02381    0.011
 5294.00    1.39199   1.02301    0.011
 5295.00    1.37636   1.02342    0.011
 5296.00    1.13780   1.02496    0.011
 5297.00    1.01140   1.02769    0.011
 5298.00    1.07177   1.03068    0.011
 5299.00    1.12432   1.03406    0.011
 5300.00    1.16547   1.03722    0.011
 5301.00    1.13076   1.04051    0.011
 5302.00    0.99870   1.04355    0.011
 5303.00    0.91846   1.04598    0.011
 5304.00    0.89684   1.04759    0.011
 5305.00    0.99685   1.04837    0.011
 5306.00    1.21818   1.04821    0.011
 5307.00    1.26879   1.04735    0.011
 5308.00    1.16924   1.04580    0.011
 5309.00    1.03171   1.04325    0.011
 5310.00    0.86475   1.04011    0.012
 5311.00    0.95790   1.03690    0.012
 5312.00    1.22829   1.03289    0.011
 5313.00    1.27049   1.02858    0.011
 5314.00    1.17643   1.02374    0.011
 5315.00    1.18347   1.01846    0.011
 5316.00    1.24318   1.01305    0.011
 5317.00    1.22147   1.00688    0.011
 5318.00    1.16299   1.00178    0.011
 5319.00    1.09774   0.99650    0.011
 5320.00    1.02986   0.99206    0.011
 5321.00    1.05258   0.98716    0.011
 5322.00    1.10526   0.98500    0.011
 5323.00    1.01315   0.98401    0.011
 5324.00    0.88089   0.98458    0.011
 5325.00    0.88036   0.98612    0.011
 5326.00    0.90988   0.98811    0.011
 5327.00    0.86293   0.99144    0.011
 5328.00    0.80202   0.99448    0.011
 5329.00    0.95816   0.99810    0.011
 5330.00    1.14475   1.00098    0.011
 5331.00    1.07843   1.00391    0.011
 5332.00    0.98660   1.00590    0.011
 5333.00    0.87853   1.00741    0.011
 5334.00    0.76941   1.00874    0.011
 5335.00    0.87191   1.01025    0.011
 5336.00    0.98045   1.01128    0.011
 5337.00    0.98101   1.01266    0.011
 5338.00    0.98227   1.01386    0.011
 5339.00    1.00384   1.01526    0.011
 5340.00    1.02870   1.01741    0.011
 5341.00    1.10081   1.01950    0.011
 5342.00    1.15946   1.02239    0.011
 5343.00    1.09217   1.02567    0.011
 5344.00    1.03394   1.02955    0.011
 5345.00    1.03757   1.03372    0.011
 5346.00    1.03448   1.03796    0.011
 5347.00    0.99589   1.04221    0.011
 5348.00    0.97322   1.04606    0.011
 5349.00    1.01809   1.04929    0.011
 5350.00    1.07910   1.05194    0.011
 5351.00    1.19667   1.05351    0.011
 5352.00    1.27086   1.05419    0.011
 5353.00    1.21724   1.05349    0.011
 5354.00    1.18048   1.05175    0.011
 5355.00    1.18613   1.04878    0.011
 5356.00    1.24535   1.04502    0.011
 5357.00    1.42050   1.04064    0.011
 5358.00    1.49117   1.03553    0.011
 5359.00    1.36556   1.03094    0.011
 5360.00    1.30352   1.02576    0.011
 5361.00    1.34575   1.02162    0.011
 5362.00    1.26630   1.01773    0.011
 5363.00    1.01187   1.01460    0.011
 5364.00    0.94888   1.01253    0.011
 5365.00    1.12810   1.01146    0.011
 5366.00    1.14869   1.01230    0.012
 5367.00    0.99246   1.01364    0.011
 5368.00    0.86694   1.01672   -2.000
 5369.00    0.77164   1.01941   -2.000
 5370.00    0.87169   1.02257   -2.000
 5371.00    1.14114   1.02570   -2.000
 5372.00    1.25683   1.02830   -2.000
 5373.00    1.25506   1.03083   -2.000
 5374.00    1.27941   1.03231   -2.000
 5375.00    1.32130   1.03361   -2.000
 5376.00    1.21816   1.03379   -2.000
 5377.00    1.02972   1.03398   -2.000
 5378.00    1.11784   1.03319   -2.000
 5379.00    1.34779   1.03188   -2.000
 5380.00    1.41948   1.03013   -2.000
 5381.00    1.42085   1.02747   -2.000
 5382.00    1.43584   1.02468   -2.000
 5383.00    1.45603   1.02132    0.012
 5384.00    1.33609   1.01782    0.011
 5385.00    1.17069   1.01393    0.011
 5386.00    1.22049   1.01036    0.011
 5387.00    1.32873   1.00655    0.011
 5388.00    1.19583   1.00294    0.011
 5389.00    1.00921   0.99941    0.011
 5390.00    0.99498   0.99575    0.011
 5391.00    1.01136   0.99292    0.011
 5392.00    0.99709   0.98981    0.011
 5393.00    0.97866   0.98767    0.011
 5394.00    1.02627   0.98565    0.011
 5395.00    1.08026   0.98377    0.011
 5396.00    1.26104   0.98182    0.011
 5397.00    1.44946   0.98021    0.011
 5398.00    1.27839   0.97875    0.011
 5399.00    1.09864   0.97741    0.011
 5400.00    1.03154   0.97723    0.011
 5401.00    0.96778   0.97760    0.010
 5402.00    0.98998   0.97941    0.010
 5403.00    1.01078   0.98168    0.010
 5404.00    1.01257   0.98449    0.010
 5405.00    1.01380   0.98780    0.010
 5406.00    1.01003   0.99228    0.010
 5407.00    1.01212   0.99704    0.011
 5408.00    1.05289   1.00152    0.011
 5409.00    1.10935   1.00607    0.011
 5410.00    1.24652   1.01011    0.011
 5411.00    1.33057   1.01426    0.011
 5412.00    1.19414   1.01751    0.011
 5413.00    1.08925   1.01965    0.011
 5414.00    1.09265   1.02089    0.011
 5415.00    1.10391   1.02154    0.011
 5416.00    1.13786   1.02148    0.011
 5417.00    1.12919   1.02079    0.011
 5418.00    1.01524   1.01943    0.011
 5419.00    0.98251   1.01713    0.011
 5420.00    1.12269   1.01526    0.011
 5421.00    1.19232   1.01328    0.011
 5422.00    1.13144   1.01084    0.011
 5423.00    1.11743   1.00840    0.011
 5424.00    1.17916   1.00602    0.011
 5425.00    1.22850   1.00421    0.011
 5426.00    1.26030   1.00439    0.011
 5427.00    1.21215   1.00415    0.011
 5428.00    1.06430   1.00454    0.011
 5429.00    1.04052   1.00592    0.011
 5430.00    1.15311   1.00779    0.011
 5431.00    1.20636   1.01064    0.011
 5432.00    1.20206   1.01299    0.011
 5433.00    1.17352   1.01565    0.011
 5434.00    1.12424   1.01782    0.011
 5435.00    1.08905   1.01964    0.011
 5436.00    1.06446   1.02067    0.011
 5437.00    1.05491   1.02023    0.011
 5438.00    1.05531   1.01964    0.011
 5439.00    1.19170   1.01761    0.011
 5440.00    1.40689   1.01518    0.011
 5441.00    1.36220   1.01216    0.011
 5442.00    1.18633   1.00910    0.011
 5443.00    1.09978   1.00746    0.011
 5444.00    1.05226   1.00528    0.011
 5445.00    1.03292   1.00335    0.010
 5446.00    1.02415   1.00117    0.010
 5447.00    1.05777   0.99959    0.010
 5448.00    1.10487   0.99793    0.010
 5449.00    1.14089   0.99660    0.010
 5450.00    1.17398   0.99547    0.010
 5451.00    1.11017   0.99515    0.010
 5452.00    1.02530   0.99634    0.010
 5453.00    1.10331   0.99696    0.010
 5454.00    1.20945   0.99753    0.010
 5455.00    1.19354   0.99770    0.010
 5456.00    1.16162   0.99787    0.010
 5457.00    1.16778   0.99826    0.010
 5458.00    1.17745   0.99822    0.010
 5459.00    1.23332   0.99855    0.010
 5460.00    1.29179   0.99906    0.010
 5461.00    1.37620   0.99896    0.010
 5462.00    1.45954   0.99816    0.010
 5463.00    1.36965   0.99710    0.010
 5464.00    1.28358   0.99571    0.010
 5465.00    1.28698   0.99388    0.010
 5466.00    1.28483   0.99186    0.010
 5467.00    1.21145   0.98980    0.010
 5468.00    1.13091   0.98762    0.010
 5469.00    0.98840   0.98562    0.010
 5470.00    0.87243   0.98451    0.010
 5471.00    0.92651   0.98280    0.010
 5472.00    0.98456   0.98199    0.010
 5473.00    1.06250   0.98289    0.010
 5474.00    1.13579   0.98392    0.011
 5475.00    1.19025   0.98541    0.011
 5476.00    1.22516   0.98637    0.011
 5477.00    1.19425   0.98869    0.011
 5478.00    1.14048   0.99127   -2.000
 5479.00    1.02177   0.99391   -2.000
 5480.00    0.93335   0.99664   -2.000
 5481.00    0.91845   0.99855   -2.000
 5482.00    0.87791   1.00040   -2.000
 5483.00    0.78367   1.00157   -2.000
 5484.00    0.72072   1.00344   -2.000
 5485.00    0.71473   1.00422   -2.000
 5486.00    0.65038   1.00478   -2.000
 5487.00    0.49313   1.00545   -2.000
 5488.00    0.71094   1.00494   -2.000
 5489.00    1.45270   1.00457   -2.000
 5490.00    1.84676   1.00396   -2.000
 5491.00    1.81339   1.00316   -2.000
 5492.00    1.78209   1.00128   -2.000
 5493.00    1.75305   1.00017   -2.000
 5494.00    1.60139   0.99948   -2.000
 5495.00    1.33251   0.99785   -2.000
 5496.00    1.17712   0.99601   -2.000
 5497.00    1.11740   0.99423   -2.000
 5498.00    1.11219   0.99297   -2.000
 5499.00    1.14744   0.99167   -2.000
 5500.00    1.14840   0.99050   -2.000
 5501.00    1.12700   0.98895   -2.000
 5502.00    1.16504   0.98805    0.010
 5503.00    1.23698   0.98847    0.010
 5504.00    1.32412   0.98838    0.010
 5505.00    1.41880   0.98854    0.010
 5506.00    1.32568   0.98929    0.010
 5507.00    1.15186   0.98995    0.010
 5508.00    1.04237   0.99148    0.010
 5509.00    0.95658   0.99333    0.010
 5510.00    0.94334   0.99558    0.010
 5511.00    0.95273   0.99795    0.010
 5512.00    0.96564   1.00017    0.010
 5513.00    0.97946   1.00236    0.010
 5514.00    1.04138   1.00374    0.010
 5515.00    1.11351   1.00471    0.010
 5516.00    1.11315   1.00508    0.010
 5517.00    1.10061   1.00527    0.010
 5518.00    1.16421   1.00509    0.010
 5519.00    1.23744   1.00455    0.010
 5520.00    1.14347   1.00349    0.010
 5521.00    1.03475   1.00217    0.010
 5522.00    0.94516   1.00101    0.010
 5523.00    0.85656   0.99951    0.010
 5524.00    0.92469   0.99934    0.010
 5525.00    0.99657   0.99977    0.010
 5526.00    1.13070   1.00018    0.010
 5527.00    1.25661   1.00091    0.010
 5528.00    1.20545   1.00169    0.010
 5529.00    1.15385   1.00294    0.010
 5530.00    1.09686   1.00385    0.010
 5531.00    1.05298   1.00559    0.010
 5532.00    1.11838   1.00745    0.010
 5533.00    1.19266   1.00897    0.010
 5534.00    1.32221   1.01091    0.010
 5535.00    1.40159   1.01247    0.010
 5536.00    1.23585   1.01404    0.010
 5537.00    1.09365   1.01519    0.010
 5538.00    1.04497   1.01604    0.010
 5539.00    1.01760   1.01703    0.010
 5540.00    1.06055   1.01793    0.010
 5541.00    1.09345   1.01854    0.009
 5542.00    1.09833   1.01900    0.010
 5543.00    1.10092   1.01955    0.010
 5544.00    1.09800   1.01970    0.010
 5545.00    1.08696   1.01948    0.010
 5546.00    1.05916   1.01894    0.009
 5547.00    1.05046   1.01818    0.009
 5548.00    1.07601   1.01697    0.009
 5549.00    1.11084   1.01561    0.009
 5550.00    1.16024   1.01417    0.009
 5551.00    1.18870   1.01257    0.010
 5552.00    1.18831   1.01094    0.009
 5553.00    1.15406   1.00891    0.009
 5554.00    1.07875   1.00706    0.010
 5555.00    1.03641   1.00491    0.010
 5556.00    1.02930   1.00296    0.010
 5557.00    1.05284   1.00089    0.010
 5558.00    1.10525   0.99865    0.010
 5559.00    1.14349   0.99751    0.010
 5560.00    1.16995   0.99567    0.010
 5561.00    1.23420   0.99427    0.010
 5562.00    1.32610   0.99351    0.010
 5563.00    1.34379   0.99296    0.010
 5564.00    1.31381   0.99240    0.010
 5565.00    1.26256   0.99225    0.010
 5566.00    1.19937   0.99297    0.010
 5567.00    1.12187   0.99290    0.010
 5568.00    1.03737   0.99323    0.010
 5569.00    1.00182   0.99404    0.010
 5570.00    0.98696   0.99433    0.010
 5571.00    1.06079   0.99437    0.010
 5572.00    1.16671   0.99446    0.010
 5573.00    1.18293   0.99379    0.010
 5574.00    1.17169   0.99228    0.010
 5575.00    1.12900   0.99054    0.010
 5576.00    1.07831   0.98811    0.010
 5577.00    0.98644   0.98517    0.010
 5578.00    0.88604   0.98250    0.010
 5579.00    0.96959   0.97953    0.010
 5580.00    1.08314   0.97630    0.010
 5581.00    1.15208   0.97307    0.010
 5582.00    1.21558   0.96975    0.010
 5583.00    1.20061   0.96748    0.010
 5584.00    1.17906   0.96601    0.009
 5585.00    1.04135   0.96524    0.009
 5586.00    0.89803   0.96473    0.010
 5587.00    0.97431   0.96467    0.009
 5588.00    1.05278   0.96525    0.009
 5589.00    1.06586   0.96543    0.009
 5590.00    1.07889   0.96638    0.009
 5591.00    1.09098   0.96788    0.009
 5592.00    1.10770   0.96975    0.009
 5593.00    1.17819   0.97132    0.009
 5594.00    1.23118   0.97347    0.010
 5595.00    1.14341   0.97575    0.010
 5596.00    1.06383   0.97786    0.010
 5597.00    1.03376   0.98069    0.010
 5598.00    1.00575   0.98327    0.010
 5599.00    0.98759   0.98683    0.010
 5600.00    1.00790   0.98982    0.010
 5601.00    1.17763   0.99278    0.010
 5602.00    1.27925   0.99490    0.010
 5603.00    1.16053   0.99557    0.010
 5604.00    1.10023   0.99652    0.010
 5605.00    1.19992   0.99648    0.010
 5606.00    1.28350   0.99626    0.010
 5607.00    1.32928   0.99536    0.010
 5608.00    1.32617   0.99388    0.010
 5609.00    1.22390   0.99214    0.010
 5610.00    1.14761   0.98934    0.010
 5611.00    1.11721   0.98745    0.010
 5612.00    1.09782   0.98573    0.010
 5613.00    1.09546   0.98439    0.009
 5614.00    1.07471   0.98388    0.010
 5615.00    1.02901   0.98325    0.010
 5616.00    1.01055   0.98329    0.010
 5617.00    1.02465   0.98349    0.010
 5618.00    1.04459   0.98402    0.009
 5619.00    1.07069   0.98463    0.009
 5620.00    1.07572   0.98548    0.009
 5621.00    1.06118   0.98691    0.010
 5622.00    1.06573   0.98808    0.010
 5623.00    1.08591   0.98931    0.009
 5624.00    1.04803   0.99042    0.009
 5625.00    0.96827   0.99095    0.009
 5626.00    0.92899   0.99131    0.009
 5627.00    0.91531   0.99136    0.009
 5628.00    0.97156   0.99116    0.009
 5629.00    1.06650   0.99053    0.009
 5630.00    1.06958   0.98991    0.009
 5631.00    1.02847   0.98900    0.009
 5632.00    1.03714   0.98800    0.009
 5633.00    1.06650   0.98730    0.009
 5634.00    1.12531   0.98670    0.009
 5635.00    1.19460   0.98649    0.009
 5636.00    1.15266   0.98607    0.009
 5637.00    1.07735   0.98631    0.009
 5638.00    1.10351   0.98648    0.009
 5639.00    1.15494   0.98684    0.009
 5640.00    1.15100   0.98757    0.009
 5641.00    1.13587   0.98802    0.009
 5642.00    1.10127   0.98849    0.009
 5643.00    1.06359   0.98844    0.009
 5644.00    1.03938   0.98830    0.009
 5645.00    1.01675   0.98751    0.009
 5646.00    1.05365   0.98631    0.009
 5647.00    1.09531   0.98509    0.009
 5648.00    1.14118   0.98341    0.009
 5649.00    1.18723   0.98157    0.009
 5650.00    1.18490   0.97952    0.009
 5651.00    1.18053   0.97772    0.009
 5652.00    1.10408   0.97577    0.009
 5653.00    1.03453   0.97389    0.009
 5654.00    1.09219   0.97311    0.009
 5655.00    1.14593   0.97272    0.009
 5656.00    1.15637   0.97280    0.009
 5657.00    1.16761   0.97332    0.009
 5658.00    1.18502   0.97434    0.009
 5659.00    1.19369   0.97580    0.009
 5660.00    1.15097   0.97764    0.009
 5661.00    1.11791   0.98009    0.009
 5662.00    1.12982   0.98255    0.009
 5663.00    1.11625   0.98493    0.009
 5664.00    1.00585   0.98725    0.009
 5665.00    0.92828   0.98946    0.009
 5666.00    0.95489   0.99160    0.009
 5667.00    0.99893   0.99374    0.009
 5668.00    1.08985   0.99536    0.009
 5669.00    1.15176   0.99652    0.009
 5670.00    1.14671   0.99694    0.009
 5671.00    1.14250   0.99715    0.009
 5672.00    1.13995   0.99683    0.009
 5673.00    1.14713   0.99616    0.009
 5674.00    1.17120   0.99555    0.009
 5675.00    1.16496   0.99444    0.009
 5676.00    1.11256   0.99322    0.009
 5677.00    1.08249   0.99159    0.009
 5678.00    1.08229   0.99049    0.009
 5679.00    1.06685   0.98966    0.009
 5680.00    1.03346   0.98932    0.009
 5681.00    1.03968   0.98914    0.009
 5682.00    1.08705   0.98917    0.009
 5683.00    1.08278   0.98935    0.009
 5684.00    1.03119   0.98944    0.009
 5685.00    0.99425   0.99011    0.009
 5686.00    0.96916   0.99056    0.009
 5687.00    0.99513   0.99137    0.009
 5688.00    1.05738   0.99115    0.009
 5689.00    1.08142   0.99062    0.009
 5690.00    1.08163   0.98994    0.009
 5691.00    1.06136   0.98836    0.009
 5692.00    1.02993   0.98702    0.009
 5693.00    1.10055   0.98494    0.009
 5694.00    1.21949   0.98294    0.009
 5695.00    1.24430   0.98038    0.009
 5696.00    1.23066   0.97730    0.009
 5697.00    1.19149   0.97481    0.009
 5698.00    1.14341   0.97226    0.009
 5699.00    1.11209   0.96996    0.010
 5700.00    1.08570   0.96844    0.010
 5701.00    1.08217   0.96710    0.009
 5702.00    1.08422   0.96627    0.009
 5703.00    1.09920   0.96632    0.009
 5704.00    1.11674   0.96677    0.009
 5705.00    1.09500   0.96848    0.009
 5706.00    1.06723   0.97044    0.009
 5707.00    1.14336   0.97320    0.009
 5708.00    1.23127   0.97668    0.009
 5709.00    1.20469   0.98013    0.009
 5710.00    1.16943   0.98420    0.009
 5711.00    1.13828   0.98808    0.009
 5712.00    1.10729   0.99184    0.009
 5713.00    1.11518   0.99534    0.009
 5714.00    1.12081   0.99828    0.009
 5715.00    1.02089   1.00092    0.009
 5716.00    0.93152   1.00314    0.009
 5717.00    1.02324   1.00458    0.009
 5718.00    1.11347   1.00594    0.008
 5719.00    1.18782   1.00681    0.008
 5720.00    1.24622   1.00726    0.008
 5721.00    1.18516   1.00708    0.009
 5722.00    1.14456   1.00678    0.009
 5723.00    1.22073   1.00704    0.009
 5724.00    1.28317   1.00686    0.009
 5725.00    1.28325   1.00709    0.009
 5726.00    1.28053   1.00695    0.009
 5727.00    1.26736   1.00693    0.009
 5728.00    1.25298   1.00702    0.009
 5729.00    1.23480   1.00702    0.009
 5730.00    1.22064   1.00765    0.009
 5731.00    1.21707   1.00782    0.009
 5732.00    1.20792   1.00801    0.009
 5733.00    1.18610   1.00787    0.009
 5734.00    1.18350   1.00789    0.009
 5735.00    1.21869   1.00811    0.009
 5736.00    1.25171   1.00796    0.009
 5737.00    1.28101   1.00749    0.009
 5738.00    1.27679   1.00659    0.009
 5739.00    1.22228   1.00622    0.009
 5740.00    1.16829   1.00579    0.000
 5741.00    1.11500   1.00529    0.000
 5742.00    1.06505   1.00423    0.000
 5743.00    1.01897   1.00285    0.000
 5744.00    0.95423   1.00155    0.000
 5745.00    0.87040   1.00058    0.000
 5746.00    0.86553   1.00027    0.000
 5747.00    0.93198   0.99973    0.000
 5748.00    0.98796   0.99907    0.000
 5749.00    1.03561   0.99798    0.000
 5750.00    1.05523   0.99713    0.000
 5751.00    1.05525   0.99678    0.000
 5752.00    1.09645   0.99672    0.000
 5753.00    1.16297   0.99689    0.000
 5754.00    1.19185   0.99734    0.000
 5755.00    1.20056   0.99758    0.000
 5756.00    1.18638   0.99773    0.000
 5757.00    1.16156   0.99802    0.000
 5758.00    1.09826   0.99855    0.000
 5759.00    1.01951   0.99932    0.000
 5760.00    0.99322   0.99990    0.000
 5761.00    0.98488   1.00086    0.000
 5762.00    0.97540   1.00118    0.000
 5763.00    0.96560   1.00132    0.000
 5764.00    0.96673   1.00103    0.000
 5765.00    0.97046   1.00037    0.000
 5766.00    1.10256   0.99989    0.000
 5767.00    1.25928   0.99875    0.000
 5768.00    1.26583   0.99734    0.000
 5769.00    1.25002   0.99530    0.000
 5770.00    1.20744   0.99280    0.000
 5771.00    1.16195   0.98998    0.000
 5772.00    1.18788   0.98740    0.000
 5773.00    1.21893   0.98521    0.000
 5774.00    1.19070   0.98290    0.000
 5775.00    1.16028   0.98021    0.000
 5776.00    1.14667   0.97822    0.000
 5777.00    1.13435   0.97707    0.000
 5778.00    1.16599   0.97598    0.000
 5779.00    1.19312   0.97631    0.000
 5780.00    1.14791   0.97657    0.000
 5781.00    1.10236   0.97727    0.000
 5782.00    1.05333   0.97874    0.000
 5783.00    1.00950   0.98036    0.000
 5784.00    1.00335   0.98346    0.000
 5785.00    1.00479   0.98602    0.000
 5786.00    1.04833   0.98868    0.000
 5787.00    1.09223   0.99102    0.000
 5788.00    1.13774   0.99290    0.000
 5789.00    1.15754   0.99609    0.000
 5790.00    1.08365   0.99869    0.000
 5791.00    1.05616   1.00098   -2.000
 5792.00    1.17034   1.00313   -2.000
 5793.00    1.24648   1.00432   -2.000
 5794.00    1.22386   1.00539   -2.000
 5795.00    1.19932   1.00637   -2.000
 5796.00    1.17047   1.00750   -2.000
 5797.00    1.15452   1.00870   -2.000
 5798.00    1.16356   1.00893   -2.000
 5799.00    1.15879   1.00891   -2.000
 5800.00    1.13073   1.00879   -2.000
 5801.00    1.13111   1.00838   -2.000
 5802.00    1.17352   1.00842   -2.000
 5803.00    1.16063   1.00825   -2.000
 5804.00    1.07585   1.00809   -2.000
 5805.00    1.02725   1.00769   -2.000
 5806.00    1.02006   1.00701   -2.000
 5807.00    1.02267   1.00686   -2.000
 5808.00    1.03517   1.00707   -2.000
 5809.00    1.05973   1.00722   -2.000
 5810.00    1.09503   1.00752   -2.000
 5811.00    1.09650   1.00776    0.000
 5812.00    1.07143   1.00806    0.000
 5813.00    1.07871   1.00861    0.000
 5814.00    1.10833   1.00933    0.000
 5815.00    1.16174   1.01059    0.000
 5816.00    1.22953   1.01135    0.000
 5817.00    1.21765   1.01203    0.000
 5818.00    1.16369   1.01272    0.000
 5819.00    1.12570   1.01328    0.000
 5820.00    1.09504   1.01409    0.000
 5821.00    1.08793   1.01448    0.000
 5822.00    1.09011   1.01505    0.000
 5823.00    1.11638   1.01519    0.000
 5824.00    1.15073   1.01512    0.000
 5825.00    1.17065   1.01514    0.000
 5826.00    1.18648   1.01515    0.000
 5827.00    1.16645   1.01522    0.000
 5828.00    1.13807   1.01484    0.000
 5829.00    1.14925   1.01455    0.000
 5830.00    1.16783   1.01426    0.000
 5831.00    1.23295   1.01388    0.000
 5832.00    1.30479   1.01337    0.000
 5833.00    1.31737   1.01293    0.000
 5834.00    1.32374   1.01227    0.000
 5835.00    1.32580   1.01119    0.000
 5836.00    1.32757   1.00992    0.000
 5837.00    1.32029   1.00836    0.000
 5838.00    1.31271   1.00667    0.000
 5839.00    1.16068   1.00457    0.000
 5840.00    1.01303   1.00227    0.000
 5841.00    1.00626   0.99959    0.000
 5842.00    1.00397   0.99634    0.000
 5843.00    1.06952   0.99296    0.000
 5844.00    1.13592   0.98965    0.000
 5845.00    1.21063   0.98659    0.000
 5846.00    1.26880   0.98373    0.000
 5847.00    1.21099   0.98039    0.000
 5848.00    1.15262   0.97744    0.000
 5849.00    1.09123   0.97493    0.000
 5850.00    1.05122   0.97278    0.000
 5851.00    1.10379   0.97181    0.000
 5852.00    1.15941   0.97076    0.000
 5853.00    1.22586   0.97039    0.000
 5854.00    1.24833   0.96986    0.000
 5855.00    1.13899   0.96997    0.000
 5856.00    1.08326   0.97137    0.000
 5857.00    1.16428   0.97232    0.000
 5858.00    1.22472   0.97377    0.000
 5859.00    1.23996   0.97450    0.000
 5860.00    1.21080   0.97577    0.000
 5861.00    1.09708   0.97744    0.000
 5862.00    1.02305   0.97843    0.000
 5863.00    1.01498   0.97924    0.000
 5864.00    1.02040   0.97924    0.000
 5865.00    1.04545   0.97959    0.000
 5866.00    1.08070   0.97962    0.000
 5867.00    1.12900   0.97903    0.000
 5868.00    1.12426   0.97786    0.000
 5869.00    1.05963   0.97577    0.000
 5870.00    1.00800   0.97361    0.000
 5871.00    0.96929   0.97105    0.000
 5872.00    0.97582   0.96794    0.000
 5873.00    1.02207   0.96395    0.000
 5874.00    1.03153   0.95863    0.000
 5875.00    1.01254   0.95261    0.000
 5876.00    1.05469   0.94647    0.000
 5877.00    1.13842   0.93981    0.000
 5878.00    1.13488   0.93274    0.000
 5879.00    1.07932   0.92458    0.000
 5880.00    1.02593   0.91488    0.000
 5881.00    0.97366   0.90576    0.000
 5882.00    0.94162   0.89753    0.000
 5883.00    0.91870   0.89139    0.000
 5884.00    0.89651   0.88607    0.000
 5885.00    0.87461   0.87955    0.000
 5886.00    0.85853   0.87415    0.000
 5887.00    0.84438   0.87046    0.000
 5888.00    0.87277   0.87105    0.000
 5889.00    0.91294   0.87493    0.000
 5890.00    0.88339   0.87788    0.000
 5891.00    0.83800   0.88146    0.000
 5892.00    0.82715   0.88554    0.000
 5893.00    0.82258   0.89115    0.000
 5894.00    0.83689   0.90032    0.000
 5895.00    0.85383   0.90891    0.000
 5896.00    0.87754   0.91590    0.000
 5897.00    0.90193   0.92243    0.000
 5898.00    0.95292   0.92835    0.000
 5899.00    1.00561   0.93474    0.000
 5900.00    1.07767   0.94051    0.000
 5901.00    1.14995   0.94462    0.008
 5902.00    1.10474   0.94811    0.008
 5903.00    1.06171   0.95067    0.008
 5904.00    1.08031   0.95273    0.008
 5905.00    1.09723   0.95450    0.008
 5906.00    1.09029   0.95505    0.008
 5907.00    1.07620   0.95595    0.008
 5908.00    0.99557   0.95654    0.008
 5909.00    0.92595   0.95702    0.008
 5910.00    0.93111   0.95752    0.008
 5911.00    0.93599   0.95715    0.008
 5912.00    0.93936   0.95791    0.008
 5913.00    0.95379   0.95854    0.008
 5914.00    1.01507   0.95900    0.008
 5915.00    1.06566   0.95967    0.009
 5916.00    1.07887   0.95992    0.009
 5917.00    1.08716   0.96063    0.009
 5918.00    1.08096   0.96133    0.008
 5919.00    1.06803   0.96140    0.008
 5920.00    1.03824   0.96168    0.008
 5921.00    1.01805   0.96205    0.008
 5922.00    1.01858   0.96204    0.008
 5923.00    1.01269   0.96273    0.008
 5924.00    0.99474   0.96286    0.008
 5925.00    1.00250   0.96281    0.008
 5926.00    1.05233   0.96293    0.008
 5927.00    1.09415   0.96260    0.008
 5928.00    1.12448   0.96351    0.008
 5929.00    1.13178   0.96418    0.008
 5930.00    1.11001   0.96426    0.008
 5931.00    1.09873   0.96429    0.008
 5932.00    1.09911   0.96407    0.008
 5933.00    1.10429   0.96453    0.008
 5934.00    1.11420   0.96492    0.008
 5935.00    1.11093   0.96490    0.008
 5936.00    1.09627   0.96484    0.008
 5937.00    1.06233   0.96456    0.008
 5938.00    1.01369   0.96404    0.008
 5939.00    0.99756   0.96369    0.008
 5940.00    1.00323   0.96321    0.008
 5941.00    1.04721   0.96272    0.008
 5942.00    1.11369   0.96251    0.008
 5943.00    1.13081   0.96201    0.008
 5944.00    1.12266   0.96140    0.008
 5945.00    1.09414   0.96062    0.008
 5946.00    1.05658   0.96044    0.008
 5947.00    1.07040   0.96109    0.008
 5948.00    1.10378   0.96130    0.008
 5949.00    1.10206   0.96134    0.008
 5950.00    1.08899   0.96146    0.008
 5951.00    1.06724   0.96257    0.008
 5952.00    1.04314   0.96420    0.008
 5953.00    1.08244   0.96493    0.008
 5954.00    1.13581   0.96598    0.008
 5955.00    1.11194   0.96708    0.008
 5956.00    1.07440   0.96858    0.008
 5957.00    1.11721   0.97012    0.008
 5958.00    1.17088   0.97079    0.008
 5959.00    1.21129   0.97198    0.008
 5960.00    1.25044   0.97269    0.008
 5961.00    1.19530   0.97332    0.008
 5962.00    1.13454   0.97372    0.008
 5963.00    1.06739   0.97339    0.008
 5964.00    1.00062   0.97354    0.008
 5965.00    1.02014   0.97314    0.008
 5966.00    1.03977   0.97246    0.008
 5967.00    1.06225   0.97164    0.008
 5968.00    1.08302   0.97032    0.008
 5969.00    1.08056   0.96920    0.008
 5970.00    1.07758   0.96798    0.008
 5971.00    1.06988   0.96661    0.008
 5972.00    1.06532   0.96558    0.008
 5973.00    1.08144   0.96433    0.008
 5974.00    1.09463   0.96318    0.008
 5975.00    1.09280   0.96227    0.008
 5976.00    1.08983   0.96130    0.008
 5977.00    1.08217   0.96128    0.008
 5978.00    1.08518   0.96141    0.008
 5979.00    1.12475   0.96118    0.008
 5980.00    1.15237   0.96137    0.008
 5981.00    1.14552   0.96145    0.008
 5982.00    1.12247   0.96230    0.008
 5983.00    1.05951   0.96339    0.008
 5984.00    1.01186   0.96365    0.008
 5985.00    0.99674   0.96446    0.008
 5986.00    1.00110   0.96526    0.008
 5987.00    1.04140   0.96575    0.008
 5988.00    1.05333   0.96604    0.008
 5989.00    1.01952   0.96553    0.008
 5990.00    1.00012   0.96549    0.008
 5991.00    1.00111   0.96581    0.008
 5992.00    1.00605   0.96525    0.008
 5993.00    1.01591   0.96444    0.008
 5994.00    1.02145   0.96299    0.008
 5995.00    1.02224   0.96143    0.008
 5996.00    1.03605   0.96135    0.008
 5997.00    1.06245   0.96075    0.008
 5998.00    1.10127   0.95957    0.008
 5999.00    1.15070   0.95818    0.008
 6000.00    1.15052   0.95614    0.008
 6001.00    1.11305   0.95629    0.008
 6002.00    1.08828   0.95669    0.008
 6003.00    1.07190   0.95573    0.008
 6004.00    1.07759   0.95485    0.008
 6005.00    1.09605   0.95348    0.008
 6006.00    1.10364   0.95369    0.008
 6007.00    1.10575   0.95480    0.008
 6008.00    1.07764   0.95425    0.008
 6009.00    1.03635   0.95364    0.008
 6010.00    1.03279   0.95354    0.008
 6011.00    1.04334   0.95372    0.008
 6012.00    1.08618   0.95478    0.008
 6013.00    1.13926   0.95502    0.008
 6014.00    1.07953   0.95513    0.008
 6015.00    0.98989   0.95667    0.008
 6016.00    0.99658   0.95753    0.008
 6017.00    1.02418   0.95899    0.008
 6018.00    1.05173   0.96069    0.008
 6019.00    1.07928   0.96190    0.008
 6020.00    1.09632   0.96451    0.008
 6021.00    1.11199   0.96630    0.008
 6022.00    1.16833   0.96829    0.008
 6023.00    1.22841   0.97049    0.008
 6024.00    1.24270   0.97188    0.008
 6025.00    1.25444   0.97428    0.008
 6026.00    1.19006   0.97592    0.008
 6027.00    1.12396   0.97723    0.008
 6028.00    1.05377   0.97861    0.008
 6029.00    0.98684   0.97935    0.008
 6030.00    0.99575   0.98080    0.008
 6031.00    1.00725   0.98153    0.008
 6032.00    1.05187   0.98197    0.008
 6033.00    1.09591   0.98270    0.008
 6034.00    1.13501   0.98288    0.008
 6035.00    1.16567   0.98375    0.008
 6036.00    1.14237   0.98413    0.008
 6037.00    1.11510   0.98428    0.008
 6038.00    1.06796   0.98477    0.008
 6039.00    1.02444   0.98472    0.008
 6040.00    0.99558   0.98504    0.008
 6041.00    0.97238   0.98505    0.008
 6042.00    0.96816   0.98486    0.008
 6043.00    0.97042   0.98464    0.008
 6044.00    0.99104   0.98403    0.008
 6045.00    1.02508   0.98340    0.008
 6046.00    1.09165   0.98274    0.008
 6047.00    1.14410   0.98190    0.008
 6048.00    1.16705   0.98091    0.008
 6049.00    1.16600   0.97995    0.008
 6050.00    1.12133   0.97890    0.008
 6051.00    1.10154   0.97822    0.008
 6052.00    1.12129   0.97704    0.008
 6053.00    1.14176   0.97624    0.008
 6054.00    1.16323   0.97604    0.008
 6055.00    1.15603   0.97551    0.008
 6056.00    1.11361   0.97565    0.008
 6057.00    1.07734   0.97491    0.008
 6058.00    1.04771   0.97511    0.008
 6059.00    1.04831   0.97646    0.008
 6060.00    1.07775   0.97682    0.008
 6061.00    1.09573   0.97779    0.008
 6062.00    1.10407   0.97794    0.008
 6063.00    1.11599   0.97857    0.008
 6064.00    1.13055   0.98027    0.008
 6065.00    1.11288   0.98043    0.008
 6066.00    1.07422   0.98066    0.008
 6067.00    1.01117   0.98060    0.008
 6068.00    0.93423   0.98000    0.008
 6069.00    0.88783   0.97981    0.008
 6070.00    0.85659   0.97855    0.008
 6071.00    0.88525   0.97717    0.008
 6072.00    0.93960   0.97613    0.008
 6073.00    0.95468   0.97441    0.008
 6074.00    0.95534   0.97276    0.008
 6075.00    0.98034   0.97119    0.008
 6076.00    1.01292   0.96979    0.008
 6077.00    1.03263   0.96862    0.008
 6078.00    1.04899   0.96750    0.008
 6079.00    1.08283   0.96644    0.008
 6080.00    1.12036   0.96586    0.008
 6081.00    1.10745   0.96564    0.008
 6082.00    1.08610   0.96508    0.008
 6083.00    1.02932   0.96497    0.008
 6084.00    0.96807   0.96487    0.007
 6085.00    0.91738   0.96476    0.007
 6086.00    0.86762   0.96510    0.007
 6087.00    0.88607   0.96509    0.008
 6088.00    0.90805   0.96515    0.008
 6089.00    0.97782   0.96445    0.008
 6090.00    1.04696   0.96369    0.008
 6091.00    1.00619   0.96403    0.007
 6092.00    0.96634   0.96400    0.007
 6093.00    0.94618   0.96387    0.007
 6094.00    0.93129   0.96206    0.008
 6095.00    0.98033   0.96058    0.008
 6096.00    1.02477   0.96189    0.008
 6097.00    1.03110   0.96239    0.008
 6098.00    1.03560   0.96252    0.008
 6099.00    1.02877   0.96153    0.008
 6100.00    1.03359   0.96064    0.008
 6101.00    1.09518   0.96313    0.008
 6102.00    1.13619   0.96474    0.008
 6103.00    1.09571   0.96466    0.008
 6104.00    1.05611   0.96456    0.008
 6105.00    1.01941   0.96450    0.008
 6106.00    0.99006   0.96583    0.008
 6107.00    0.98113   0.96680    0.008
 6108.00    0.98640   0.96540    0.008
 6109.00    1.02550   0.96398    0.008
 6110.00    1.04978   0.96386    0.008
 6111.00    1.04356   0.96319    0.008
 6112.00    1.02788   0.96233    0.008
 6113.00    0.99527   0.96049    0.007
 6114.00    0.98666   0.95786    0.007
 6115.00    1.01561   0.95774    0.008
 6116.00    1.04228   0.95737    0.008
 6117.00    1.06583   0.95613    0.008
 6118.00    1.05789   0.95521    0.008
 6119.00    1.01184   0.95325    0.008
 6120.00    0.96918   0.95324    0.008
 6121.00    0.93011   0.95369    0.008
 6122.00    0.92379   0.95294    0.007
 6123.00    0.94830   0.95201    0.008
 6124.00    0.95960   0.95005    0.007
 6125.00    0.95995   0.94941    0.007
 6126.00    0.99250   0.94919    0.007
 6127.00    1.04857   0.94845    0.008
 6128.00    1.08020   0.94686    0.008
 6129.00    1.09616   0.94425    0.008
 6130.00    1.08721   0.94408    0.008
 6131.00    1.06429   0.94467    0.008
 6132.00    1.04001   0.94492    0.008
 6133.00    1.01507   0.94425    0.008
 6134.00    1.01250   0.94283    0.008
 6135.00    1.01935   0.94462    0.008
 6136.00    0.99161   0.94716    0.008
 6137.00    0.95138   0.94838    0.008
 6138.00    0.92489   0.94856    0.008
 6139.00    0.90259   0.94817    0.008
 6140.00    0.90690   0.94988    0.008
 6141.00    0.91796   0.95137    0.008
 6142.00    0.92922   0.95109    0.008
 6143.00    0.94051   0.95015    0.007
 6144.00    0.94712   0.94857    0.007
 6145.00    0.95296   0.94752    0.007
 6146.00    0.93652   0.94562    0.007
 6147.00    0.91737   0.94251    0.007
 6148.00    0.93421   0.93937    0.007
 6149.00    0.95406   0.93560    0.007
 6150.00    0.97626   0.93167    0.007
 6151.00    0.99857   0.92746    0.007
 6152.00    0.99806   0.92294    0.007
 6153.00    0.99717   0.91828    0.007
 6154.00    0.99335   0.91389    0.007
 6155.00    0.98813   0.91014    0.007
 6156.00    0.95521   0.90688    0.008
 6157.00    0.92282   0.90424    0.008
 6158.00    0.89638   0.90118    0.008
 6159.00    0.87574   0.89935    0.008
 6160.00    0.90140   0.89914    0.008
 6161.00    0.92691   0.89888    0.008
 6162.00    0.95149   0.89945    0.008
 6163.00    0.96942   0.90024    0.008
 6164.00    0.95571   0.90173    0.008
 6165.00    0.94468   0.90426    0.008
 6166.00    0.94407   0.90595    0.008
 6167.00    0.93818   0.90794    0.008
 6168.00    0.91524   0.91098    0.008
 6169.00    0.89905   0.91362    0.008
 6170.00    0.90129   0.91584    0.008
 6171.00    0.91740   0.91751    0.007
 6172.00    0.96595   0.91879    0.007
 6173.00    1.01277   0.92068    0.007
 6174.00    1.05609   0.92196    0.007
 6175.00    1.08172   0.92203    0.007
 6176.00    1.07617   0.92227    0.007
 6177.00    1.06884   0.92201    0.007
 6178.00    1.05875   0.92097    0.007
 6179.00    1.04290   0.92038    0.007
 6180.00    1.01922   0.91896    0.007
 6181.00    0.98956   0.91785    0.007
 6182.00    0.95274   0.91742    0.007
 6183.00    0.93038   0.91509    0.008
 6184.00    0.92323   0.91424    0.008
 6185.00    0.91990   0.91433    0.008
 6186.00    0.92014   0.91388    0.008
 6187.00    0.90963   0.91473    0.008
 6188.00    0.89035   0.91383    0.008
 6189.00    0.86286   0.91409    0.008
 6190.00    0.82948   0.91662    0.008
 6191.00    0.84799   0.91746    0.008
 6192.00    0.89928   0.91851    0.008
 6193.00    0.99794   0.91938    0.008
 6194.00    1.12276   0.92035    0.008
 6195.00    1.31651   0.92258    0.008
 6196.00    1.54335   0.92324   -2.000
 6197.00    1.45828   0.92300   -2.000
 6198.00    1.24393   0.92361   -2.000
 6199.00    0.81715   0.92379   -2.000
 6200.00    0.31507   0.92333   -2.000
 6201.00    0.04123   0.92249   -2.000
 6202.00   -0.16432   0.92049   -2.000
 6203.00    0.05012   0.91882   -2.000
 6204.00    0.36889   0.91752   -2.000
 6205.00    0.61646   0.91479   -2.000
 6206.00    0.84969   0.91256   -2.000
 6207.00    0.87561   0.91007   -2.000
 6208.00    0.86882   0.90698    0.008
 6209.00    0.75723   0.90557    0.008
 6210.00    0.63336   0.90325    0.007
 6211.00    0.61757   0.90089    0.007
 6212.00    0.61036   0.89967    0.007
 6213.00    0.68187   0.89770    0.007
 6214.00    0.75683   0.89710    0.007
 6215.00    0.81537   0.89656    0.007
 6216.00    0.87289   0.89489    0.007
 6217.00    0.89091   0.89437    0.008
 6218.00    0.90914   0.89397    0.008
 6219.00    0.93124   0.89345    0.008
 6220.00    0.95239   0.89347    0.007
 6221.00    0.96307   0.89265    0.008
 6222.00    0.97302   0.89164    0.008
 6223.00    0.97732   0.89176    0.008
 6224.00    0.97921   0.89147    0.007
 6225.00    0.96693   0.89125    0.007
 6226.00    0.96601   0.89140    0.007
 6227.00    1.01780   0.89017    0.007
 6228.00    1.06394   0.89015    0.007
 6229.00    1.08869   0.89039    0.007
 6230.00    1.10997   0.88977    0.008
 6231.00    1.12031   0.89010    0.008
 6232.00    1.12395   0.88891    0.008
 6233.00    1.10962   0.88850    0.007
 6234.00    1.09950   0.88871    0.007
 6235.00    1.09911   0.88727    0.007
 6236.00    1.10809   0.88711    0.007
 6237.00    1.13574   0.88640    0.007
 6238.00    1.13539   0.88569    0.007
 6239.00    1.08642   0.88586    0.007
 6240.00    1.03972   0.88438    0.007
 6241.00    0.99645   0.88361    0.007
 6242.00    0.96756   0.88340    0.007
 6243.00    0.95786   0.88250    0.007
 6244.00    0.94426   0.88234    0.007
 6245.00    0.92605   0.88150    0.007
 6246.00    0.92286   0.88071    0.008
 6247.00    0.93524   0.88098    0.008
 6248.00    0.92103   0.88052    0.008
 6249.00    0.88249   0.88038    0.008
 6250.00    0.84158   0.88063    0.007
 6251.00    0.79876   0.88141    0.007
 6252.00    0.76149   0.88327    0.007
 6253.00    0.72816   0.88416    0.007
 6254.00    0.73535   0.88533    0.007
 6255.00    0.76776   0.88726    0.007
 6256.00    0.81447   0.88957    0.007
 6257.00    0.86896   0.89256    0.007
 6258.00    0.94511   0.89425    0.007
 6259.00    1.03149   0.89617    0.008
 6260.00    0.97971   0.89886    0.008
 6261.00    0.87163   0.90083    0.009
 6262.00    0.72016   0.90269    0.009
 6263.00    0.55361   0.90405    0.009
 6264.00    0.55062   0.90551    0.009
 6265.00    0.59560   0.90732    0.009
 6266.00    0.76044   0.90805    0.008
 6267.00    0.95439   0.90862    0.008
 6268.00    0.97287   0.90957    0.008
 6269.00    0.95691   0.90999    0.007
 6270.00    0.91539   0.91091    0.007
 6271.00    0.86997   0.91132    0.008
 6272.00    0.85367   0.91143    0.007
 6273.00    0.84066   0.91262    0.007
 6274.00    0.84518   0.91270    0.007
 6275.00    0.85103   0.91344    0.008
 6276.00    0.89307   0.91462    0.008
 6277.00    0.93657   0.91444    0.007
 6278.00    0.97177   0.91575    0.007
 6279.00    1.00613   0.91636    0.007
 6280.00    1.00886   0.91647    0.000
 6281.00    1.00893   0.91753    0.000
 6282.00    0.96353   0.91681    0.000
 6283.00    0.92427   0.91710    0.000
 6284.00    0.94953   0.91742    0.000
 6285.00    0.97728   0.91612    0.000
 6286.00    1.02360   0.91579    0.000
 6287.00    1.06083   0.91474    0.000
 6288.00    1.04627   0.91390    0.000
 6289.00    1.02826   0.91336    0.000
 6290.00    0.99464   0.91162    0.000
 6291.00    0.96678   0.91104    0.000
 6292.00    0.96029   0.91088    0.000
 6293.00    0.94233   0.91026    0.000
 6294.00    0.88872   0.90980    0.000
 6295.00    0.84452   0.90946    0.000
 6296.00    0.82512   0.91033    0.000
 6297.00    0.81064   0.91135    0.000
 6298.00    0.80732   0.91130    0.000
 6299.00    0.80528   0.91138    0.000
 6300.00    0.80578   0.91228    0.000
 6301.00    0.82380   0.91342    0.000
 6302.00    0.87177   0.91406    0.000
 6303.00    0.90399   0.91376    0.000
 6304.00    0.91262   0.91342    0.000
 6305.00    0.91594   0.91434    0.000
 6306.00    0.91227   0.91450    0.000
 6307.00    0.92945   0.91338    0.000
 6308.00    0.97081   0.91326    0.000
 6309.00    1.00301   0.91337    0.000
 6310.00    1.02584   0.91386    0.000
 6311.00    1.02882   0.91383    0.000
 6312.00    1.01389   0.91316    0.000
 6313.00    0.96441   0.91448    0.000
 6314.00    0.88748   0.91565    0.000
 6315.00    0.81613   0.91619    0.000
 6316.00    0.74867   0.91705    0.000
 6317.00    0.75859   0.91820    0.000
 6318.00    0.81594   0.92027    0.000
 6319.00    0.86084   0.92084    0.000
 6320.00    0.89908   0.92127    0.000
 6321.00    0.92960   0.92265    0.007
 6322.00    0.95653   0.92361    0.007
 6323.00    0.98927   0.92445    0.007
 6324.00    1.02432   0.92356    0.007
 6325.00    1.02951   0.92307    0.007
 6326.00    1.02449   0.92416    0.007
 6327.00    0.98314   0.92365    0.007
 6328.00    0.93136   0.92269    0.007
 6329.00    0.95169   0.92240    0.007
 6330.00    0.98915   0.92200    0.007
 6331.00    0.99819   0.92208    0.007
 6332.00    1.00180   0.92132    0.007
 6333.00    0.98013   0.91997    0.007
 6334.00    0.95471   0.92081    0.007
 6335.00    0.99564   0.92131    0.007
 6336.00    1.04377   0.92053    0.007
 6337.00    1.06330   0.92079    0.007
 6338.00    1.08080   0.92063    0.007
 6339.00    1.00830   0.92078    0.007
 6340.00    0.93252   0.92116    0.007
 6341.00    0.90944   0.92025    0.007
 6342.00    0.88720   0.92034    0.007
 6343.00    0.88776   0.92003    0.007
 6344.00    0.88902   0.91856    0.007
 6345.00    0.90155   0.91817    0.007
 6346.00    0.91407   0.91721    0.007
 6347.00    0.92662   0.91531    0.007
 6348.00    0.94262   0.91388    0.007
 6349.00    0.98355   0.91248    0.007
 6350.00    1.01417   0.91119    0.007
 6351.00    0.98770   0.90979    0.007
 6352.00    0.95412   0.90796    0.007
 6353.00    0.88913   0.90731    0.007
 6354.00    0.83878   0.90742    0.007
 6355.00    0.84162   0.90673    0.007
 6356.00    0.85153   0.90659    0.007
 6357.00    0.88299   0.90764    0.007
 6358.00    0.90728   0.90893    0.007
 6359.00    0.91297   0.91022    0.007
 6360.00    0.90985   0.91148    0.007
 6361.00    0.88710   0.91349    0.007
 6362.00    0.87479   0.91612    0.007
 6363.00    0.88266   0.91804    0.007
 6364.00    0.89859   0.91956    0.007
 6365.00    0.92810   0.92154    0.007
 6366.00    0.94884   0.92360    0.007
 6367.00    0.95664   0.92483    0.007
 6368.00    0.97005   0.92571    0.007
 6369.00    0.99073   0.92673    0.007
 6370.00    0.99045   0.92742    0.007
 6371.00    0.96623   0.92805    0.007
 6372.00    0.93870   0.92803    0.007
 6373.00    0.90784   0.92760    0.007
 6374.00    0.91427   0.92763    0.007
 6375.00    0.95385   0.92734    0.007
 6376.00    0.97859   0.92700    0.007
 6377.00    0.99172   0.92656    0.007
 6378.00    0.96810   0.92577    0.007
 6379.00    0.91915   0.92532    0.007
 6380.00    0.90010   0.92493    0.007
 6381.00    0.89909   0.92404    0.007
 6382.00    0.91798   0.92287    0.007
 6383.00    0.94737   0.92235    0.007
 6384.00    0.99908   0.92232    0.007
 6385.00    1.06101   0.92177    0.007
 6386.00    1.06639   0.92092    0.007
 6387.00    1.04951   0.92051    0.007
 6388.00    0.97402   0.92019    0.007
 6389.00    0.87889   0.91960    0.007
 6390.00    0.85918   0.91991    0.007
 6391.00    0.86072   0.92031    0.007
 6392.00    0.87559   0.92073    0.007
 6393.00    0.89355   0.92134    0.007
 6394.00    0.88570   0.92072    0.007
 6395.00    0.87304   0.92185    0.007
 6396.00    0.89956   0.92294    0.007
 6397.00    0.93172   0.92200    0.007
 6398.00    0.95104   0.92354    0.007
 6399.00    0.96902   0.92464    0.007
 6400.00    0.93850   0.92411    0.007
 6401.00    0.90472   0.92449    0.007
 6402.00    0.92582   0.92371    0.007
 6403.00    0.94871   0.92425    0.007
 6404.00    0.93538   0.92530    0.007
 6405.00    0.92002   0.92383    0.007
 6406.00    0.84157   0.92377    0.007
 6407.00    0.76762   0.92453    0.007
 6408.00    0.76108   0.92388    0.007
 6409.00    0.76125   0.92365    0.007
 6410.00    0.82600   0.92347    0.007
 6411.00    0.88240   0.92369    0.007
 6412.00    0.88037   0.92465    0.007
 6413.00    0.87998   0.92455    0.007
 6414.00    0.88847   0.92434    0.007
 6415.00    0.90029   0.92502    0.007
 6416.00    0.92649   0.92557    0.007
 6417.00    0.94581   0.92613    0.007
 6418.00    0.94063   0.92664    0.007
 6419.00    0.93207   0.92654    0.007
 6420.00    0.91337   0.92701    0.007
 6421.00    0.89989   0.92781    0.007
 6422.00    0.89966   0.92769    0.007
 6423.00    0.90463   0.92803    0.007
 6424.00    0.92099   0.92799    0.007
 6425.00    0.93002   0.92766    0.007
 6426.00    0.92513   0.92896    0.007
 6427.00    0.90470   0.92867    0.007
 6428.00    0.85851   0.92805    0.007
 6429.00    0.81140   0.92950    0.008
 6430.00    0.76298   0.92973    0.007
 6431.00    0.74233   0.93031    0.007
 6432.00    0.75720   0.93069    0.007
 6433.00    0.78666   0.92981    0.007
 6434.00    0.83253   0.93153    0.007
 6435.00    0.87092   0.93198    0.007
 6436.00    0.90186   0.93069    0.007
 6437.00    0.90218   0.93179    0.007
 6438.00    0.87566   0.93134    0.007
 6439.00    0.85160   0.93041    0.007
 6440.00    0.82944   0.93057    0.007
 6441.00    0.84101   0.92898    0.007
 6442.00    0.87550   0.92879    0.007
 6443.00    0.89123   0.92824    0.007
 6444.00    0.89581   0.92603    0.007
 6445.00    0.88090   0.92640    0.007
 6446.00    0.85588   0.92614    0.007
 6447.00    0.81360   0.92514    0.007
 6448.00    0.76355   0.92528    0.007
 6449.00    0.75760   0.92474    0.007
 6450.00    0.76871   0.92502    0.007
 6451.00    0.80992   0.92505    0.007
 6452.00    0.86104   0.92461    0.007
 6453.00    0.86048   0.92548    0.007
 6454.00    0.84568   0.92618    0.007
 6455.00    0.83804   0.92676    0.007
 6456.00    0.83203   0.92649    0.007
 6457.00    0.83618   0.92624    0.007
 6458.00    0.84216   0.92757    0.007
 6459.00    0.86950   0.92792    0.007
 6460.00    0.89981   0.92762    0.007
 6461.00    0.92586   0.92823    0.007
 6462.00    0.95149   0.92875    0.007
 6463.00    0.95129   0.92875    0.007
 6464.00    0.94946   0.92831    0.007
 6465.00    0.92807   0.92769    0.007
 6466.00    0.90608   0.92769    0.007
 6467.00    0.87456   0.92773    0.007
 6468.00    0.84419   0.92647    0.007
 6469.00    0.84568   0.92529    0.007
 6470.00    0.84855   0.92488    0.007
 6471.00    0.87105   0.92374    0.007
 6472.00    0.89290   0.92209    0.007
 6473.00    0.90874   0.92058    0.007
 6474.00    0.92019   0.91929    0.007
 6475.00    0.90199   0.91758    0.007
 6476.00    0.88977   0.91501    0.007
 6477.00    0.90891   0.91268    0.007
 6478.00    0.92343   0.91086    0.007
 6479.00    0.91844   0.90819    0.007
 6480.00    0.90935   0.90464    0.007
 6481.00    0.88599   0.90183    0.007
 6482.00    0.86668   0.89888    0.007
 6483.00    0.85928   0.89520    0.007
 6484.00    0.86214   0.89201    0.007
 6485.00    0.89068   0.88837    0.007
 6486.00    0.92063   0.88598    0.007
 6487.00    0.95362   0.88412    0.007
 6488.00    0.98646   0.88065    0.007
 6489.00    1.01900   0.87981    0.007
 6490.00    1.01788   0.87973    0.007
 6491.00    0.96178   0.87906    0.007
 6492.00    0.91982   0.88090    0.007
 6493.00    0.89814   0.88190    0.007
 6494.00    0.87697   0.88386    0.007
 6495.00    0.85644   0.88756    0.007
 6496.00    0.84023   0.88958    0.007
 6497.00    0.82883   0.89282    0.007
 6498.00    0.82554   0.89632    0.007
 6499.00    0.83020   0.89892    0.007
 6500.00    0.84383   0.90237    0.007
 6501.00    0.86522   0.90453    0.007
 6502.00    0.88006   0.90620    0.007
 6503.00    0.88992   0.90847    0.007
 6504.00    0.89098   0.90963    0.007
 6505.00    0.88615   0.91050    0.007
 6506.00    0.89173   0.91136    0.007
 6507.00    0.90340   0.91170    0.007
 6508.00    0.87784   0.91225    0.007
 6509.00    0.83327   0.91213    0.007
 6510.00    0.86786   0.91181    0.007
 6511.00    0.93748   0.91249    0.007
 6512.00    0.96400   0.91225    0.007
 6513.00    0.97414   0.91189    0.007
 6514.00    0.92599   0.91276    0.007
 6515.00    0.85902   0.91293    0.007
 6516.00    0.86192   0.91309    0.007
 6517.00    0.88369   0.91341    0.007
 6518.00    0.90200   0.91339    0.007
 6519.00    0.91953   0.91407    0.007
 6520.00    0.90670   0.91414    0.007
 6521.00    0.88851   0.91386    0.007
 6522.00    0.86586   0.91462    0.007
 6523.00    0.84261   0.91472    0.007
 6524.00    0.85211   0.91444    0.007
 6525.00    0.86473   0.91458    0.007
 6526.00    0.84904   0.91426    0.007
 6527.00    0.83168   0.91392    0.007
 6528.00    0.80758   0.91347    0.000
 6529.00    0.78368   0.91257    0.000
 6530.00    0.81276   0.91208    0.000
 6531.00    0.84167   0.91088    0.000
 6532.00    0.86634   0.90885    0.000
 6533.00    0.88765   0.90762    0.000
 6534.00    0.86411   0.90576    0.000
 6535.00    0.84693   0.90305    0.000
 6536.00    0.88642   0.90051    0.000
 6537.00    0.92990   0.89698    0.000
 6538.00    0.99958   0.89373    0.000
 6539.00    1.05534   0.89024    0.000
 6540.00    1.03992   0.88477    0.000
 6541.00    1.01913   0.88033    0.000
 6542.00    0.97616   0.87585    0.000
 6543.00    0.94817   0.86977    0.000
 6544.00    0.97134   0.86399    0.000
 6545.00    0.99485   0.85679    0.000
 6546.00    1.01933   0.84963    0.000
 6547.00    1.03661   0.84348    0.000
 6548.00    1.03620   0.83389    0.000
 6549.00    1.02804   0.82500    0.000
 6550.00    1.00344   0.81931    0.000
 6551.00    0.98108   0.81167    0.000
 6552.00    0.96286   0.80458    0.000
 6553.00    0.95564   0.79855    0.000
 6554.00    0.96612   0.79297    0.000
 6555.00    0.96971   0.79095    0.000
 6556.00    0.96355   0.78629    0.000
 6557.00    0.96930   0.78249    0.000
 6558.00    0.98985   0.78722    0.000
 6559.00    1.03455   0.79045    0.000
 6560.00    1.10570   0.79185    0.000
 6561.00    1.15419   0.79788    0.000
 6562.00    1.18081   0.80408    0.000
 6563.00    1.20552   0.80997    0.000
 6564.00    1.22862   0.81668    0.000
 6565.00    1.22232   0.82337    0.000
 6566.00    1.19397   0.83112    0.000
 6567.00    1.11966   0.83843    0.000
 6568.00    1.01507   0.84448    0.000
 6569.00    0.95812   0.85074    0.000
 6570.00    0.92869   0.85732    0.000
 6571.00    0.90945   0.86254    0.000
 6572.00    0.89534   0.86656    0.000
 6573.00    0.87464   0.87128    0.000
 6574.00    0.85107   0.87500    0.000
 6575.00    0.88302   0.87721    0.000
 6576.00    0.93569   0.88031    0.000
 6577.00    0.96602   0.88273    0.000
 6578.00    0.98928   0.88411    0.000
 6579.00    0.99011   0.88564    0.000
 6580.00    0.98500   0.88621    0.000
 6581.00    1.00807   0.88702    0.000
 6582.00    1.03723   0.88803    0.000
 6583.00    1.05054   0.88774    0.000
 6584.00    1.06112   0.88775    0.000
 6585.00    1.05210   0.88838    0.000
 6586.00    1.04054   0.88816    0.000
 6587.00    0.98397   0.88729    0.000
 6588.00    0.92329   0.88778    0.000
 6589.00    0.89121   0.88891    0.000
 6590.00    0.86071   0.88899    0.000
 6591.00    0.84823   0.88939    0.000
 6592.00    0.83639   0.88982    0.000
 6593.00    0.84967   0.89026    0.000
 6594.00    0.86312   0.89144    0.000
 6595.00    0.88040   0.89174    0.000
 6596.00    0.89914   0.89218    0.000
 6597.00    0.93633   0.89341    0.000
 6598.00    0.96839   0.89375    0.000
 6599.00    0.95648   0.89408    0.000
 6600.00    0.93696   0.89473    0.000
 6601.00    0.86894   0.89544    0.000
 6602.00    0.81642   0.89620    0.000
 6603.00    0.84108   0.89631    0.000
 6604.00    0.86936   0.89697    0.000
 6605.00    0.91223   0.89827    0.000
 6606.00    0.95892   0.89892    0.000
 6607.00    1.01837   0.89906    0.000
 6608.00    1.04732   0.89939    0.000
 6609.00    0.99001   0.90042    0.007
 6610.00    0.94633   0.90070    0.007
 6611.00    0.93560   0.90033    0.007
 6612.00    0.90456   0.90063    0.007
 6613.00    0.83115   0.90052    0.007
 6614.00    0.77962   0.90010    0.007
 6615.00    0.76782   0.89956    0.007
 6616.00    0.78554   0.89848    0.007
 6617.00    0.85010   0.89801    0.007
 6618.00    0.89218   0.89695    0.007
 6619.00    0.90298   0.89528    0.007
 6620.00    0.89593   0.89486    0.007
 6621.00    0.86701   0.89391    0.007
 6622.00    0.83701   0.89254    0.007
 6623.00    0.80582   0.89193    0.007
 6624.00    0.77124   0.89096    0.007
 6625.00    0.73344   0.89023    0.007
 6626.00    0.71964   0.88974    0.007
 6627.00    0.72601   0.88888    0.007
 6628.00    0.76047   0.88859    0.007
 6629.00    0.81570   0.88866    0.007
 6630.00    0.84594   0.88846    0.007
 6631.00    0.85993   0.88829    0.007
 6632.00    0.82839   0.88856    0.007
 6633.00    0.77096   0.88868    0.007
 6634.00    0.76183   0.88812    0.007
 6635.00    0.77660   0.88843    0.007
 6636.00    0.79774   0.88904    0.007
 6637.00    0.82160   0.88828    0.007
 6638.00    0.82130   0.88812    0.007
 6639.00    0.81212   0.88866    0.007
 6640.00    0.86343   0.88845    0.007
 6641.00    0.93351   0.88820    0.007
 6642.00    0.91085   0.88782    0.007
 6643.00    0.86418   0.88755    0.007
 6644.00    0.78615   0.88754    0.007
 6645.00    0.70150   0.88664    0.007
 6646.00    0.72700   0.88579    0.007
 6647.00    0.77087   0.88570    0.007
 6648.00    0.81869   0.88492    0.007
 6649.00    0.86700   0.88401    0.007
 6650.00    0.83428   0.88348    0.007
 6651.00    0.79450   0.88247    0.007
 6652.00    0.80378   0.88187    0.007
 6653.00    0.81557   0.88141    0.007
 6654.00    0.82005   0.88007    0.007
 6655.00    0.82451   0.87975    0.007
 6656.00    0.83689   0.87982    0.007
 6657.00    0.84842   0.87847    0.007
 6658.00    0.84185   0.87833    0.007
 6659.00    0.83954   0.87886    0.007
 6660.00    0.88852   0.87815    0.007
 6661.00    0.93289   0.87799    0.007
 6662.00    0.93911   0.87814    0.007
 6663.00    0.93954   0.87791    0.007
 6664.00    0.90418   0.87799    0.007
 6665.00    0.86808   0.87758    0.007
 6666.00    0.82838   0.87703    0.007
 6667.00    0.80056   0.87727    0.007
 6668.00    0.81966   0.87651    0.007
 6669.00    0.84331   0.87536    0.007
 6670.00    0.88185   0.87580    0.007
 6671.00    0.90573   0.87526    0.007
 6672.00    0.88890   0.87374    0.007
 6673.00    0.85794   0.87413    0.007
 6674.00    0.79341   0.87440    0.007
 6675.00    0.76851   0.87368    0.007
 6676.00    0.82500   0.87376    0.007
 6677.00    0.85535   0.87401    0.007
 6678.00    0.83902   0.87416    0.007
 6679.00    0.81445   0.87426    0.007
 6680.00    0.77702   0.87434    0.007
 6681.00    0.75702   0.87473    0.007
 6682.00    0.76093   0.87497    0.007
 6683.00    0.75186   0.87499    0.007
 6684.00    0.72712   0.87500    0.007
 6685.00    0.74074   0.87530    0.007
 6686.00    0.79520   0.87527    0.007
 6687.00    0.82668   0.87468    0.007
 6688.00    0.83659   0.87493    0.007
 6689.00    0.85844   0.87490    0.007
 6690.00    0.89019   0.87404    0.007
 6691.00    0.91926   0.87427    0.007
 6692.00    0.94636   0.87419    0.007
 6693.00    0.94632   0.87348    0.007
 6694.00    0.92891   0.87357    0.007
 6695.00    0.93094   0.87311    0.007
 6696.00    0.94387   0.87254    0.000
 6697.00    0.93554   0.87237    0.000
 6698.00    0.91687   0.87135    0.000
 6699.00    0.92918   0.87076    0.000
 6700.00    0.95453   0.87039    0.000
 6701.00    0.98054   0.86889    0.000
 6702.00    1.00679   0.86799    0.000
 6703.00    0.95391   0.86730    0.000
 6704.00    0.87694   0.86558    0.000
 6705.00    0.86463   0.86434    0.000
 6706.00    0.86870   0.86328    0.000
 6707.00    0.88001   0.86198    0.000
 6708.00    0.89283   0.86066    0.000
 6709.00    0.82252   0.85942    0.000
 6710.00    0.73876   0.85902    0.000
 6711.00    0.70359   0.85835    0.000
 6712.00    0.67429   0.85738    0.000
 6713.00    0.75830   0.85761    0.000
 6714.00    0.85172   0.85783    0.000
 6715.00    0.94293   0.85771    0.000
 6716.00    1.03403   0.85812    0.000
 6717.00    1.01654   0.85857    0.000
 6718.00    0.99552   0.85929    0.000
 6719.00    0.86157   0.85995    0.000
 6720.00    0.73465   0.86025    0.000
 6721.00    0.74474   0.86120    0.000
 6722.00    0.75908   0.86195    0.000
 6723.00    0.82211   0.86199    0.000
 6724.00    0.88104   0.86259    0.000
 6725.00    0.90736   0.86308    0.000
 6726.00    0.93133   0.86289    0.000
 6727.00    0.94121   0.86299    0.000
 6728.00    0.95847   0.86293    0.000
 6729.00    1.01070   0.86252    0.000
 6730.00    1.05702   0.86218    0.000
 6731.00    1.08057   0.86170    0.000
 6732.00    1.06806   0.86128    0.000
 6733.00    0.93946   0.86062    0.000
 6734.00    0.85116   0.85974    0.000
 6735.00    0.87278   0.85944    0.000
 6736.00    0.88118   0.85891    0.000
 6737.00    0.85873   0.85797    0.000
 6738.00    0.85318   0.85754    0.000
 6739.00    0.88179   0.85740    0.000
 6740.00    0.89665   0.85692    0.000
 6741.00    0.88734   0.85633    0.000
 6742.00    0.85678   0.85674    0.000
 6743.00    0.79350   0.85698    0.000
 6744.00    0.74897   0.85646    0.000
 6745.00    0.72977   0.85741    0.000
 6746.00    0.74183   0.85824    0.000
 6747.00    0.79110   0.85815    0.000
 6748.00    0.84478   0.85932    0.000
 6749.00    0.90308   0.86024    0.000
 6750.00    0.89085   0.86060    0.000
 6751.00    0.81331   0.86178    0.000
 6752.00    0.77677   0.86236    0.000
 6753.00    0.77370   0.86279    0.008
 6754.00    0.76363   0.86378    0.008
 6755.00    0.74852   0.86394    0.008
 6756.00    0.76401   0.86425    0.008
 6757.00    0.79878   0.86499    0.008
 6758.00    0.82437   0.86474    0.008
 6759.00    0.84491   0.86480    0.008
 6760.00    0.83902   0.86557    0.009
 6761.00    0.82046   0.86544    0.009
 6762.00    0.91613   0.86527    0.009
 6763.00    1.05905   0.86590    0.009
 6764.00    1.07009   0.86612    0.009
 6765.00    1.03448   0.86613    0.009
 6766.00    1.08349   0.86649    0.009
 6767.00    1.15775   0.86675    0.009
 6768.00    1.15463   0.86676    0.009
 6769.00    1.13234   0.86672    0.009
 6770.00    0.98181   0.86674    0.009
 6771.00    0.80555   0.86649    0.008
 6772.00    0.79360   0.86599    0.008
 6773.00    0.80746   0.86552    0.008
 6774.00    0.86446   0.86480    0.008
 6775.00    0.92648   0.86397    0.008
 6776.00    0.89933   0.86337    0.008
 6777.00    0.86514   0.86244    0.008
 6778.00    0.88724   0.86152    0.008
 6779.00    0.91178   0.86120    0.008
 6780.00    0.93696   0.86050    0.008
 6781.00    0.96228   0.85960    0.008
 6782.00    0.99403   0.85958    0.008
 6783.00    1.02111   0.85944    0.008
 6784.00    0.96365   0.85883    0.008
 6785.00    0.90501   0.85907    0.008
 6786.00    0.83348   0.85936    0.008
 6787.00    0.77342   0.85920    0.008
 6788.00    0.80158   0.85976    0.008
 6789.00    0.82706   0.86005    0.008
 6790.00    0.83696   0.86026    0.009
 6791.00    0.84597   0.86103    0.009
 6792.00    0.85086   0.86106    0.009
 6793.00    0.86800   0.86158    0.009
 6794.00    0.93149   0.86224    0.009
 6795.00    1.01230   0.86177    0.008
 6796.00    1.14779   0.86251    0.008
 6797.00    1.20342   0.86295    0.008
 6798.00    1.04517   0.86214    0.008
 6799.00    0.90916   0.86300    0.008
 6800.00    0.82428   0.86313    0.008
 6801.00    0.77934   0.86234    0.008
 6802.00    0.81380   0.86310    0.008
 6803.00    0.84886   0.86289    0.008
 6804.00    0.88496   0.86262    0.008
 6805.00    0.90323   0.86315    0.008
 6806.00    0.89446   0.86256    0.008
 6807.00    0.89744   0.86282    0.008
 6808.00    0.91608   0.86341    0.008
 6809.00    0.89229   0.86294    0.008
 6810.00    0.81870   0.86342    0.008
 6811.00    0.73474   0.86374    0.008
 6812.00    0.64004   0.86358    0.009
 6813.00    0.62366   0.86426    0.009
 6814.00    0.67879   0.86454    0.009
 6815.00    0.73379   0.86454    0.009
 6816.00    0.78871   0.86494    0.009
 6817.00    0.84286   0.86518    0.009
 6818.00    0.89647   0.86527    0.008
 6819.00    0.93204   0.86525    0.008
 6820.00    0.95639   0.86523    0.008
 6821.00    0.97067   0.86525    0.008
 6822.00    0.97948   0.86523    0.008
 6823.00    0.96561   0.86495    0.008
 6824.00    0.94106   0.86443    0.008
 6825.00    0.92452   0.86421    0.008
 6826.00    0.91123   0.86377    0.008
 6827.00    0.89704   0.86297    0.008
 6828.00    0.88255   0.86259    0.008
 6829.00    0.84459   0.86185    0.008
 6830.00    0.79977   0.86095    0.008
 6831.00    0.87871   0.86058    0.008
 6832.00    0.98764   0.85975    0.008
 6833.00    0.94291   0.85913    0.008
 6834.00    0.86812   0.85885    0.008
 6835.00    0.89480   0.85824    0.008
 6836.00    0.93695   0.85822    0.009
 6837.00    0.81591   0.85796    0.009
 6838.00    0.67655   0.85743    0.009
 6839.00    0.76373   0.85766    0.009
 6840.00    0.86784   0.85737    0.009
 6841.00    0.94444   0.85712    0.009
 6842.00    1.01995   0.85727    0.009
 6843.00    1.03042   0.85656    0.008
 6844.00    1.03951   0.85660    0.008
 6845.00    1.01144   0.85661    0.008
 6846.00    0.98259   0.85538    0.008
 6847.00    0.94064   0.85552    0.008
 6848.00    0.90177   0.85556    0.008
 6849.00    0.89494   0.85428    0.008
 6850.00    0.88089   0.85440    0.008
 6851.00    0.81320   0.85447    0.008
 6852.00    0.76175   0.85355    0.008
 6853.00    0.80231   0.85354    0.008
 6854.00    0.83929   0.85371    0.008
 6855.00    0.86016   0.85355    0.008
 6856.00    0.84701   0.85357    0.008
 6857.00    0.70792   0.85362    0.008
 6858.00    0.63490   0.85399    0.008
 6859.00    0.76656   0.85418    0.008
 6860.00    0.85485   0.85413    0.009
 6861.00    0.82904   0.85479    0.008
 6862.00    0.81945   0.85532    0.008
 6863.00    0.84652   0.85526    0.008
 6864.00    0.84666   0.85584    0.008
 6865.00    0.79407   0.85661    0.008
 6866.00    0.74359   0.85679    0.008
 6867.00    0.69670   0.85720    0.008
 6868.00    0.68983   0.85793    0.008
 6869.00    0.74279   0.85845    0.008
 6870.00    0.76151   0.85879    0.008
 6871.00    0.73525   0.85923    0.008
 6872.00    0.77179   0.85998    0.008
 6873.00    0.88099   0.86049    0.008
 6874.00    0.93947   0.86064    0.008
 6875.00    0.94619   0.86156    0.008
 6876.00    0.94994   0.86244    0.008
 6877.00    0.95102   0.86249    0.008
 6878.00    0.90795   0.86336    0.008
 6879.00    0.82985   0.86447    0.008
 6880.00    0.82967   0.86469    0.008
 6881.00    0.88387   0.86549    0.008
 6882.00    0.91877   0.86651    0.009
 6883.00    0.94186   0.86694    0.009
 6884.00    0.82870   0.86770    0.008
 6885.00    0.64273   0.86843    0.008
 6886.00    0.65156   0.86896    0.008
 6887.00    0.75075   0.86971    0.008
 6888.00    0.77274   0.87005    0.008
 6889.00    0.76388   0.87056    0.008
 6890.00    0.72398   0.87131    0.008
 6891.00    0.67352   0.87149    0.008
 6892.00    0.73385   0.87191    0.008
 6893.00    0.82596   0.87240    0.008
 6894.00    0.80632   0.87260    0.008
 6895.00    0.76023   0.87305    0.008
 6896.00    0.80744   0.87313    0.008
 6897.00    0.87243   0.87333    0.008
 6898.00    0.82844   0.87376    0.008
 6899.00    0.76834   0.87328    0.008
 6900.00    0.81445   0.87350    0.009
 6901.00    0.87202   0.87377    0.009
 6902.00    0.84411   0.87271    0.009
 6903.00    0.81015   0.87293    0.009
 6904.00    0.91179   0.87298    0.009
 6905.00    1.01830   0.87169    0.009
 6906.00    0.94804   0.87191    0.009
 6907.00    0.87707   0.87164    0.009
 6908.00    0.80206   0.87055    0.008
 6909.00    0.73198   0.87081    0.008
 6910.00    0.73999   0.87035    0.008
 6911.00    0.74954   0.86970    0.008
 6912.00    0.77453   0.86992    0.008
 6913.00    0.78971   0.86941    0.008
 6914.00    0.73441   0.86925    0.008
 6915.00    0.69872   0.86960    0.008
 6916.00    0.77122   0.86934    0.008
 6917.00    0.84222   0.86955    0.008
 6918.00    0.90661   0.86976    0.008
 6919.00    0.92710   0.86981    0.008
 6920.00    0.78848   0.87033    0.008
 6921.00    0.70919   0.87030    0.008
 6922.00    0.81020   0.87066    0.009
 6923.00    0.85299   0.87142    0.009
 6924.00    0.74534   0.87127    0.009
 6925.00    0.69981   0.87176    0.009
 6926.00    0.79234   0.87245    0.009
 6927.00    0.86130   0.87220    0.009
 6928.00    0.88483   0.87282    0.009
 6929.00    0.89198   0.87334    0.009
 6930.00    0.87161   0.87286    0.009
 6931.00    0.82045   0.87353    0.009
 6932.00    0.72396   0.87386    0.009
 6933.00    0.72476   0.87307    0.009
 6934.00    0.85156   0.87377    0.009
 6935.00    0.93209   0.87411    0.009
 6936.00    0.95982   0.87316    0.009
 6937.00    0.95826   0.87383    0.009
 6938.00    0.92724   0.87414    0.009
 6939.00    0.91238   0.87314    0.009
 6940.00    0.91188   0.87386    0.009
 6941.00    0.89959   0.87426    0.009
 6942.00    0.87807   0.87351    0.009
 6943.00    0.88250   0.87432    0.009
 6944.00    0.90477   0.87480    0.009
 6945.00    0.89152   0.87445    0.009
 6946.00    0.85687   0.87543    0.009
 6947.00    0.82414   0.87590    0.009
 6948.00    0.79244   0.87591    0.009
 6949.00    0.74703   0.87710    0.009
 6950.00    0.69537   0.87753    0.009
 6951.00    0.69287   0.87769    0.009
 6952.00    0.70968   0.87897    0.009
 6953.00    0.71727   0.87935    0.009
 6954.00    0.72178   0.87941    0.009
 6955.00    0.71427   0.88051    0.009
 6956.00    0.70337   0.88069    0.009
 6957.00    0.66706   0.88050    0.009
 6958.00    0.62488   0.88119    0.009
 6959.00    0.71278   0.88098    0.009
 6960.00    0.82483   0.88036    0.009
 6961.00    0.85933   0.88053    0.009
 6962.00    0.88274   0.88001    0.009
 6963.00    0.89914   0.87887    0.009
 6964.00    0.91481   0.87843    0.009
 6965.00    0.91241   0.87791    0.009
 6966.00    0.90881   0.87665    0.009
 6967.00    0.94662   0.87589    0.009
 6968.00    0.98558   0.87560    0.009
 6969.00    0.24384   0.87466    0.009
 6970.00   -0.45562   0.87410    0.000
 6971.00    0.14074   0.87422    0.018
 6972.00    0.70749   0.87386   -1.000
 6973.00    0.83353   0.87388   -1.000
 6974.00    0.93537   0.87442   -1.000
 6975.00    0.80479   0.87465   -1.000
 6976.00    0.71479   0.87528   -1.000
 6977.00    0.90712   0.87614   -1.000
 6978.00    1.04965   0.87667   -1.000
 6979.00    0.92486   0.87750   -1.000
 6980.00    0.84284   0.87833   -1.000
 6981.00    0.94502   0.87882   -1.000
 6982.00    1.01322   0.87949   -1.000
 6983.00    0.96079   0.88006   -1.000
 6984.00    0.91951   0.88019   -1.000
 6985.00    0.91150   0.88036   -1.000
 6986.00    0.86959   0.88062   -1.000
 6987.00    0.74156   0.88049   -1.000
 6988.00    0.69261   0.88022   -1.000
 6989.00    0.81655   0.88011   -1.000
 6990.00    0.91777   0.87972   -1.000
 6991.00    0.97586   0.87924   -1.000
 6992.00    0.96073   0.87893   -1.000
 6993.00    0.82438   0.87841   -1.000
 6994.00    0.77644   0.87799   -1.000
 6995.00    0.85685   0.87761   -1.000
 6996.00    0.94231   0.87707   -1.000
 6997.00    1.03423   0.87681   -1.000
 6998.00    1.04323   0.87639   -1.000
 6999.00    0.95896   0.87597   -1.000
 7000.00    0.83472   0.87597   -1.000
 7001.00    0.67080   0.87537   -1.000
 7002.00    0.60477   0.87504   -1.000
 7003.00    0.62438   0.87536   -1.000
 7004.00    0.66741   0.87473   -1.000
 7005.00    0.72850   0.87450   -1.000
 7006.00    0.69469   0.87494   -1.000
 7007.00    0.59656   0.87436   -1.000
 7008.00    0.60278   0.87433   -1.000
 7009.00    0.67097   0.87481   -1.000
 7010.00    0.65884   0.87445   -1.000
 7011.00    0.60512   0.87479   -1.000
 7012.00    0.61742   0.87530   -1.000
 7013.00    0.65935   0.87524   -1.000
 7014.00    0.64579   0.87586   -1.000
 7015.00    0.61082   0.87647   -1.000
 7016.00    0.66009   0.87677   -1.000
 7017.00    0.73701   0.87751   -1.000
 7018.00    0.78811   0.87829   -1.000
 7019.00    0.83211   0.87892   -1.000
 7020.00    0.84258   0.87954   -1.000
 7021.00    0.84548   0.88051   -1.000
 7022.00    0.76991   0.88152   -1.000
 7023.00    0.68016   0.88198   -1.000
 7024.00    0.72569   0.88311   -1.000
 7025.00    0.78995   0.88439   -1.000
 7026.00    0.83723   0.88475   -1.000
 7027.00    0.88282   0.88606   -1.000
 7028.00    0.78342   0.88750   -1.000
 7029.00    0.67494   0.88784   -1.000
 7030.00    0.62735   0.88927   -1.000
 7031.00    0.58218   0.89061   -1.000
 7032.00    0.72132   0.89088   -1.000
 7033.00    0.85421   0.89223   -1.000
 7034.00    0.81543   0.89307   -1.000
 7035.00    0.78674   0.89299   -1.000
 7036.00    0.89975   0.89383   -1.000
 7037.00    0.99492   0.89369   -1.000
 7038.00    0.92550   0.89288   -1.000
 7039.00    0.86134   0.89277   -1.000
 7040.00    0.83258   0.89140   -1.000
 7041.00    0.80228   0.88957   -1.000
 7042.00    0.76388   0.88820   -1.000
 7043.00    0.73343   0.88571   -1.000
 7044.00    0.73649   0.88302   -1.000
 7045.00    0.73596   0.88055   -1.000
 7046.00    0.72290   0.87746   -1.000
 7047.00    0.71658   0.87438   -1.000
 7048.00    0.72992   0.87133   -1.000
 7049.00    0.75966   0.86841   -1.000
 7050.00    0.83028   0.86552   -2.000
 7051.00    0.87757   0.86259   -2.000
 7052.00    0.87467   0.86045   -2.000
 7053.00    0.88414   0.85821   -2.000
 7054.00    0.91669   0.85596   -2.000
 7055.00    0.87973   0.85489   -2.000
 7056.00    0.72941   0.85346   -2.000
 7057.00    0.69444   0.85218   -2.000
 7058.00    0.82448   0.85211   -2.000
 7059.00    0.87128   0.85141   -2.000
 7060.00    0.81336   0.85103   -2.000
 7061.00    0.79096   0.85162   -2.000
 7062.00    0.80795   0.85140   -2.000
 7063.00    0.76730   0.85155   -2.000
 7064.00    0.67028   0.85224   -2.000
 7065.00    0.63517   0.85218   -2.000
 7066.00    0.65346   0.85229   -2.000
 7067.00    0.73231   0.85250   -2.000
 7068.00    0.85717   0.85216   -2.000
 7069.00    0.88373   0.85160   -2.000
 7070.00    0.84468   0.85089   -2.000
 7071.00    0.78159   0.84995   -2.000
 7072.00    0.70445   0.84830   -2.000
 7073.00    0.78145   0.84654   -2.000
 7074.00    0.93703   0.84490   -2.000
 7075.00    0.92688   0.84218   -2.000
 7076.00    0.84355   0.83966   -2.000
 7077.00    0.81970   0.83755   -2.000
 7078.00    0.81841   0.83425   -2.000
 7079.00    0.89806   0.83160   -2.000
 7080.00    1.00378   0.82949   -2.000
 7081.00    0.91004   0.82635   -2.000
 7082.00    0.76257   0.82424   -2.000
 7083.00    0.75833   0.82262   -2.000
 7084.00    0.78573   0.82032   -2.000
 7085.00    0.91526   0.81915   -2.000
 7086.00    1.06273   0.81834   -2.000
 7087.00    1.05230   0.81721   -2.000
 7088.00    1.02071   0.81701   -2.000
 7089.00    0.90864   0.81703   -2.000
 7090.00    0.78891   0.81696   -2.000
 7091.00    0.75215   0.81746   -2.000
 7092.00    0.72025   0.81806   -2.000
 7093.00    0.82745   0.81867   -2.000
 7094.00    0.93696   0.81947   -2.000
 7095.00    0.89575   0.82033   -2.000
 7096.00    0.85804   0.82118   -2.000
 7097.00    0.90756   0.82198   -2.000
 7098.00    0.94831   0.82282   -2.000
 7099.00    0.87264   0.82361   -2.000
 7100.00    0.81371   0.82426   -2.000
 7101.00    0.90310   0.82491   -2.000
 7102.00    0.97621   0.82552   -2.000
 7103.00    0.94299   0.82599   -2.000
 7104.00    0.93142   0.82635   -2.000
 7105.00    1.03018   0.82674   -2.000
 7106.00    1.06515   0.82698   -2.000
 7107.00    0.83761   0.82696   -2.000
 7108.00    0.66461   0.82705   -2.000
 7109.00    0.67751   0.82697   -2.000
 7110.00    0.69802   0.82642   -2.000
 7111.00    0.74035   0.82613   -2.000
 7112.00    0.77467   0.82556   -2.000
 7113.00    0.78934   0.82446   -2.000
 7114.00    0.79140   0.82376   -2.000
 7115.00    0.76679   0.82265   -2.000
 7116.00    0.75006   0.82118   -2.000
 7117.00    0.74781   0.82022   -2.000
 7118.00    0.73340   0.81875   -2.000
 7119.00    0.69944   0.81729   -2.000
 7120.00    0.71387   0.81638   -2.000
 7121.00    0.79652   0.81489   -2.000
 7122.00    0.88808   0.81391   -2.000
 7123.00    0.99067   0.81330   -2.000
 7124.00    0.85672   0.81213   -2.000
 7125.00    0.46415   0.81192   -2.000
 7126.00    0.41463   0.81174   -2.000
 7127.00    0.69594   0.81100   -2.000
 7128.00    0.99255   0.81156   -2.000
 7129.00    1.30217   0.81171   -2.000
 7130.00    1.29222   0.81130   -2.000
 7131.00    1.04295   0.81241   -2.000
 7132.00    0.85859   0.81269   -2.000
 7133.00    0.71693   0.81243   -2.000
 7134.00    0.74162   0.81383   -2.000
 7135.00    0.86212   0.81412   -2.000
 7136.00    0.98615   0.81392   -2.000
 7137.00    1.11194   0.81545   -2.000
 7138.00    1.00538   0.81578   -2.000
 7139.00    0.79793   0.81568   -2.000
 7140.00    0.64862   0.81726   -2.000
 7141.00    0.52098   0.81772   -2.000
 7142.00    0.49162   0.81779   -2.000
 7143.00    0.49329   0.81931   -2.000
 7144.00    0.53299   0.81991   -2.000
 7145.00    0.58271   0.82012   -2.000
 7146.00    0.71721   0.82137   -2.000
 7147.00    0.86999   0.82202   -2.000
 7148.00    0.73117   0.82219   -2.000
 7149.00    0.54252   0.82299   -2.000
 7150.00    0.49864   0.82353   -2.000
 7151.00    0.47350   0.82356   -2.000
 7152.00    0.62971   0.82385   -2.000
 7153.00    0.80239   0.82426   -2.000
 7154.00    0.71069   0.82418   -2.000
 7155.00    0.60453   0.82415   -2.000
 7156.00    0.80499   0.82454   -2.000
 7157.00    1.00728   0.82452   -2.000
 7158.00    0.79025   0.82442   -2.000
 7159.00    0.57769   0.82491   -2.000
 7160.00    0.46657   0.82504   -2.000
 7161.00    0.38343   0.82503   -2.000
 7162.00    0.65269   0.82561   -2.000
 7163.00    0.92244   0.82583   -2.000
 7164.00    1.19627   0.82585   -2.000
 7165.00    1.44704   0.82637   -2.000
 7166.00    1.55164   0.82645   -2.000
 7167.00    1.53086   0.82638   -2.000
 7168.00    0.88757   0.82665   -2.000
 7169.00    0.39366   0.82641   -2.000
 7170.00    0.50104   0.82620   -2.000
 7171.00    0.64843   0.82614   -2.000
 7172.00    0.92949   0.82555   -2.000
 7173.00    1.10637   0.82531   -2.000
 7174.00    0.98938   0.82499   -2.000
 7175.00    0.84104   0.82420   -2.000
 7176.00    0.61708   0.82410   -2.000
 7177.00    0.48000   0.82369   -2.000
 7178.00    0.52383   0.82291   -2.000
 7179.00    0.55763   0.82308   -2.000
 7180.00    0.57327   0.82275   -2.000
 7181.00    0.61490   0.82214   -2.000
 7182.00    0.69768   0.82260   -2.000
 7183.00    0.76105   0.82243   -2.000
 7184.00    0.79743   0.82205   -2.000
 7185.00    0.81091   0.82266   -2.000
 7186.00    0.79640   0.82265   -2.000
 7187.00    0.82848   0.82244   -2.000
 7188.00    0.91078   0.82300   -2.000
 7189.00    0.83150   0.82304   -2.000
 7190.00    0.59857   0.82293   -2.000
 7191.00    0.55023   0.82326   -2.000
 7192.00    0.65664   0.82327   -2.000
 7193.00    0.61398   0.82327   -2.000
 7194.00    0.46127   0.82333   -2.000
 7195.00    0.45416   0.82331   -2.000
 7196.00    0.54144   0.82354   -2.000
 7197.00    0.66028   0.82344   -2.000
 7198.00    0.79704   0.82350   -2.000
 7199.00    0.70623   0.82412   -2.000
 7200.00    0.50303   0.82406   -2.000
 7201.00    0.41749   0.82435   -2.000
 7202.00    0.38218   0.82545   -2.000
 7203.00    0.45086   0.82563   -2.000
 7204.00    0.55758   0.82622   -2.000
 7205.00    0.74477   0.82773   -2.000
 7206.00    0.95689   0.82828   -2.000
 7207.00    0.69309   0.82910   -2.000
 7208.00    0.30644   0.83082   -2.000
 7209.00    0.42275   0.83176   -2.000
 7210.00    0.64484   0.83270   -2.000
 7211.00    0.65337   0.83441   -2.000
 7212.00    0.62642   0.83568   -2.000
 7213.00    0.61815   0.83665   -2.000
 7214.00    0.61222   0.83820   -2.000
 7215.00    0.45235   0.83970   -2.000
 7216.00    0.27915   0.84063   -2.000
 7217.00    0.47274   0.84195   -2.000
 7218.00    0.68497   0.84353   -2.000
